He 2 1215.23A  relative to Inci 1215.00A scaled to 1215A.
Hden   Phi(H)  Eq_Width (A)
 7.000	17.000	1.0781e-02
 7.000	17.250	1.0759e-02
 7.000	17.500	1.0615e-02
 7.000	17.750	1.0169e-02
 7.000	18.000	4.7540e-03
 7.000	18.250	1.4215e-03
 7.000	18.500	2.5745e-04
 7.000	18.750	7.4815e-05
 7.000	19.000	2.4198e-05
 7.000	19.250	3.7037e-06
 7.000	19.500	1.0000e-07
 7.000	19.750	1.0000e-07
 7.000	20.000	1.0000e-07
 7.000	20.250	1.0000e-07
 7.000	20.500	1.0000e-07
 7.000	20.750	1.0000e-07
 7.000	21.000	1.0000e-07
 7.000	21.250	1.0000e-07
 7.000	21.500	1.0000e-07
 7.000	21.750	1.0000e-07
 7.000	22.000	1.0000e-07
 7.000	22.250	1.0000e-07
 7.000	22.500	1.0000e-07
 7.000	22.750	1.0000e-07
 7.000	23.000	1.0000e-07
 7.000	23.250	1.0000e-07
 7.000	23.500	1.0000e-07
 7.000	23.750	1.0000e-07
 7.000	24.000	1.0000e-07
 7.250	17.000	1.0609e-02
 7.250	17.250	1.0675e-02
 7.250	17.500	1.0656e-02
 7.250	17.750	1.0534e-02
 7.250	18.000	1.0053e-02
 7.250	18.250	4.7118e-03
 7.250	18.500	1.4105e-03
 7.250	18.750	2.5794e-04
 7.250	19.000	7.5062e-05
 7.250	19.250	2.4280e-05
 7.250	19.500	3.7037e-06
 7.250	19.750	1.0000e-07
 7.250	20.000	1.0000e-07
 7.250	20.250	1.0000e-07
 7.250	20.500	1.0000e-07
 7.250	20.750	1.0000e-07
 7.250	21.000	1.0000e-07
 7.250	21.250	1.0000e-07
 7.250	21.500	1.0000e-07
 7.250	21.750	1.0000e-07
 7.250	22.000	1.0000e-07
 7.250	22.250	1.0000e-07
 7.250	22.500	1.0000e-07
 7.250	22.750	1.0000e-07
 7.250	23.000	1.0000e-07
 7.250	23.250	1.0000e-07
 7.250	23.500	1.0000e-07
 7.250	23.750	1.0000e-07
 7.250	24.000	1.0000e-07
 7.500	17.000	1.0365e-02
 7.500	17.250	1.0460e-02
 7.500	17.500	1.0533e-02
 7.500	17.750	1.0517e-02
 7.500	18.000	1.0408e-02
 7.500	18.250	9.8772e-03
 7.500	18.500	4.7007e-03
 7.500	18.750	1.4053e-03
 7.500	19.000	2.5868e-04
 7.500	19.250	7.5391e-05
 7.500	19.500	2.4444e-05
 7.500	19.750	3.7037e-06
 7.500	20.000	1.0000e-07
 7.500	20.250	1.0000e-07
 7.500	20.500	1.0000e-07
 7.500	20.750	1.0000e-07
 7.500	21.000	1.0000e-07
 7.500	21.250	1.0000e-07
 7.500	21.500	1.0000e-07
 7.500	21.750	1.0000e-07
 7.500	22.000	1.0000e-07
 7.500	22.250	1.0000e-07
 7.500	22.500	1.0000e-07
 7.500	22.750	1.0000e-07
 7.500	23.000	1.0000e-07
 7.500	23.250	1.0000e-07
 7.500	23.500	1.0000e-07
 7.500	23.750	1.0000e-07
 7.500	24.000	1.0000e-07
 7.750	17.000	1.0054e-02
 7.750	17.250	1.0179e-02
 7.750	17.500	1.0276e-02
 7.750	17.750	1.0353e-02
 7.750	18.000	1.0334e-02
 7.750	18.250	1.0220e-02
 7.750	18.500	9.6267e-03
 7.750	18.750	4.6626e-03
 7.750	19.000	1.3929e-03
 7.750	19.250	2.5909e-04
 7.750	19.500	7.5720e-05
 7.750	19.750	2.4609e-05
 7.750	20.000	3.7860e-06
 7.750	20.250	1.0000e-07
 7.750	20.500	1.0000e-07
 7.750	20.750	1.0000e-07
 7.750	21.000	1.0000e-07
 7.750	21.250	1.0000e-07
 7.750	21.500	1.0000e-07
 7.750	21.750	1.0000e-07
 7.750	22.000	1.0000e-07
 7.750	22.250	1.0000e-07
 7.750	22.500	1.0000e-07
 7.750	22.750	1.0000e-07
 7.750	23.000	1.0000e-07
 7.750	23.250	1.0000e-07
 7.750	23.500	1.0000e-07
 7.750	23.750	1.0000e-07
 7.750	24.000	1.0000e-07
 8.000	17.000	9.5432e-03
 8.000	17.250	9.7054e-03
 8.000	17.500	9.8447e-03
 8.000	17.750	9.9670e-03
 8.000	18.000	1.0067e-02
 8.000	18.250	1.0053e-02
 8.000	18.500	9.9142e-03
 8.000	18.750	9.2618e-03
 8.000	19.000	4.5995e-03
 8.000	19.250	1.3763e-03
 8.000	19.500	2.5951e-04
 8.000	19.750	7.6049e-05
 8.000	20.000	2.4691e-05
 8.000	20.250	3.7860e-06
 8.000	20.500	1.0000e-07
 8.000	20.750	1.0000e-07
 8.000	21.000	1.0000e-07
 8.000	21.250	1.0000e-07
 8.000	21.500	1.0000e-07
 8.000	21.750	1.0000e-07
 8.000	22.000	1.0000e-07
 8.000	22.250	1.0000e-07
 8.000	22.500	1.0000e-07
 8.000	22.750	1.0000e-07
 8.000	23.000	1.0000e-07
 8.000	23.250	1.0000e-07
 8.000	23.500	1.0000e-07
 8.000	23.750	1.0000e-07
 8.000	24.000	1.0000e-07
 8.250	17.000	9.1525e-03
 8.250	17.250	9.3213e-03
 8.250	17.500	9.4733e-03
 8.250	17.750	9.5989e-03
 8.250	18.000	9.7061e-03
 8.250	18.250	9.7898e-03
 8.250	18.500	9.7512e-03
 8.250	18.750	9.5723e-03
 8.250	19.000	8.8610e-03
 8.250	19.250	4.5491e-03
 8.250	19.500	1.3594e-03
 8.250	19.750	2.5959e-04
 8.250	20.000	7.6296e-05
 8.250	20.250	2.4856e-05
 8.250	20.500	3.7860e-06
 8.250	20.750	1.0000e-07
 8.250	21.000	1.0000e-07
 8.250	21.250	1.0000e-07
 8.250	21.500	1.0000e-07
 8.250	21.750	1.0000e-07
 8.250	22.000	1.0000e-07
 8.250	22.250	1.0000e-07
 8.250	22.500	1.0000e-07
 8.250	22.750	1.0000e-07
 8.250	23.000	1.0000e-07
 8.250	23.250	1.0000e-07
 8.250	23.500	1.0000e-07
 8.250	23.750	1.0000e-07
 8.250	24.000	1.0000e-07
 8.500	17.000	8.7613e-03
 8.500	17.250	8.9319e-03
 8.500	17.500	9.0901e-03
 8.500	17.750	9.2217e-03
 8.500	18.000	9.3220e-03
 8.500	18.250	9.3981e-03
 8.500	18.500	9.4495e-03
 8.500	18.750	9.3738e-03
 8.500	19.000	9.1465e-03
 8.500	19.250	8.3617e-03
 8.500	19.500	4.4723e-03
 8.500	19.750	1.3307e-03
 8.500	20.000	2.5934e-04
 8.500	20.250	7.6543e-05
 8.500	20.500	2.4938e-05
 8.500	20.750	3.8683e-06
 8.500	21.000	1.0000e-07
 8.500	21.250	1.0000e-07
 8.500	21.500	1.0000e-07
 8.500	21.750	1.0000e-07
 8.500	22.000	1.0000e-07
 8.500	22.250	1.0000e-07
 8.500	22.500	1.0000e-07
 8.500	22.750	1.0000e-07
 8.500	23.000	1.0000e-07
 8.500	23.250	1.0000e-07
 8.500	23.500	1.0000e-07
 8.500	23.750	1.0000e-07
 8.500	24.000	1.0000e-07
 8.750	17.000	8.3673e-03
 8.750	17.250	8.5509e-03
 8.750	17.500	8.7165e-03
 8.750	17.750	8.8507e-03
 8.750	18.000	8.9533e-03
 8.750	18.250	9.0109e-03
 8.750	18.500	9.0360e-03
 8.750	18.750	9.0343e-03
 8.750	19.000	8.9077e-03
 8.750	19.250	8.6142e-03
 8.750	19.500	7.7549e-03
 8.750	19.750	4.3611e-03
 8.750	20.000	1.3070e-03
 8.750	20.250	2.5835e-04
 8.750	20.500	7.6626e-05
 8.750	20.750	2.5021e-05
 8.750	21.000	3.8683e-06
 8.750	21.250	1.0000e-07
 8.750	21.500	1.0000e-07
 8.750	21.750	1.0000e-07
 8.750	22.000	1.0000e-07
 8.750	22.250	1.0000e-07
 8.750	22.500	1.0000e-07
 8.750	22.750	1.0000e-07
 8.750	23.000	1.0000e-07
 8.750	23.250	1.0000e-07
 8.750	23.500	1.0000e-07
 8.750	23.750	1.0000e-07
 8.750	24.000	1.0000e-07
 9.000	17.000	7.9728e-03
 9.000	17.250	8.1744e-03
 9.000	17.500	8.3550e-03
 9.000	17.750	8.5028e-03
 9.000	18.000	8.6057e-03
 9.000	18.250	8.6595e-03
 9.000	18.500	8.6539e-03
 9.000	18.750	8.6067e-03
 9.000	19.000	8.5294e-03
 9.000	19.250	8.3373e-03
 9.000	19.500	7.9737e-03
 9.000	19.750	7.0473e-03
 9.000	20.000	4.2251e-03
 9.000	20.250	1.2727e-03
 9.000	20.500	2.5687e-04
 9.000	20.750	7.6626e-05
 9.000	21.000	2.5021e-05
 9.000	21.250	3.8683e-06
 9.000	21.500	1.0000e-07
 9.000	21.750	1.0000e-07
 9.000	22.000	1.0000e-07
 9.000	22.250	1.0000e-07
 9.000	22.500	1.0000e-07
 9.000	22.750	1.0000e-07
 9.000	23.000	1.0000e-07
 9.000	23.250	1.0000e-07
 9.000	23.500	1.0000e-07
 9.000	23.750	1.0000e-07
 9.000	24.000	1.0000e-07
 9.250	17.000	7.5477e-03
 9.250	17.250	7.7901e-03
 9.250	17.500	8.0023e-03
 9.250	17.750	8.1697e-03
 9.250	18.000	8.2864e-03
 9.250	18.250	8.3424e-03
 9.250	18.500	8.3198e-03
 9.250	18.750	8.2240e-03
 9.250	19.000	8.0829e-03
 9.250	19.250	7.9199e-03
 9.250	19.500	7.6556e-03
 9.250	19.750	7.2483e-03
 9.250	20.000	6.3086e-03
 9.250	20.250	4.0651e-03
 9.250	20.500	1.2477e-03
 9.250	20.750	2.5481e-04
 9.250	21.000	7.6543e-05
 9.250	21.250	2.5021e-05
 9.250	21.500	3.8683e-06
 9.250	21.750	1.0000e-07
 9.250	22.000	1.0000e-07
 9.250	22.250	1.0000e-07
 9.250	22.500	1.0000e-07
 9.250	22.750	1.0000e-07
 9.250	23.000	1.0000e-07
 9.250	23.250	1.0000e-07
 9.250	23.500	1.0000e-07
 9.250	23.750	1.0000e-07
 9.250	24.000	1.0000e-07
 9.500	17.000	7.0364e-03
 9.500	17.250	7.3723e-03
 9.500	17.500	7.6318e-03
 9.500	17.750	7.8388e-03
 9.500	18.000	7.9784e-03
 9.500	18.250	8.0411e-03
 9.500	18.500	8.0201e-03
 9.500	18.750	7.8978e-03
 9.500	19.000	7.6850e-03
 9.500	19.250	7.4531e-03
 9.500	19.500	7.2081e-03
 9.500	19.750	6.9316e-03
 9.500	20.000	6.5517e-03
 9.500	20.250	5.6789e-03
 9.500	20.500	3.8732e-03
 9.500	20.750	1.2081e-03
 9.500	21.000	2.5243e-04
 9.500	21.250	7.6296e-05
 9.500	21.500	2.5021e-05
 9.500	21.750	3.8683e-06
 9.500	22.000	1.0000e-07
 9.500	22.250	1.0000e-07
 9.500	22.500	1.0000e-07
 9.500	22.750	1.0000e-07
 9.500	23.000	1.0000e-07
 9.500	23.250	1.0000e-07
 9.500	23.500	1.0000e-07
 9.500	23.750	1.0000e-07
 9.500	24.000	1.0000e-07
 9.750	17.000	6.3398e-03
 9.750	17.250	6.8770e-03
 9.750	17.500	7.2385e-03
 9.750	17.750	7.4912e-03
 9.750	18.000	7.6750e-03
 9.750	18.250	7.7656e-03
 9.750	18.500	7.7459e-03
 9.750	18.750	7.6081e-03
 9.750	19.000	7.3518e-03
 9.750	19.250	7.0454e-03
 9.750	19.500	6.7467e-03
 9.750	19.750	6.4919e-03
 9.750	20.000	6.3009e-03
 9.750	20.250	6.0568e-03
 9.750	20.500	5.3205e-03
 9.750	20.750	3.6297e-03
 9.750	21.000	1.1640e-03
 9.750	21.250	2.5012e-04
 9.750	21.500	7.6543e-05
 9.750	21.750	2.5103e-05
 9.750	22.000	3.8683e-06
 9.750	22.250	1.0000e-07
 9.750	22.500	1.0000e-07
 9.750	22.750	1.0000e-07
 9.750	23.000	1.0000e-07
 9.750	23.250	1.0000e-07
 9.750	23.500	1.0000e-07
 9.750	23.750	1.0000e-07
 9.750	24.000	1.0000e-07
10.000	17.000	5.4328e-03
10.000	17.250	6.2058e-03
10.000	17.500	6.7735e-03
10.000	17.750	7.1386e-03
10.000	18.000	7.3751e-03
10.000	18.250	7.5115e-03
10.000	18.500	7.5133e-03
10.000	18.750	7.3659e-03
10.000	19.000	7.0767e-03
10.000	19.250	6.7211e-03
10.000	19.500	6.3802e-03
10.000	19.750	6.1165e-03
10.000	20.000	5.9849e-03
10.000	20.250	5.9579e-03
10.000	20.500	5.9016e-03
10.000	20.750	5.4770e-03
10.000	21.000	3.2722e-03
10.000	21.250	1.1101e-03
10.000	21.500	2.4798e-04
10.000	21.750	7.7037e-05
10.000	22.000	2.5350e-05
10.000	22.250	3.9506e-06
10.000	22.500	1.0000e-07
10.000	22.750	1.0000e-07
10.000	23.000	1.0000e-07
10.000	23.250	1.0000e-07
10.000	23.500	1.0000e-07
10.000	23.750	1.0000e-07
10.000	24.000	1.0000e-07
10.250	17.000	4.3258e-03
10.250	17.250	5.3148e-03
10.250	17.500	6.1618e-03
10.250	17.750	6.7426e-03
10.250	18.000	7.0970e-03
10.250	18.250	7.2928e-03
10.250	18.500	7.3249e-03
10.250	18.750	7.1859e-03
10.250	19.000	6.8700e-03
10.250	19.250	6.4745e-03
10.250	19.500	6.1057e-03
10.250	19.750	5.8446e-03
10.250	20.000	5.7805e-03
10.250	20.250	5.8477e-03
10.250	20.500	6.0241e-03
10.250	20.750	6.4123e-03
10.250	21.000	6.3338e-03
10.250	21.250	2.9608e-03
10.250	21.500	1.0462e-03
10.250	21.750	2.4551e-04
10.250	22.000	7.7778e-05
10.250	22.250	2.5844e-05
10.250	22.500	3.9506e-06
10.250	22.750	1.0000e-07
10.250	23.000	1.0000e-07
10.250	23.250	1.0000e-07
10.250	23.500	1.0000e-07
10.250	23.750	1.0000e-07
10.250	24.000	1.0000e-07
10.500	17.000	3.2754e-03
10.500	17.250	4.2767e-03
10.500	17.500	5.3515e-03
10.500	17.750	6.2524e-03
10.500	18.000	6.8163e-03
10.500	18.250	7.1105e-03
10.500	18.500	7.1950e-03
10.500	18.750	7.0739e-03
10.500	19.000	6.7522e-03
10.500	19.250	6.3083e-03
10.500	19.500	5.9190e-03
10.500	19.750	5.6845e-03
10.500	20.000	5.6798e-03
10.500	20.250	5.7894e-03
10.500	20.500	6.0905e-03
10.500	20.750	6.7923e-03
10.500	21.000	7.6212e-03
10.500	21.250	7.7560e-03
10.500	21.500	2.8188e-03
10.500	21.750	9.7095e-04
10.500	22.000	2.4280e-04
10.500	22.250	7.8848e-05
10.500	22.500	2.6584e-05
10.500	22.750	4.1152e-06
10.500	23.000	8.2305e-07
10.500	23.250	1.0000e-07
10.500	23.500	1.0000e-07
10.500	23.750	1.0000e-07
10.500	24.000	1.0000e-07
10.750	17.000	2.3952e-03
10.750	17.250	3.2276e-03
10.750	17.500	4.3858e-03
10.750	17.750	5.5718e-03
10.750	18.000	6.4376e-03
10.750	18.250	6.9457e-03
10.750	18.500	7.1105e-03
10.750	18.750	7.0272e-03
10.750	19.000	6.7047e-03
10.750	19.250	6.2342e-03
10.750	19.500	5.7983e-03
10.750	19.750	5.5996e-03
10.750	20.000	5.6397e-03
10.750	20.250	5.7885e-03
10.750	20.500	6.0896e-03
10.750	20.750	7.0119e-03
10.750	21.000	8.2183e-03
10.750	21.250	9.3114e-03
10.750	21.500	9.1283e-03
10.750	21.750	3.0849e-03
10.750	22.000	8.9671e-04
10.750	22.250	2.3967e-04
10.750	22.500	8.0247e-05
10.750	22.750	2.7572e-05
10.750	23.000	4.2798e-06
10.750	23.250	8.2305e-07
10.750	23.500	1.0000e-07
10.750	23.750	1.0000e-07
10.750	24.000	1.0000e-07
11.000	17.000	1.7201e-03
11.000	17.250	2.3155e-03
11.000	17.500	3.3036e-03
11.000	17.750	4.6806e-03
11.000	18.000	5.8929e-03
11.000	18.250	6.6799e-03
11.000	18.500	7.0333e-03
11.000	18.750	7.0333e-03
11.000	19.000	6.7227e-03
11.000	19.250	6.2342e-03
11.000	19.500	5.7491e-03
11.000	19.750	5.5174e-03
11.000	20.000	5.5948e-03
11.000	20.250	5.8076e-03
11.000	20.500	6.1439e-03
11.000	20.750	7.0409e-03
11.000	21.000	8.4492e-03
11.000	21.250	9.6872e-03
11.000	21.500	1.0579e-02
11.000	21.750	9.8306e-03
11.000	22.000	3.2485e-03
11.000	22.250	8.5235e-04
11.000	22.500	2.3556e-04
11.000	22.750	8.1728e-05
11.000	23.000	2.8807e-05
11.000	23.250	4.5267e-06
11.000	23.500	9.0535e-07
11.000	23.750	1.0000e-07
11.000	24.000	1.0000e-07
11.250	17.000	1.2175e-03
11.250	17.250	1.6081e-03
11.250	17.500	2.3095e-03
11.250	17.750	3.5493e-03
11.250	18.000	5.0342e-03
11.250	18.250	6.2188e-03
11.250	18.500	6.8767e-03
11.250	18.750	7.0526e-03
11.250	19.000	6.8004e-03
11.250	19.250	6.2988e-03
11.250	19.500	5.7577e-03
11.250	19.750	5.4647e-03
11.250	20.000	5.5820e-03
11.250	20.250	5.8096e-03
11.250	20.500	6.2366e-03
11.250	20.750	6.9935e-03
11.250	21.000	8.4626e-03
11.250	21.250	9.5725e-03
11.250	21.500	1.0415e-02
11.250	21.750	1.0838e-02
11.250	22.000	9.7406e-03
11.250	22.250	3.9284e-03
11.250	22.500	8.6140e-04
11.250	22.750	2.2881e-04
11.250	23.000	8.2716e-05
11.250	23.250	2.9877e-05
11.250	23.500	4.7737e-06
11.250	23.750	9.0535e-07
11.250	24.000	1.0000e-07
11.500	17.000	8.4922e-04
11.500	17.250	1.0956e-03
11.500	17.500	1.5314e-03
11.500	17.750	2.4026e-03
11.500	18.000	3.8456e-03
11.500	18.250	5.4274e-03
11.500	18.500	6.5450e-03
11.500	18.750	7.0142e-03
11.500	19.000	6.9095e-03
11.500	19.250	6.4234e-03
11.500	19.500	5.8297e-03
11.500	19.750	5.4505e-03
11.500	20.000	5.5215e-03
11.500	20.250	5.8450e-03
11.500	20.500	6.1802e-03
11.500	20.750	7.0172e-03
11.500	21.000	8.4011e-03
11.500	21.250	9.2902e-03
11.500	21.500	9.7363e-03
11.500	21.750	1.0044e-02
11.500	22.000	1.0109e-02
11.500	22.250	7.5919e-03
11.500	22.500	4.0746e-03
11.500	22.750	9.4313e-04
11.500	23.000	2.1909e-04
11.500	23.250	8.2798e-05
11.500	23.500	3.0453e-05
11.500	23.750	4.8560e-06
11.500	24.000	9.8765e-07
11.750	17.000	5.8551e-04
11.750	17.250	7.3728e-04
11.750	17.500	9.9276e-04
11.750	17.750	1.5181e-03
11.750	18.000	2.5821e-03
11.750	18.250	4.2390e-03
11.750	18.500	5.8935e-03
11.750	18.750	6.8345e-03
11.750	19.000	7.0090e-03
11.750	19.250	6.6044e-03
11.750	19.500	5.9295e-03
11.750	19.750	5.4927e-03
11.750	20.000	5.4782e-03
11.750	20.250	5.8331e-03
11.750	20.500	6.2885e-03
11.750	20.750	7.3583e-03
11.750	21.000	8.0211e-03
11.750	21.250	8.7607e-03
11.750	21.500	8.9714e-03
11.750	21.750	8.8458e-03
11.750	22.000	8.8397e-03
11.750	22.250	8.0592e-03
11.750	22.500	7.8203e-03
11.750	22.750	3.9266e-03
11.750	23.000	1.0895e-03
11.750	23.250	2.0831e-04
11.750	23.500	8.1399e-05
11.750	23.750	3.0206e-05
11.750	24.000	4.8560e-06
12.000	17.000	4.0486e-04
12.000	17.250	4.9704e-04
12.000	17.500	6.4230e-04
12.000	17.750	9.3687e-04
12.000	18.000	1.5883e-03
12.000	18.250	2.9059e-03
12.000	18.500	4.7867e-03
12.000	18.750	6.4108e-03
12.000	19.000	7.0400e-03
12.000	19.250	6.8728e-03
12.000	19.500	6.2059e-03
12.000	19.750	5.5071e-03
12.000	20.000	5.4852e-03
12.000	20.250	5.8331e-03
12.000	20.500	6.3770e-03
12.000	20.750	7.7141e-03
12.000	21.000	8.0680e-03
12.000	21.250	8.3949e-03
12.000	21.500	7.9907e-03
12.000	21.750	7.6924e-03
12.000	22.000	7.3662e-03
12.000	22.250	7.1782e-03
12.000	22.500	5.9183e-03
12.000	22.750	6.4041e-03
12.000	23.000	3.1362e-03
12.000	23.250	1.0149e-03
12.000	23.500	1.9992e-04
12.000	23.750	7.8683e-05
12.000	24.000	2.9053e-05
12.250	17.000	2.8025e-04
12.250	17.250	3.3934e-04
12.250	17.500	4.2321e-04
12.250	17.750	5.8494e-04
12.250	18.000	9.4683e-04
12.250	18.250	1.8035e-03
12.250	18.500	3.4760e-03
12.250	18.750	5.5000e-03
12.250	19.000	6.8123e-03
12.250	19.250	7.1179e-03
12.250	19.500	6.6398e-03
12.250	19.750	5.8618e-03
12.250	20.000	5.3375e-03
12.250	20.250	5.8812e-03
12.250	20.500	6.5020e-03
12.250	20.750	7.7395e-03
12.250	21.000	7.9224e-03
12.250	21.250	7.9380e-03
12.250	21.500	7.3812e-03
12.250	21.750	6.5720e-03
12.250	22.000	6.1136e-03
12.250	22.250	5.7603e-03
12.250	22.500	5.8578e-03
12.250	22.750	4.2728e-03
12.250	23.000	3.7435e-03
12.250	23.250	2.3669e-03
12.250	23.500	8.6214e-04
12.250	23.750	2.0354e-04
12.250	24.000	7.5062e-05
12.500	17.000	1.9531e-04
12.500	17.250	2.3465e-04
12.500	17.500	2.8658e-04
12.500	17.750	3.7613e-04
12.500	18.000	5.7103e-04
12.500	18.250	1.0563e-03
12.500	18.500	2.2258e-03
12.500	18.750	4.2262e-03
12.500	19.000	6.1789e-03
12.500	19.250	7.1420e-03
12.500	19.500	7.0086e-03
12.500	19.750	6.3941e-03
12.500	20.000	5.7676e-03
12.500	20.250	5.5820e-03
12.500	20.500	6.6509e-03
12.500	20.750	7.7603e-03
12.500	21.000	8.4891e-03
12.500	21.250	7.3970e-03
12.500	21.500	6.8636e-03
12.500	21.750	5.9006e-03
12.500	22.000	5.0898e-03
12.500	22.250	4.7765e-03
12.500	22.500	4.9507e-03
12.500	22.750	3.6635e-03
12.500	23.000	5.5916e-03
12.500	23.250	2.7342e-03
12.500	23.500	1.7369e-03
12.500	23.750	7.6864e-04
12.500	24.000	2.0140e-04
12.750	17.000	1.3695e-04
12.750	17.250	1.6453e-04
12.750	17.500	1.9827e-04
12.750	17.750	2.5193e-04
12.750	18.000	3.5745e-04
12.750	18.250	6.1465e-04
12.750	18.500	1.2888e-03
12.750	18.750	2.7819e-03
12.750	19.000	4.8267e-03
12.750	19.250	6.7243e-03
12.750	19.500	7.3077e-03
12.750	19.750	6.9347e-03
12.750	20.000	6.3841e-03
12.750	20.250	6.1285e-03
12.750	20.500	6.3195e-03
12.750	20.750	6.8033e-03
12.750	21.000	7.6381e-03
12.750	21.250	7.5756e-03
12.750	21.500	6.6179e-03
12.750	21.750	5.5412e-03
12.750	22.000	4.5579e-03
12.750	22.250	4.1770e-03
12.750	22.500	4.0895e-03
12.750	22.750	3.5084e-03
12.750	23.000	2.4710e-03
12.750	23.250	3.4306e-03
12.750	23.500	1.6199e-03
12.750	23.750	1.2265e-03
12.750	24.000	5.3490e-04
13.000	17.000	9.6461e-05
13.000	17.250	1.1654e-04
13.000	17.500	1.3942e-04
13.000	17.750	1.7333e-04
13.000	18.000	2.3481e-04
13.000	18.250	3.7119e-04
13.000	18.500	7.2922e-04
13.000	18.750	1.6053e-03
13.000	19.000	3.2471e-03
13.000	19.250	5.4267e-03
13.000	19.500	6.8119e-03
13.000	19.750	7.3877e-03
13.000	20.000	7.0405e-03
13.000	20.250	6.8551e-03
13.000	20.500	7.1534e-03
13.000	20.750	7.5602e-03
13.000	21.000	7.6925e-03
13.000	21.250	7.5737e-03
13.000	21.500	6.5353e-03
13.000	21.750	5.4136e-03
13.000	22.000	4.2866e-03
13.000	22.250	3.5359e-03
13.000	22.500	3.4975e-03
13.000	22.750	3.1496e-03
13.000	23.000	2.8523e-03
13.000	23.250	1.6339e-03
13.000	23.500	2.5544e-03
13.000	23.750	1.3627e-03
13.000	24.000	9.1053e-04
13.250	17.000	6.7737e-05
13.250	17.250	8.3128e-05
13.250	17.500	9.9671e-05
13.250	17.750	1.2189e-04
13.250	18.000	1.6000e-04
13.250	18.250	2.3704e-04
13.250	18.500	4.1720e-04
13.250	18.750	8.6280e-04
13.250	19.000	1.8077e-03
13.250	19.250	3.3255e-03
13.250	19.500	5.1129e-03
13.250	19.750	7.0833e-03
13.250	20.000	7.4546e-03
13.250	20.250	7.3451e-03
13.250	20.500	7.5619e-03
13.250	20.750	8.2579e-03
13.250	21.000	8.4173e-03
13.250	21.250	8.1772e-03
13.250	21.500	6.8513e-03
13.250	21.750	5.4911e-03
13.250	22.000	4.4594e-03
13.250	22.250	3.4312e-03
13.250	22.500	2.7784e-03
13.250	22.750	2.5951e-03
13.250	23.000	3.1015e-03
13.250	23.250	1.5405e-03
13.250	23.500	1.2444e-03
13.250	23.750	1.3617e-03
13.250	24.000	7.7342e-04
13.500	17.000	4.7243e-05
13.500	17.250	5.9177e-05
13.500	17.500	7.1770e-05
13.500	17.750	8.7407e-05
13.500	18.000	1.1218e-04
13.500	18.250	1.5877e-04
13.500	18.500	2.5342e-04
13.500	18.750	4.5835e-04
13.500	19.000	8.9877e-04
13.500	19.250	1.6821e-03
13.500	19.500	2.9457e-03
13.500	19.750	4.3520e-03
13.500	20.000	5.5197e-03
13.500	20.250	6.4458e-03
13.500	20.500	7.1635e-03
13.500	20.750	7.8422e-03
13.500	21.000	7.5781e-03
13.500	21.250	8.2943e-03
13.500	21.500	6.8844e-03
13.500	21.750	5.7294e-03
13.500	22.000	4.3075e-03
13.500	22.250	3.3970e-03
13.500	22.500	2.5275e-03
13.500	22.750	2.1713e-03
13.500	23.000	5.1129e-03
13.500	23.250	2.1583e-03
13.500	23.500	1.3100e-03
13.500	23.750	8.2000e-04
13.500	24.000	7.3663e-04
13.750	17.000	3.2757e-05
13.750	17.250	4.1975e-05
13.750	17.500	5.1687e-05
13.750	17.750	6.3292e-05
13.750	18.000	8.0082e-05
13.750	18.250	1.0864e-04
13.750	18.500	1.6099e-04
13.750	18.750	2.5646e-04
13.750	19.000	4.3202e-04
13.750	19.250	7.3761e-04
13.750	19.500	1.2378e-03
13.750	19.750	1.9728e-03
13.750	20.000	2.9502e-03
13.750	20.250	3.7865e-03
13.750	20.500	4.6734e-03
13.750	20.750	5.4983e-03
13.750	21.000	5.8481e-03
13.750	21.250	5.5154e-03
13.750	21.500	5.8575e-03
13.750	21.750	5.4351e-03
13.750	22.000	4.4940e-03
13.750	22.250	3.6437e-03
13.750	22.500	2.7613e-03
13.750	22.750	2.0751e-03
13.750	23.000	1.5791e-03
13.750	23.250	2.8270e-03
13.750	23.500	1.2402e-03
13.750	23.750	1.2025e-03
13.750	24.000	7.7226e-04
14.000	17.000	2.2469e-05
14.000	17.250	2.9547e-05
14.000	17.500	3.7119e-05
14.000	17.750	4.5844e-05
14.000	18.000	5.7613e-05
14.000	18.250	7.5391e-05
14.000	18.500	1.0387e-04
14.000	18.750	1.4831e-04
14.000	19.000	2.1770e-04
14.000	19.250	3.2066e-04
14.000	19.500	4.8148e-04
14.000	19.750	7.2230e-04
14.000	20.000	1.0621e-03
14.000	20.250	1.4885e-03
14.000	20.500	1.9580e-03
14.000	20.750	2.3002e-03
14.000	21.000	2.8207e-03
14.000	21.250	3.3004e-03
14.000	21.500	3.1838e-03
14.000	21.750	3.6337e-03
14.000	22.000	3.8533e-03
14.000	22.250	3.7821e-03
14.000	22.500	3.2881e-03
14.000	22.750	2.5528e-03
14.000	23.000	1.8889e-03
14.000	23.250	1.3929e-03
14.000	23.500	2.1201e-03
14.000	23.750	2.0730e-03
14.000	24.000	9.5177e-04
