Inwd 1085.03A  relative to Inci 1215.00A scaled to 1215A.
Hden   Phi(H)  Eq_Width (A)
 7.000	17.000	5.0832e-03
 7.000	17.250	5.0727e-03
 7.000	17.500	2.8065e-03
 7.000	17.750	2.7220e-03
 7.000	18.000	1.1374e-03
 7.000	18.250	3.4321e-04
 7.000	18.500	6.3621e-05
 7.000	18.750	1.8025e-05
 7.000	19.000	5.5144e-06
 7.000	19.250	8.2305e-07
 7.000	19.500	1.0000e-07
 7.000	19.750	1.0000e-07
 7.000	20.000	1.0000e-07
 7.000	20.250	1.0000e-07
 7.000	20.500	1.0000e-07
 7.000	20.750	1.0000e-07
 7.000	21.000	1.0000e-07
 7.000	21.250	1.0000e-07
 7.000	21.500	1.0000e-07
 7.000	21.750	1.0000e-07
 7.000	22.000	1.0000e-07
 7.000	22.250	1.0000e-07
 7.000	22.500	1.0000e-07
 7.000	22.750	1.0000e-07
 7.000	23.000	1.0000e-07
 7.000	23.250	1.0000e-07
 7.000	23.500	1.0000e-07
 7.000	23.750	1.0000e-07
 7.000	24.000	1.0000e-07
 7.250	17.000	5.0147e-03
 7.250	17.250	5.0466e-03
 7.250	17.500	5.0370e-03
 7.250	17.750	2.9329e-03
 7.250	18.000	2.8541e-03
 7.250	18.250	1.1265e-03
 7.250	18.500	3.4033e-04
 7.250	18.750	6.3539e-05
 7.250	19.000	1.8025e-05
 7.250	19.250	5.5144e-06
 7.250	19.500	8.2305e-07
 7.250	19.750	1.0000e-07
 7.250	20.000	1.0000e-07
 7.250	20.250	1.0000e-07
 7.250	20.500	1.0000e-07
 7.250	20.750	1.0000e-07
 7.250	21.000	1.0000e-07
 7.250	21.250	1.0000e-07
 7.250	21.500	1.0000e-07
 7.250	21.750	1.0000e-07
 7.250	22.000	1.0000e-07
 7.250	22.250	1.0000e-07
 7.250	22.500	1.0000e-07
 7.250	22.750	1.0000e-07
 7.250	23.000	1.0000e-07
 7.250	23.250	1.0000e-07
 7.250	23.500	1.0000e-07
 7.250	23.750	1.0000e-07
 7.250	24.000	1.0000e-07
 7.500	17.000	4.9093e-03
 7.500	17.250	4.9554e-03
 7.500	17.500	4.9900e-03
 7.500	17.750	4.9831e-03
 7.500	18.000	3.1135e-03
 7.500	18.250	3.0555e-03
 7.500	18.500	1.1234e-03
 7.500	18.750	3.3794e-04
 7.500	19.000	6.3539e-05
 7.500	19.250	1.8025e-05
 7.500	19.500	5.5144e-06
 7.500	19.750	9.0535e-07
 7.500	20.000	1.0000e-07
 7.500	20.250	1.0000e-07
 7.500	20.500	1.0000e-07
 7.500	20.750	1.0000e-07
 7.500	21.000	1.0000e-07
 7.500	21.250	1.0000e-07
 7.500	21.500	1.0000e-07
 7.500	21.750	1.0000e-07
 7.500	22.000	1.0000e-07
 7.500	22.250	1.0000e-07
 7.500	22.500	1.0000e-07
 7.500	22.750	1.0000e-07
 7.500	23.000	1.0000e-07
 7.500	23.250	1.0000e-07
 7.500	23.500	1.0000e-07
 7.500	23.750	1.0000e-07
 7.500	24.000	1.0000e-07
 7.750	17.000	4.7621e-03
 7.750	17.250	4.8243e-03
 7.750	17.500	4.8729e-03
 7.750	17.750	4.9119e-03
 7.750	18.000	4.9076e-03
 7.750	18.250	3.3571e-03
 7.750	18.500	3.3123e-03
 7.750	18.750	1.1133e-03
 7.750	19.000	3.3383e-04
 7.750	19.250	6.3292e-05
 7.750	19.500	1.8025e-05
 7.750	19.750	5.5144e-06
 7.750	20.000	9.0535e-07
 7.750	20.250	1.0000e-07
 7.750	20.500	1.0000e-07
 7.750	20.750	1.0000e-07
 7.750	21.000	1.0000e-07
 7.750	21.250	1.0000e-07
 7.750	21.500	1.0000e-07
 7.750	21.750	1.0000e-07
 7.750	22.000	1.0000e-07
 7.750	22.250	1.0000e-07
 7.750	22.500	1.0000e-07
 7.750	22.750	1.0000e-07
 7.750	23.000	1.0000e-07
 7.750	23.250	1.0000e-07
 7.750	23.500	1.0000e-07
 7.750	23.750	1.0000e-07
 7.750	24.000	1.0000e-07
 8.000	17.000	4.5137e-03
 8.000	17.250	4.5888e-03
 8.000	17.500	4.6600e-03
 8.000	17.750	4.7251e-03
 8.000	18.000	4.7799e-03
 8.000	18.250	4.7864e-03
 8.000	18.500	3.6330e-03
 8.000	18.750	3.5952e-03
 8.000	19.000	1.0970e-03
 8.000	19.250	3.2856e-04
 8.000	19.500	6.2881e-05
 8.000	19.750	1.7942e-05
 8.000	20.000	5.5144e-06
 8.000	20.250	9.0535e-07
 8.000	20.500	1.0000e-07
 8.000	20.750	1.0000e-07
 8.000	21.000	1.0000e-07
 8.000	21.250	1.0000e-07
 8.000	21.500	1.0000e-07
 8.000	21.750	1.0000e-07
 8.000	22.000	1.0000e-07
 8.000	22.250	1.0000e-07
 8.000	22.500	1.0000e-07
 8.000	22.750	1.0000e-07
 8.000	23.000	1.0000e-07
 8.000	23.250	1.0000e-07
 8.000	23.500	1.0000e-07
 8.000	23.750	1.0000e-07
 8.000	24.000	1.0000e-07
 8.250	17.000	4.3152e-03
 8.250	17.250	4.3905e-03
 8.250	17.500	4.4621e-03
 8.250	17.750	4.5309e-03
 8.250	18.000	4.5957e-03
 8.250	18.250	4.6519e-03
 8.250	18.500	4.6585e-03
 8.250	18.750	3.9128e-03
 8.250	19.000	3.8360e-03
 8.250	19.250	1.0887e-03
 8.250	19.500	3.2313e-04
 8.250	19.750	6.2469e-05
 8.250	20.000	1.7860e-05
 8.250	20.250	5.5144e-06
 8.250	20.500	9.0535e-07
 8.250	20.750	1.0000e-07
 8.250	21.000	1.0000e-07
 8.250	21.250	1.0000e-07
 8.250	21.500	1.0000e-07
 8.250	21.750	1.0000e-07
 8.250	22.000	1.0000e-07
 8.250	22.250	1.0000e-07
 8.250	22.500	1.0000e-07
 8.250	22.750	1.0000e-07
 8.250	23.000	1.0000e-07
 8.250	23.250	1.0000e-07
 8.250	23.500	1.0000e-07
 8.250	23.750	1.0000e-07
 8.250	24.000	1.0000e-07
 8.500	17.000	4.1129e-03
 8.500	17.250	4.1831e-03
 8.500	17.500	4.2531e-03
 8.500	17.750	4.3184e-03
 8.500	18.000	4.3806e-03
 8.500	18.250	4.4413e-03
 8.500	18.500	4.4950e-03
 8.500	18.750	4.4974e-03
 8.500	19.000	4.0737e-03
 8.500	19.250	3.9635e-03
 8.500	19.500	1.0747e-03
 8.500	19.750	3.1580e-04
 8.500	20.000	6.1893e-05
 8.500	20.250	1.7778e-05
 8.500	20.500	5.5144e-06
 8.500	20.750	8.2305e-07
 8.500	21.000	1.0000e-07
 8.500	21.250	1.0000e-07
 8.500	21.500	1.0000e-07
 8.500	21.750	1.0000e-07
 8.500	22.000	1.0000e-07
 8.500	22.250	1.0000e-07
 8.500	22.500	1.0000e-07
 8.500	22.750	1.0000e-07
 8.500	23.000	1.0000e-07
 8.500	23.250	1.0000e-07
 8.500	23.500	1.0000e-07
 8.500	23.750	1.0000e-07
 8.500	24.000	1.0000e-07
 8.750	17.000	3.9141e-03
 8.750	17.250	3.9796e-03
 8.750	17.500	4.0435e-03
 8.750	17.750	4.1055e-03
 8.750	18.000	4.1611e-03
 8.750	18.250	4.2114e-03
 8.750	18.500	4.2594e-03
 8.750	18.750	4.3030e-03
 8.750	19.000	4.2939e-03
 8.750	19.250	4.0576e-03
 8.750	19.500	3.9180e-03
 8.750	19.750	1.0606e-03
 8.750	20.000	3.0996e-04
 8.750	20.250	6.1317e-05
 8.750	20.500	1.7695e-05
 8.750	20.750	5.4321e-06
 8.750	21.000	8.2305e-07
 8.750	21.250	1.0000e-07
 8.750	21.500	1.0000e-07
 8.750	21.750	1.0000e-07
 8.750	22.000	1.0000e-07
 8.750	22.250	1.0000e-07
 8.750	22.500	1.0000e-07
 8.750	22.750	1.0000e-07
 8.750	23.000	1.0000e-07
 8.750	23.250	1.0000e-07
 8.750	23.500	1.0000e-07
 8.750	23.750	1.0000e-07
 8.750	24.000	1.0000e-07
 9.000	17.000	3.7243e-03
 9.000	17.250	3.7872e-03
 9.000	17.500	3.8477e-03
 9.000	17.750	3.9041e-03
 9.000	18.000	3.9539e-03
 9.000	18.250	3.9933e-03
 9.000	18.500	4.0229e-03
 9.000	18.750	4.0495e-03
 9.000	19.000	4.0722e-03
 9.000	19.250	4.0420e-03
 9.000	19.500	3.8901e-03
 9.000	19.750	3.7294e-03
 9.000	20.000	1.0465e-03
 9.000	20.250	3.0321e-04
 9.000	20.500	6.0823e-05
 9.000	20.750	1.7695e-05
 9.000	21.000	5.4321e-06
 9.000	21.250	8.2305e-07
 9.000	21.500	1.0000e-07
 9.000	21.750	1.0000e-07
 9.000	22.000	1.0000e-07
 9.000	22.250	1.0000e-07
 9.000	22.500	1.0000e-07
 9.000	22.750	1.0000e-07
 9.000	23.000	1.0000e-07
 9.000	23.250	1.0000e-07
 9.000	23.500	1.0000e-07
 9.000	23.750	1.0000e-07
 9.000	24.000	1.0000e-07
 9.250	17.000	3.5393e-03
 9.250	17.250	3.6114e-03
 9.250	17.500	3.6733e-03
 9.250	17.750	3.7287e-03
 9.250	18.000	3.7738e-03
 9.250	18.250	3.8060e-03
 9.250	18.500	3.8208e-03
 9.250	18.750	3.8187e-03
 9.250	19.000	3.8126e-03
 9.250	19.250	3.8021e-03
 9.250	19.500	3.7381e-03
 9.250	19.750	3.6144e-03
 9.250	20.000	3.4360e-03
 9.250	20.250	1.0339e-03
 9.250	20.500	2.9901e-04
 9.250	20.750	6.0412e-05
 9.250	21.000	1.7778e-05
 9.250	21.250	5.5144e-06
 9.250	21.500	8.2305e-07
 9.250	21.750	1.0000e-07
 9.250	22.000	1.0000e-07
 9.250	22.250	1.0000e-07
 9.250	22.500	1.0000e-07
 9.250	22.750	1.0000e-07
 9.250	23.000	1.0000e-07
 9.250	23.250	1.0000e-07
 9.250	23.500	1.0000e-07
 9.250	23.750	1.0000e-07
 9.250	24.000	1.0000e-07
 9.500	17.000	3.3379e-03
 9.500	17.250	3.4486e-03
 9.500	17.500	3.5233e-03
 9.500	17.750	3.5840e-03
 9.500	18.000	3.6314e-03
 9.500	18.250	3.6608e-03
 9.500	18.500	3.6672e-03
 9.500	18.750	3.6461e-03
 9.500	19.000	3.6014e-03
 9.500	19.250	3.5529e-03
 9.500	19.500	3.4976e-03
 9.500	19.750	3.3874e-03
 9.500	20.000	3.2646e-03
 9.500	20.250	3.0736e-03
 9.500	20.500	1.0230e-03
 9.500	20.750	2.9399e-04
 9.500	21.000	6.0000e-05
 9.500	21.250	1.7942e-05
 9.500	21.500	5.5967e-06
 9.500	21.750	9.0535e-07
 9.500	22.000	1.0000e-07
 9.500	22.250	1.0000e-07
 9.500	22.500	1.0000e-07
 9.500	22.750	1.0000e-07
 9.500	23.000	1.0000e-07
 9.500	23.250	1.0000e-07
 9.500	23.500	1.0000e-07
 9.500	23.750	1.0000e-07
 9.500	24.000	1.0000e-07
 9.750	17.000	3.0694e-03
 9.750	17.250	3.2725e-03
 9.750	17.500	3.3894e-03
 9.750	17.750	3.4669e-03
 9.750	18.000	3.5235e-03
 9.750	18.250	3.5592e-03
 9.750	18.500	3.5637e-03
 9.750	18.750	3.5314e-03
 9.750	19.000	3.4622e-03
 9.750	19.250	3.3696e-03
 9.750	19.500	3.2732e-03
 9.750	19.750	3.1644e-03
 9.750	20.000	3.0326e-03
 9.750	20.250	2.8932e-03
 9.750	20.500	2.7208e-03
 9.750	20.750	1.0096e-03
 9.750	21.000	2.9078e-04
 9.750	21.250	5.9918e-05
 9.750	21.500	1.8272e-05
 9.750	21.750	5.7613e-06
 9.750	22.000	9.0535e-07
 9.750	22.250	1.0000e-07
 9.750	22.500	1.0000e-07
 9.750	22.750	1.0000e-07
 9.750	23.000	1.0000e-07
 9.750	23.250	1.0000e-07
 9.750	23.500	1.0000e-07
 9.750	23.750	1.0000e-07
 9.750	24.000	1.0000e-07
10.000	17.000	2.6821e-03
10.000	17.250	3.0334e-03
10.000	17.500	3.2448e-03
10.000	17.750	3.3674e-03
10.000	18.000	3.4452e-03
10.000	18.250	3.4927e-03
10.000	18.500	3.5029e-03
10.000	18.750	3.4669e-03
10.000	19.000	3.3841e-03
10.000	19.250	3.2622e-03
10.000	19.500	3.1244e-03
10.000	19.750	2.9784e-03
10.000	20.000	2.8265e-03
10.000	20.250	2.6986e-03
10.000	20.500	2.6255e-03
10.000	20.750	2.5333e-03
10.000	21.000	9.8708e-04
10.000	21.250	2.8905e-04
10.000	21.500	6.0082e-05
10.000	21.750	1.8683e-05
10.000	22.000	5.9259e-06
10.000	22.250	9.0535e-07
10.000	22.500	1.0000e-07
10.000	22.750	1.0000e-07
10.000	23.000	1.0000e-07
10.000	23.250	1.0000e-07
10.000	23.500	1.0000e-07
10.000	23.750	1.0000e-07
10.000	24.000	1.0000e-07
10.250	17.000	2.1705e-03
10.250	17.250	2.6653e-03
10.250	17.500	3.0435e-03
10.250	17.750	3.2616e-03
10.250	18.000	3.3855e-03
10.250	18.250	3.4528e-03
10.250	18.500	3.4736e-03
10.250	18.750	3.4430e-03
10.250	19.000	3.3533e-03
10.250	19.250	3.2125e-03
10.250	19.500	3.0426e-03
10.250	19.750	2.8660e-03
10.250	20.000	2.6940e-03
10.250	20.250	2.5561e-03
10.250	20.500	2.5343e-03
10.250	20.750	2.5905e-03
10.250	21.000	2.5486e-03
10.250	21.250	9.4765e-04
10.250	21.500	2.8889e-04
10.250	21.750	6.0329e-05
10.250	22.000	1.9259e-05
10.250	22.250	6.2551e-06
10.250	22.500	9.8765e-07
10.250	22.750	1.0000e-07
10.250	23.000	1.0000e-07
10.250	23.250	1.0000e-07
10.250	23.500	1.0000e-07
10.250	23.750	1.0000e-07
10.250	24.000	1.0000e-07
10.500	17.000	1.6477e-03
10.500	17.250	2.1962e-03
10.500	17.500	2.7165e-03
10.500	17.750	3.1096e-03
10.500	18.000	3.3269e-03
10.500	18.250	3.4317e-03
10.500	18.500	3.4677e-03
10.500	18.750	3.4458e-03
10.500	19.000	3.3596e-03
10.500	19.250	3.2055e-03
10.500	19.500	3.0138e-03
10.500	19.750	2.8166e-03
10.500	20.000	2.6286e-03
10.500	20.250	2.4976e-03
10.500	20.500	2.5002e-03
10.500	20.750	2.6167e-03
10.500	21.000	2.7718e-03
10.500	21.250	2.8034e-03
10.500	21.500	9.0634e-04
10.500	21.750	2.8856e-04
10.500	22.000	6.0494e-05
10.500	22.250	1.9753e-05
10.500	22.500	6.5844e-06
10.500	22.750	1.0700e-06
10.500	23.000	1.0000e-07
10.500	23.250	1.0000e-07
10.500	23.500	1.0000e-07
10.500	23.750	1.0000e-07
10.500	24.000	1.0000e-07
10.750	17.000	1.1935e-03
10.750	17.250	1.6731e-03
10.750	17.500	2.2782e-03
10.750	17.750	2.8467e-03
10.750	18.000	3.2253e-03
10.750	18.250	3.4126e-03
10.750	18.500	3.4761e-03
10.750	18.750	3.4686e-03
10.750	19.000	3.3917e-03
10.750	19.250	3.2360e-03
10.750	19.500	3.0233e-03
10.750	19.750	2.8071e-03
10.750	20.000	2.6134e-03
10.750	20.250	2.4875e-03
10.750	20.500	2.5202e-03
10.750	20.750	2.6621e-03
10.750	21.000	2.8725e-03
10.750	21.250	3.2155e-03
10.750	21.500	3.3198e-03
10.750	21.750	8.8774e-04
10.750	22.000	2.8774e-04
10.750	22.250	6.0576e-05
10.750	22.500	2.0082e-05
10.750	22.750	6.7490e-06
10.750	23.000	1.0700e-06
10.750	23.250	1.0000e-07
10.750	23.500	1.0000e-07
10.750	23.750	1.0000e-07
10.750	24.000	1.0000e-07
11.000	17.000	8.4305e-04
11.000	17.250	1.1943e-03
11.000	17.500	1.7395e-03
11.000	17.750	2.4388e-03
11.000	18.000	3.0115e-03
11.000	18.250	3.3444e-03
11.000	18.500	3.4895e-03
11.000	18.750	3.5109e-03
11.000	19.000	3.4454e-03
11.000	19.250	3.2944e-03
11.000	19.500	3.0701e-03
11.000	19.750	2.8280e-03
11.000	20.000	2.6255e-03
11.000	20.250	2.5092e-03
11.000	20.500	2.5534e-03
11.000	20.750	2.7305e-03
11.000	21.000	2.9716e-03
11.000	21.250	3.3774e-03
11.000	21.500	3.7504e-03
11.000	21.750	3.4881e-03
11.000	22.000	9.3967e-04
11.000	22.250	2.8708e-04
11.000	22.500	6.0494e-05
11.000	22.750	2.0247e-05
11.000	23.000	6.9136e-06
11.000	23.250	1.1523e-06
11.000	23.500	1.0000e-07
11.000	23.750	1.0000e-07
11.000	24.000	1.0000e-07
11.250	17.000	5.8691e-04
11.250	17.250	8.1753e-04
11.250	17.500	1.2123e-03
11.250	17.750	1.8694e-03
11.250	18.000	2.6188e-03
11.250	18.250	3.1714e-03
11.250	18.500	3.4651e-03
11.250	18.750	3.5634e-03
11.250	19.000	3.5230e-03
11.250	19.250	3.3798e-03
11.250	19.500	3.1466e-03
11.250	19.750	2.8803e-03
11.250	20.000	2.6571e-03
11.250	20.250	2.5444e-03
11.250	20.500	2.5502e-03
11.250	20.750	2.8218e-03
11.250	21.000	3.0348e-03
11.250	21.250	3.4304e-03
11.250	21.500	3.7895e-03
11.250	21.750	3.9618e-03
11.250	22.000	3.2116e-03
11.250	22.250	1.0808e-03
11.250	22.500	2.9350e-04
11.250	22.750	6.0165e-05
11.250	23.000	2.0082e-05
11.250	23.250	6.9136e-06
11.250	23.500	1.1523e-06
11.250	23.750	1.0000e-07
11.250	24.000	1.0000e-07
11.500	17.000	4.0494e-04
11.500	17.250	5.4807e-04
11.500	17.500	7.9572e-04
11.500	17.750	1.2738e-03
11.500	18.000	2.0309e-03
11.500	18.250	2.8243e-03
11.500	18.500	3.3540e-03
11.500	18.750	3.5978e-03
11.500	19.000	3.6244e-03
11.500	19.250	3.4981e-03
11.500	19.500	3.2592e-03
11.500	19.750	2.9701e-03
11.500	20.000	2.7184e-03
11.500	20.250	2.5863e-03
11.500	20.500	2.6920e-03
11.500	20.750	2.8141e-03
11.500	21.000	3.0770e-03
11.500	21.250	3.4048e-03
11.500	21.500	3.6479e-03
11.500	21.750	3.7537e-03
11.500	22.000	3.7035e-03
11.500	22.250	2.5840e-03
11.500	22.500	1.1096e-03
11.500	22.750	3.2091e-04
11.500	23.000	6.0000e-05
11.500	23.250	1.9671e-05
11.500	23.500	6.8313e-06
11.500	23.750	1.1523e-06
11.500	24.000	1.0000e-07
11.750	17.000	2.7720e-04
11.750	17.250	3.6576e-04
11.750	17.500	5.1128e-04
11.750	17.750	8.0716e-04
11.750	18.000	1.3855e-03
11.750	18.250	2.2626e-03
11.750	18.500	3.1063e-03
11.750	18.750	3.5819e-03
11.750	19.000	3.7435e-03
11.750	19.250	3.6665e-03
11.750	19.500	3.4291e-03
11.750	19.750	3.1119e-03
11.750	20.000	2.8196e-03
11.750	20.250	2.6527e-03
11.750	20.500	2.7628e-03
11.750	20.750	2.7416e-03
11.750	21.000	3.1747e-03
11.750	21.250	3.4510e-03
11.750	21.500	3.4468e-03
11.750	21.750	3.4057e-03
11.750	22.000	3.3123e-03
11.750	22.250	3.0975e-03
11.750	22.500	2.0306e-03
11.750	22.750	1.0500e-03
11.750	23.000	3.6617e-04
11.750	23.250	6.0329e-05
11.750	23.500	1.9012e-05
11.750	23.750	6.5844e-06
11.750	24.000	1.0700e-06
12.000	17.000	1.9235e-04
12.000	17.250	2.4453e-04
12.000	17.500	3.3128e-04
12.000	17.750	5.0198e-04
12.000	18.000	8.7119e-04
12.000	18.250	1.6004e-03
12.000	18.500	2.6202e-03
12.000	18.750	3.4755e-03
12.000	19.000	3.8687e-03
12.000	19.250	3.9086e-03
12.000	19.500	3.6877e-03
12.000	19.750	3.3305e-03
12.000	20.000	2.9919e-03
12.000	20.250	2.7689e-03
12.000	20.500	2.8225e-03
12.000	20.750	2.8836e-03
12.000	21.000	3.2678e-03
12.000	21.250	3.5300e-03
12.000	21.500	3.3058e-03
12.000	21.750	3.0616e-03
12.000	22.000	2.8505e-03
12.000	22.250	2.6647e-03
12.000	22.500	2.3403e-03
12.000	22.750	1.5210e-03
12.000	23.000	9.1177e-04
12.000	23.250	4.2206e-04
12.000	23.500	6.1893e-05
12.000	23.750	1.8107e-05
12.000	24.000	6.1728e-06
12.250	17.000	1.2428e-04
12.250	17.250	1.6872e-04
12.250	17.500	2.1844e-04
12.250	17.750	3.1852e-04
12.250	18.000	5.3704e-04
12.250	18.250	1.0394e-03
12.250	18.500	2.0047e-03
12.250	18.750	3.1463e-03
12.250	19.000	3.9086e-03
12.250	19.250	4.1923e-03
12.250	19.500	4.0844e-03
12.250	19.750	3.7003e-03
12.250	20.000	3.2470e-03
12.250	20.250	2.9744e-03
12.250	20.500	2.9428e-03
12.250	20.750	3.0965e-03
12.250	21.000	3.4811e-03
12.250	21.250	3.4683e-03
12.250	21.500	3.1919e-03
12.250	21.750	2.8261e-03
12.250	22.000	2.4832e-03
12.250	22.250	2.2416e-03
12.250	22.500	2.0053e-03
12.250	22.750	1.6305e-03
12.250	23.000	1.1165e-03
12.250	23.250	7.2206e-04
12.250	23.500	3.9440e-04
12.250	23.750	6.7325e-05
12.250	24.000	1.7119e-05
12.500	17.000	8.0247e-05
12.500	17.250	1.1202e-04
12.500	17.500	1.5086e-04
12.500	17.750	2.0955e-04
12.500	18.000	3.3770e-04
12.500	18.250	6.4741e-04
12.500	18.500	1.3802e-03
12.500	18.750	2.6144e-03
12.500	19.000	3.8058e-03
12.500	19.250	4.4573e-03
12.500	19.500	4.5309e-03
12.500	19.750	4.2482e-03
12.500	20.000	3.7484e-03
12.500	20.250	3.2684e-03
12.500	20.500	3.1612e-03
12.500	20.750	3.3566e-03
12.500	21.000	3.5279e-03
12.500	21.250	3.4541e-03
12.500	21.500	3.1540e-03
12.500	21.750	2.7018e-03
12.500	22.000	2.2658e-03
12.500	22.250	1.9374e-03
12.500	22.500	1.7165e-03
12.500	22.750	1.4532e-03
12.500	23.000	1.1532e-03
12.500	23.250	8.0593e-04
12.500	23.500	5.4708e-04
12.500	23.750	3.3235e-04
12.500	24.000	7.0947e-05
12.750	17.000	5.3992e-05
12.750	17.250	7.2922e-05
12.750	17.500	1.0189e-04
12.750	17.750	1.4494e-04
12.750	18.000	2.2074e-04
12.750	18.250	4.0263e-04
12.750	18.500	8.6675e-04
12.750	18.750	1.8794e-03
12.750	19.000	3.2440e-03
12.750	19.250	4.5202e-03
12.750	19.500	5.0016e-03
12.750	19.750	4.8703e-03
12.750	20.000	4.4497e-03
12.750	20.250	3.9338e-03
12.750	20.500	3.5697e-03
12.750	20.750	3.5160e-03
12.750	21.000	3.6682e-03
12.750	21.250	3.6202e-03
12.750	21.500	3.2504e-03
12.750	21.750	2.7018e-03
12.750	22.000	2.1935e-03
12.750	22.250	1.7539e-03
12.750	22.500	1.5253e-03
12.750	22.750	1.2714e-03
12.750	23.000	1.0333e-03
12.750	23.250	7.9366e-04
12.750	23.500	5.6658e-04
12.750	23.750	3.9588e-04
12.750	24.000	2.6140e-04
13.000	17.000	3.5885e-05
13.000	17.250	4.8230e-05
13.000	17.500	6.5844e-05
13.000	17.750	9.6790e-05
13.000	18.000	1.4872e-04
13.000	18.250	2.5440e-04
13.000	18.500	5.2807e-04
13.000	18.750	1.1737e-03
13.000	19.000	2.3606e-03
13.000	19.250	3.9095e-03
13.000	19.500	4.8751e-03
13.000	19.750	5.3822e-03
13.000	20.000	5.1718e-03
13.000	20.250	4.8258e-03
13.000	20.500	4.4811e-03
13.000	20.750	4.2686e-03
13.000	21.000	4.1377e-03
13.000	21.250	3.9478e-03
13.000	21.500	3.4123e-03
13.000	21.750	2.8449e-03
13.000	22.000	2.2556e-03
13.000	22.250	1.7815e-03
13.000	22.500	1.4464e-03
13.000	22.750	1.2464e-03
13.000	23.000	9.6033e-04
13.000	23.250	7.4848e-04
13.000	23.500	5.4477e-04
13.000	23.750	3.9860e-04
13.000	24.000	2.8535e-04
13.250	17.000	2.5021e-05
13.250	17.250	3.3580e-05
13.250	17.500	4.5103e-05
13.250	17.750	6.3457e-05
13.250	18.000	9.8930e-05
13.250	18.250	1.6765e-04
13.250	18.500	3.1366e-04
13.250	18.750	6.6593e-04
13.250	19.000	1.3777e-03
13.250	19.250	2.4867e-03
13.250	19.500	3.7351e-03
13.250	19.750	5.1529e-03
13.250	20.000	5.4170e-03
13.250	20.250	5.3520e-03
13.250	20.500	5.2044e-03
13.250	20.750	5.1355e-03
13.250	21.000	4.9547e-03
13.250	21.250	4.6940e-03
13.250	21.500	3.8818e-03
13.250	21.750	3.1345e-03
13.250	22.000	2.5153e-03
13.250	22.250	1.9225e-03
13.250	22.500	1.4568e-03
13.250	22.750	1.1910e-03
13.250	23.000	9.5012e-04
13.250	23.250	7.3424e-04
13.250	23.500	5.6140e-04
13.250	23.750	4.0058e-04
13.250	24.000	2.8996e-04
13.500	17.000	1.7284e-05
13.500	17.250	2.3868e-05
13.500	17.500	3.2346e-05
13.500	17.750	4.5185e-05
13.500	18.000	6.7819e-05
13.500	18.250	1.1210e-04
13.500	18.500	1.9514e-04
13.500	18.750	3.5984e-04
13.500	19.000	6.9531e-04
13.500	19.250	1.2543e-03
13.500	19.500	2.1145e-03
13.500	19.750	3.0193e-03
13.500	20.000	3.7311e-03
13.500	20.250	4.3185e-03
13.500	20.500	4.7723e-03
13.500	20.750	5.0651e-03
13.500	21.000	4.9963e-03
13.500	21.250	4.9905e-03
13.500	21.500	4.1263e-03
13.500	21.750	3.4871e-03
13.500	22.000	2.6921e-03
13.500	22.250	2.1463e-03
13.500	22.500	1.5870e-03
13.500	22.750	1.2375e-03
13.500	23.000	8.8741e-04
13.500	23.250	7.4296e-04
13.500	23.500	5.9119e-04
13.500	23.750	4.4914e-04
13.500	24.000	3.0955e-04
13.750	17.000	1.1770e-05
13.750	17.250	1.6872e-05
13.750	17.500	2.3210e-05
13.750	17.750	3.2510e-05
13.750	18.000	4.7572e-05
13.750	18.250	7.4074e-05
13.750	18.500	1.2206e-04
13.750	18.750	2.0058e-04
13.750	19.000	3.3251e-04
13.750	19.250	5.4140e-04
13.750	19.500	8.5333e-04
13.750	19.750	1.2835e-03
13.750	20.000	1.8297e-03
13.750	20.250	2.2660e-03
13.750	20.500	2.7545e-03
13.750	20.750	3.2231e-03
13.750	21.000	3.4132e-03
13.750	21.250	3.3370e-03
13.750	21.500	3.5168e-03
13.750	21.750	3.3436e-03
13.750	22.000	2.8848e-03
13.750	22.250	2.4305e-03
13.750	22.500	1.8949e-03
13.750	22.750	1.4312e-03
13.750	23.000	1.0282e-03
13.750	23.250	7.6016e-04
13.750	23.500	6.2288e-04
13.750	23.750	5.2420e-04
13.750	24.000	3.8173e-04
14.000	17.000	7.9012e-06
14.000	17.250	1.1770e-05
14.000	17.500	1.6626e-05
14.000	17.750	2.3292e-05
14.000	18.000	3.3333e-05
14.000	18.250	4.9218e-05
14.000	18.500	7.4074e-05
14.000	18.750	1.1128e-04
14.000	19.000	1.6420e-04
14.000	19.250	2.3193e-04
14.000	19.500	3.2551e-04
14.000	19.750	4.4947e-04
14.000	20.000	6.1267e-04
14.000	20.250	8.0897e-04
14.000	20.500	1.0197e-03
14.000	20.750	1.1663e-03
14.000	21.000	1.4314e-03
14.000	21.250	1.6956e-03
14.000	21.500	1.7016e-03
14.000	21.750	2.0099e-03
14.000	22.000	2.2509e-03
14.000	22.250	2.4410e-03
14.000	22.500	2.3060e-03
14.000	22.750	1.9054e-03
14.000	23.000	1.4398e-03
14.000	23.250	9.9309e-04
14.000	23.500	6.9621e-04
14.000	23.750	5.9045e-04
14.000	24.000	5.0650e-04
