InwC 1.10000m  relative to Inci 1215.00A scaled to 1215A.
Hden   Phi(H)  Eq_Width (A)
 7.000	17.000	1.0227e-02
 7.000	17.250	1.3600e-02
 7.000	17.500	1.7420e-02
 7.000	17.750	1.7987e-02
 7.000	18.000	1.8258e-02
 7.000	18.250	1.8272e-02
 7.000	18.500	1.8271e-02
 7.000	18.750	1.8271e-02
 7.000	19.000	1.8273e-02
 7.000	19.250	1.8275e-02
 7.000	19.500	1.8275e-02
 7.000	19.750	1.8276e-02
 7.000	20.000	1.8276e-02
 7.000	20.250	1.8276e-02
 7.000	20.500	1.8276e-02
 7.000	20.750	1.8276e-02
 7.000	21.000	1.8276e-02
 7.000	21.250	1.8276e-02
 7.000	21.500	1.8276e-02
 7.000	21.750	1.8276e-02
 7.000	22.000	1.8276e-02
 7.000	22.250	1.8276e-02
 7.000	22.500	1.8276e-02
 7.000	22.750	1.8276e-02
 7.000	23.000	1.8276e-02
 7.000	23.250	1.8276e-02
 7.000	23.500	1.8276e-02
 7.000	23.750	1.8276e-02
 7.000	24.000	1.8277e-02
 7.250	17.000	7.3763e-03
 7.250	17.250	1.0526e-02
 7.250	17.500	1.3781e-02
 7.250	17.750	1.7423e-02
 7.250	18.000	1.7992e-02
 7.250	18.250	1.8258e-02
 7.250	18.500	1.8272e-02
 7.250	18.750	1.8271e-02
 7.250	19.000	1.8271e-02
 7.250	19.250	1.8273e-02
 7.250	19.500	1.8275e-02
 7.250	19.750	1.8275e-02
 7.250	20.000	1.8276e-02
 7.250	20.250	1.8276e-02
 7.250	20.500	1.8276e-02
 7.250	20.750	1.8276e-02
 7.250	21.000	1.8276e-02
 7.250	21.250	1.8276e-02
 7.250	21.500	1.8276e-02
 7.250	21.750	1.8276e-02
 7.250	22.000	1.8276e-02
 7.250	22.250	1.8276e-02
 7.250	22.500	1.8276e-02
 7.250	22.750	1.8276e-02
 7.250	23.000	1.8276e-02
 7.250	23.250	1.8278e-02
 7.250	23.500	1.8276e-02
 7.250	23.750	1.8276e-02
 7.250	24.000	1.8276e-02
 7.500	17.000	4.9219e-03
 7.500	17.250	7.5738e-03
 7.500	17.500	1.0825e-02
 7.500	17.750	1.3982e-02
 7.500	18.000	1.7425e-02
 7.500	18.250	1.7996e-02
 7.500	18.500	1.8258e-02
 7.500	18.750	1.8272e-02
 7.500	19.000	1.8271e-02
 7.500	19.250	1.8271e-02
 7.500	19.500	1.8273e-02
 7.500	19.750	1.8275e-02
 7.500	20.000	1.8275e-02
 7.500	20.250	1.8276e-02
 7.500	20.500	1.8276e-02
 7.500	20.750	1.8276e-02
 7.500	21.000	1.8276e-02
 7.500	21.250	1.8276e-02
 7.500	21.500	1.8276e-02
 7.500	21.750	1.8276e-02
 7.500	22.000	1.8276e-02
 7.500	22.250	1.8276e-02
 7.500	22.500	1.8276e-02
 7.500	22.750	1.8276e-02
 7.500	23.000	1.8276e-02
 7.500	23.250	1.8276e-02
 7.500	23.500	1.8276e-02
 7.500	23.750	1.8276e-02
 7.500	24.000	1.8276e-02
 7.750	17.000	3.2830e-03
 7.750	17.250	5.0491e-03
 7.750	17.500	7.8207e-03
 7.750	17.750	1.1211e-02
 7.750	18.000	1.4224e-02
 7.750	18.250	1.7427e-02
 7.750	18.500	1.8000e-02
 7.750	18.750	1.8258e-02
 7.750	19.000	1.8272e-02
 7.750	19.250	1.8271e-02
 7.750	19.500	1.8271e-02
 7.750	19.750	1.8273e-02
 7.750	20.000	1.8275e-02
 7.750	20.250	1.8275e-02
 7.750	20.500	1.8276e-02
 7.750	20.750	1.8276e-02
 7.750	21.000	1.8276e-02
 7.750	21.250	1.8276e-02
 7.750	21.500	1.8276e-02
 7.750	21.750	1.8276e-02
 7.750	22.000	1.8276e-02
 7.750	22.250	1.8276e-02
 7.750	22.500	1.8276e-02
 7.750	22.750	1.8276e-02
 7.750	23.000	1.8276e-02
 7.750	23.250	1.8276e-02
 7.750	23.500	1.8276e-02
 7.750	23.750	1.8276e-02
 7.750	24.000	1.8276e-02
 8.000	17.000	2.2350e-03
 8.000	17.250	3.3641e-03
 8.000	17.500	5.2183e-03
 8.000	17.750	8.1534e-03
 8.000	18.000	1.1694e-02
 8.000	18.250	1.4471e-02
 8.000	18.500	1.7427e-02
 8.000	18.750	1.8002e-02
 8.000	19.000	1.8258e-02
 8.000	19.250	1.8272e-02
 8.000	19.500	1.8271e-02
 8.000	19.750	1.8271e-02
 8.000	20.000	1.8273e-02
 8.000	20.250	1.8275e-02
 8.000	20.500	1.8275e-02
 8.000	20.750	1.8276e-02
 8.000	21.000	1.8276e-02
 8.000	21.250	1.8276e-02
 8.000	21.500	1.8276e-02
 8.000	21.750	1.8276e-02
 8.000	22.000	1.8276e-02
 8.000	22.250	1.8276e-02
 8.000	22.500	1.8276e-02
 8.000	22.750	1.8276e-02
 8.000	23.000	1.8276e-02
 8.000	23.250	1.8276e-02
 8.000	23.500	1.8276e-02
 8.000	23.750	1.8276e-02
 8.000	24.000	1.8276e-02
 8.250	17.000	1.5669e-03
 8.250	17.250	2.3063e-03
 8.250	17.500	3.5137e-03
 8.250	17.750	5.5309e-03
 8.250	18.000	8.7502e-03
 8.250	18.250	1.2347e-02
 8.250	18.500	1.4877e-02
 8.250	18.750	1.7429e-02
 8.250	19.000	1.8008e-02
 8.250	19.250	1.8258e-02
 8.250	19.500	1.8272e-02
 8.250	19.750	1.8271e-02
 8.250	20.000	1.8271e-02
 8.250	20.250	1.8273e-02
 8.250	20.500	1.8275e-02
 8.250	20.750	1.8275e-02
 8.250	21.000	1.8276e-02
 8.250	21.250	1.8276e-02
 8.250	21.500	1.8276e-02
 8.250	21.750	1.8276e-02
 8.250	22.000	1.8276e-02
 8.250	22.250	1.8276e-02
 8.250	22.500	1.8276e-02
 8.250	22.750	1.8276e-02
 8.250	23.000	1.8276e-02
 8.250	23.250	1.8276e-02
 8.250	23.500	1.8276e-02
 8.250	23.750	1.8276e-02
 8.250	24.000	1.8276e-02
 8.500	17.000	1.1158e-03
 8.500	17.250	1.6190e-03
 8.500	17.500	2.4193e-03
 8.500	17.750	3.7803e-03
 8.500	18.000	6.0977e-03
 8.500	18.250	9.6781e-03
 8.500	18.500	1.3089e-02
 8.500	18.750	1.5299e-02
 8.500	19.000	1.7430e-02
 8.500	19.250	1.8013e-02
 8.500	19.500	1.8258e-02
 8.500	19.750	1.8272e-02
 8.500	20.000	1.8271e-02
 8.500	20.250	1.8271e-02
 8.500	20.500	1.8273e-02
 8.500	20.750	1.8275e-02
 8.500	21.000	1.8275e-02
 8.500	21.250	1.8276e-02
 8.500	21.500	1.8276e-02
 8.500	21.750	1.8276e-02
 8.500	22.000	1.8276e-02
 8.500	22.250	1.8276e-02
 8.500	22.500	1.8276e-02
 8.500	22.750	1.8276e-02
 8.500	23.000	1.8276e-02
 8.500	23.250	1.8276e-02
 8.500	23.500	1.8276e-02
 8.500	23.750	1.8276e-02
 8.500	24.000	1.8276e-02
 8.750	17.000	7.9959e-04
 8.750	17.250	1.1533e-03
 8.750	17.500	1.7031e-03
 8.750	17.750	2.6156e-03
 8.750	18.000	4.2312e-03
 8.750	18.250	6.9762e-03
 8.750	18.500	1.0760e-02
 8.750	18.750	1.3708e-02
 8.750	19.000	1.5651e-02
 8.750	19.250	1.7427e-02
 8.750	19.500	1.8019e-02
 8.750	19.750	1.8258e-02
 8.750	20.000	1.8272e-02
 8.750	20.250	1.8271e-02
 8.750	20.500	1.8271e-02
 8.750	20.750	1.8273e-02
 8.750	21.000	1.8275e-02
 8.750	21.250	1.8275e-02
 8.750	21.500	1.8276e-02
 8.750	21.750	1.8276e-02
 8.750	22.000	1.8276e-02
 8.750	22.250	1.8276e-02
 8.750	22.500	1.8276e-02
 8.750	22.750	1.8276e-02
 8.750	23.000	1.8276e-02
 8.750	23.250	1.8276e-02
 8.750	23.500	1.8276e-02
 8.750	23.750	1.8276e-02
 8.750	24.000	1.8276e-02
 9.000	17.000	5.7407e-04
 9.000	17.250	8.2741e-04
 9.000	17.500	1.2161e-03
 9.000	17.750	1.8514e-03
 9.000	18.000	2.9691e-03
 9.000	18.250	4.9543e-03
 9.000	18.500	8.0207e-03
 9.000	18.750	1.1732e-02
 9.000	19.000	1.4207e-02
 9.000	19.250	1.6101e-02
 9.000	19.500	1.7420e-02
 9.000	19.750	1.8024e-02
 9.000	20.000	1.8258e-02
 9.000	20.250	1.8271e-02
 9.000	20.500	1.8271e-02
 9.000	20.750	1.8271e-02
 9.000	21.000	1.8273e-02
 9.000	21.250	1.8275e-02
 9.000	21.500	1.8275e-02
 9.000	21.750	1.8276e-02
 9.000	22.000	1.8276e-02
 9.000	22.250	1.8276e-02
 9.000	22.500	1.8276e-02
 9.000	22.750	1.8276e-02
 9.000	23.000	1.8276e-02
 9.000	23.250	1.8276e-02
 9.000	23.500	1.8276e-02
 9.000	23.750	1.8276e-02
 9.000	24.000	1.8276e-02
 9.250	17.000	4.1169e-04
 9.250	17.250	5.9407e-04
 9.250	17.500	8.7440e-04
 9.250	17.750	1.3305e-03
 9.250	18.000	2.1347e-03
 9.250	18.250	3.5740e-03
 9.250	18.500	5.8438e-03
 9.250	18.750	9.0598e-03
 9.250	19.000	1.2624e-02
 9.250	19.250	1.4944e-02
 9.250	19.500	1.6661e-02
 9.250	19.750	1.7407e-02
 9.250	20.000	1.8028e-02
 9.250	20.250	1.8257e-02
 9.250	20.500	1.8271e-02
 9.250	20.750	1.8270e-02
 9.250	21.000	1.8271e-02
 9.250	21.250	1.8273e-02
 9.250	21.500	1.8274e-02
 9.250	21.750	1.8264e-02
 9.250	22.000	1.8260e-02
 9.250	22.250	1.8265e-02
 9.250	22.500	1.8276e-02
 9.250	22.750	1.8276e-02
 9.250	23.000	1.8276e-02
 9.250	23.250	1.8276e-02
 9.250	23.500	1.8276e-02
 9.250	23.750	1.8276e-02
 9.250	24.000	1.8276e-02
 9.500	17.000	2.9490e-04
 9.500	17.250	4.2658e-04
 9.500	17.500	6.2922e-04
 9.500	17.750	9.6370e-04
 9.500	18.000	1.5602e-03
 9.500	18.250	2.6261e-03
 9.500	18.500	4.2961e-03
 9.500	18.750	6.7131e-03
 9.500	19.000	9.9454e-03
 9.500	19.250	1.3498e-02
 9.500	19.500	1.5357e-02
 9.500	19.750	1.6992e-02
 9.500	20.000	1.7388e-02
 9.500	20.250	1.8029e-02
 9.500	20.500	1.8256e-02
 9.500	20.750	1.8270e-02
 9.500	21.000	1.8269e-02
 9.500	21.250	1.8265e-02
 9.500	21.500	1.8258e-02
 9.500	21.750	1.8258e-02
 9.500	22.000	1.8254e-02
 9.500	22.250	1.8249e-02
 9.500	22.500	1.8246e-02
 9.500	22.750	1.8247e-02
 9.500	23.000	1.8247e-02
 9.500	23.250	1.8247e-02
 9.500	23.500	1.8258e-02
 9.500	23.750	1.8258e-02
 9.500	24.000	1.8258e-02
 9.750	17.000	2.1053e-04
 9.750	17.250	3.0576e-04
 9.750	17.500	4.5325e-04
 9.750	17.750	6.9967e-04
 9.750	18.000	1.1485e-03
 9.750	18.250	1.9532e-03
 9.750	18.500	3.1961e-03
 9.750	18.750	4.9844e-03
 9.750	19.000	7.4898e-03
 9.750	19.250	1.0911e-02
 9.750	19.500	1.3956e-02
 9.750	19.750	1.5838e-02
 9.750	20.000	1.6959e-02
 9.750	20.250	1.7361e-02
 9.750	20.500	1.8027e-02
 9.750	20.750	1.8254e-02
 9.750	21.000	1.8270e-02
 9.750	21.250	1.8270e-02
 9.750	21.500	1.8269e-02
 9.750	21.750	1.8264e-02
 9.750	22.000	1.8258e-02
 9.750	22.250	1.8256e-02
 9.750	22.500	1.8253e-02
 9.750	22.750	1.8249e-02
 9.750	23.000	1.8247e-02
 9.750	23.250	1.8246e-02
 9.750	23.500	1.8246e-02
 9.750	23.750	1.8248e-02
 9.750	24.000	1.8246e-02
10.000	17.000	1.5029e-04
10.000	17.250	2.1885e-04
10.000	17.500	3.2650e-04
10.000	17.750	5.0914e-04
10.000	18.000	8.4798e-04
10.000	18.250	1.4467e-03
10.000	18.500	2.3761e-03
10.000	18.750	3.7005e-03
10.000	19.000	5.5594e-03
10.000	19.250	8.1497e-03
10.000	19.500	1.1654e-02
10.000	19.750	1.4258e-02
10.000	20.000	1.6275e-02
10.000	20.250	1.6914e-02
10.000	20.500	1.7351e-02
10.000	20.750	1.8027e-02
10.000	21.000	1.8250e-02
10.000	21.250	1.8268e-02
10.000	21.500	1.8269e-02
10.000	21.750	1.8270e-02
10.000	22.000	1.8270e-02
10.000	22.250	1.8259e-02
10.000	22.500	1.8258e-02
10.000	22.750	1.8256e-02
10.000	23.000	1.8253e-02
10.000	23.250	1.8251e-02
10.000	23.500	1.8250e-02
10.000	23.750	1.8249e-02
10.000	24.000	1.8249e-02
10.250	17.000	1.0749e-04
10.250	17.250	1.5671e-04
10.250	17.500	2.3490e-04
10.250	17.750	3.7095e-04
10.250	18.000	6.2494e-04
10.250	18.250	1.0744e-03
10.250	18.500	1.7621e-03
10.250	18.750	2.7407e-03
10.250	19.000	4.1057e-03
10.250	19.250	6.0621e-03
10.250	19.500	8.9007e-03
10.250	19.750	1.1937e-02
10.250	20.000	1.4640e-02
10.250	20.250	1.6556e-02
10.250	20.500	1.6878e-02
10.250	20.750	1.7324e-02
10.250	21.000	1.8030e-02
10.250	21.250	1.8242e-02
10.250	21.500	1.8267e-02
10.250	21.750	1.8269e-02
10.250	22.000	1.8270e-02
10.250	22.250	1.8272e-02
10.250	22.500	1.8261e-02
10.250	22.750	1.8259e-02
10.250	23.000	1.8258e-02
10.250	23.250	1.8256e-02
10.250	23.500	1.8255e-02
10.250	23.750	1.8253e-02
10.250	24.000	1.8253e-02
10.500	17.000	7.7119e-05
10.500	17.250	1.1235e-04
10.500	17.500	1.6930e-04
10.500	17.750	2.7037e-04
10.500	18.000	4.5934e-04
10.500	18.250	7.9490e-04
10.500	18.500	1.2896e-03
10.500	18.750	2.0032e-03
10.500	19.000	3.0002e-03
10.500	19.250	4.4096e-03
10.500	19.500	6.4327e-03
10.500	19.750	9.2401e-03
10.500	20.000	1.2243e-02
10.500	20.250	1.5030e-02
10.500	20.500	1.6561e-02
10.500	20.750	1.6847e-02
10.500	21.000	1.7315e-02
10.500	21.250	1.8044e-02
10.500	21.500	1.8234e-02
10.500	21.750	1.8263e-02
10.500	22.000	1.8268e-02
10.500	22.250	1.8269e-02
10.500	22.500	1.8272e-02
10.500	22.750	1.8269e-02
10.500	23.000	1.8259e-02
10.500	23.250	1.8259e-02
10.500	23.500	1.8258e-02
10.500	23.750	1.8257e-02
10.500	24.000	1.8256e-02
10.750	17.000	5.5556e-05
10.750	17.250	8.0658e-05
10.750	17.500	1.2206e-04
10.750	17.750	1.9671e-04
10.750	18.000	3.3621e-04
10.750	18.250	5.7811e-04
10.750	18.500	9.3761e-04
10.750	18.750	1.4443e-03
10.750	19.000	2.1691e-03
10.750	19.250	3.1867e-03
10.750	19.500	4.6337e-03
10.750	19.750	6.6967e-03
10.750	20.000	9.5053e-03
10.750	20.250	1.2545e-02
10.750	20.500	1.5436e-02
10.750	20.750	1.6499e-02
10.750	21.000	1.6811e-02
10.750	21.250	1.7320e-02
10.750	21.500	1.8075e-02
10.750	21.750	1.8219e-02
10.750	22.000	1.8256e-02
10.750	22.250	1.8266e-02
10.750	22.500	1.8268e-02
10.750	22.750	1.8271e-02
10.750	23.000	1.8273e-02
10.750	23.250	1.8262e-02
10.750	23.500	1.8259e-02
10.750	23.750	1.8259e-02
10.750	24.000	1.8259e-02
11.000	17.000	3.9588e-05
11.000	17.250	5.7860e-05
11.000	17.500	8.7901e-05
11.000	17.750	1.4263e-04
11.000	18.000	2.4354e-04
11.000	18.250	4.1531e-04
11.000	18.500	6.7802e-04
11.000	18.750	1.0406e-03
11.000	19.000	1.5646e-03
11.000	19.250	2.2893e-03
11.000	19.500	3.3193e-03
11.000	19.750	4.7803e-03
11.000	20.000	6.8909e-03
11.000	20.250	9.7356e-03
11.000	20.500	1.2825e-02
11.000	20.750	1.5712e-02
11.000	21.000	1.6413e-02
11.000	21.250	1.6770e-02
11.000	21.500	1.7396e-02
11.000	21.750	1.8092e-02
11.000	22.000	1.8198e-02
11.000	22.250	1.8245e-02
11.000	22.500	1.8262e-02
11.000	22.750	1.8266e-02
11.000	23.000	1.8270e-02
11.000	23.250	1.8273e-02
11.000	23.500	1.8269e-02
11.000	23.750	1.8260e-02
11.000	24.000	1.8259e-02
11.250	17.000	2.8395e-05
11.250	17.250	4.1152e-05
11.250	17.500	6.2798e-05
11.250	17.750	1.0247e-04
11.250	18.000	1.7432e-04
11.250	18.250	2.9457e-04
11.250	18.500	4.7267e-04
11.250	18.750	7.3811e-04
11.250	19.000	1.1093e-03
11.250	19.250	1.6291e-03
11.250	19.500	2.3636e-03
11.250	19.750	3.4026e-03
11.250	20.000	4.8893e-03
11.250	20.250	7.0490e-03
11.250	20.500	9.9263e-03
11.250	20.750	1.3033e-02
11.250	21.000	1.5738e-02
11.250	21.250	1.6292e-02
11.250	21.500	1.6804e-02
11.250	21.750	1.7486e-02
11.250	22.000	1.8080e-02
11.250	22.250	1.8168e-02
11.250	22.500	1.8228e-02
11.250	22.750	1.8257e-02
11.250	23.000	1.8263e-02
11.250	23.250	1.8269e-02
11.250	23.500	1.8273e-02
11.250	23.750	1.8273e-02
11.250	24.000	1.8266e-02
11.500	17.000	2.0576e-05
11.500	17.250	2.9465e-05
11.500	17.500	4.4609e-05
11.500	17.750	7.2510e-05
11.500	18.000	1.2272e-04
11.500	18.250	2.0650e-04
11.500	18.500	3.3062e-04
11.500	18.750	5.1350e-04
11.500	19.000	7.7893e-04
11.500	19.250	1.1476e-03
11.500	19.500	1.6721e-03
11.500	19.750	2.4170e-03
11.500	20.000	3.4698e-03
11.500	20.250	4.9742e-03
11.500	20.500	7.1481e-03
11.500	20.750	1.0013e-02
11.500	21.000	1.3102e-02
11.500	21.250	1.5453e-02
11.500	21.500	1.6263e-02
11.500	21.750	1.6788e-02
11.500	22.000	1.7575e-02
11.500	22.250	1.8019e-02
11.500	22.500	1.8127e-02
11.500	22.750	1.8203e-02
11.500	23.000	1.8249e-02
11.500	23.250	1.8259e-02
11.500	23.500	1.8266e-02
11.500	23.750	1.8273e-02
11.500	24.000	1.8274e-02
11.750	17.000	1.5144e-05
11.750	17.250	2.1317e-05
11.750	17.500	3.1852e-05
11.750	17.750	5.1111e-05
11.750	18.000	8.5844e-05
11.750	18.250	1.4313e-04
11.750	18.500	2.2864e-04
11.750	18.750	3.5770e-04
11.750	19.000	5.3967e-04
11.750	19.250	8.0181e-04
11.750	19.500	1.1747e-03
11.750	19.750	1.7053e-03
11.750	20.000	2.4596e-03
11.750	20.250	3.5045e-03
11.750	20.500	5.0137e-03
11.750	20.750	7.1570e-03
11.750	21.000	9.9527e-03
11.750	21.250	1.2935e-02
11.750	21.500	1.5234e-02
11.750	21.750	1.6076e-02
11.750	22.000	1.6754e-02
11.750	22.250	1.7594e-02
11.750	22.500	1.7928e-02
11.750	22.750	1.8066e-02
11.750	23.000	1.8166e-02
11.750	23.250	1.8236e-02
11.750	23.500	1.8252e-02
11.750	23.750	1.8262e-02
11.750	24.000	1.8272e-02
12.000	17.000	1.1193e-05
12.000	17.250	1.5802e-05
12.000	17.500	2.3045e-05
12.000	17.750	3.6049e-05
12.000	18.000	5.9342e-05
12.000	18.250	9.8107e-05
12.000	18.500	1.5712e-04
12.000	18.750	2.4461e-04
12.000	19.000	3.7243e-04
12.000	19.250	5.5671e-04
12.000	19.500	8.2206e-04
12.000	19.750	1.2006e-03
12.000	20.000	1.7334e-03
12.000	20.250	2.4828e-03
12.000	20.500	3.5304e-03
12.000	20.750	5.0097e-03
12.000	21.000	7.0347e-03
12.000	21.250	9.6441e-03
12.000	21.500	1.2718e-02
12.000	21.750	1.4693e-02
12.000	22.000	1.5796e-02
12.000	22.250	1.6664e-02
12.000	22.500	1.7472e-02
12.000	22.750	1.7795e-02
12.000	23.000	1.7974e-02
12.000	23.250	1.8109e-02
12.000	23.500	1.8217e-02
12.000	23.750	1.8241e-02
12.000	24.000	1.8257e-02
12.250	17.000	6.2551e-06
12.250	17.250	1.1852e-05
12.250	17.500	1.6955e-05
12.250	17.750	2.5679e-05
12.250	18.000	4.1070e-05
12.250	18.250	6.6996e-05
12.250	18.500	1.0700e-04
12.250	18.750	1.6724e-04
12.250	19.000	2.5580e-04
12.250	19.250	3.8691e-04
12.250	19.500	5.7350e-04
12.250	19.750	8.4049e-04
12.250	20.000	1.2161e-03
12.250	20.250	1.7505e-03
12.250	20.500	2.4879e-03
12.250	20.750	3.5022e-03
12.250	21.000	4.9001e-03
12.250	21.250	6.7198e-03
12.250	21.500	9.3063e-03
12.250	21.750	1.2052e-02
12.250	22.000	1.3983e-02
12.250	22.250	1.5386e-02
12.250	22.500	1.6424e-02
12.250	22.750	1.7229e-02
12.250	23.000	1.7604e-02
12.250	23.250	1.7835e-02
12.250	23.500	1.8021e-02
12.250	23.750	1.8188e-02
12.250	24.000	1.8225e-02
12.500	17.000	3.0453e-06
12.500	17.250	6.9136e-06
12.500	17.500	1.2593e-05
12.500	17.750	1.8683e-05
12.500	18.000	2.8889e-05
12.500	18.250	4.5679e-05
12.500	18.500	7.2675e-05
12.500	18.750	1.1432e-04
12.500	19.000	1.7588e-04
12.500	19.250	2.6716e-04
12.500	19.500	3.9802e-04
12.500	19.750	5.8527e-04
12.500	20.000	8.5235e-04
12.500	20.250	1.2278e-03
12.500	20.500	1.7482e-03
12.500	20.750	2.4672e-03
12.500	21.000	3.4285e-03
12.500	21.250	4.6686e-03
12.500	21.500	6.4286e-03
12.500	21.750	8.5747e-03
12.500	22.000	1.1074e-02
12.500	22.250	1.3139e-02
12.500	22.500	1.4836e-02
12.500	22.750	1.5959e-02
12.500	23.000	1.6840e-02
12.500	23.250	1.7317e-02
12.500	23.500	1.7623e-02
12.500	23.750	1.7884e-02
12.500	24.000	1.8144e-02
12.750	17.000	1.5638e-06
12.750	17.250	3.3745e-06
12.750	17.500	7.4074e-06
12.750	17.750	1.3416e-05
12.750	18.000	2.0412e-05
12.750	18.250	3.1523e-05
12.750	18.500	4.9630e-05
12.750	18.750	7.7778e-05
12.750	19.000	1.2025e-04
12.750	19.250	1.8272e-04
12.750	19.500	2.7374e-04
12.750	19.750	4.0486e-04
12.750	20.000	5.9251e-04
12.750	20.250	8.5811e-04
12.750	20.500	1.2276e-03
12.750	20.750	1.7334e-03
12.750	21.000	2.4071e-03
12.750	21.250	3.2690e-03
12.750	21.500	4.4588e-03
12.750	21.750	5.8131e-03
12.750	22.000	7.6007e-03
12.750	22.250	9.8149e-03
12.750	22.500	1.2101e-02
12.750	22.750	1.3837e-02
12.750	23.000	1.5215e-02
12.750	23.250	1.6276e-02
12.750	23.500	1.6900e-02
12.750	23.750	1.7303e-02
12.750	24.000	1.7671e-02
13.000	17.000	1.0000e-07
13.000	17.250	9.8765e-07
13.000	17.500	2.7984e-06
13.000	17.750	6.7490e-06
13.000	18.000	1.2675e-05
13.000	18.250	2.0576e-05
13.000	18.500	3.3827e-05
13.000	18.750	5.2593e-05
13.000	19.000	8.1399e-05
13.000	19.250	1.2428e-04
13.000	19.500	1.8790e-04
13.000	19.750	2.7893e-04
13.000	20.000	4.0979e-04
13.000	20.250	5.9605e-04
13.000	20.500	8.5761e-04
13.000	20.750	1.2176e-03
13.000	21.000	1.6953e-03
13.000	21.250	2.2976e-03
13.000	21.500	3.1282e-03
13.000	21.750	3.9947e-03
13.000	22.000	4.9865e-03
13.000	22.250	6.4748e-03
13.000	22.500	8.5121e-03
13.000	22.750	1.0661e-02
13.000	23.000	1.2538e-02
13.000	23.250	1.4203e-02
13.000	23.500	1.5488e-02
13.000	23.750	1.6296e-02
13.000	24.000	1.6823e-02
13.250	17.000	1.0000e-07
13.250	17.250	1.0000e-07
13.250	17.500	1.1523e-06
13.250	17.750	2.6337e-06
13.250	18.000	6.5021e-06
13.250	18.250	1.3169e-05
13.250	18.500	2.1481e-05
13.250	18.750	3.5885e-05
13.250	19.000	5.4897e-05
13.250	19.250	8.3951e-05
13.250	19.500	1.2757e-04
13.250	19.750	1.9070e-04
13.250	20.000	2.8156e-04
13.250	20.250	4.1177e-04
13.250	20.500	5.9580e-04
13.250	20.750	8.5045e-04
13.250	21.000	1.1917e-03
13.250	21.250	1.6232e-03
13.250	21.500	2.2094e-03
13.250	21.750	2.7786e-03
13.250	22.000	3.3216e-03
13.250	22.250	4.0076e-03
13.250	22.500	5.2712e-03
13.250	22.750	7.0263e-03
13.250	23.000	9.0063e-03
13.250	23.250	1.1039e-02
13.250	23.500	1.2916e-02
13.250	23.750	1.4423e-02
13.250	24.000	1.5442e-02
13.500	17.000	1.0000e-07
13.500	17.250	1.0000e-07
13.500	17.500	1.0000e-07
13.500	17.750	1.3992e-06
13.500	18.000	3.2922e-06
13.500	18.250	7.5720e-06
13.500	18.500	1.4239e-05
13.500	18.750	2.3292e-05
13.500	19.000	3.7366e-05
13.500	19.250	5.6708e-05
13.500	19.500	8.6008e-05
13.500	19.750	1.2905e-04
13.500	20.000	1.9202e-04
13.500	20.250	2.8255e-04
13.500	20.500	4.1136e-04
13.500	20.750	5.9012e-04
13.500	21.000	8.3177e-04
13.500	21.250	1.1402e-03
13.500	21.500	1.5566e-03
13.500	21.750	1.9516e-03
13.500	22.000	2.2273e-03
13.500	22.250	2.4947e-03
13.500	22.500	3.1116e-03
13.500	22.750	4.1974e-03
13.500	23.000	5.6856e-03
13.500	23.250	7.4367e-03
13.500	23.500	9.3966e-03
13.500	23.750	1.1373e-02
13.500	24.000	1.3045e-02
13.750	17.000	1.0000e-07
13.750	17.250	1.0000e-07
13.750	17.500	1.0000e-07
13.750	17.750	1.0000e-07
13.750	18.000	1.7284e-06
13.750	18.250	3.8683e-06
13.750	18.500	8.1481e-06
13.750	18.750	1.5062e-05
13.750	19.000	2.4774e-05
13.750	19.250	3.8354e-05
13.750	19.500	5.7778e-05
13.750	19.750	8.6996e-05
13.750	20.000	1.3004e-04
13.750	20.250	1.9276e-04
13.750	20.500	2.8222e-04
13.750	20.750	4.0774e-04
13.750	21.000	5.7852e-04
13.750	21.250	7.9778e-04
13.750	21.500	1.0979e-03
13.750	21.750	1.3751e-03
13.750	22.000	1.5278e-03
13.750	22.250	1.5820e-03
13.750	22.500	1.8319e-03
13.750	22.750	2.4365e-03
13.750	23.000	3.3109e-03
13.750	23.250	4.4831e-03
13.750	23.500	5.9815e-03
13.750	23.750	7.6514e-03
13.750	24.000	9.6147e-03
14.000	17.000	1.0000e-07
14.000	17.250	1.0000e-07
14.000	17.500	1.0000e-07
14.000	17.750	1.0000e-07
14.000	18.000	9.0535e-07
14.000	18.250	2.0576e-06
14.000	18.500	4.2798e-06
14.000	18.750	8.5597e-06
14.000	19.000	1.6132e-05
14.000	19.250	2.5761e-05
14.000	19.500	3.8930e-05
14.000	19.750	5.8354e-05
14.000	20.000	8.7572e-05
14.000	20.250	1.3045e-04
14.000	20.500	1.9251e-04
14.000	20.750	2.8008e-04
14.000	21.000	4.0016e-04
14.000	21.250	5.5564e-04
14.000	21.500	7.7111e-04
14.000	21.750	9.6815e-04
14.000	22.000	1.0548e-03
14.000	22.250	1.0249e-03
14.000	22.500	1.0950e-03
14.000	22.750	1.4172e-03
14.000	23.000	1.9229e-03
14.000	23.250	2.5832e-03
14.000	23.500	3.4643e-03
14.000	23.750	4.5594e-03
14.000	24.000	5.9402e-03
