H  1 1025.73A  relative to Inci 1215.00A scaled to 1215A.
Hden   Phi(H)  Eq_Width (A)
 7.000	17.000	4.4658e-04
 7.000	17.250	5.6782e-04
 7.000	17.500	6.8601e-04
 7.000	17.750	6.4107e-04
 7.000	18.000	8.6346e-04
 7.000	18.250	7.1309e-04
 7.000	18.500	7.2988e-04
 7.000	18.750	5.9827e-04
 7.000	19.000	2.8535e-04
 7.000	19.250	5.0370e-05
 7.000	19.500	9.8765e-06
 7.000	19.750	2.5514e-06
 7.000	20.000	8.2305e-07
 7.000	20.250	1.0000e-07
 7.000	20.500	1.0000e-07
 7.000	20.750	1.0000e-07
 7.000	21.000	1.0000e-07
 7.000	21.250	1.0000e-07
 7.000	21.500	1.0000e-07
 7.000	21.750	1.0000e-07
 7.000	22.000	1.0000e-07
 7.000	22.250	1.0000e-07
 7.000	22.500	1.0000e-07
 7.000	22.750	1.0000e-07
 7.000	23.000	1.0000e-07
 7.000	23.250	1.0000e-07
 7.000	23.500	1.0000e-07
 7.000	23.750	1.0000e-07
 7.000	24.000	1.0000e-07
 7.250	17.000	4.2296e-04
 7.250	17.250	5.1967e-04
 7.250	17.500	6.8486e-04
 7.250	17.750	8.2724e-04
 7.250	18.000	7.0872e-04
 7.250	18.250	7.9646e-04
 7.250	18.500	7.3086e-04
 7.250	18.750	7.3235e-04
 7.250	19.000	5.9868e-04
 7.250	19.250	2.8543e-04
 7.250	19.500	5.0370e-05
 7.250	19.750	9.8765e-06
 7.250	20.000	2.5514e-06
 7.250	20.250	8.2305e-07
 7.250	20.500	1.0000e-07
 7.250	20.750	1.0000e-07
 7.250	21.000	1.0000e-07
 7.250	21.250	1.0000e-07
 7.250	21.500	1.0000e-07
 7.250	21.750	1.0000e-07
 7.250	22.000	1.0000e-07
 7.250	22.250	1.0000e-07
 7.250	22.500	1.0000e-07
 7.250	22.750	1.0000e-07
 7.250	23.000	1.0000e-07
 7.250	23.250	1.0000e-07
 7.250	23.500	1.0000e-07
 7.250	23.750	1.0000e-07
 7.250	24.000	1.0000e-07
 7.500	17.000	4.1547e-04
 7.500	17.250	4.9819e-04
 7.500	17.500	6.4091e-04
 7.500	17.750	8.7794e-04
 7.500	18.000	1.0208e-03
 7.500	18.250	7.2091e-04
 7.500	18.500	9.4099e-04
 7.500	18.750	7.3185e-04
 7.500	19.000	7.3424e-04
 7.500	19.250	5.9926e-04
 7.500	19.500	2.8551e-04
 7.500	19.750	5.0370e-05
 7.500	20.000	9.8765e-06
 7.500	20.250	2.5514e-06
 7.500	20.500	8.2305e-07
 7.500	20.750	1.0000e-07
 7.500	21.000	1.0000e-07
 7.500	21.250	1.0000e-07
 7.500	21.500	1.0000e-07
 7.500	21.750	1.0000e-07
 7.500	22.000	1.0000e-07
 7.500	22.250	1.0000e-07
 7.500	22.500	1.0000e-07
 7.500	22.750	1.0000e-07
 7.500	23.000	1.0000e-07
 7.500	23.250	1.0000e-07
 7.500	23.500	1.0000e-07
 7.500	23.750	1.0000e-07
 7.500	24.000	1.0000e-07
 7.750	17.000	4.1259e-04
 7.750	17.250	4.8988e-04
 7.750	17.500	6.1942e-04
 7.750	17.750	8.3992e-04
 7.750	18.000	1.1973e-03
 7.750	18.250	1.3517e-03
 7.750	18.500	8.0774e-04
 7.750	18.750	1.0396e-03
 7.750	19.000	7.3860e-04
 7.750	19.250	7.3909e-04
 7.750	19.500	6.0025e-04
 7.750	19.750	2.8576e-04
 7.750	20.000	5.0453e-05
 7.750	20.250	9.8765e-06
 7.750	20.500	2.5514e-06
 7.750	20.750	8.2305e-07
 7.750	21.000	1.0000e-07
 7.750	21.250	1.0000e-07
 7.750	21.500	1.0000e-07
 7.750	21.750	1.0000e-07
 7.750	22.000	1.0000e-07
 7.750	22.250	1.0000e-07
 7.750	22.500	1.0000e-07
 7.750	22.750	1.0000e-07
 7.750	23.000	1.0000e-07
 7.750	23.250	1.0000e-07
 7.750	23.500	1.0000e-07
 7.750	23.750	1.0000e-07
 7.750	24.000	1.0000e-07
 8.000	17.000	4.0626e-04
 8.000	17.250	4.7819e-04
 8.000	17.500	6.0247e-04
 8.000	17.750	8.1235e-04
 8.000	18.000	1.1623e-03
 8.000	18.250	1.7195e-03
 8.000	18.500	2.0200e-03
 8.000	18.750	9.2527e-04
 8.000	19.000	8.7251e-04
 8.000	19.250	7.5473e-04
 8.000	19.500	7.4510e-04
 8.000	19.750	6.0173e-04
 8.000	20.000	2.8593e-04
 8.000	20.250	5.0453e-05
 8.000	20.500	9.8765e-06
 8.000	20.750	2.5514e-06
 8.000	21.000	8.2305e-07
 8.000	21.250	1.0000e-07
 8.000	21.500	1.0000e-07
 8.000	21.750	1.0000e-07
 8.000	22.000	1.0000e-07
 8.000	22.250	1.0000e-07
 8.000	22.500	1.0000e-07
 8.000	22.750	1.0000e-07
 8.000	23.000	1.0000e-07
 8.000	23.250	1.0000e-07
 8.000	23.500	1.0000e-07
 8.000	23.750	1.0000e-07
 8.000	24.000	1.0000e-07
 8.250	17.000	3.9860e-04
 8.250	17.250	4.7037e-04
 8.250	17.500	5.9514e-04
 8.250	17.750	8.1070e-04
 8.250	18.000	1.1694e-03
 8.250	18.250	1.7423e-03
 8.250	18.500	2.6160e-03
 8.250	18.750	3.0675e-03
 8.250	19.000	1.1212e-03
 8.250	19.250	9.4321e-04
 8.250	19.500	7.6288e-04
 8.250	19.750	7.5177e-04
 8.250	20.000	6.0346e-04
 8.250	20.250	2.8617e-04
 8.250	20.500	5.0453e-05
 8.250	20.750	9.9588e-06
 8.250	21.000	2.5514e-06
 8.250	21.250	8.2305e-07
 8.250	21.500	1.0000e-07
 8.250	21.750	1.0000e-07
 8.250	22.000	1.0000e-07
 8.250	22.250	1.0000e-07
 8.250	22.500	1.0000e-07
 8.250	22.750	1.0000e-07
 8.250	23.000	1.0000e-07
 8.250	23.250	1.0000e-07
 8.250	23.500	1.0000e-07
 8.250	23.750	1.0000e-07
 8.250	24.000	1.0000e-07
 8.500	17.000	3.8724e-04
 8.500	17.250	4.6066e-04
 8.500	17.500	5.9045e-04
 8.500	17.750	8.1704e-04
 8.500	18.000	1.2012e-03
 8.500	18.250	1.8036e-03
 8.500	18.500	2.7123e-03
 8.500	18.750	4.0245e-03
 8.500	19.000	4.6971e-03
 8.500	19.250	1.7333e-03
 8.500	19.500	8.2486e-04
 8.500	19.750	7.8502e-04
 8.500	20.000	7.5671e-04
 8.500	20.250	6.0486e-04
 8.500	20.500	2.8617e-04
 8.500	20.750	5.0453e-05
 8.500	21.000	9.8765e-06
 8.500	21.250	2.5514e-06
 8.500	21.500	8.2305e-07
 8.500	21.750	1.0000e-07
 8.500	22.000	1.0000e-07
 8.500	22.250	1.0000e-07
 8.500	22.500	1.0000e-07
 8.500	22.750	1.0000e-07
 8.500	23.000	1.0000e-07
 8.500	23.250	1.0000e-07
 8.500	23.500	1.0000e-07
 8.500	23.750	1.0000e-07
 8.500	24.000	1.0000e-07
 8.750	17.000	3.7671e-04
 8.750	17.250	4.5284e-04
 8.750	17.500	5.9185e-04
 8.750	17.750	8.3638e-04
 8.750	18.000	1.2482e-03
 8.750	18.250	1.9022e-03
 8.750	18.500	2.8512e-03
 8.750	18.750	4.1918e-03
 8.750	19.000	6.0259e-03
 8.750	19.250	7.0787e-03
 8.750	19.500	2.5622e-03
 8.750	19.750	8.7078e-04
 8.750	20.000	7.8370e-04
 8.750	20.250	7.5885e-04
 8.750	20.500	6.0494e-04
 8.750	20.750	2.8576e-04
 8.750	21.000	5.0370e-05
 8.750	21.250	9.8765e-06
 8.750	21.500	2.5514e-06
 8.750	21.750	8.2305e-07
 8.750	22.000	1.0000e-07
 8.750	22.250	1.0000e-07
 8.750	22.500	1.0000e-07
 8.750	22.750	1.0000e-07
 8.750	23.000	1.0000e-07
 8.750	23.250	1.0000e-07
 8.750	23.500	1.0000e-07
 8.750	23.750	1.0000e-07
 8.750	24.000	1.0000e-07
 9.000	17.000	3.8165e-04
 9.000	17.250	4.6444e-04
 9.000	17.500	6.1037e-04
 9.000	17.750	8.7737e-04
 9.000	18.000	1.3267e-03
 9.000	18.250	2.0295e-03
 9.000	18.500	3.0470e-03
 9.000	18.750	4.4058e-03
 9.000	19.000	6.2064e-03
 9.000	19.250	8.6333e-03
 9.000	19.500	9.6348e-03
 9.000	19.750	3.2796e-03
 9.000	20.000	9.5037e-04
 9.000	20.250	7.9597e-04
 9.000	20.500	7.5457e-04
 9.000	20.750	6.0255e-04
 9.000	21.000	2.8444e-04
 9.000	21.250	5.0206e-05
 9.000	21.500	9.8765e-06
 9.000	21.750	2.5514e-06
 9.000	22.000	8.2305e-07
 9.000	22.250	1.0000e-07
 9.000	22.500	1.0000e-07
 9.000	22.750	1.0000e-07
 9.000	23.000	1.0000e-07
 9.000	23.250	1.0000e-07
 9.000	23.500	1.0000e-07
 9.000	23.750	1.0000e-07
 9.000	24.000	1.0000e-07
 9.250	17.000	3.9391e-04
 9.250	17.250	4.9383e-04
 9.250	17.500	6.6971e-04
 9.250	17.750	9.7021e-04
 9.250	18.000	1.4592e-03
 9.250	18.250	2.2099e-03
 9.250	18.500	3.2715e-03
 9.250	18.750	4.6857e-03
 9.250	19.000	6.4534e-03
 9.250	19.250	8.7380e-03
 9.250	19.500	1.2043e-02
 9.250	19.750	1.2368e-02
 9.250	20.000	4.4917e-03
 9.250	20.250	1.0459e-03
 9.250	20.500	6.9053e-04
 9.250	20.750	7.4041e-04
 9.250	21.000	5.9605e-04
 9.250	21.250	2.8173e-04
 9.250	21.500	4.9877e-05
 9.250	21.750	9.7942e-06
 9.250	22.000	2.4691e-06
 9.250	22.250	8.2305e-07
 9.250	22.500	1.0000e-07
 9.250	22.750	1.0000e-07
 9.250	23.000	1.0000e-07
 9.250	23.250	1.0000e-07
 9.250	23.500	1.0000e-07
 9.250	23.750	1.0000e-07
 9.250	24.000	1.0000e-07
 9.500	17.000	4.1037e-04
 9.500	17.250	5.4016e-04
 9.500	17.500	7.6272e-04
 9.500	17.750	1.1202e-03
 9.500	18.000	1.6703e-03
 9.500	18.250	2.4663e-03
 9.500	18.500	3.5490e-03
 9.500	18.750	4.9792e-03
 9.500	19.000	6.7565e-03
 9.500	19.250	8.9260e-03
 9.500	19.500	1.1792e-02
 9.500	19.750	1.6893e-02
 9.500	20.000	1.4929e-02
 9.500	20.250	6.7578e-03
 9.500	20.500	1.2042e-03
 9.500	20.750	6.8560e-04
 9.500	21.000	7.1416e-04
 9.500	21.250	5.8444e-04
 9.500	21.500	2.7737e-04
 9.500	21.750	4.9218e-05
 9.500	22.000	9.7119e-06
 9.500	22.250	2.4691e-06
 9.500	22.500	1.0000e-07
 9.500	22.750	1.0000e-07
 9.500	23.000	1.0000e-07
 9.500	23.250	1.0000e-07
 9.500	23.500	1.0000e-07
 9.500	23.750	1.0000e-07
 9.500	24.000	1.0000e-07
 9.750	17.000	4.3819e-04
 9.750	17.250	6.0905e-04
 9.750	17.500	8.9959e-04
 9.750	17.750	1.3504e-03
 9.750	18.000	1.9746e-03
 9.750	18.250	2.8013e-03
 9.750	18.500	3.8895e-03
 9.750	18.750	5.2897e-03
 9.750	19.000	7.0320e-03
 9.750	19.250	9.1033e-03
 9.750	19.500	1.1639e-02
 9.750	19.750	1.5043e-02
 9.750	20.000	1.8720e-02
 9.750	20.250	1.3542e-02
 9.750	20.500	8.8479e-03
 9.750	20.750	1.5220e-03
 9.750	21.000	6.8222e-04
 9.750	21.250	6.7490e-04
 9.750	21.500	5.6510e-04
 9.750	21.750	2.7045e-04
 9.750	22.000	4.8230e-05
 9.750	22.250	9.4650e-06
 9.750	22.500	2.3868e-06
 9.750	22.750	1.0000e-07
 9.750	23.000	1.0000e-07
 9.750	23.250	1.0000e-07
 9.750	23.500	1.0000e-07
 9.750	23.750	1.0000e-07
 9.750	24.000	1.0000e-07
10.000	17.000	4.7621e-04
10.000	17.250	6.9679e-04
10.000	17.500	1.0734e-03
10.000	17.750	1.6389e-03
10.000	18.000	2.3723e-03
10.000	18.250	3.2292e-03
10.000	18.500	4.2932e-03
10.000	18.750	5.6291e-03
10.000	19.000	7.2356e-03
10.000	19.250	9.0956e-03
10.000	19.500	1.1287e-02
10.000	19.750	1.4070e-02
10.000	20.000	1.7626e-02
10.000	20.250	2.2238e-02
10.000	20.500	1.3201e-02
10.000	20.750	7.1593e-03
10.000	21.000	2.6362e-03
10.000	21.250	7.0691e-04
10.000	21.500	6.2914e-04
10.000	21.750	5.3844e-04
10.000	22.000	2.6091e-04
10.000	22.250	4.6831e-05
10.000	22.500	9.2181e-06
10.000	22.750	2.3045e-06
10.000	23.000	1.0000e-07
10.000	23.250	1.0000e-07
10.000	23.500	1.0000e-07
10.000	23.750	1.0000e-07
10.000	24.000	1.0000e-07
10.250	17.000	5.3465e-04
10.250	17.250	8.0576e-04
10.250	17.500	1.2641e-03
10.250	17.750	1.9416e-03
10.250	18.000	2.7748e-03
10.250	18.250	3.7055e-03
10.250	18.500	4.7482e-03
10.250	18.750	5.9639e-03
10.250	19.000	7.3416e-03
10.250	19.250	8.8625e-03
10.250	19.500	1.0570e-02
10.250	19.750	1.2617e-02
10.250	20.000	1.5351e-02
10.250	20.250	1.8774e-02
10.250	20.500	1.6385e-02
10.250	20.750	1.2989e-02
10.250	21.000	8.3379e-03
10.250	21.250	2.7741e-03
10.250	21.500	7.7580e-04
10.250	21.750	5.8568e-04
10.250	22.000	5.0000e-04
10.250	22.250	2.4823e-04
10.250	22.500	4.4691e-05
10.250	22.750	8.7243e-06
10.250	23.000	2.1399e-06
10.250	23.250	1.0000e-07
10.250	23.500	1.0000e-07
10.250	23.750	1.0000e-07
10.250	24.000	1.0000e-07
10.500	17.000	5.7136e-04
10.500	17.250	8.8486e-04
10.500	17.500	1.4120e-03
10.500	17.750	2.1992e-03
10.500	18.000	3.1127e-03
10.500	18.250	4.1061e-03
10.500	18.500	5.1445e-03
10.500	18.750	6.1948e-03
10.500	19.000	7.2753e-03
10.500	19.250	8.4030e-03
10.500	19.500	9.6077e-03
10.500	19.750	1.0987e-02
10.500	20.000	1.2745e-02
10.500	20.250	1.5305e-02
10.500	20.500	1.8265e-02
10.500	20.750	1.7155e-02
10.500	21.000	1.2189e-02
10.500	21.250	6.0691e-03
10.500	21.500	2.8578e-03
10.500	21.750	1.0563e-03
10.500	22.000	5.6058e-04
10.500	22.250	4.6741e-04
10.500	22.500	2.3391e-04
10.500	22.750	4.1975e-05
10.500	23.000	8.0658e-06
10.500	23.250	1.9753e-06
10.500	23.500	1.0000e-07
10.500	23.750	1.0000e-07
10.500	24.000	1.0000e-07
10.750	17.000	6.1111e-04
10.750	17.250	9.5654e-04
10.750	17.500	1.5156e-03
10.750	17.750	2.3355e-03
10.750	18.000	3.3198e-03
10.750	18.250	4.3430e-03
10.750	18.500	5.3260e-03
10.750	18.750	6.2128e-03
10.750	19.000	7.0143e-03
10.750	19.250	7.7840e-03
10.750	19.500	8.5543e-03
10.750	19.750	9.3988e-03
10.750	20.000	1.0416e-02
10.750	20.250	1.1839e-02
10.750	20.500	1.4114e-02
10.750	20.750	1.6190e-02
10.750	21.000	1.3608e-02
10.750	21.250	1.0752e-02
10.750	21.500	6.8878e-03
10.750	21.750	2.8891e-03
10.750	22.000	1.1354e-03
10.750	22.250	5.6354e-04
10.750	22.500	4.4214e-04
10.750	22.750	2.1992e-04
10.750	23.000	3.8683e-05
10.750	23.250	7.2428e-06
10.750	23.500	1.6461e-06
10.750	23.750	1.0000e-07
10.750	24.000	1.0000e-07
11.000	17.000	6.4601e-04
11.000	17.250	9.9934e-04
11.000	17.500	1.5419e-03
11.000	17.750	2.3382e-03
11.000	18.000	3.3082e-03
11.000	18.250	4.2993e-03
11.000	18.500	5.2123e-03
11.000	18.750	5.9685e-03
11.000	19.000	6.5574e-03
11.000	19.250	7.0468e-03
11.000	19.500	7.4948e-03
11.000	19.750	7.9598e-03
11.000	20.000	8.4943e-03
11.000	20.250	9.2052e-03
11.000	20.500	1.0325e-02
11.000	20.750	1.2214e-02
11.000	21.000	1.2605e-02
11.000	21.250	1.1892e-02
11.000	21.500	8.2352e-03
11.000	21.750	4.9229e-03
11.000	22.000	2.3538e-03
11.000	22.250	1.2827e-03
11.000	22.500	6.3078e-04
11.000	22.750	4.2757e-04
11.000	23.000	2.0708e-04
11.000	23.250	3.4815e-05
11.000	23.500	6.2551e-06
11.000	23.750	1.3169e-06
11.000	24.000	1.0000e-07
11.250	17.000	6.6461e-04
11.250	17.250	1.0073e-03
11.250	17.500	1.4990e-03
11.250	17.750	2.2095e-03
11.250	18.000	3.0998e-03
11.250	18.250	3.9951e-03
11.250	18.500	4.8079e-03
11.250	18.750	5.4766e-03
11.250	19.000	5.9449e-03
11.250	19.250	6.2522e-03
11.250	19.500	6.4827e-03
11.250	19.750	6.6980e-03
11.250	20.000	6.9453e-03
11.250	20.250	7.2678e-03
11.250	20.500	7.7598e-03
11.250	20.750	8.6364e-03
11.250	21.000	1.0111e-02
11.250	21.250	1.5889e-02
11.250	21.500	7.4036e-03
11.250	21.750	5.7943e-03
11.250	22.000	4.0439e-03
11.250	22.250	2.4605e-03
11.250	22.500	1.2316e-03
11.250	22.750	6.5580e-04
11.250	23.000	4.2008e-04
11.250	23.250	1.9391e-04
11.250	23.500	3.0453e-05
11.250	23.750	5.1029e-06
11.250	24.000	9.8765e-07
11.500	17.000	6.6576e-04
11.500	17.250	9.8658e-04
11.500	17.500	1.4123e-03
11.500	17.750	1.9988e-03
11.500	18.000	2.7502e-03
11.500	18.250	3.5190e-03
11.500	18.500	4.2089e-03
11.500	18.750	4.7895e-03
11.500	19.000	5.2096e-03
11.500	19.250	5.4405e-03
11.500	19.500	5.5456e-03
11.500	19.750	5.6165e-03
11.500	20.000	5.6967e-03
11.500	20.250	5.8184e-03
11.500	20.500	6.0156e-03
11.500	20.750	6.3679e-03
11.500	21.000	7.0500e-03
11.500	21.250	8.7512e-03
11.500	21.500	7.8152e-03
11.500	21.750	6.1309e-03
11.500	22.000	4.2316e-03
11.500	22.250	3.0337e-03
11.500	22.500	1.8742e-03
11.500	22.750	1.1622e-03
11.500	23.000	6.7078e-04
11.500	23.250	4.0823e-04
11.500	23.500	1.7638e-04
11.500	23.750	2.5267e-05
11.500	24.000	3.8683e-06
11.750	17.000	6.6132e-04
11.750	17.250	9.4206e-04
11.750	17.500	1.2995e-03
11.750	17.750	1.7600e-03
11.750	18.000	2.3448e-03
11.750	18.250	2.9701e-03
11.750	18.500	3.5421e-03
11.750	18.750	4.0169e-03
11.750	19.000	4.3970e-03
11.750	19.250	4.6277e-03
11.750	19.500	4.7067e-03
11.750	19.750	4.7053e-03
11.750	20.000	4.6989e-03
11.750	20.250	4.7216e-03
11.750	20.500	4.7821e-03
11.750	20.750	4.9160e-03
11.750	21.000	5.1865e-03
11.750	21.250	5.7164e-03
11.750	21.500	6.9227e-03
11.750	21.750	6.0360e-03
11.750	22.000	4.2784e-03
11.750	22.250	2.9365e-03
11.750	22.500	2.5193e-03
11.750	22.750	1.3986e-03
11.750	23.000	9.8436e-04
11.750	23.250	6.4494e-04
11.750	23.500	3.7942e-04
11.750	23.750	1.5136e-04
11.750	24.000	1.9753e-05
12.000	17.000	6.4148e-04
12.000	17.250	8.8091e-04
12.000	17.500	1.1786e-03
12.000	17.750	1.5302e-03
12.000	18.000	1.9637e-03
12.000	18.250	2.4394e-03
12.000	18.500	2.8984e-03
12.000	18.750	3.2881e-03
12.000	19.000	3.5923e-03
12.000	19.250	3.8319e-03
12.000	19.500	3.9556e-03
12.000	19.750	3.9584e-03
12.000	20.000	3.9162e-03
12.000	20.250	3.8875e-03
12.000	20.500	3.8920e-03
12.000	20.750	3.9335e-03
12.000	21.000	4.0426e-03
12.000	21.250	4.2593e-03
12.000	21.500	4.6509e-03
12.000	21.750	5.8776e-03
12.000	22.000	4.3916e-03
12.000	22.250	3.9526e-03
12.000	22.500	2.4167e-03
12.000	22.750	1.7776e-03
12.000	23.000	1.6144e-03
12.000	23.250	7.9761e-04
12.000	23.500	5.8543e-04
12.000	23.750	3.2963e-04
12.000	24.000	1.2082e-04
12.250	17.000	5.9827e-04
12.250	17.250	8.3053e-04
12.250	17.500	1.0661e-03
12.250	17.750	1.3365e-03
12.250	18.000	1.6503e-03
12.250	18.250	1.9994e-03
12.250	18.500	2.3533e-03
12.250	18.750	2.6737e-03
12.250	19.000	2.9171e-03
12.250	19.250	3.1124e-03
12.250	19.500	3.2734e-03
12.250	19.750	3.3435e-03
12.250	20.000	3.3205e-03
12.250	20.250	3.2732e-03
12.250	20.500	3.2466e-03
12.250	20.750	3.2501e-03
12.250	21.000	3.2971e-03
12.250	21.250	3.3937e-03
12.250	21.500	3.5560e-03
12.250	21.750	3.8607e-03
12.250	22.000	4.7530e-03
12.250	22.250	3.0294e-03
12.250	22.500	2.1038e-03
12.250	22.750	1.6607e-03
12.250	23.000	1.7003e-03
12.250	23.250	1.0697e-03
12.250	23.500	6.1802e-04
12.250	23.750	4.8486e-04
12.250	24.000	2.6691e-04
12.500	17.000	5.8593e-04
12.500	17.250	7.7160e-04
12.500	17.500	9.7984e-04
12.500	17.750	1.1887e-03
12.500	18.000	1.4212e-03
12.500	18.250	1.6744e-03
12.500	18.500	1.9378e-03
12.500	18.750	2.1953e-03
12.500	19.000	2.4106e-03
12.500	19.250	2.5565e-03
12.500	19.500	2.6849e-03
12.500	19.750	2.8065e-03
12.500	20.000	2.8575e-03
12.500	20.250	2.8331e-03
12.500	20.500	2.7935e-03
12.500	20.750	2.7757e-03
12.500	21.000	2.7865e-03
12.500	21.250	2.8328e-03
12.500	21.500	2.9153e-03
12.500	21.750	3.0455e-03
12.500	22.000	3.2779e-03
12.500	22.250	3.8853e-03
12.500	22.500	2.7726e-03
12.500	22.750	1.7169e-03
12.500	23.000	1.4403e-03
12.500	23.250	9.9284e-04
12.500	23.500	6.8321e-04
12.500	23.750	4.7498e-04
12.500	24.000	3.8354e-04
12.750	17.000	5.5992e-04
12.750	17.250	7.2387e-04
12.750	17.500	9.1004e-04
12.750	17.750	1.0898e-03
12.750	18.000	1.2727e-03
12.750	18.250	1.4583e-03
12.750	18.500	1.6541e-03
12.750	18.750	1.8505e-03
12.750	19.000	2.0302e-03
12.750	19.250	2.1715e-03
12.750	19.500	2.2563e-03
12.750	19.750	2.3487e-03
12.750	20.000	2.4551e-03
12.750	20.250	2.5045e-03
12.750	20.500	2.4853e-03
12.750	20.750	2.4532e-03
12.750	21.000	2.4441e-03
12.750	21.250	2.4599e-03
12.750	21.500	2.4931e-03
12.750	21.750	2.5609e-03
12.750	22.000	2.6640e-03
12.750	22.250	3.0491e-03
12.750	22.500	3.0661e-03
12.750	22.750	2.5977e-03
12.750	23.000	1.7922e-03
12.750	23.250	1.0097e-03
12.750	23.500	6.7399e-04
12.750	23.750	6.0058e-04
12.750	24.000	4.1086e-04
13.000	17.000	5.3259e-04
13.000	17.250	6.8658e-04
13.000	17.500	8.2700e-04
13.000	17.750	1.0114e-03
13.000	18.000	1.1707e-03
13.000	18.250	1.3286e-03
13.000	18.500	1.4815e-03
13.000	18.750	1.6335e-03
13.000	19.000	1.7746e-03
13.000	19.250	1.8956e-03
13.000	19.500	1.9702e-03
13.000	19.750	2.0258e-03
13.000	20.000	2.1035e-03
13.000	20.250	2.2111e-03
13.000	20.500	2.2682e-03
13.000	20.750	2.2561e-03
13.000	21.000	2.2283e-03
13.000	21.250	2.2164e-03
13.000	21.500	2.2170e-03
13.000	21.750	2.2453e-03
13.000	22.000	2.2966e-03
13.000	22.250	2.3770e-03
13.000	22.500	3.0452e-03
13.000	22.750	4.8024e-03
13.000	23.000	2.8740e-03
13.000	23.250	1.2750e-03
13.000	23.500	7.0000e-04
13.000	23.750	6.0733e-04
13.000	24.000	4.4947e-04
13.250	17.000	5.4099e-04
13.250	17.250	6.4807e-04
13.250	17.500	7.8823e-04
13.250	17.750	9.2724e-04
13.250	18.000	1.1006e-03
13.250	18.250	1.2602e-03
13.250	18.500	1.3985e-03
13.250	18.750	1.5239e-03
13.250	19.000	1.6355e-03
13.250	19.250	1.7253e-03
13.250	19.500	1.7910e-03
13.250	19.750	1.8393e-03
13.250	20.000	1.8731e-03
13.250	20.250	1.9439e-03
13.250	20.500	2.0464e-03
13.250	20.750	2.1071e-03
13.250	21.000	2.1040e-03
13.250	21.250	2.0733e-03
13.250	21.500	2.0458e-03
13.250	21.750	2.0228e-03
13.250	22.000	2.0579e-03
13.250	22.250	2.0787e-03
13.250	22.500	2.1265e-03
13.250	22.750	2.7221e-03
13.250	23.000	2.2376e-03
13.250	23.250	1.6094e-03
13.250	23.500	8.6774e-04
13.250	23.750	1.0933e-03
13.250	24.000	6.6123e-04
13.500	17.000	5.5564e-04
13.500	17.250	6.5934e-04
13.500	17.500	7.6502e-04
13.500	17.750	8.9070e-04
13.500	18.000	1.0578e-03
13.500	18.250	1.2207e-03
13.500	18.500	1.3519e-03
13.500	18.750	1.4891e-03
13.500	19.000	1.5889e-03
13.500	19.250	1.6663e-03
13.500	19.500	1.7188e-03
13.500	19.750	1.7527e-03
13.500	20.000	1.7752e-03
13.500	20.250	1.8011e-03
13.500	20.500	1.8567e-03
13.500	20.750	1.9508e-03
13.500	21.000	2.0095e-03
13.500	21.250	1.9992e-03
13.500	21.500	1.9500e-03
13.500	21.750	1.9095e-03
13.500	22.000	1.8787e-03
13.500	22.250	1.8776e-03
13.500	22.500	1.8926e-03
13.500	22.750	1.9300e-03
13.500	23.000	2.0904e-03
13.500	23.250	2.4133e-03
13.500	23.500	1.0761e-03
13.500	23.750	1.0898e-03
13.500	24.000	7.1885e-04
13.750	17.000	5.3918e-04
13.750	17.250	6.4675e-04
13.750	17.500	7.7226e-04
13.750	17.750	8.8634e-04
13.750	18.000	1.0173e-03
13.750	18.250	1.1538e-03
13.750	18.500	1.3114e-03
13.750	18.750	1.4691e-03
13.750	19.000	1.5870e-03
13.750	19.250	1.6806e-03
13.750	19.500	1.7334e-03
13.750	19.750	1.7663e-03
13.750	20.000	1.7815e-03
13.750	20.250	1.7928e-03
13.750	20.500	1.8081e-03
13.750	20.750	1.8465e-03
13.750	21.000	1.9292e-03
13.750	21.250	1.9941e-03
13.750	21.500	1.9810e-03
13.750	21.750	1.9262e-03
13.750	22.000	1.8616e-03
13.750	22.250	1.8064e-03
13.750	22.500	1.7756e-03
13.750	22.750	1.7605e-03
13.750	23.000	1.7465e-03
13.750	23.250	2.5908e-03
13.750	23.500	1.4705e-03
13.750	23.750	1.1300e-03
13.750	24.000	9.2477e-04
14.000	17.000	5.2634e-04
14.000	17.250	6.3819e-04
14.000	17.500	7.5251e-04
14.000	17.750	8.9251e-04
14.000	18.000	1.0237e-03
14.000	18.250	1.1587e-03
14.000	18.500	1.3041e-03
14.000	18.750	1.4547e-03
14.000	19.000	1.5947e-03
14.000	19.250	1.7195e-03
14.000	19.500	1.7992e-03
14.000	19.750	1.8505e-03
14.000	20.000	1.8671e-03
14.000	20.250	1.8704e-03
14.000	20.500	1.8729e-03
14.000	20.750	1.8794e-03
14.000	21.000	1.9091e-03
14.000	21.250	1.9909e-03
14.000	21.500	2.0693e-03
14.000	21.750	2.0684e-03
14.000	22.000	1.9976e-03
14.000	22.250	1.9016e-03
14.000	22.500	1.8128e-03
14.000	22.750	1.7478e-03
14.000	23.000	1.6965e-03
14.000	23.250	1.6463e-03
14.000	23.500	1.8681e-03
14.000	23.750	1.6189e-02
14.000	24.000	1.0467e-03
