InwT 8329.68A  relative to Inci 1215.00A scaled to 1215A.
Hden   Phi(H)  Eq_Width (A)
 7.000	17.000	4.8372e-02
 7.000	17.250	5.1751e-02
 7.000	17.500	5.4662e-02
 7.000	17.750	4.6617e-02
 7.000	18.000	4.1077e-02
 7.000	18.250	3.7654e-02
 7.000	18.500	3.5773e-02
 7.000	18.750	3.5004e-02
 7.000	19.000	3.4651e-02
 7.000	19.250	3.4449e-02
 7.000	19.500	3.4371e-02
 7.000	19.750	3.4340e-02
 7.000	20.000	3.4326e-02
 7.000	20.250	3.4320e-02
 7.000	20.500	3.4318e-02
 7.000	20.750	3.4316e-02
 7.000	21.000	3.4315e-02
 7.000	21.250	3.4315e-02
 7.000	21.500	3.4314e-02
 7.000	21.750	3.4314e-02
 7.000	22.000	3.4315e-02
 7.000	22.250	3.4314e-02
 7.000	22.500	3.4315e-02
 7.000	22.750	3.4315e-02
 7.000	23.000	3.4315e-02
 7.000	23.250	3.4315e-02
 7.000	23.500	3.4315e-02
 7.000	23.750	3.4315e-02
 7.000	24.000	3.4315e-02
 7.250	17.000	4.5039e-02
 7.250	17.250	4.9937e-02
 7.250	17.500	5.2516e-02
 7.250	17.750	5.4648e-02
 7.250	18.000	4.6619e-02
 7.250	18.250	4.1071e-02
 7.250	18.500	3.7652e-02
 7.250	18.750	3.5773e-02
 7.250	19.000	3.5004e-02
 7.250	19.250	3.4652e-02
 7.250	19.500	3.4449e-02
 7.250	19.750	3.4371e-02
 7.250	20.000	3.4339e-02
 7.250	20.250	3.4326e-02
 7.250	20.500	3.4320e-02
 7.250	20.750	3.4317e-02
 7.250	21.000	3.4316e-02
 7.250	21.250	3.4315e-02
 7.250	21.500	3.4315e-02
 7.250	21.750	3.4315e-02
 7.250	22.000	3.4314e-02
 7.250	22.250	3.4314e-02
 7.250	22.500	3.4314e-02
 7.250	22.750	3.4314e-02
 7.250	23.000	3.4314e-02
 7.250	23.250	3.4318e-02
 7.250	23.500	3.4314e-02
 7.250	23.750	3.4314e-02
 7.250	24.000	3.4314e-02
 7.500	17.000	4.0618e-02
 7.500	17.250	4.6491e-02
 7.500	17.500	5.1559e-02
 7.500	17.750	5.3381e-02
 7.500	18.000	5.4637e-02
 7.500	18.250	4.6622e-02
 7.500	18.500	4.1065e-02
 7.500	18.750	3.7649e-02
 7.500	19.000	3.5772e-02
 7.500	19.250	3.5004e-02
 7.500	19.500	3.4651e-02
 7.500	19.750	3.4449e-02
 7.500	20.000	3.4371e-02
 7.500	20.250	3.4339e-02
 7.500	20.500	3.4326e-02
 7.500	20.750	3.4320e-02
 7.500	21.000	3.4317e-02
 7.500	21.250	3.4316e-02
 7.500	21.500	3.4315e-02
 7.500	21.750	3.4315e-02
 7.500	22.000	3.4314e-02
 7.500	22.250	3.4314e-02
 7.500	22.500	3.4314e-02
 7.500	22.750	3.4314e-02
 7.500	23.000	3.4314e-02
 7.500	23.250	3.4314e-02
 7.500	23.500	3.4314e-02
 7.500	23.750	3.4314e-02
 7.500	24.000	3.4314e-02
 7.750	17.000	3.7446e-02
 7.750	17.250	4.1883e-02
 7.750	17.500	4.8356e-02
 7.750	17.750	5.3747e-02
 7.750	18.000	5.4451e-02
 7.750	18.250	5.4629e-02
 7.750	18.500	4.6627e-02
 7.750	18.750	4.1058e-02
 7.750	19.000	3.7645e-02
 7.750	19.250	3.5773e-02
 7.750	19.500	3.5003e-02
 7.750	19.750	3.4651e-02
 7.750	20.000	3.4449e-02
 7.750	20.250	3.4371e-02
 7.750	20.500	3.4340e-02
 7.750	20.750	3.4326e-02
 7.750	21.000	3.4320e-02
 7.750	21.250	3.4317e-02
 7.750	21.500	3.4316e-02
 7.750	21.750	3.4315e-02
 7.750	22.000	3.4315e-02
 7.750	22.250	3.4314e-02
 7.750	22.500	3.4314e-02
 7.750	22.750	3.4314e-02
 7.750	23.000	3.4314e-02
 7.750	23.250	3.4314e-02
 7.750	23.500	3.4314e-02
 7.750	23.750	3.4314e-02
 7.750	24.000	3.4314e-02
 8.000	17.000	3.5384e-02
 8.000	17.250	3.8265e-02
 8.000	17.500	4.3371e-02
 8.000	17.750	5.0869e-02
 8.000	18.000	5.6592e-02
 8.000	18.250	5.5546e-02
 8.000	18.500	5.4611e-02
 8.000	18.750	4.6619e-02
 8.000	19.000	4.1049e-02
 8.000	19.250	3.7640e-02
 8.000	19.500	3.5772e-02
 8.000	19.750	3.5003e-02
 8.000	20.000	3.4651e-02
 8.000	20.250	3.4449e-02
 8.000	20.500	3.4371e-02
 8.000	20.750	3.4339e-02
 8.000	21.000	3.4326e-02
 8.000	21.250	3.4320e-02
 8.000	21.500	3.4317e-02
 8.000	21.750	3.4316e-02
 8.000	22.000	3.4315e-02
 8.000	22.250	3.4315e-02
 8.000	22.500	3.4314e-02
 8.000	22.750	3.4314e-02
 8.000	23.000	3.4314e-02
 8.000	23.250	3.4314e-02
 8.000	23.500	3.4314e-02
 8.000	23.750	3.4314e-02
 8.000	24.000	3.4314e-02
 8.250	17.000	3.4823e-02
 8.250	17.250	3.6472e-02
 8.250	17.500	4.0007e-02
 8.250	17.750	4.6386e-02
 8.250	18.000	5.5675e-02
 8.250	18.250	6.0806e-02
 8.250	18.500	5.7503e-02
 8.250	18.750	5.4608e-02
 8.250	19.000	4.6627e-02
 8.250	19.250	4.1040e-02
 8.250	19.500	3.7634e-02
 8.250	19.750	3.5772e-02
 8.250	20.000	3.5003e-02
 8.250	20.250	3.4652e-02
 8.250	20.500	3.4449e-02
 8.250	20.750	3.4371e-02
 8.250	21.000	3.4339e-02
 8.250	21.250	3.4326e-02
 8.250	21.500	3.4320e-02
 8.250	21.750	3.4317e-02
 8.250	22.000	3.4316e-02
 8.250	22.250	3.4315e-02
 8.250	22.500	3.4315e-02
 8.250	22.750	3.4314e-02
 8.250	23.000	3.4314e-02
 8.250	23.250	3.4314e-02
 8.250	23.500	3.4314e-02
 8.250	23.750	3.4314e-02
 8.250	24.000	3.4314e-02
 8.500	17.000	3.5041e-02
 8.500	17.250	3.5903e-02
 8.500	17.500	3.8182e-02
 8.500	17.750	4.3141e-02
 8.500	18.000	5.2108e-02
 8.500	18.250	6.3559e-02
 8.500	18.500	6.5921e-02
 8.500	18.750	5.9684e-02
 8.500	19.000	5.4606e-02
 8.500	19.250	4.6637e-02
 8.500	19.500	4.1029e-02
 8.500	19.750	3.7627e-02
 8.500	20.000	3.5771e-02
 8.500	20.250	3.5003e-02
 8.500	20.500	3.4651e-02
 8.500	20.750	3.4449e-02
 8.500	21.000	3.4371e-02
 8.500	21.250	3.4339e-02
 8.500	21.500	3.4326e-02
 8.500	21.750	3.4320e-02
 8.500	22.000	3.4317e-02
 8.500	22.250	3.4316e-02
 8.500	22.500	3.4315e-02
 8.500	22.750	3.4315e-02
 8.500	23.000	3.4314e-02
 8.500	23.250	3.4314e-02
 8.500	23.500	3.4314e-02
 8.500	23.750	3.4314e-02
 8.500	24.000	3.4314e-02
 8.750	17.000	3.5750e-02
 8.750	17.250	3.6163e-02
 8.750	17.500	3.7679e-02
 8.750	17.750	4.1302e-02
 8.750	18.000	4.9041e-02
 8.750	18.250	6.1883e-02
 8.750	18.500	7.3566e-02
 8.750	18.750	7.0664e-02
 8.750	19.000	6.1714e-02
 8.750	19.250	5.4605e-02
 8.750	19.500	4.6649e-02
 8.750	19.750	4.1016e-02
 8.750	20.000	3.7620e-02
 8.750	20.250	3.5770e-02
 8.750	20.500	3.5003e-02
 8.750	20.750	3.4651e-02
 8.750	21.000	3.4449e-02
 8.750	21.250	3.4371e-02
 8.750	21.500	3.4339e-02
 8.750	21.750	3.4326e-02
 8.750	22.000	3.4320e-02
 8.750	22.250	3.4317e-02
 8.750	22.500	3.4316e-02
 8.750	22.750	3.4315e-02
 8.750	23.000	3.4315e-02
 8.750	23.250	3.4314e-02
 8.750	23.500	3.4314e-02
 8.750	23.750	3.4314e-02
 8.750	24.000	3.4314e-02
 9.000	17.000	3.6824e-02
 9.000	17.250	3.6961e-02
 9.000	17.500	3.8105e-02
 9.000	17.750	4.1052e-02
 9.000	18.000	4.7568e-02
 9.000	18.250	5.9638e-02
 9.000	18.500	7.4751e-02
 9.000	18.750	8.3296e-02
 9.000	19.000	7.4826e-02
 9.000	19.250	6.4325e-02
 9.000	19.500	5.4599e-02
 9.000	19.750	4.6661e-02
 9.000	20.000	4.1003e-02
 9.000	20.250	3.7612e-02
 9.000	20.500	3.5769e-02
 9.000	20.750	3.5003e-02
 9.000	21.000	3.4651e-02
 9.000	21.250	3.4449e-02
 9.000	21.500	3.4371e-02
 9.000	21.750	3.4339e-02
 9.000	22.000	3.4326e-02
 9.000	22.250	3.4320e-02
 9.000	22.500	3.4317e-02
 9.000	22.750	3.4316e-02
 9.000	23.000	3.4315e-02
 9.000	23.250	3.4315e-02
 9.000	23.500	3.4314e-02
 9.000	23.750	3.4314e-02
 9.000	24.000	3.4314e-02
 9.250	17.000	3.8247e-02
 9.250	17.250	3.8162e-02
 9.250	17.500	3.9187e-02
 9.250	17.750	4.2015e-02
 9.250	18.000	4.8269e-02
 9.250	18.250	5.9529e-02
 9.250	18.500	7.4101e-02
 9.250	18.750	8.8846e-02
 9.250	19.000	9.2982e-02
 9.250	19.250	8.0857e-02
 9.250	19.500	6.7612e-02
 9.250	19.750	5.4586e-02
 9.250	20.000	4.6673e-02
 9.250	20.250	4.0990e-02
 9.250	20.500	3.7604e-02
 9.250	20.750	3.5768e-02
 9.250	21.000	3.5003e-02
 9.250	21.250	3.4651e-02
 9.250	21.500	3.4447e-02
 9.250	21.750	3.4350e-02
 9.250	22.000	3.4310e-02
 9.250	22.250	3.4306e-02
 9.250	22.500	3.4320e-02
 9.250	22.750	3.4317e-02
 9.250	23.000	3.4316e-02
 9.250	23.250	3.4315e-02
 9.250	23.500	3.4315e-02
 9.250	23.750	3.4314e-02
 9.250	24.000	3.4314e-02
 9.500	17.000	4.0154e-02
 9.500	17.250	3.9835e-02
 9.500	17.500	4.0814e-02
 9.500	17.750	4.3888e-02
 9.500	18.000	5.0675e-02
 9.500	18.250	6.2015e-02
 9.500	18.500	7.5557e-02
 9.500	18.750	8.9703e-02
 9.500	19.000	1.0185e-01
 9.500	19.250	1.0297e-01
 9.500	19.500	8.4716e-02
 9.500	19.750	6.9715e-02
 9.500	20.000	5.4560e-02
 9.500	20.250	4.6684e-02
 9.500	20.500	4.0978e-02
 9.500	20.750	3.7597e-02
 9.500	21.000	3.5765e-02
 9.500	21.250	3.4993e-02
 9.500	21.500	3.4623e-02
 9.500	21.750	3.4417e-02
 9.500	22.000	3.4331e-02
 9.500	22.250	3.4289e-02
 9.500	22.500	3.4270e-02
 9.500	22.750	3.4266e-02
 9.500	23.000	3.4263e-02
 9.500	23.250	3.4262e-02
 9.500	23.500	3.4282e-02
 9.500	23.750	3.4281e-02
 9.500	24.000	3.4281e-02
 9.750	17.000	4.2550e-02
 9.750	17.250	4.1975e-02
 9.750	17.500	4.2964e-02
 9.750	17.750	4.6518e-02
 9.750	18.000	5.4468e-02
 9.750	18.250	6.6699e-02
 9.750	18.500	7.9792e-02
 9.750	18.750	9.2382e-02
 9.750	19.000	1.0479e-01
 9.750	19.250	1.1562e-01
 9.750	19.500	1.0900e-01
 9.750	19.750	8.9149e-02
 9.750	20.000	6.9605e-02
 9.750	20.250	5.4518e-02
 9.750	20.500	4.6700e-02
 9.750	20.750	4.0967e-02
 9.750	21.000	3.7590e-02
 9.750	21.250	3.5766e-02
 9.750	21.500	3.5000e-02
 9.750	21.750	3.4634e-02
 9.750	22.000	3.4418e-02
 9.750	22.250	3.4335e-02
 9.750	22.500	3.4296e-02
 9.750	22.750	3.4276e-02
 9.750	23.000	3.4266e-02
 9.750	23.250	3.4261e-02
 9.750	23.500	3.4260e-02
 9.750	23.750	3.4263e-02
 9.750	24.000	3.4260e-02
10.000	17.000	4.5704e-02
10.000	17.250	4.4774e-02
10.000	17.500	4.5847e-02
10.000	17.750	5.0117e-02
10.000	18.000	5.9549e-02
10.000	18.250	7.2658e-02
10.000	18.500	8.5644e-02
10.000	18.750	9.7060e-02
10.000	19.000	1.0782e-01
10.000	19.250	1.1859e-01
10.000	19.500	1.2640e-01
10.000	19.750	1.1251e-01
10.000	20.000	9.3465e-02
10.000	20.250	6.9526e-02
10.000	20.500	5.4468e-02
10.000	20.750	4.6729e-02
10.000	21.000	4.0955e-02
10.000	21.250	3.7583e-02
10.000	21.500	3.5765e-02
10.000	21.750	3.5002e-02
10.000	22.000	3.4646e-02
10.000	22.250	3.4419e-02
10.000	22.500	3.4338e-02
10.000	22.750	3.4302e-02
10.000	23.000	3.4284e-02
10.000	23.250	3.4274e-02
10.000	23.500	3.4268e-02
10.000	23.750	3.4266e-02
10.000	24.000	3.4264e-02
10.250	17.000	5.0011e-02
10.250	17.250	4.8448e-02
10.250	17.500	4.9701e-02
10.250	17.750	5.4995e-02
10.250	18.000	6.5791e-02
10.250	18.250	7.9867e-02
10.250	18.500	9.2574e-02
10.250	18.750	1.0310e-01
10.250	19.000	1.1213e-01
10.250	19.250	1.2178e-01
10.250	19.500	1.3255e-01
10.250	19.750	1.3171e-01
10.250	20.000	1.1814e-01
10.250	20.250	9.6493e-02
10.250	20.500	6.9344e-02
10.250	20.750	5.4465e-02
10.250	21.000	4.6792e-02
10.250	21.250	4.0940e-02
10.250	21.500	3.7578e-02
10.250	21.750	3.5763e-02
10.250	22.000	3.5002e-02
10.250	22.250	3.4649e-02
10.250	22.500	3.4425e-02
10.250	22.750	3.4340e-02
10.250	23.000	3.4306e-02
10.250	23.250	3.4289e-02
10.250	23.500	3.4281e-02
10.250	23.750	3.4276e-02
10.250	24.000	3.4273e-02
10.500	17.000	5.6213e-02
10.500	17.250	5.3703e-02
10.500	17.500	5.4996e-02
10.500	17.750	6.1569e-02
10.500	18.000	7.3420e-02
10.500	18.250	8.7958e-02
10.500	18.500	9.9731e-02
10.500	18.750	1.0929e-01
10.500	19.000	1.1723e-01
10.500	19.250	1.2491e-01
10.500	19.500	1.3356e-01
10.500	19.750	1.4188e-01
10.500	20.000	1.3892e-01
10.500	20.250	1.2439e-01
10.500	20.500	9.6784e-02
10.500	20.750	6.9264e-02
10.500	21.000	5.4495e-02
10.500	21.250	4.6880e-02
10.500	21.500	4.0925e-02
10.500	21.750	3.7570e-02
10.500	22.000	3.5761e-02
10.500	22.250	3.5001e-02
10.500	22.500	3.4650e-02
10.500	22.750	3.4439e-02
10.500	23.000	3.4340e-02
10.500	23.250	3.4308e-02
10.500	23.500	3.4293e-02
10.500	23.750	3.4285e-02
10.500	24.000	3.4281e-02
10.750	17.000	6.4776e-02
10.750	17.250	6.0932e-02
10.750	17.500	6.2384e-02
10.750	17.750	6.9939e-02
10.750	18.000	8.2550e-02
10.750	18.250	9.6516e-02
10.750	18.500	1.0760e-01
10.750	18.750	1.1594e-01
10.750	19.000	1.2317e-01
10.750	19.250	1.2947e-01
10.750	19.500	1.3613e-01
10.750	19.750	1.4392e-01
10.750	20.000	1.5081e-01
10.750	20.250	1.4673e-01
10.750	20.500	1.3141e-01
10.750	20.750	9.6542e-02
10.750	21.000	6.9114e-02
10.750	21.250	5.4630e-02
10.750	21.500	4.7029e-02
10.750	21.750	4.0898e-02
10.750	22.000	3.7562e-02
10.750	22.250	3.5757e-02
10.750	22.500	3.5000e-02
10.750	22.750	3.4650e-02
10.750	23.000	3.4446e-02
10.750	23.250	3.4345e-02
10.750	23.500	3.4309e-02
10.750	23.750	3.4295e-02
10.750	24.000	3.4288e-02
11.000	17.000	7.5502e-02
11.000	17.250	7.0488e-02
11.000	17.500	7.1844e-02
11.000	17.750	8.0138e-02
11.000	18.000	9.2758e-02
11.000	18.250	1.0580e-01
11.000	18.500	1.1655e-01
11.000	18.750	1.2390e-01
11.000	19.000	1.3021e-01
11.000	19.250	1.3509e-01
11.000	19.500	1.4000e-01
11.000	19.750	1.4569e-01
11.000	20.000	1.5333e-01
11.000	20.250	1.5989e-01
11.000	20.500	1.5510e-01
11.000	20.750	1.3741e-01
11.000	21.000	9.6225e-02
11.000	21.250	6.9048e-02
11.000	21.500	5.5089e-02
11.000	21.750	4.7101e-02
11.000	22.000	4.0860e-02
11.000	22.250	3.7549e-02
11.000	22.500	3.5753e-02
11.000	22.750	3.4999e-02
11.000	23.000	3.4649e-02
11.000	23.250	3.4448e-02
11.000	23.500	3.4360e-02
11.000	23.750	3.4311e-02
11.000	24.000	3.4296e-02
11.250	17.000	8.9361e-02
11.250	17.250	8.2163e-02
11.250	17.500	8.3156e-02
11.250	17.750	9.1710e-02
11.250	18.000	1.0403e-01
11.250	18.250	1.1596e-01
11.250	18.500	1.2471e-01
11.250	18.750	1.3205e-01
11.250	19.000	1.3720e-01
11.250	19.250	1.4119e-01
11.250	19.500	1.4483e-01
11.250	19.750	1.4880e-01
11.250	20.000	1.5429e-01
11.250	20.250	1.6259e-01
11.250	20.500	1.6953e-01
11.250	20.750	1.6392e-01
11.250	21.000	1.4123e-01
11.250	21.250	9.5795e-02
11.250	21.500	6.9372e-02
11.250	21.750	5.5910e-02
11.250	22.000	4.7019e-02
11.250	22.250	4.0804e-02
11.250	22.500	3.7532e-02
11.250	22.750	3.5748e-02
11.250	23.000	3.4995e-02
11.250	23.250	3.4648e-02
11.250	23.500	3.4448e-02
11.250	23.750	3.4367e-02
11.250	24.000	3.4321e-02
11.500	17.000	1.0770e-01
11.500	17.250	9.7144e-02
11.500	17.500	9.6473e-02
11.500	17.750	1.0438e-01
11.500	18.000	1.1605e-01
11.500	18.250	1.2707e-01
11.500	18.500	1.3452e-01
11.500	18.750	1.4024e-01
11.500	19.000	1.4479e-01
11.500	19.250	1.4774e-01
11.500	19.500	1.5038e-01
11.500	19.750	1.5332e-01
11.500	20.000	1.5700e-01
11.500	20.250	1.6279e-01
11.500	20.500	1.7198e-01
11.500	20.750	1.7971e-01
11.500	21.000	1.7293e-01
11.500	21.250	1.4117e-01
11.500	21.500	9.5974e-02
11.500	21.750	6.9923e-02
11.500	22.000	5.6811e-02
11.500	22.250	4.6804e-02
11.500	22.500	4.0724e-02
11.500	22.750	3.7505e-02
11.500	23.000	3.5738e-02
11.500	23.250	3.4991e-02
11.500	23.500	3.4645e-02
11.500	23.750	3.4447e-02
11.500	24.000	3.4369e-02
11.750	17.000	1.3200e-01
11.750	17.250	1.1679e-01
11.750	17.500	1.1286e-01
11.750	17.750	1.1887e-01
11.750	18.000	1.2946e-01
11.750	18.250	1.3919e-01
11.750	18.500	1.4532e-01
11.750	18.750	1.5030e-01
11.750	19.000	1.5313e-01
11.750	19.250	1.5521e-01
11.750	19.500	1.5682e-01
11.750	19.750	1.5859e-01
11.750	20.000	1.6115e-01
11.750	20.250	1.6448e-01
11.750	20.500	1.7122e-01
11.750	20.750	1.8167e-01
11.750	21.000	1.9060e-01
11.750	21.250	1.8131e-01
11.750	21.500	1.4043e-01
11.750	21.750	9.5887e-02
11.750	22.000	7.0856e-02
11.750	22.250	5.7352e-02
11.750	22.500	4.6531e-02
11.750	22.750	4.0608e-02
11.750	23.000	3.7464e-02
11.750	23.250	3.5723e-02
11.750	23.500	3.4983e-02
11.750	23.750	3.4641e-02
11.750	24.000	3.4447e-02
12.000	17.000	1.6149e-01
12.000	17.250	1.4283e-01
12.000	17.500	1.3374e-01
12.000	17.750	1.3587e-01
12.000	18.000	1.4394e-01
12.000	18.250	1.5227e-01
12.000	18.500	1.5774e-01
12.000	18.750	1.6121e-01
12.000	19.000	1.6316e-01
12.000	19.250	1.6422e-01
12.000	19.500	1.6470e-01
12.000	19.750	1.6516e-01
12.000	20.000	1.6608e-01
12.000	20.250	1.6823e-01
12.000	20.500	1.7241e-01
12.000	20.750	1.8044e-01
12.000	21.000	1.9174e-01
12.000	21.250	2.0105e-01
12.000	21.500	1.8595e-01
12.000	21.750	1.3878e-01
12.000	22.000	9.5806e-02
12.000	22.250	7.2026e-02
12.000	22.500	5.7083e-02
12.000	22.750	4.6186e-02
12.000	23.000	4.0441e-02
12.000	23.250	3.7399e-02
12.000	23.500	3.5701e-02
12.000	23.750	3.4971e-02
12.000	24.000	3.4635e-02
12.250	17.000	1.5644e-01
12.250	17.250	1.7575e-01
12.250	17.500	1.6117e-01
12.250	17.750	1.5688e-01
12.250	18.000	1.6056e-01
12.250	18.250	1.6716e-01
12.250	18.500	1.7167e-01
12.250	18.750	1.7437e-01
12.250	19.000	1.7512e-01
12.250	19.250	1.7532e-01
12.250	19.500	1.7429e-01
12.250	19.750	1.7308e-01
12.250	20.000	1.7214e-01
12.250	20.250	1.7290e-01
12.250	20.500	1.7513e-01
12.250	20.750	1.8017e-01
12.250	21.000	1.8998e-01
12.250	21.250	2.0193e-01
12.250	21.500	2.0673e-01
12.250	21.750	1.8954e-01
12.250	22.000	1.3629e-01
12.250	22.250	9.5819e-02
12.250	22.500	7.2777e-02
12.250	22.750	5.6340e-02
12.250	23.000	4.5729e-02
12.250	23.250	4.0205e-02
12.250	23.500	3.7293e-02
12.250	23.750	3.5667e-02
12.250	24.000	3.4953e-02
12.500	17.000	1.3691e-01
12.500	17.250	1.7666e-01
12.500	17.500	1.9385e-01
12.500	17.750	1.8353e-01
12.500	18.000	1.8134e-01
12.500	18.250	1.8328e-01
12.500	18.500	1.8723e-01
12.500	18.750	1.8992e-01
12.500	19.000	1.8970e-01
12.500	19.250	1.8807e-01
12.500	19.500	1.8520e-01
12.500	19.750	1.8223e-01
12.500	20.000	1.7993e-01
12.500	20.250	1.7861e-01
12.500	20.500	1.7898e-01
12.500	20.750	1.8242e-01
12.500	21.000	1.8944e-01
12.500	21.250	2.0050e-01
12.500	21.500	2.0842e-01
12.500	21.750	2.1420e-01
12.500	22.000	1.8849e-01
12.500	22.250	1.3323e-01
12.500	22.500	9.7025e-02
12.500	22.750	7.2296e-02
12.500	23.000	5.5207e-02
12.500	23.250	4.5146e-02
12.500	23.500	3.9870e-02
12.500	23.750	3.7122e-02
12.500	24.000	3.5615e-02
12.750	17.000	1.2393e-01
12.750	17.250	1.4972e-01
12.750	17.500	1.9071e-01
12.750	17.750	2.1076e-01
12.750	18.000	2.0477e-01
12.750	18.250	2.0310e-01
12.750	18.500	2.0529e-01
12.750	18.750	2.0691e-01
12.750	19.000	2.0568e-01
12.750	19.250	2.0240e-01
12.750	19.500	1.9754e-01
12.750	19.750	1.9267e-01
12.750	20.000	1.8867e-01
12.750	20.250	1.8583e-01
12.750	20.500	1.8453e-01
12.750	20.750	1.8577e-01
12.750	21.000	1.9073e-01
12.750	21.250	2.0026e-01
12.750	21.500	2.0795e-01
12.750	21.750	2.1813e-01
12.750	22.000	2.1795e-01
12.750	22.250	1.8162e-01
12.750	22.500	1.2947e-01
12.750	22.750	9.4446e-02
12.750	23.000	7.0232e-02
12.750	23.250	5.3729e-02
12.750	23.500	4.4339e-02
12.750	23.750	3.9381e-02
12.750	24.000	3.6851e-02
13.000	17.000	7.0391e-02
13.000	17.250	8.9484e-02
13.000	17.500	1.3423e-01
13.000	17.750	1.8367e-01
13.000	18.000	2.1144e-01
13.000	18.250	2.1727e-01
13.000	18.500	2.2556e-01
13.000	18.750	2.2464e-01
13.000	19.000	2.2230e-01
13.000	19.250	2.1797e-01
13.000	19.500	2.1178e-01
13.000	19.750	2.0503e-01
13.000	20.000	1.9882e-01
13.000	20.250	1.9429e-01
13.000	20.500	1.9168e-01
13.000	20.750	1.9147e-01
13.000	21.000	1.9429e-01
13.000	21.250	2.0163e-01
13.000	21.500	2.0852e-01
13.000	21.750	2.2066e-01
13.000	22.000	2.2621e-01
13.000	22.250	2.1529e-01
13.000	22.500	1.7072e-01
13.000	22.750	1.2321e-01
13.000	23.000	9.0166e-02
13.000	23.250	6.7016e-02
13.000	23.500	5.1827e-02
13.000	23.750	4.3236e-02
13.000	24.000	3.8665e-02
13.250	17.000	7.0232e-02
13.250	17.250	8.0118e-02
13.250	17.500	1.0329e-01
13.250	17.750	1.3791e-01
13.250	18.000	1.9125e-01
13.250	18.250	2.2909e-01
13.250	18.500	2.3542e-01
13.250	18.750	2.4575e-01
13.250	19.000	2.4056e-01
13.250	19.250	2.3425e-01
13.250	19.500	2.2696e-01
13.250	19.750	2.1889e-01
13.250	20.000	2.1066e-01
13.250	20.250	2.0416e-01
13.250	20.500	1.9964e-01
13.250	20.750	1.9775e-01
13.250	21.000	1.9928e-01
13.250	21.250	2.0475e-01
13.250	21.500	2.1007e-01
13.250	21.750	2.2091e-01
13.250	22.000	2.3218e-01
13.250	22.250	2.2477e-01
13.250	22.500	2.0044e-01
13.250	22.750	1.5300e-01
13.250	23.000	1.1102e-01
13.250	23.250	8.2047e-02
13.250	23.500	6.2790e-02
13.250	23.750	4.9356e-02
13.250	24.000	4.1719e-02
13.500	17.000	7.0873e-02
13.500	17.250	8.0888e-02
13.500	17.500	9.9598e-02
13.500	17.750	1.2755e-01
13.500	18.000	1.7009e-01
13.500	18.250	2.2521e-01
13.500	18.500	2.5430e-01
13.500	18.750	2.5974e-01
13.500	19.000	2.6187e-01
13.500	19.250	2.5334e-01
13.500	19.500	2.4393e-01
13.500	19.750	2.3345e-01
13.500	20.000	2.2401e-01
13.500	20.250	2.1575e-01
13.500	20.500	2.0939e-01
13.500	20.750	2.0508e-01
13.500	21.000	2.0390e-01
13.500	21.250	2.0690e-01
13.500	21.500	2.0964e-01
13.500	21.750	2.2089e-01
13.500	22.000	2.2923e-01
13.500	22.250	2.2623e-01
13.500	22.500	2.0831e-01
13.500	22.750	1.7723e-01
13.500	23.000	1.3351e-01
13.500	23.250	9.7370e-02
13.500	23.500	7.3733e-02
13.500	23.750	5.7629e-02
13.500	24.000	4.6167e-02
13.750	17.000	7.1067e-02
13.750	17.250	8.1390e-02
13.750	17.500	9.9842e-02
13.750	17.750	1.2059e-01
13.750	18.000	1.5974e-01
13.750	18.250	2.0352e-01
13.750	18.500	2.4880e-01
13.750	18.750	2.7433e-01
13.750	19.000	2.8061e-01
13.750	19.250	2.7474e-01
13.750	19.500	2.6340e-01
13.750	19.750	2.5156e-01
13.750	20.000	2.4005e-01
13.750	20.250	2.2996e-01
13.750	20.500	2.2159e-01
13.750	20.750	2.1530e-01
13.750	21.000	2.1163e-01
13.750	21.250	2.1163e-01
13.750	21.500	2.1300e-01
13.750	21.750	2.2233e-01
13.750	22.000	2.3044e-01
13.750	22.250	2.2616e-01
13.750	22.500	2.0695e-01
13.750	22.750	1.7936e-01
13.750	23.000	1.4729e-01
13.750	23.250	1.1259e-01
13.750	23.500	8.3357e-02
13.750	23.750	6.4765e-02
13.750	24.000	5.1643e-02
14.000	17.000	7.1392e-02
14.000	17.250	8.1795e-02
14.000	17.500	1.0092e-01
14.000	17.750	1.2095e-01
14.000	18.000	1.4966e-01
14.000	18.250	1.9134e-01
14.000	18.500	2.3166e-01
14.000	18.750	2.6866e-01
14.000	19.000	2.9781e-01
14.000	19.250	2.9647e-01
14.000	19.500	2.8555e-01
14.000	19.750	2.7222e-01
14.000	20.000	2.5915e-01
14.000	20.250	2.4682e-01
14.000	20.500	2.3657e-01
14.000	20.750	2.2830e-01
14.000	21.000	2.2271e-01
14.000	21.250	2.2059e-01
14.000	21.500	2.1973e-01
14.000	21.750	2.2699e-01
14.000	22.000	2.3318e-01
14.000	22.250	2.2721e-01
14.000	22.500	2.0682e-01
14.000	22.750	1.7738e-01
14.000	23.000	1.4808e-01
14.000	23.250	1.1779e-01
14.000	23.500	9.0440e-02
14.000	23.750	6.9530e-02
14.000	24.000	5.5056e-02
