InwC 6209.66A  relative to Inci 1215.00A scaled to 1215A.
Hden   Phi(H)  Eq_Width (A)
 7.000	17.000	3.1326e-02
 7.000	17.250	4.1652e-02
 7.000	17.500	5.3344e-02
 7.000	17.750	5.5080e-02
 7.000	18.000	5.5910e-02
 7.000	18.250	5.5951e-02
 7.000	18.500	5.5949e-02
 7.000	18.750	5.5949e-02
 7.000	19.000	5.5955e-02
 7.000	19.250	5.5961e-02
 7.000	19.500	5.5963e-02
 7.000	19.750	5.5964e-02
 7.000	20.000	5.5964e-02
 7.000	20.250	5.5964e-02
 7.000	20.500	5.5964e-02
 7.000	20.750	5.5964e-02
 7.000	21.000	5.5964e-02
 7.000	21.250	5.5964e-02
 7.000	21.500	5.5964e-02
 7.000	21.750	5.5965e-02
 7.000	22.000	5.5965e-02
 7.000	22.250	5.5965e-02
 7.000	22.500	5.5965e-02
 7.000	22.750	5.5966e-02
 7.000	23.000	5.5966e-02
 7.000	23.250	5.5966e-02
 7.000	23.500	5.5966e-02
 7.000	23.750	5.5966e-02
 7.000	24.000	5.5966e-02
 7.250	17.000	2.2602e-02
 7.250	17.250	3.2242e-02
 7.250	17.500	4.2204e-02
 7.250	17.750	5.3351e-02
 7.250	18.000	5.5094e-02
 7.250	18.250	5.5910e-02
 7.250	18.500	5.5952e-02
 7.250	18.750	5.5950e-02
 7.250	19.000	5.5949e-02
 7.250	19.250	5.5956e-02
 7.250	19.500	5.5961e-02
 7.250	19.750	5.5963e-02
 7.250	20.000	5.5963e-02
 7.250	20.250	5.5964e-02
 7.250	20.500	5.5964e-02
 7.250	20.750	5.5964e-02
 7.250	21.000	5.5964e-02
 7.250	21.250	5.5964e-02
 7.250	21.500	5.5964e-02
 7.250	21.750	5.5964e-02
 7.250	22.000	5.5964e-02
 7.250	22.250	5.5964e-02
 7.250	22.500	5.5964e-02
 7.250	22.750	5.5965e-02
 7.250	23.000	5.5965e-02
 7.250	23.250	5.5970e-02
 7.250	23.500	5.5965e-02
 7.250	23.750	5.5965e-02
 7.250	24.000	5.5965e-02
 7.500	17.000	1.5091e-02
 7.500	17.250	2.3206e-02
 7.500	17.500	3.3154e-02
 7.500	17.750	4.2818e-02
 7.500	18.000	5.3358e-02
 7.500	18.250	5.5108e-02
 7.500	18.500	5.5910e-02
 7.500	18.750	5.5952e-02
 7.500	19.000	5.5949e-02
 7.500	19.250	5.5949e-02
 7.500	19.500	5.5955e-02
 7.500	19.750	5.5961e-02
 7.500	20.000	5.5963e-02
 7.500	20.250	5.5964e-02
 7.500	20.500	5.5964e-02
 7.500	20.750	5.5964e-02
 7.500	21.000	5.5964e-02
 7.500	21.250	5.5964e-02
 7.500	21.500	5.5964e-02
 7.500	21.750	5.5964e-02
 7.500	22.000	5.5964e-02
 7.500	22.250	5.5964e-02
 7.500	22.500	5.5964e-02
 7.500	22.750	5.5964e-02
 7.500	23.000	5.5964e-02
 7.500	23.250	5.5964e-02
 7.500	23.500	5.5964e-02
 7.500	23.750	5.5964e-02
 7.500	24.000	5.5964e-02
 7.750	17.000	1.0075e-02
 7.750	17.250	1.5479e-02
 7.750	17.500	2.3958e-02
 7.750	17.750	3.4328e-02
 7.750	18.000	4.3553e-02
 7.750	18.250	5.3364e-02
 7.750	18.500	5.5121e-02
 7.750	18.750	5.5910e-02
 7.750	19.000	5.5952e-02
 7.750	19.250	5.5951e-02
 7.750	19.500	5.5949e-02
 7.750	19.750	5.5955e-02
 7.750	20.000	5.5961e-02
 7.750	20.250	5.5963e-02
 7.750	20.500	5.5964e-02
 7.750	20.750	5.5964e-02
 7.750	21.000	5.5964e-02
 7.750	21.250	5.5964e-02
 7.750	21.500	5.5964e-02
 7.750	21.750	5.5964e-02
 7.750	22.000	5.5964e-02
 7.750	22.250	5.5964e-02
 7.750	22.500	5.5964e-02
 7.750	22.750	5.5964e-02
 7.750	23.000	5.5964e-02
 7.750	23.250	5.5964e-02
 7.750	23.500	5.5964e-02
 7.750	23.750	5.5964e-02
 7.750	24.000	5.5964e-02
 8.000	17.000	6.8681e-03
 8.000	17.250	1.0323e-02
 8.000	17.500	1.5993e-02
 8.000	17.750	2.4964e-02
 8.000	18.000	3.5787e-02
 8.000	18.250	4.4294e-02
 8.000	18.500	5.3362e-02
 8.000	18.750	5.5127e-02
 8.000	19.000	5.5910e-02
 8.000	19.250	5.5952e-02
 8.000	19.500	5.5950e-02
 8.000	19.750	5.5949e-02
 8.000	20.000	5.5956e-02
 8.000	20.250	5.5961e-02
 8.000	20.500	5.5963e-02
 8.000	20.750	5.5964e-02
 8.000	21.000	5.5964e-02
 8.000	21.250	5.5964e-02
 8.000	21.500	5.5964e-02
 8.000	21.750	5.5964e-02
 8.000	22.000	5.5964e-02
 8.000	22.250	5.5964e-02
 8.000	22.500	5.5964e-02
 8.000	22.750	5.5964e-02
 8.000	23.000	5.5964e-02
 8.000	23.250	5.5964e-02
 8.000	23.500	5.5964e-02
 8.000	23.750	5.5964e-02
 8.000	24.000	5.5964e-02
 8.250	17.000	4.8235e-03
 8.250	17.250	7.0856e-03
 8.250	17.500	1.0778e-02
 8.250	17.750	1.6938e-02
 8.250	18.000	2.6756e-02
 8.250	18.250	3.7733e-02
 8.250	18.500	4.5503e-02
 8.250	18.750	5.3359e-02
 8.250	19.000	5.5143e-02
 8.250	19.250	5.5910e-02
 8.250	19.500	5.5952e-02
 8.250	19.750	5.5949e-02
 8.250	20.000	5.5949e-02
 8.250	20.250	5.5956e-02
 8.250	20.500	5.5961e-02
 8.250	20.750	5.5963e-02
 8.250	21.000	5.5963e-02
 8.250	21.250	5.5964e-02
 8.250	21.500	5.5964e-02
 8.250	21.750	5.5964e-02
 8.250	22.000	5.5964e-02
 8.250	22.250	5.5964e-02
 8.250	22.500	5.5964e-02
 8.250	22.750	5.5964e-02
 8.250	23.000	5.5964e-02
 8.250	23.250	5.5964e-02
 8.250	23.500	5.5964e-02
 8.250	23.750	5.5964e-02
 8.250	24.000	5.5964e-02
 8.500	17.000	3.4430e-03
 8.500	17.250	4.9824e-03
 8.500	17.500	7.4289e-03
 8.500	17.750	1.1583e-02
 8.500	18.000	1.8639e-02
 8.500	18.250	2.9515e-02
 8.500	18.500	3.9912e-02
 8.500	18.750	4.6737e-02
 8.500	19.000	5.3343e-02
 8.500	19.250	5.5159e-02
 8.500	19.500	5.5910e-02
 8.500	19.750	5.5952e-02
 8.500	20.000	5.5949e-02
 8.500	20.250	5.5949e-02
 8.500	20.500	5.5955e-02
 8.500	20.750	5.5961e-02
 8.500	21.000	5.5963e-02
 8.500	21.250	5.5963e-02
 8.500	21.500	5.5964e-02
 8.500	21.750	5.5964e-02
 8.500	22.000	5.5964e-02
 8.500	22.250	5.5964e-02
 8.500	22.500	5.5964e-02
 8.500	22.750	5.5964e-02
 8.500	23.000	5.5964e-02
 8.500	23.250	5.5964e-02
 8.500	23.500	5.5964e-02
 8.500	23.750	5.5964e-02
 8.500	24.000	5.5964e-02
 8.750	17.000	2.4753e-03
 8.750	17.250	3.5573e-03
 8.750	17.500	5.2373e-03
 8.750	17.750	8.0207e-03
 8.750	18.000	1.2934e-02
 8.750	18.250	2.1252e-02
 8.750	18.500	3.2704e-02
 8.750	18.750	4.1688e-02
 8.750	19.000	4.7739e-02
 8.750	19.250	5.3301e-02
 8.750	19.500	5.5175e-02
 8.750	19.750	5.5911e-02
 8.750	20.000	5.5951e-02
 8.750	20.250	5.5949e-02
 8.750	20.500	5.5949e-02
 8.750	20.750	5.5955e-02
 8.750	21.000	5.5961e-02
 8.750	21.250	5.5963e-02
 8.750	21.500	5.5963e-02
 8.750	21.750	5.5964e-02
 8.750	22.000	5.5964e-02
 8.750	22.250	5.5964e-02
 8.750	22.500	5.5964e-02
 8.750	22.750	5.5964e-02
 8.750	23.000	5.5964e-02
 8.750	23.250	5.5964e-02
 8.750	23.500	5.5964e-02
 8.750	23.750	5.5964e-02
 8.750	24.000	5.5964e-02
 9.000	17.000	1.7851e-03
 9.000	17.250	2.5597e-03
 9.000	17.500	3.7472e-03
 9.000	17.750	5.6838e-03
 9.000	18.000	9.0798e-03
 9.000	18.250	1.5086e-02
 9.000	18.500	2.4327e-02
 9.000	18.750	3.5504e-02
 9.000	19.000	4.3078e-02
 9.000	19.250	4.9022e-02
 9.000	19.500	5.3227e-02
 9.000	19.750	5.5187e-02
 9.000	20.000	5.5910e-02
 9.000	20.250	5.5951e-02
 9.000	20.500	5.5949e-02
 9.000	20.750	5.5949e-02
 9.000	21.000	5.5955e-02
 9.000	21.250	5.5961e-02
 9.000	21.500	5.5963e-02
 9.000	21.750	5.5964e-02
 9.000	22.000	5.5964e-02
 9.000	22.250	5.5964e-02
 9.000	22.500	5.5964e-02
 9.000	22.750	5.5964e-02
 9.000	23.000	5.5964e-02
 9.000	23.250	5.5964e-02
 9.000	23.500	5.5964e-02
 9.000	23.750	5.5964e-02
 9.000	24.000	5.5964e-02
 9.250	17.000	1.2882e-03
 9.250	17.250	1.8458e-03
 9.250	17.500	2.7017e-03
 9.250	17.750	4.0909e-03
 9.250	18.000	6.5325e-03
 9.250	18.250	1.0883e-02
 9.250	18.500	1.7704e-02
 9.250	18.750	2.7300e-02
 9.250	19.000	3.7977e-02
 9.250	19.250	4.5102e-02
 9.250	19.500	5.0522e-02
 9.250	19.750	5.3122e-02
 9.250	20.000	5.5189e-02
 9.250	20.250	5.5909e-02
 9.250	20.500	5.5950e-02
 9.250	20.750	5.5948e-02
 9.250	21.000	5.5949e-02
 9.250	21.250	5.5955e-02
 9.250	21.500	5.5958e-02
 9.250	21.750	5.5929e-02
 9.250	22.000	5.5915e-02
 9.250	22.250	5.5930e-02
 9.250	22.500	5.5964e-02
 9.250	22.750	5.5964e-02
 9.250	23.000	5.5964e-02
 9.250	23.250	5.5964e-02
 9.250	23.500	5.5964e-02
 9.250	23.750	5.5964e-02
 9.250	24.000	5.5964e-02
 9.500	17.000	9.3062e-04
 9.500	17.250	1.3332e-03
 9.500	17.500	1.9517e-03
 9.500	17.750	2.9698e-03
 9.500	18.000	4.7801e-03
 9.500	18.250	7.9987e-03
 9.500	18.500	1.3003e-02
 9.500	18.750	2.0166e-02
 9.500	19.000	2.9660e-02
 9.500	19.250	4.0202e-02
 9.500	19.500	4.6049e-02
 9.500	19.750	5.1351e-02
 9.500	20.000	5.2993e-02
 9.500	20.250	5.5170e-02
 9.500	20.500	5.5906e-02
 9.500	20.750	5.5950e-02
 9.500	21.000	5.5945e-02
 9.500	21.250	5.5932e-02
 9.500	21.500	5.5910e-02
 9.500	21.750	5.5908e-02
 9.500	22.000	5.5897e-02
 9.500	22.250	5.5881e-02
 9.500	22.500	5.5872e-02
 9.500	22.750	5.5875e-02
 9.500	23.000	5.5876e-02
 9.500	23.250	5.5877e-02
 9.500	23.500	5.5910e-02
 9.500	23.750	5.5909e-02
 9.500	24.000	5.5910e-02
 9.750	17.000	6.7259e-04
 9.750	17.250	9.6354e-04
 9.750	17.500	1.4134e-03
 9.750	17.750	2.1631e-03
 9.750	18.000	3.5241e-03
 9.750	18.250	5.9536e-03
 9.750	18.500	9.6671e-03
 9.750	18.750	1.4937e-02
 9.750	19.000	2.2196e-02
 9.750	19.250	3.2022e-02
 9.750	19.500	4.1040e-02
 9.750	19.750	4.7240e-02
 9.750	20.000	5.1108e-02
 9.750	20.250	5.2876e-02
 9.750	20.500	5.5129e-02
 9.750	20.750	5.5898e-02
 9.750	21.000	5.5949e-02
 9.750	21.250	5.5947e-02
 9.750	21.500	5.5943e-02
 9.750	21.750	5.5928e-02
 9.750	22.000	5.5911e-02
 9.750	22.250	5.5905e-02
 9.750	22.500	5.5893e-02
 9.750	22.750	5.5882e-02
 9.750	23.000	5.5876e-02
 9.750	23.250	5.5872e-02
 9.750	23.500	5.5873e-02
 9.750	23.750	5.5879e-02
 9.750	24.000	5.5874e-02
10.000	17.000	4.8815e-04
10.000	17.250	6.9753e-04
10.000	17.500	1.0258e-03
10.000	17.750	1.5816e-03
10.000	18.000	2.6086e-03
10.000	18.250	4.4141e-03
10.000	18.500	7.1863e-03
10.000	18.750	1.1070e-02
10.000	19.000	1.6411e-02
10.000	19.250	2.3682e-02
10.000	19.500	3.3396e-02
10.000	19.750	4.1346e-02
10.000	20.000	4.8350e-02
10.000	20.250	5.0864e-02
10.000	20.500	5.2764e-02
10.000	20.750	5.5102e-02
10.000	21.000	5.5878e-02
10.000	21.250	5.5947e-02
10.000	21.500	5.5947e-02
10.000	21.750	5.5947e-02
10.000	22.000	5.5946e-02
10.000	22.250	5.5912e-02
10.000	22.500	5.5910e-02
10.000	22.750	5.5903e-02
10.000	23.000	5.5894e-02
10.000	23.250	5.5888e-02
10.000	23.500	5.5884e-02
10.000	23.750	5.5882e-02
10.000	24.000	5.5881e-02
10.250	17.000	3.5704e-04
10.250	17.250	5.0733e-04
10.250	17.500	7.4576e-04
10.250	17.750	1.1595e-03
10.250	18.000	1.9295e-03
10.250	18.250	3.2841e-03
10.250	18.500	5.3316e-03
10.250	18.750	8.1959e-03
10.250	19.000	1.2099e-02
10.250	19.250	1.7560e-02
10.250	19.500	2.5324e-02
10.250	19.750	3.3841e-02
10.250	20.000	4.2278e-02
10.250	20.250	4.8933e-02
10.250	20.500	5.0635e-02
10.250	20.750	5.2546e-02
10.250	21.000	5.5064e-02
10.250	21.250	5.5846e-02
10.250	21.500	5.5942e-02
10.250	21.750	5.5946e-02
10.250	22.000	5.5947e-02
10.250	22.250	5.5952e-02
10.250	22.500	5.5921e-02
10.250	22.750	5.5912e-02
10.250	23.000	5.5909e-02
10.250	23.250	5.5904e-02
10.250	23.500	5.5899e-02
10.250	23.750	5.5896e-02
10.250	24.000	5.5894e-02
10.500	17.000	2.6379e-04
10.500	17.250	3.7144e-04
10.500	17.500	5.4519e-04
10.500	17.750	8.5259e-04
10.500	18.000	1.4254e-03
10.500	18.250	2.4365e-03
10.500	18.500	3.9106e-03
10.500	18.750	6.0039e-03
10.500	19.000	8.8734e-03
10.500	19.250	1.2849e-02
10.500	19.500	1.8435e-02
10.500	19.750	2.6077e-02
10.500	20.000	3.4572e-02
10.500	20.250	4.3327e-02
10.500	20.500	4.8783e-02
10.500	20.750	5.0338e-02
10.500	21.000	5.2442e-02
10.500	21.250	5.5102e-02
10.500	21.500	5.5805e-02
10.500	21.750	5.5930e-02
10.500	22.000	5.5944e-02
10.500	22.250	5.5946e-02
10.500	22.500	5.5953e-02
10.500	22.750	5.5944e-02
10.500	23.000	5.5914e-02
10.500	23.250	5.5912e-02
10.500	23.500	5.5909e-02
10.500	23.750	5.5907e-02
10.500	24.000	5.5904e-02
10.750	17.000	1.9737e-04
10.750	17.250	2.7424e-04
10.750	17.500	4.0066e-04
10.750	17.750	6.2790e-04
10.750	18.000	1.0508e-03
10.750	18.250	1.7805e-03
10.750	18.500	2.8550e-03
10.750	18.750	4.3491e-03
10.750	19.000	6.4542e-03
10.750	19.250	9.3579e-03
10.750	19.500	1.3408e-02
10.750	19.750	1.9064e-02
10.750	20.000	2.6696e-02
10.750	20.250	3.5355e-02
10.750	20.500	4.4460e-02
10.750	20.750	4.8548e-02
10.750	21.000	5.0256e-02
10.750	21.250	5.2454e-02
10.750	21.500	5.5117e-02
10.750	21.750	5.5746e-02
10.750	22.000	5.5909e-02
10.750	22.250	5.5940e-02
10.750	22.500	5.5945e-02
10.750	22.750	5.5953e-02
10.750	23.000	5.5955e-02
10.750	23.250	5.5921e-02
10.750	23.500	5.5914e-02
10.750	23.750	5.5912e-02
10.750	24.000	5.5911e-02
11.000	17.000	1.4815e-04
11.000	17.250	2.0412e-04
11.000	17.500	2.9588e-04
11.000	17.750	4.6247e-04
11.000	18.000	7.6872e-04
11.000	18.250	1.2875e-03
11.000	18.500	2.0756e-03
11.000	18.750	3.1520e-03
11.000	19.000	4.6877e-03
11.000	19.250	6.7793e-03
11.000	19.500	9.7023e-03
11.000	19.750	1.3771e-02
11.000	20.000	1.9541e-02
11.000	20.250	2.7284e-02
11.000	20.500	3.6163e-02
11.000	20.750	4.5329e-02
11.000	21.000	4.8376e-02
11.000	21.250	5.0220e-02
11.000	21.500	5.2650e-02
11.000	21.750	5.5169e-02
11.000	22.000	5.5689e-02
11.000	22.250	5.5881e-02
11.000	22.500	5.5934e-02
11.000	22.750	5.5942e-02
11.000	23.000	5.5951e-02
11.000	23.250	5.5958e-02
11.000	23.500	5.5945e-02
11.000	23.750	5.5917e-02
11.000	24.000	5.5914e-02
11.250	17.000	1.1325e-04
11.250	17.250	1.5243e-04
11.250	17.500	2.1877e-04
11.250	17.750	3.3934e-04
11.250	18.000	5.5761e-04
11.250	18.250	9.2115e-04
11.250	18.500	1.4574e-03
11.250	18.750	2.2505e-03
11.250	19.000	3.3478e-03
11.250	19.250	4.8656e-03
11.250	19.500	6.9786e-03
11.250	19.750	9.9195e-03
11.250	20.000	1.4057e-02
11.250	20.250	1.9973e-02
11.250	20.500	2.7877e-02
11.250	20.750	3.6944e-02
11.250	21.000	4.5642e-02
11.250	21.250	4.8273e-02
11.250	21.500	5.0346e-02
11.250	21.750	5.3027e-02
11.250	22.000	5.5180e-02
11.250	22.250	5.5605e-02
11.250	22.500	5.5841e-02
11.250	22.750	5.5924e-02
11.250	23.000	5.5937e-02
11.250	23.250	5.5949e-02
11.250	23.500	5.5959e-02
11.250	23.750	5.5956e-02
11.250	24.000	5.5933e-02
11.500	17.000	8.9136e-05
11.500	17.250	1.1605e-04
11.500	17.500	1.6239e-04
11.500	17.750	2.4733e-04
11.500	18.000	3.9967e-04
11.500	18.250	6.5325e-04
11.500	18.500	1.0281e-03
11.500	18.750	1.5779e-03
11.500	19.000	2.3688e-03
11.500	19.250	3.4562e-03
11.500	19.500	4.9852e-03
11.500	19.750	7.1265e-03
11.500	20.000	1.0112e-02
11.500	20.250	1.4318e-02
11.500	20.500	2.0341e-02
11.500	20.750	2.8378e-02
11.500	21.000	3.7628e-02
11.500	21.250	4.5303e-02
11.500	21.500	4.8272e-02
11.500	21.750	5.0588e-02
11.500	22.000	5.3487e-02
11.500	22.250	5.5082e-02
11.500	22.500	5.5524e-02
11.500	22.750	5.5790e-02
11.500	23.000	5.5908e-02
11.500	23.250	5.5929e-02
11.500	23.500	5.5945e-02
11.500	23.750	5.5958e-02
11.500	24.000	5.5960e-02
11.750	17.000	7.2757e-05
11.750	17.250	9.1029e-05
11.750	17.500	1.2263e-04
11.750	17.750	1.8107e-04
11.750	18.000	2.8626e-04
11.750	18.250	4.6016e-04
11.750	18.500	7.1918e-04
11.750	18.750	1.1087e-03
11.750	19.000	1.6547e-03
11.750	19.250	2.4351e-03
11.750	19.500	3.5343e-03
11.750	19.750	5.0820e-03
11.750	20.000	7.2580e-03
11.750	20.250	1.0242e-02
11.750	20.500	1.4525e-02
11.750	20.750	2.0614e-02
11.750	21.000	2.8764e-02
11.750	21.250	3.8079e-02
11.750	21.500	4.4932e-02
11.750	21.750	4.8269e-02
11.750	22.000	5.0932e-02
11.750	22.250	5.3830e-02
11.750	22.500	5.4964e-02
11.750	22.750	5.5432e-02
11.750	23.000	5.5730e-02
11.750	23.250	5.5886e-02
11.750	23.500	5.5918e-02
11.750	23.750	5.5940e-02
11.750	24.000	5.5957e-02
12.000	17.000	6.0329e-05
12.000	17.250	7.4074e-05
12.000	17.500	9.5309e-05
12.000	17.750	1.3432e-04
12.000	18.000	2.0469e-04
12.000	18.250	3.2247e-04
12.000	18.500	5.0198e-04
12.000	18.750	7.6691e-04
12.000	19.000	1.1524e-03
12.000	19.250	1.7051e-03
12.000	19.500	2.4950e-03
12.000	19.750	3.6128e-03
12.000	20.000	5.1735e-03
12.000	20.250	7.3538e-03
12.000	20.500	1.0394e-02
12.000	20.750	1.4708e-02
12.000	21.000	2.0734e-02
12.000	21.250	2.8849e-02
12.000	21.500	3.7897e-02
12.000	21.750	4.4415e-02
12.000	22.000	4.8246e-02
12.000	22.250	5.1309e-02
12.000	22.500	5.3875e-02
12.000	22.750	5.4817e-02
12.000	23.000	5.5318e-02
12.000	23.250	5.5649e-02
12.000	23.500	5.5857e-02
12.000	23.750	5.5903e-02
12.000	24.000	5.5932e-02
12.250	17.000	3.4321e-05
12.250	17.250	6.2387e-05
12.250	17.500	7.7119e-05
12.250	17.750	1.0263e-04
12.250	18.000	1.4872e-04
12.250	18.250	2.2757e-04
12.250	18.500	3.4930e-04
12.250	18.750	5.3218e-04
12.250	19.000	8.0025e-04
12.250	19.250	1.1957e-03
12.250	19.500	1.7556e-03
12.250	19.750	2.5524e-03
12.250	20.000	3.6668e-03
12.250	20.250	5.2466e-03
12.250	20.500	7.4286e-03
12.250	20.750	1.0459e-02
12.250	21.000	1.4738e-02
12.250	21.250	2.0581e-02
12.250	21.500	2.8304e-02
12.250	21.750	3.7491e-02
12.250	22.000	4.3750e-02
12.250	22.250	4.8158e-02
12.250	22.500	5.1488e-02
12.250	22.750	5.3717e-02
12.250	23.000	5.4628e-02
12.250	23.250	5.5161e-02
12.250	23.500	5.5543e-02
12.250	23.750	5.5818e-02
12.250	24.000	5.5883e-02
12.500	17.000	1.6296e-05
12.500	17.250	3.8519e-05
12.500	17.500	6.4609e-05
12.500	17.750	8.2140e-05
12.500	18.000	1.1226e-04
12.500	18.250	1.6280e-04
12.500	18.500	2.4436e-04
12.500	18.750	3.7095e-04
12.500	19.000	5.5778e-04
12.500	19.250	8.3424e-04
12.500	19.500	1.2295e-03
12.500	19.750	1.7928e-03
12.500	20.000	2.5938e-03
12.500	20.250	3.7182e-03
12.500	20.500	5.2830e-03
12.500	20.750	7.4733e-03
12.500	21.000	1.0490e-02
12.500	21.250	1.4606e-02
12.500	21.500	2.0026e-02
12.500	21.750	2.7611e-02
12.500	22.000	3.6482e-02
12.500	22.250	4.2972e-02
12.500	22.500	4.8140e-02
12.500	22.750	5.1282e-02
12.500	23.000	5.3343e-02
12.500	23.250	5.4327e-02
12.500	23.500	5.4932e-02
12.500	23.750	5.5390e-02
12.500	24.000	5.5766e-02
12.750	17.000	8.6420e-06
12.750	17.250	1.8683e-05
12.750	17.500	4.1152e-05
12.750	17.750	6.7243e-05
12.750	18.000	8.7407e-05
12.750	18.250	1.1984e-04
12.750	18.500	1.7399e-04
12.750	18.750	2.5926e-04
12.750	19.000	3.8840e-04
12.750	19.250	5.7827e-04
12.750	19.500	8.5432e-04
12.750	19.750	1.2513e-03
12.750	20.000	1.8188e-03
12.750	20.250	2.6225e-03
12.750	20.500	3.7472e-03
12.750	20.750	5.3123e-03
12.750	21.000	7.4677e-03
12.750	21.250	1.0404e-02
12.750	21.500	1.4175e-02
12.750	21.750	1.9285e-02
12.750	22.000	2.6417e-02
12.750	22.250	3.4730e-02
12.750	22.500	4.1985e-02
12.750	22.750	4.7073e-02
12.750	23.000	5.0544e-02
12.750	23.250	5.2739e-02
12.750	23.500	5.3885e-02
12.750	23.750	5.4586e-02
12.750	24.000	5.5159e-02
13.000	17.000	2.0576e-06
13.000	17.250	4.6091e-06
13.000	17.500	1.4568e-05
13.000	17.750	3.4897e-05
13.000	18.000	5.9424e-05
13.000	18.250	8.4198e-05
13.000	18.500	1.2642e-04
13.000	18.750	1.8239e-04
13.000	19.000	2.6963e-04
13.000	19.250	4.0025e-04
13.000	19.500	5.9391e-04
13.000	19.750	8.7086e-04
13.000	20.000	1.2691e-03
13.000	20.250	1.8373e-03
13.000	20.500	2.6413e-03
13.000	20.750	3.7681e-03
13.000	21.000	5.3178e-03
13.000	21.250	7.4101e-03
13.000	21.500	1.0103e-02
13.000	21.750	1.3572e-02
13.000	22.000	1.8052e-02
13.000	22.250	2.4730e-02
13.000	22.500	3.2844e-02
13.000	22.750	4.0039e-02
13.000	23.000	4.5403e-02
13.000	23.250	4.9313e-02
13.000	23.500	5.1822e-02
13.000	23.750	5.3206e-02
13.000	24.000	5.4053e-02
13.250	17.000	1.1523e-06
13.250	17.250	2.3045e-06
13.250	17.500	5.2675e-06
13.250	17.750	1.2510e-05
13.250	18.000	3.0947e-05
13.250	18.250	5.8272e-05
13.250	18.500	8.5021e-05
13.250	18.750	1.3218e-04
13.250	19.000	1.8905e-04
13.250	19.250	2.7712e-04
13.250	19.500	4.1021e-04
13.250	19.750	6.0288e-04
13.250	20.000	8.8058e-04
13.250	20.250	1.2802e-03
13.250	20.500	1.8498e-03
13.250	20.750	2.6533e-03
13.250	21.000	3.7711e-03
13.250	21.250	5.2874e-03
13.250	21.500	7.2191e-03
13.250	21.750	9.6012e-03
13.250	22.000	1.2419e-02
13.250	22.250	1.6113e-02
13.250	22.500	2.2333e-02
13.250	22.750	2.9906e-02
13.250	23.000	3.7002e-02
13.250	23.250	4.2939e-02
13.250	23.500	4.7540e-02
13.250	23.750	5.0473e-02
13.250	24.000	5.2187e-02
13.500	17.000	1.0000e-07
13.500	17.250	1.3169e-06
13.500	17.500	2.8807e-06
13.500	17.750	6.5021e-06
13.500	18.000	1.5309e-05
13.500	18.250	3.5638e-05
13.500	18.500	6.2140e-05
13.500	18.750	9.1934e-05
13.500	19.000	1.3621e-04
13.500	19.250	1.9407e-04
13.500	19.500	2.8321e-04
13.500	19.750	4.1481e-04
13.500	20.000	6.0815e-04
13.500	20.250	8.8691e-04
13.500	20.500	1.2877e-03
13.500	20.750	1.8547e-03
13.500	21.000	2.6503e-03
13.500	21.250	3.7398e-03
13.500	21.500	5.1251e-03
13.500	21.750	6.8201e-03
13.500	22.000	8.5077e-03
13.500	22.250	1.0417e-02
13.500	22.500	1.3801e-02
13.500	22.750	1.9749e-02
13.500	23.000	2.6888e-02
13.500	23.250	3.3710e-02
13.500	23.500	3.9991e-02
13.500	23.750	4.5152e-02
13.500	24.000	4.8560e-02
13.750	17.000	1.0000e-07
13.750	17.250	1.0000e-07
13.750	17.500	1.7284e-06
13.750	17.750	3.4568e-06
13.750	18.000	8.2305e-06
13.750	18.250	1.8189e-05
13.750	18.500	3.7695e-05
13.750	18.750	6.5021e-05
13.750	19.000	9.7613e-05
13.750	19.250	1.3893e-04
13.750	19.500	1.9720e-04
13.750	19.750	2.8634e-04
13.750	20.000	4.1877e-04
13.750	20.250	6.1235e-04
13.750	20.500	8.9169e-04
13.750	20.750	1.2915e-03
13.750	21.000	1.8556e-03
13.750	21.250	2.6315e-03
13.750	21.500	3.6367e-03
13.750	21.750	4.8421e-03
13.750	22.000	5.9286e-03
13.750	22.250	6.8127e-03
13.750	22.500	8.3758e-03
13.750	22.750	1.1760e-02
13.750	23.000	1.7133e-02
13.750	23.250	2.3557e-02
13.750	23.500	3.0189e-02
13.750	23.750	3.6332e-02
13.750	24.000	4.2049e-02
14.000	17.000	1.0000e-07
14.000	17.250	1.0000e-07
14.000	17.500	9.8765e-07
14.000	17.750	2.0576e-06
14.000	18.000	4.2798e-06
14.000	18.250	9.7942e-06
14.000	18.500	2.0329e-05
14.000	18.750	3.9259e-05
14.000	19.000	7.0700e-05
14.000	19.250	1.0222e-04
14.000	19.500	1.4066e-04
14.000	19.750	1.9909e-04
14.000	20.000	2.8848e-04
14.000	20.250	4.2123e-04
14.000	20.500	6.1547e-04
14.000	20.750	8.9514e-04
14.000	21.000	1.2929e-03
14.000	21.250	1.8444e-03
14.000	21.500	2.5696e-03
14.000	21.750	3.4316e-03
14.000	22.000	4.1419e-03
14.000	22.250	4.5267e-03
14.000	22.500	5.1533e-03
14.000	22.750	6.9244e-03
14.000	23.000	1.0140e-02
14.000	23.250	1.4658e-02
14.000	23.500	2.0183e-02
14.000	23.750	2.5985e-02
14.000	24.000	3.1866e-02
