nFnu 1.48022m  relative to Inci 1215.00A scaled to 1215A.
Hden   Phi(H)  Eq_Width (A)
 7.000	17.000	4.3944e-02
 7.000	17.250	4.0485e-02
 7.000	17.500	3.5511e-02
 7.000	17.750	2.3335e-02
 7.000	18.000	1.5595e-02
 7.000	18.250	1.1303e-02
 7.000	18.500	8.9521e-03
 7.000	18.750	8.0016e-03
 7.000	19.000	7.5687e-03
 7.000	19.250	7.3204e-03
 7.000	19.500	7.2257e-03
 7.000	19.750	7.1886e-03
 7.000	20.000	7.1731e-03
 7.000	20.250	7.1660e-03
 7.000	20.500	7.1626e-03
 7.000	20.750	7.1607e-03
 7.000	21.000	7.1598e-03
 7.000	21.250	7.1593e-03
 7.000	21.500	7.1590e-03
 7.000	21.750	7.1588e-03
 7.000	22.000	7.1588e-03
 7.000	22.250	7.1588e-03
 7.000	22.500	7.1588e-03
 7.000	22.750	7.1588e-03
 7.000	23.000	7.1588e-03
 7.000	23.250	7.1588e-03
 7.000	23.500	7.1588e-03
 7.000	23.750	7.1588e-03
 7.000	24.000	7.1588e-03
 7.250	17.000	4.6034e-02
 7.250	17.250	4.5478e-02
 7.250	17.500	4.1122e-02
 7.250	17.750	3.5464e-02
 7.250	18.000	2.3321e-02
 7.250	18.250	1.5588e-02
 7.250	18.500	1.1299e-02
 7.250	18.750	8.9521e-03
 7.250	19.000	8.0016e-03
 7.250	19.250	7.5687e-03
 7.250	19.500	7.3204e-03
 7.250	19.750	7.2257e-03
 7.250	20.000	7.1886e-03
 7.250	20.250	7.1731e-03
 7.250	20.500	7.1661e-03
 7.250	20.750	7.1626e-03
 7.250	21.000	7.1608e-03
 7.250	21.250	7.1598e-03
 7.250	21.500	7.1593e-03
 7.250	21.750	7.1590e-03
 7.250	22.000	7.1588e-03
 7.250	22.250	7.1588e-03
 7.250	22.500	7.1587e-03
 7.250	22.750	7.1587e-03
 7.250	23.000	7.1587e-03
 7.250	23.250	7.1593e-03
 7.250	23.500	7.1587e-03
 7.250	23.750	7.1587e-03
 7.250	24.000	7.1587e-03
 7.500	17.000	4.5368e-02
 7.500	17.250	4.7654e-02
 7.500	17.500	4.7105e-02
 7.500	17.750	4.1861e-02
 7.500	18.000	3.5423e-02
 7.500	18.250	2.3310e-02
 7.500	18.500	1.5580e-02
 7.500	18.750	1.1295e-02
 7.500	19.000	8.9518e-03
 7.500	19.250	8.0016e-03
 7.500	19.500	7.5687e-03
 7.500	19.750	7.3204e-03
 7.500	20.000	7.2257e-03
 7.500	20.250	7.1886e-03
 7.500	20.500	7.1731e-03
 7.500	20.750	7.1661e-03
 7.500	21.000	7.1626e-03
 7.500	21.250	7.1607e-03
 7.500	21.500	7.1598e-03
 7.500	21.750	7.1593e-03
 7.500	22.000	7.1589e-03
 7.500	22.250	7.1588e-03
 7.500	22.500	7.1588e-03
 7.500	22.750	7.1587e-03
 7.500	23.000	7.1587e-03
 7.500	23.250	7.1587e-03
 7.500	23.500	7.1586e-03
 7.500	23.750	7.1587e-03
 7.500	24.000	7.1586e-03
 7.750	17.000	4.4426e-02
 7.750	17.250	4.6895e-02
 7.750	17.500	4.9771e-02
 7.750	17.750	4.9347e-02
 7.750	18.000	4.2801e-02
 7.750	18.250	3.5388e-02
 7.750	18.500	2.3300e-02
 7.750	18.750	1.5571e-02
 7.750	19.000	1.1290e-02
 7.750	19.250	8.9518e-03
 7.750	19.500	8.0016e-03
 7.750	19.750	7.5687e-03
 7.750	20.000	7.3204e-03
 7.750	20.250	7.2257e-03
 7.750	20.500	7.1886e-03
 7.750	20.750	7.1731e-03
 7.750	21.000	7.1660e-03
 7.750	21.250	7.1626e-03
 7.750	21.500	7.1607e-03
 7.750	21.750	7.1598e-03
 7.750	22.000	7.1593e-03
 7.750	22.250	7.1590e-03
 7.750	22.500	7.1588e-03
 7.750	22.750	7.1587e-03
 7.750	23.000	7.1587e-03
 7.750	23.250	7.1587e-03
 7.750	23.500	7.1586e-03
 7.750	23.750	7.1586e-03
 7.750	24.000	7.1586e-03
 8.000	17.000	4.3589e-02
 8.000	17.250	4.5443e-02
 8.000	17.500	4.8695e-02
 8.000	17.750	5.2675e-02
 8.000	18.000	5.2342e-02
 8.000	18.250	4.3793e-02
 8.000	18.500	3.5346e-02
 8.000	18.750	2.3282e-02
 8.000	19.000	1.5561e-02
 8.000	19.250	1.1284e-02
 8.000	19.500	8.9513e-03
 8.000	19.750	8.0015e-03
 8.000	20.000	7.5687e-03
 8.000	20.250	7.3204e-03
 8.000	20.500	7.2257e-03
 8.000	20.750	7.1886e-03
 8.000	21.000	7.1731e-03
 8.000	21.250	7.1660e-03
 8.000	21.500	7.1626e-03
 8.000	21.750	7.1607e-03
 8.000	22.000	7.1598e-03
 8.000	22.250	7.1593e-03
 8.000	22.500	7.1590e-03
 8.000	22.750	7.1588e-03
 8.000	23.000	7.1587e-03
 8.000	23.250	7.1587e-03
 8.000	23.500	7.1586e-03
 8.000	23.750	7.1586e-03
 8.000	24.000	7.1586e-03
 8.250	17.000	4.3828e-02
 8.250	17.250	4.4983e-02
 8.250	17.500	4.7630e-02
 8.250	17.750	5.2384e-02
 8.250	18.000	5.8298e-02
 8.250	18.250	5.6880e-02
 8.250	18.500	4.5608e-02
 8.250	18.750	3.5322e-02
 8.250	19.000	2.3275e-02
 8.250	19.250	1.5549e-02
 8.250	19.500	1.1277e-02
 8.250	19.750	8.9507e-03
 8.250	20.000	8.0015e-03
 8.250	20.250	7.5687e-03
 8.250	20.500	7.3204e-03
 8.250	20.750	7.2257e-03
 8.250	21.000	7.1886e-03
 8.250	21.250	7.1731e-03
 8.250	21.500	7.1660e-03
 8.250	21.750	7.1626e-03
 8.250	22.000	7.1607e-03
 8.250	22.250	7.1598e-03
 8.250	22.500	7.1593e-03
 8.250	22.750	7.1589e-03
 8.250	23.000	7.1588e-03
 8.250	23.250	7.1588e-03
 8.250	23.500	7.1587e-03
 8.250	23.750	7.1587e-03
 8.250	24.000	7.1586e-03
 8.500	17.000	4.4421e-02
 8.500	17.250	4.5240e-02
 8.500	17.500	4.7196e-02
 8.500	17.750	5.1613e-02
 8.500	18.000	5.9512e-02
 8.500	18.250	6.7691e-02
 8.500	18.500	6.2497e-02
 8.500	18.750	4.7675e-02
 8.500	19.000	3.5304e-02
 8.500	19.250	2.3269e-02
 8.500	19.500	1.5534e-02
 8.500	19.750	1.1269e-02
 8.500	20.000	8.9500e-03
 8.500	20.250	8.0014e-03
 8.500	20.500	7.5687e-03
 8.500	20.750	7.3204e-03
 8.500	21.000	7.2257e-03
 8.500	21.250	7.1886e-03
 8.500	21.500	7.1731e-03
 8.500	21.750	7.1661e-03
 8.500	22.000	7.1626e-03
 8.500	22.250	7.1607e-03
 8.500	22.500	7.1598e-03
 8.500	22.750	7.1593e-03
 8.500	23.000	7.1589e-03
 8.500	23.250	7.1588e-03
 8.500	23.500	7.1587e-03
 8.500	23.750	7.1587e-03
 8.500	24.000	7.1587e-03
 8.750	17.000	4.5055e-02
 8.750	17.250	4.5902e-02
 8.750	17.500	4.7593e-02
 8.750	17.750	5.1307e-02
 8.750	18.000	5.9324e-02
 8.750	18.250	7.2035e-02
 8.750	18.500	7.9883e-02
 8.750	18.750	6.7878e-02
 8.750	19.000	4.9620e-02
 8.750	19.250	3.5295e-02
 8.750	19.500	2.3265e-02
 8.750	19.750	1.5519e-02
 8.750	20.000	1.1260e-02
 8.750	20.250	8.9491e-03
 8.750	20.500	8.0014e-03
 8.750	20.750	7.5687e-03
 8.750	21.000	7.3204e-03
 8.750	21.250	7.2257e-03
 8.750	21.500	7.1886e-03
 8.750	21.750	7.1731e-03
 8.750	22.000	7.1661e-03
 8.750	22.250	7.1626e-03
 8.750	22.500	7.1607e-03
 8.750	22.750	7.1598e-03
 8.750	23.000	7.1593e-03
 8.750	23.250	7.1590e-03
 8.750	23.500	7.1588e-03
 8.750	23.750	7.1588e-03
 8.750	24.000	7.1587e-03
 9.000	17.000	4.5564e-02
 9.000	17.250	4.6645e-02
 9.000	17.500	4.8505e-02
 9.000	17.750	5.2150e-02
 9.000	18.000	5.9792e-02
 9.000	18.250	7.3607e-02
 9.000	18.500	8.8984e-02
 9.000	18.750	9.2039e-02
 9.000	19.000	7.2640e-02
 9.000	19.250	5.2103e-02
 9.000	19.500	3.5295e-02
 9.000	19.750	2.3261e-02
 9.000	20.000	1.5502e-02
 9.000	20.250	1.1250e-02
 9.000	20.500	8.9482e-03
 9.000	20.750	8.0013e-03
 9.000	21.000	7.5687e-03
 9.000	21.250	7.3204e-03
 9.000	21.500	7.2257e-03
 9.000	21.750	7.1886e-03
 9.000	22.000	7.1731e-03
 9.000	22.250	7.1660e-03
 9.000	22.500	7.1626e-03
 9.000	22.750	7.1607e-03
 9.000	23.000	7.1598e-03
 9.000	23.250	7.1593e-03
 9.000	23.500	7.1590e-03
 9.000	23.750	7.1588e-03
 9.000	24.000	7.1587e-03
 9.250	17.000	4.5902e-02
 9.250	17.250	4.7302e-02
 9.250	17.500	4.9635e-02
 9.250	17.750	5.3873e-02
 9.250	18.000	6.2194e-02
 9.250	18.250	7.6491e-02
 9.250	18.500	9.3580e-02
 9.250	18.750	1.0785e-01
 9.250	19.000	1.0438e-01
 9.250	19.250	7.9382e-02
 9.250	19.500	5.5024e-02
 9.250	19.750	3.5292e-02
 9.250	20.000	2.3258e-02
 9.250	20.250	1.5487e-02
 9.250	20.500	1.1240e-02
 9.250	20.750	8.9472e-03
 9.250	21.000	8.0012e-03
 9.250	21.250	7.5686e-03
 9.250	21.500	7.3200e-03
 9.250	21.750	7.2214e-03
 9.250	22.000	7.1823e-03
 9.250	22.250	7.1688e-03
 9.250	22.500	7.1660e-03
 9.250	22.750	7.1626e-03
 9.250	23.000	7.1607e-03
 9.250	23.250	7.1598e-03
 9.250	23.500	7.1593e-03
 9.250	23.750	7.1590e-03
 9.250	24.000	7.1588e-03
 9.500	17.000	4.6194e-02
 9.500	17.250	4.7944e-02
 9.500	17.500	5.0859e-02
 9.500	17.750	5.6130e-02
 9.500	18.000	6.6122e-02
 9.500	18.250	8.1846e-02
 9.500	18.500	9.9383e-02
 9.500	18.750	1.1553e-01
 9.500	19.000	1.2575e-01
 9.500	19.250	1.1724e-01
 9.500	19.500	8.3735e-02
 9.500	19.750	5.6771e-02
 9.500	20.000	3.5265e-02
 9.500	20.250	2.3258e-02
 9.500	20.500	1.5472e-02
 9.500	20.750	1.1230e-02
 9.500	21.000	8.9455e-03
 9.500	21.250	7.9988e-03
 9.500	21.500	7.5625e-03
 9.500	21.750	7.3135e-03
 9.500	22.000	7.2173e-03
 9.500	22.250	7.1779e-03
 9.500	22.500	7.1613e-03
 9.500	22.750	7.1547e-03
 9.500	23.000	7.1513e-03
 9.500	23.250	7.1495e-03
 9.500	23.500	7.1529e-03
 9.500	23.750	7.1523e-03
 9.500	24.000	7.1520e-03
 9.750	17.000	4.6353e-02
 9.750	17.250	4.8489e-02
 9.750	17.500	5.2086e-02
 9.750	17.750	5.8719e-02
 9.750	18.000	7.1209e-02
 9.750	18.250	8.9352e-02
 9.750	18.500	1.0785e-01
 9.750	18.750	1.2405e-01
 9.750	19.000	1.3764e-01
 9.750	19.250	1.4558e-01
 9.750	19.500	1.2586e-01
 9.750	19.750	8.8658e-02
 9.750	20.000	5.6577e-02
 9.750	20.250	3.5206e-02
 9.750	20.500	2.3262e-02
 9.750	20.750	1.5459e-02
 9.750	21.000	1.1222e-02
 9.750	21.250	8.9444e-03
 9.750	21.500	8.0002e-03
 9.750	21.750	7.5649e-03
 9.750	22.000	7.3138e-03
 9.750	22.250	7.2183e-03
 9.750	22.500	7.1796e-03
 9.750	22.750	7.1626e-03
 9.750	23.000	7.1547e-03
 9.750	23.250	7.1509e-03
 9.750	23.500	7.1491e-03
 9.750	23.750	7.1490e-03
 9.750	24.000	7.1477e-03
10.000	17.000	4.6576e-02
10.000	17.250	4.9105e-02
10.000	17.500	5.3553e-02
10.000	17.750	6.1898e-02
10.000	18.000	7.7277e-02
10.000	18.250	9.7757e-02
10.000	18.500	1.1755e-01
10.000	18.750	1.3402e-01
10.000	19.000	1.4793e-01
10.000	19.250	1.5993e-01
10.000	19.500	1.6491e-01
10.000	19.750	1.3340e-01
10.000	20.000	9.2459e-02
10.000	20.250	5.6536e-02
10.000	20.500	3.5028e-02
10.000	20.750	2.3268e-02
10.000	21.000	1.5446e-02
10.000	21.250	1.1213e-02
10.000	21.500	8.9430e-03
10.000	21.750	8.0006e-03
10.000	22.000	7.5674e-03
10.000	22.250	7.3139e-03
10.000	22.500	7.2188e-03
10.000	22.750	7.1807e-03
10.000	23.000	7.1642e-03
10.000	23.250	7.1564e-03
10.000	23.500	7.1523e-03
10.000	23.750	7.1503e-03
10.000	24.000	7.1491e-03
10.250	17.000	4.7132e-02
10.250	17.250	4.9906e-02
10.250	17.500	5.5500e-02
10.250	17.750	6.6027e-02
10.250	18.000	8.4079e-02
10.250	18.250	1.0688e-01
10.250	18.500	1.2768e-01
10.250	18.750	1.4475e-01
10.250	19.000	1.5854e-01
10.250	19.250	1.7179e-01
10.250	19.500	1.8426e-01
10.250	19.750	1.7414e-01
10.250	20.000	1.3978e-01
10.250	20.250	9.5092e-02
10.250	20.500	5.6109e-02
10.250	20.750	3.4995e-02
10.250	21.000	2.3304e-02
10.250	21.250	1.5433e-02
10.250	21.500	1.1207e-02
10.250	21.750	8.9412e-03
10.250	22.000	8.0005e-03
10.250	22.250	7.5681e-03
10.250	22.500	7.3151e-03
10.250	22.750	7.2192e-03
10.250	23.000	7.1815e-03
10.250	23.250	7.1653e-03
10.250	23.500	7.1578e-03
10.250	23.750	7.1538e-03
10.250	24.000	7.1519e-03
10.500	17.000	4.8749e-02
10.500	17.250	5.1629e-02
10.500	17.500	5.8385e-02
10.500	17.750	7.1561e-02
10.500	18.000	9.1816e-02
10.500	18.250	1.1608e-01
10.500	18.500	1.3690e-01
10.500	18.750	1.5417e-01
10.500	19.000	1.6803e-01
10.500	19.250	1.7976e-01
10.500	19.500	1.9080e-01
10.500	19.750	1.9853e-01
10.500	20.000	1.8344e-01
10.500	20.250	1.4660e-01
10.500	20.500	9.4783e-02
10.500	20.750	5.5898e-02
10.500	21.000	3.4907e-02
10.500	21.250	2.3328e-02
10.500	21.500	1.5422e-02
10.500	21.750	1.1201e-02
10.500	22.000	8.9389e-03
10.500	22.250	8.0002e-03
10.500	22.500	7.5683e-03
10.500	22.750	7.3181e-03
10.500	23.000	7.2193e-03
10.500	23.250	7.1820e-03
10.500	23.500	7.1661e-03
10.500	23.750	7.1587e-03
10.500	24.000	7.1549e-03
10.750	17.000	5.1628e-02
10.750	17.250	5.4505e-02
10.750	17.500	6.2882e-02
10.750	17.750	7.8415e-02
10.750	18.000	1.0042e-01
10.750	18.250	1.2466e-01
10.750	18.500	1.4566e-01
10.750	18.750	1.6262e-01
10.750	19.000	1.7684e-01
10.750	19.250	1.8802e-01
10.750	19.500	1.9771e-01
10.750	19.750	2.0698e-01
10.750	20.000	2.1180e-01
10.750	20.250	1.9379e-01
10.750	20.500	1.5460e-01
10.750	20.750	9.4292e-02
10.750	21.000	5.5433e-02
10.750	21.250	3.4874e-02
10.750	21.500	2.3410e-02
10.750	21.750	1.5402e-02
10.750	22.000	1.1196e-02
10.750	22.250	8.9362e-03
10.750	22.500	7.9996e-03
10.750	22.750	7.5681e-03
10.750	23.000	7.3195e-03
10.750	23.250	7.2202e-03
10.750	23.500	7.1821e-03
10.750	23.750	7.1665e-03
10.750	24.000	7.1593e-03
11.000	17.000	5.5721e-02
11.000	17.250	5.8679e-02
11.000	17.500	6.8598e-02
11.000	17.750	8.6279e-02
11.000	18.000	1.0905e-01
11.000	18.250	1.3284e-01
11.000	18.500	1.5434e-01
11.000	18.750	1.7134e-01
11.000	19.000	1.8572e-01
11.000	19.250	1.9634e-01
11.000	19.500	2.0509e-01
11.000	19.750	2.1308e-01
11.000	20.000	2.2182e-01
11.000	20.250	2.2531e-01
11.000	20.500	2.0496e-01
11.000	20.750	1.6125e-01
11.000	21.000	9.3518e-02
11.000	21.250	5.5022e-02
11.000	21.500	3.5164e-02
11.000	21.750	2.3381e-02
11.000	22.000	1.5369e-02
11.000	22.250	1.1189e-02
11.000	22.500	8.9338e-03
11.000	22.750	7.9986e-03
11.000	23.000	7.5678e-03
11.000	23.250	7.3198e-03
11.000	23.500	7.2233e-03
11.000	23.750	7.1825e-03
11.000	24.000	7.1667e-03
11.250	17.000	6.1425e-02
11.250	17.250	6.3938e-02
11.250	17.500	7.4983e-02
11.250	17.750	9.4198e-02
11.250	18.000	1.1747e-01
11.250	18.250	1.4067e-01
11.250	18.500	1.6071e-01
11.250	18.750	1.7868e-01
11.250	19.000	1.9288e-01
11.250	19.250	2.0386e-01
11.250	19.500	2.1245e-01
11.250	19.750	2.1958e-01
11.250	20.000	2.2702e-01
11.250	20.250	2.3624e-01
11.250	20.500	2.3909e-01
11.250	20.750	2.1615e-01
11.250	21.000	1.6392e-01
11.250	21.250	9.2151e-02
11.250	21.500	5.5144e-02
11.250	21.750	3.5763e-02
11.250	22.000	2.3187e-02
11.250	22.250	1.5318e-02
11.250	22.500	1.1179e-02
11.250	22.750	8.9304e-03
11.250	23.000	7.9970e-03
11.250	23.250	7.5672e-03
11.250	23.500	7.3198e-03
11.250	23.750	7.2247e-03
11.250	24.000	7.1846e-03
11.500	17.000	6.9277e-02
11.500	17.250	7.0815e-02
11.500	17.500	8.1903e-02
11.500	17.750	1.0166e-01
11.500	18.000	1.2510e-01
11.500	18.250	1.4793e-01
11.500	18.500	1.6732e-01
11.500	18.750	1.8440e-01
11.500	19.000	1.9917e-01
11.500	19.250	2.1037e-01
11.500	19.500	2.1928e-01
11.500	19.750	2.2659e-01
11.500	20.000	2.3298e-01
11.500	20.250	2.4038e-01
11.500	20.500	2.4999e-01
11.500	20.750	2.5229e-01
11.500	21.000	2.2584e-01
11.500	21.250	1.6231e-01
11.500	21.500	9.2406e-02
11.500	21.750	5.5273e-02
11.500	22.000	3.6396e-02
11.500	22.250	2.2926e-02
11.500	22.500	1.5243e-02
11.500	22.750	1.1165e-02
11.500	23.000	8.9244e-03
11.500	23.250	7.9943e-03
11.500	23.500	7.5659e-03
11.500	23.750	7.3195e-03
11.500	24.000	7.2251e-03
11.750	17.000	7.9771e-02
11.750	17.250	7.9722e-02
11.750	17.500	8.9758e-02
11.750	17.750	1.0892e-01
11.750	18.000	1.3210e-01
11.750	18.250	1.5436e-01
11.750	18.500	1.7328e-01
11.750	18.750	1.9060e-01
11.750	19.000	2.0473e-01
11.750	19.250	2.1639e-01
11.750	19.500	2.2555e-01
11.750	19.750	2.3287e-01
11.750	20.000	2.3926e-01
11.750	20.250	2.4460e-01
11.750	20.500	2.5259e-01
11.750	20.750	2.6246e-01
11.750	21.000	2.6386e-01
11.750	21.250	2.3170e-01
11.750	21.500	1.6059e-01
11.750	21.750	9.1330e-02
11.750	22.000	5.5771e-02
11.750	22.250	3.6657e-02
11.750	22.500	2.2607e-02
11.750	22.750	1.5130e-02
11.750	23.000	1.1139e-02
11.750	23.250	8.9158e-03
11.750	23.500	7.9900e-03
11.750	23.750	7.5639e-03
11.750	24.000	7.3189e-03
12.000	17.000	9.2525e-02
12.000	17.250	9.1146e-02
12.000	17.500	9.8901e-02
12.000	17.750	1.1609e-01
12.000	18.000	1.3791e-01
12.000	18.250	1.5972e-01
12.000	18.500	1.7908e-01
12.000	18.750	1.9621e-01
12.000	19.000	2.1068e-01
12.000	19.250	2.2256e-01
12.000	19.500	2.3182e-01
12.000	19.750	2.3896e-01
12.000	20.000	2.4465e-01
12.000	20.250	2.4988e-01
12.000	20.500	2.5568e-01
12.000	20.750	2.6422e-01
12.000	21.000	2.7273e-01
12.000	21.250	2.7074e-01
12.000	21.500	2.3460e-01
12.000	21.750	1.5460e-01
12.000	22.000	8.9961e-02
12.000	22.250	5.6411e-02
12.000	22.500	3.6089e-02
12.000	22.750	2.2215e-02
12.000	23.000	1.4971e-02
12.000	23.250	1.1095e-02
12.000	23.500	8.9022e-03
12.000	23.750	7.9830e-03
12.000	24.000	7.5604e-03
12.250	17.000	8.8511e-02
12.250	17.250	1.0517e-01
12.250	17.500	1.0989e-01
12.250	17.750	1.2355e-01
12.250	18.000	1.4309e-01
12.250	18.250	1.6462e-01
12.250	18.500	1.8457e-01
12.250	18.750	2.0239e-01
12.250	19.000	2.1694e-01
12.250	19.250	2.2916e-01
12.250	19.500	2.3809e-01
12.250	19.750	2.4464e-01
12.250	20.000	2.4942e-01
12.250	20.250	2.5430e-01
12.250	20.500	2.5890e-01
12.250	20.750	2.6481e-01
12.250	21.000	2.7369e-01
12.250	21.250	2.7918e-01
12.250	21.500	2.7372e-01
12.250	21.750	2.2914e-01
12.250	22.000	1.4652e-01
12.250	22.250	8.8256e-02
12.250	22.500	5.6535e-02
12.250	22.750	3.5040e-02
12.250	23.000	2.1708e-02
12.250	23.250	1.4751e-02
12.250	23.500	1.1018e-02
12.250	23.750	8.8798e-03
12.250	24.000	7.9716e-03
12.500	17.000	7.7360e-02
12.500	17.250	1.0285e-01
12.500	17.500	1.2188e-01
12.500	17.750	1.3174e-01
12.500	18.000	1.4850e-01
12.500	18.250	1.6833e-01
12.500	18.500	1.8946e-01
12.500	18.750	2.0872e-01
12.500	19.000	2.2374e-01
12.500	19.250	2.3532e-01
12.500	19.500	2.4355e-01
12.500	19.750	2.4960e-01
12.500	20.000	2.5421e-01
12.500	20.250	2.5791e-01
12.500	20.500	2.6154e-01
12.500	20.750	2.6681e-01
12.500	21.000	2.7363e-01
12.500	21.250	2.8069e-01
12.500	21.500	2.8304e-01
12.500	21.750	2.6893e-01
12.500	22.000	2.1510e-01
12.500	22.250	1.3682e-01
12.500	22.500	8.7274e-02
12.500	22.750	5.5169e-02
12.500	23.000	3.3616e-02
12.500	23.250	2.1099e-02
12.500	23.500	1.4454e-02
12.500	23.750	1.0892e-02
12.500	24.000	8.8439e-03
12.750	17.000	6.9663e-02
12.750	17.250	8.7302e-02
12.750	17.500	1.1602e-01
12.750	17.750	1.3936e-01
12.750	18.000	1.5389e-01
12.750	18.250	1.7275e-01
12.750	18.500	1.9394e-01
12.750	18.750	2.1359e-01
12.750	19.000	2.2925e-01
12.750	19.250	2.4093e-01
12.750	19.500	2.4840e-01
12.750	19.750	2.5369e-01
12.750	20.000	2.5786e-01
12.750	20.250	2.6127e-01
12.750	20.500	2.6433e-01
12.750	20.750	2.6823e-01
12.750	21.000	2.7391e-01
12.750	21.250	2.8105e-01
12.750	21.500	2.8577e-01
12.750	21.750	2.8015e-01
12.750	22.000	2.5263e-01
12.750	22.250	1.9304e-01
12.750	22.500	1.2592e-01
12.750	22.750	8.2114e-02
12.750	23.000	5.2010e-02
12.750	23.250	3.1863e-02
12.750	23.500	2.0285e-02
12.750	23.750	1.4039e-02
12.750	24.000	1.0694e-02
13.000	17.000	4.3694e-02
13.000	17.250	5.7430e-02
13.000	17.500	8.6378e-02
13.000	17.750	1.2161e-01
13.000	18.000	1.5079e-01
13.000	18.250	1.7247e-01
13.000	18.500	1.9738e-01
13.000	18.750	2.1658e-01
13.000	19.000	2.3283e-01
13.000	19.250	2.4506e-01
13.000	19.500	2.5268e-01
13.000	19.750	2.5766e-01
13.000	20.000	2.6089e-01
13.000	20.250	2.6395e-01
13.000	20.500	2.6708e-01
13.000	20.750	2.7074e-01
13.000	21.000	2.7530e-01
13.000	21.250	2.8135e-01
13.000	21.500	2.8723e-01
13.000	21.750	2.8645e-01
13.000	22.000	2.6549e-01
13.000	22.250	2.2205e-01
13.000	22.500	1.6608e-01
13.000	22.750	1.1235e-01
13.000	23.000	7.4659e-02
13.000	23.250	4.7564e-02
13.000	23.500	2.9714e-02
13.000	23.750	1.9230e-02
13.000	24.000	1.3461e-02
13.250	17.000	4.2371e-02
13.250	17.250	5.1091e-02
13.250	17.500	6.8693e-02
13.250	17.750	9.5133e-02
13.250	18.000	1.3458e-01
13.250	18.250	1.7051e-01
13.250	18.500	1.9336e-01
13.250	18.750	2.1948e-01
13.250	19.000	2.3520e-01
13.250	19.250	2.4721e-01
13.250	19.500	2.5556e-01
13.250	19.750	2.6105e-01
13.250	20.000	2.6374e-01
13.250	20.250	2.6619e-01
13.250	20.500	2.6867e-01
13.250	20.750	2.7192e-01
13.250	21.000	2.7656e-01
13.250	21.250	2.8207e-01
13.250	21.500	2.8786e-01
13.250	21.750	2.8795e-01
13.250	22.000	2.7390e-01
13.250	22.250	2.1554e-01
13.250	22.500	1.5347e-01
13.250	22.750	1.2116e-01
13.250	23.000	9.3141e-02
13.250	23.250	6.3502e-02
13.250	23.500	4.2121e-02
13.250	23.750	2.7070e-02
13.250	24.000	1.7866e-02
13.500	17.000	4.1474e-02
13.500	17.250	4.9681e-02
13.500	17.500	6.4276e-02
13.500	17.750	8.6197e-02
13.500	18.000	1.1861e-01
13.500	18.250	1.6098e-01
13.500	18.500	1.9393e-01
13.500	18.750	2.1655e-01
13.500	19.000	2.3748e-01
13.500	19.250	2.4974e-01
13.500	19.500	2.5818e-01
13.500	19.750	2.6289e-01
13.500	20.000	2.6625e-01
13.500	20.250	2.6855e-01
13.500	20.500	2.7057e-01
13.500	20.750	2.7249e-01
13.500	21.000	2.7541e-01
13.500	21.250	2.7977e-01
13.500	21.500	2.8431e-01
13.500	21.750	2.8736e-01
13.500	22.000	2.7244e-01
13.500	22.250	2.1198e-01
13.500	22.500	1.4234e-01
13.500	22.750	9.9600e-02
13.500	23.000	7.9326e-02
13.500	23.250	6.5871e-02
13.500	23.500	5.2397e-02
13.500	23.750	3.5944e-02
13.500	24.000	2.3897e-02
13.750	17.000	4.0472e-02
13.750	17.250	4.8252e-02
13.750	17.500	6.1909e-02
13.750	17.750	7.9224e-02
13.750	18.000	1.0859e-01
13.750	18.250	1.4356e-01
13.750	18.500	1.8245e-01
13.750	18.750	2.1404e-01
13.750	19.000	2.3670e-01
13.750	19.250	2.5204e-01
13.750	19.500	2.6130e-01
13.750	19.750	2.6685e-01
13.750	20.000	2.7002e-01
13.750	20.250	2.7219e-01
13.750	20.500	2.7375e-01
13.750	20.750	2.7501e-01
13.750	21.000	2.7651e-01
13.750	21.250	2.7888e-01
13.750	21.500	2.8365e-01
13.750	21.750	2.8665e-01
13.750	22.000	2.7337e-01
13.750	22.250	2.0878e-01
13.750	22.500	1.3771e-01
13.750	22.750	9.1100e-02
13.750	23.000	6.4580e-02
13.750	23.250	5.0455e-02
13.750	23.500	4.1705e-02
13.750	23.750	3.4338e-02
13.750	24.000	2.9295e-02
14.000	17.000	3.9618e-02
14.000	17.250	4.6990e-02
14.000	17.500	6.0048e-02
14.000	17.750	7.6104e-02
14.000	18.000	9.9217e-02
14.000	18.250	1.3170e-01
14.000	18.500	1.6643e-01
14.000	18.750	2.0186e-01
14.000	19.000	2.3520e-01
14.000	19.250	2.5318e-01
14.000	19.500	2.6455e-01
14.000	19.750	2.7154e-01
14.000	20.000	2.7532e-01
14.000	20.250	2.7705e-01
14.000	20.500	2.7843e-01
14.000	20.750	2.7925e-01
14.000	21.000	2.8016e-01
14.000	21.250	2.8161e-01
14.000	21.500	2.8538e-01
14.000	21.750	2.8791e-01
14.000	22.000	2.7439e-01
14.000	22.250	2.0776e-01
14.000	22.500	1.3500e-01
14.000	22.750	8.9509e-02
14.000	23.000	6.0331e-02
14.000	23.250	4.3516e-02
14.000	23.500	3.2855e-02
14.000	23.750	2.5272e-02
14.000	24.000	1.9831e-02
