InwC 8207.00A  relative to Inci 1215.00A scaled to 1215A.
Hden   Phi(H)  Eq_Width (A)
 7.000	17.000	1.9770e-02
 7.000	17.250	2.6290e-02
 7.000	17.500	3.3674e-02
 7.000	17.750	3.4770e-02
 7.000	18.000	3.5293e-02
 7.000	18.250	3.5320e-02
 7.000	18.500	3.5318e-02
 7.000	18.750	3.5318e-02
 7.000	19.000	3.5322e-02
 7.000	19.250	3.5326e-02
 7.000	19.500	3.5327e-02
 7.000	19.750	3.5327e-02
 7.000	20.000	3.5328e-02
 7.000	20.250	3.5328e-02
 7.000	20.500	3.5328e-02
 7.000	20.750	3.5328e-02
 7.000	21.000	3.5328e-02
 7.000	21.250	3.5328e-02
 7.000	21.500	3.5328e-02
 7.000	21.750	3.5328e-02
 7.000	22.000	3.5328e-02
 7.000	22.250	3.5328e-02
 7.000	22.500	3.5328e-02
 7.000	22.750	3.5329e-02
 7.000	23.000	3.5329e-02
 7.000	23.250	3.5329e-02
 7.000	23.500	3.5329e-02
 7.000	23.750	3.5329e-02
 7.000	24.000	3.5329e-02
 7.250	17.000	1.4260e-02
 7.250	17.250	2.0347e-02
 7.250	17.500	2.6639e-02
 7.250	17.750	3.3678e-02
 7.250	18.000	3.4779e-02
 7.250	18.250	3.5293e-02
 7.250	18.500	3.5320e-02
 7.250	18.750	3.5319e-02
 7.250	19.000	3.5318e-02
 7.250	19.250	3.5322e-02
 7.250	19.500	3.5326e-02
 7.250	19.750	3.5327e-02
 7.250	20.000	3.5327e-02
 7.250	20.250	3.5328e-02
 7.250	20.500	3.5328e-02
 7.250	20.750	3.5328e-02
 7.250	21.000	3.5328e-02
 7.250	21.250	3.5328e-02
 7.250	21.500	3.5328e-02
 7.250	21.750	3.5328e-02
 7.250	22.000	3.5328e-02
 7.250	22.250	3.5328e-02
 7.250	22.500	3.5328e-02
 7.250	22.750	3.5328e-02
 7.250	23.000	3.5328e-02
 7.250	23.250	3.5331e-02
 7.250	23.500	3.5328e-02
 7.250	23.750	3.5328e-02
 7.250	24.000	3.5328e-02
 7.500	17.000	9.5164e-03
 7.500	17.250	1.4640e-02
 7.500	17.500	2.0922e-02
 7.500	17.750	2.7025e-02
 7.500	18.000	3.3682e-02
 7.500	18.250	3.4787e-02
 7.500	18.500	3.5293e-02
 7.500	18.750	3.5320e-02
 7.500	19.000	3.5318e-02
 7.500	19.250	3.5318e-02
 7.500	19.500	3.5322e-02
 7.500	19.750	3.5326e-02
 7.500	20.000	3.5327e-02
 7.500	20.250	3.5327e-02
 7.500	20.500	3.5328e-02
 7.500	20.750	3.5328e-02
 7.500	21.000	3.5328e-02
 7.500	21.250	3.5328e-02
 7.500	21.500	3.5328e-02
 7.500	21.750	3.5328e-02
 7.500	22.000	3.5328e-02
 7.500	22.250	3.5328e-02
 7.500	22.500	3.5328e-02
 7.500	22.750	3.5328e-02
 7.500	23.000	3.5328e-02
 7.500	23.250	3.5328e-02
 7.500	23.500	3.5328e-02
 7.500	23.750	3.5328e-02
 7.500	24.000	3.5328e-02
 7.750	17.000	6.3490e-03
 7.750	17.250	9.7608e-03
 7.750	17.500	1.5113e-02
 7.750	17.750	2.1658e-02
 7.750	18.000	2.7486e-02
 7.750	18.250	3.3685e-02
 7.750	18.500	3.4796e-02
 7.750	18.750	3.5294e-02
 7.750	19.000	3.5320e-02
 7.750	19.250	3.5319e-02
 7.750	19.500	3.5318e-02
 7.750	19.750	3.5322e-02
 7.750	20.000	3.5326e-02
 7.750	20.250	3.5327e-02
 7.750	20.500	3.5327e-02
 7.750	20.750	3.5328e-02
 7.750	21.000	3.5328e-02
 7.750	21.250	3.5328e-02
 7.750	21.500	3.5328e-02
 7.750	21.750	3.5328e-02
 7.750	22.000	3.5328e-02
 7.750	22.250	3.5328e-02
 7.750	22.500	3.5328e-02
 7.750	22.750	3.5328e-02
 7.750	23.000	3.5328e-02
 7.750	23.250	3.5328e-02
 7.750	23.500	3.5328e-02
 7.750	23.750	3.5328e-02
 7.750	24.000	3.5328e-02
 8.000	17.000	4.3235e-03
 8.000	17.250	6.5044e-03
 8.000	17.500	1.0083e-02
 8.000	17.750	1.5740e-02
 8.000	18.000	2.2563e-02
 8.000	18.250	2.7942e-02
 8.000	18.500	3.3681e-02
 8.000	18.750	3.4799e-02
 8.000	19.000	3.5294e-02
 8.000	19.250	3.5320e-02
 8.000	19.500	3.5319e-02
 8.000	19.750	3.5318e-02
 8.000	20.000	3.5322e-02
 8.000	20.250	3.5326e-02
 8.000	20.500	3.5327e-02
 8.000	20.750	3.5327e-02
 8.000	21.000	3.5328e-02
 8.000	21.250	3.5328e-02
 8.000	21.500	3.5328e-02
 8.000	21.750	3.5328e-02
 8.000	22.000	3.5328e-02
 8.000	22.250	3.5328e-02
 8.000	22.500	3.5328e-02
 8.000	22.750	3.5328e-02
 8.000	23.000	3.5328e-02
 8.000	23.250	3.5328e-02
 8.000	23.500	3.5328e-02
 8.000	23.750	3.5328e-02
 8.000	24.000	3.5328e-02
 8.250	17.000	3.0322e-03
 8.250	17.250	4.4601e-03
 8.250	17.500	6.7894e-03
 8.250	17.750	1.0671e-02
 8.250	18.000	1.6843e-02
 8.250	18.250	2.3748e-02
 8.250	18.500	2.8676e-02
 8.250	18.750	3.3673e-02
 8.250	19.000	3.4809e-02
 8.250	19.250	3.5294e-02
 8.250	19.500	3.5320e-02
 8.250	19.750	3.5319e-02
 8.250	20.000	3.5318e-02
 8.250	20.250	3.5322e-02
 8.250	20.500	3.5326e-02
 8.250	20.750	3.5327e-02
 8.250	21.000	3.5327e-02
 8.250	21.250	3.5328e-02
 8.250	21.500	3.5328e-02
 8.250	21.750	3.5328e-02
 8.250	22.000	3.5328e-02
 8.250	22.250	3.5328e-02
 8.250	22.500	3.5328e-02
 8.250	22.750	3.5328e-02
 8.250	23.000	3.5328e-02
 8.250	23.250	3.5328e-02
 8.250	23.500	3.5328e-02
 8.250	23.750	3.5328e-02
 8.250	24.000	3.5328e-02
 8.500	17.000	2.1602e-03
 8.500	17.250	3.1319e-03
 8.500	17.500	4.6748e-03
 8.500	17.750	7.2899e-03
 8.500	18.000	1.1715e-02
 8.500	18.250	1.8512e-02
 8.500	18.500	2.5034e-02
 8.500	18.750	2.9400e-02
 8.500	19.000	3.3648e-02
 8.500	19.250	3.4818e-02
 8.500	19.500	3.5294e-02
 8.500	19.750	3.5320e-02
 8.500	20.000	3.5318e-02
 8.500	20.250	3.5318e-02
 8.500	20.500	3.5322e-02
 8.500	20.750	3.5326e-02
 8.500	21.000	3.5327e-02
 8.500	21.250	3.5327e-02
 8.500	21.500	3.5328e-02
 8.500	21.750	3.5328e-02
 8.500	22.000	3.5328e-02
 8.500	22.250	3.5328e-02
 8.500	22.500	3.5328e-02
 8.500	22.750	3.5328e-02
 8.500	23.000	3.5328e-02
 8.500	23.250	3.5328e-02
 8.500	23.500	3.5328e-02
 8.500	23.750	3.5328e-02
 8.500	24.000	3.5328e-02
 8.750	17.000	1.5491e-03
 8.750	17.250	2.2319e-03
 8.750	17.500	3.2909e-03
 8.750	17.750	5.0414e-03
 8.750	18.000	8.1179e-03
 8.750	18.250	1.3293e-02
 8.750	18.500	2.0396e-02
 8.750	18.750	2.6031e-02
 8.750	19.000	2.9955e-02
 8.750	19.250	3.3590e-02
 8.750	19.500	3.4826e-02
 8.750	19.750	3.5293e-02
 8.750	20.000	3.5320e-02
 8.750	20.250	3.5318e-02
 8.750	20.500	3.5318e-02
 8.750	20.750	3.5322e-02
 8.750	21.000	3.5326e-02
 8.750	21.250	3.5327e-02
 8.750	21.500	3.5327e-02
 8.750	21.750	3.5328e-02
 8.750	22.000	3.5328e-02
 8.750	22.250	3.5328e-02
 8.750	22.500	3.5328e-02
 8.750	22.750	3.5328e-02
 8.750	23.000	3.5328e-02
 8.750	23.250	3.5328e-02
 8.750	23.500	3.5328e-02
 8.750	23.750	3.5328e-02
 8.750	24.000	3.5328e-02
 9.000	17.000	1.1133e-03
 9.000	17.250	1.6018e-03
 9.000	17.500	2.3500e-03
 9.000	17.750	3.5667e-03
 9.000	18.000	5.6895e-03
 9.000	18.250	9.4174e-03
 9.000	18.500	1.5109e-02
 9.000	18.750	2.1980e-02
 9.000	19.000	2.6758e-02
 9.000	19.250	3.0663e-02
 9.000	19.500	3.3494e-02
 9.000	19.750	3.4828e-02
 9.000	20.000	3.5293e-02
 9.000	20.250	3.5319e-02
 9.000	20.500	3.5318e-02
 9.000	20.750	3.5318e-02
 9.000	21.000	3.5322e-02
 9.000	21.250	3.5326e-02
 9.000	21.500	3.5327e-02
 9.000	21.750	3.5327e-02
 9.000	22.000	3.5328e-02
 9.000	22.250	3.5328e-02
 9.000	22.500	3.5328e-02
 9.000	22.750	3.5328e-02
 9.000	23.000	3.5328e-02
 9.000	23.250	3.5328e-02
 9.000	23.500	3.5328e-02
 9.000	23.750	3.5328e-02
 9.000	24.000	3.5328e-02
 9.250	17.000	7.9951e-04
 9.250	17.250	1.1511e-03
 9.250	17.500	1.6900e-03
 9.250	17.750	2.5616e-03
 9.250	18.000	4.0856e-03
 9.250	18.250	6.7807e-03
 9.250	18.500	1.0965e-02
 9.250	18.750	1.6790e-02
 9.250	19.000	2.3293e-02
 9.250	19.250	2.7827e-02
 9.250	19.500	3.1459e-02
 9.250	19.750	3.3363e-02
 9.250	20.000	3.4818e-02
 9.250	20.250	3.5291e-02
 9.250	20.500	3.5319e-02
 9.250	20.750	3.5318e-02
 9.250	21.000	3.5318e-02
 9.250	21.250	3.5322e-02
 9.250	21.500	3.5324e-02
 9.250	21.750	3.5306e-02
 9.250	22.000	3.5297e-02
 9.250	22.250	3.5306e-02
 9.250	22.500	3.5327e-02
 9.250	22.750	3.5328e-02
 9.250	23.000	3.5328e-02
 9.250	23.250	3.5328e-02
 9.250	23.500	3.5328e-02
 9.250	23.750	3.5328e-02
 9.250	24.000	3.5328e-02
 9.500	17.000	5.7374e-04
 9.500	17.250	8.2749e-04
 9.500	17.500	1.2165e-03
 9.500	17.750	1.8547e-03
 9.500	18.000	2.9834e-03
 9.500	18.250	4.9744e-03
 9.500	18.500	8.0339e-03
 9.500	18.750	1.2347e-02
 9.500	19.000	1.7992e-02
 9.500	19.250	2.4349e-02
 9.500	19.500	2.8209e-02
 9.500	19.750	3.1825e-02
 9.500	20.000	3.3205e-02
 9.500	20.250	3.4780e-02
 9.500	20.500	3.5287e-02
 9.500	20.750	3.5318e-02
 9.500	21.000	3.5315e-02
 9.500	21.250	3.5307e-02
 9.500	21.500	3.5293e-02
 9.500	21.750	3.5293e-02
 9.500	22.000	3.5286e-02
 9.500	22.250	3.5275e-02
 9.500	22.500	3.5270e-02
 9.500	22.750	3.5271e-02
 9.500	23.000	3.5272e-02
 9.500	23.250	3.5273e-02
 9.500	23.500	3.5294e-02
 9.500	23.750	3.5293e-02
 9.500	24.000	3.5293e-02
 9.750	17.000	4.1086e-04
 9.750	17.250	5.9416e-04
 9.750	17.500	8.7704e-04
 9.750	17.750	1.3465e-03
 9.750	18.000	2.1942e-03
 9.750	18.250	3.6951e-03
 9.750	18.500	5.9584e-03
 9.750	18.750	9.1113e-03
 9.750	19.000	1.3365e-02
 9.750	19.250	1.9058e-02
 9.750	19.500	2.4517e-02
 9.750	19.750	2.8761e-02
 9.750	20.000	3.1549e-02
 9.750	20.250	3.3063e-02
 9.750	20.500	3.4713e-02
 9.750	20.750	3.5277e-02
 9.750	21.000	3.5316e-02
 9.750	21.250	3.5316e-02
 9.750	21.500	3.5314e-02
 9.750	21.750	3.5305e-02
 9.750	22.000	3.5294e-02
 9.750	22.250	3.5291e-02
 9.750	22.500	3.5283e-02
 9.750	22.750	3.5276e-02
 9.750	23.000	3.5272e-02
 9.750	23.250	3.5270e-02
 9.750	23.500	3.5270e-02
 9.750	23.750	3.5274e-02
 9.750	24.000	3.5271e-02
10.000	17.000	2.9440e-04
10.000	17.250	4.2626e-04
10.000	17.500	6.3259e-04
10.000	17.750	9.8033e-04
10.000	18.000	1.6196e-03
10.000	18.250	2.7336e-03
10.000	18.500	4.4189e-03
10.000	18.750	6.7317e-03
10.000	19.000	9.8328e-03
10.000	19.250	1.3946e-02
10.000	19.500	1.9369e-02
10.000	19.750	2.4342e-02
10.000	20.000	2.9320e-02
10.000	20.250	3.1275e-02
10.000	20.500	3.2916e-02
10.000	20.750	3.4654e-02
10.000	21.000	3.5250e-02
10.000	21.250	3.5313e-02
10.000	21.500	3.5316e-02
10.000	21.750	3.5316e-02
10.000	22.000	3.5316e-02
10.000	22.250	3.5295e-02
10.000	22.500	3.5293e-02
10.000	22.750	3.5289e-02
10.000	23.000	3.5284e-02
10.000	23.250	3.5280e-02
10.000	23.500	3.5277e-02
10.000	23.750	3.5276e-02
10.000	24.000	3.5275e-02
10.250	17.000	2.1169e-04
10.250	17.250	3.0626e-04
10.250	17.500	4.5605e-04
10.250	17.750	7.1490e-04
10.250	18.000	1.1938e-03
10.250	18.250	2.0287e-03
10.250	18.500	3.2707e-03
10.250	18.750	4.9709e-03
10.250	19.000	7.2255e-03
10.250	19.250	1.0294e-02
10.250	19.500	1.4567e-02
10.250	19.750	1.9412e-02
10.250	20.000	2.4791e-02
10.250	20.250	2.9466e-02
10.250	20.500	3.1008e-02
10.250	20.750	3.2638e-02
10.250	21.000	3.4564e-02
10.250	21.250	3.5210e-02
10.250	21.500	3.5307e-02
10.250	21.750	3.5314e-02
10.250	22.000	3.5316e-02
10.250	22.250	3.5320e-02
10.250	22.500	3.5300e-02
10.250	22.750	3.5295e-02
10.250	23.000	3.5293e-02
10.250	23.250	3.5290e-02
10.250	23.500	3.5287e-02
10.250	23.750	3.5285e-02
10.250	24.000	3.5284e-02
10.500	17.000	1.5292e-04
10.500	17.250	2.2066e-04
10.500	17.500	3.2971e-04
10.500	17.750	5.2189e-04
10.500	18.000	8.7811e-04
10.500	18.250	1.5009e-03
10.500	18.500	2.3947e-03
10.500	18.750	3.6393e-03
10.500	19.000	5.3086e-03
10.500	19.250	7.5706e-03
10.500	19.500	1.0676e-02
10.500	19.750	1.4857e-02
10.500	20.000	1.9727e-02
10.500	20.250	2.5335e-02
10.500	20.500	2.9233e-02
10.500	20.750	3.0662e-02
10.500	21.000	3.2472e-02
10.500	21.250	3.4544e-02
10.500	21.500	3.5157e-02
10.500	21.750	3.5292e-02
10.500	22.000	3.5312e-02
10.500	22.250	3.5315e-02
10.500	22.500	3.5320e-02
10.500	22.750	3.5315e-02
10.500	23.000	3.5296e-02
10.500	23.250	3.5295e-02
10.500	23.500	3.5293e-02
10.500	23.750	3.5292e-02
10.500	24.000	3.5290e-02
10.750	17.000	1.1111e-04
10.750	17.250	1.5934e-04
10.750	17.500	2.3868e-04
10.750	17.750	3.8074e-04
10.750	18.000	6.4362e-04
10.750	18.250	1.0933e-03
10.750	18.500	1.7461e-03
10.750	18.750	2.6393e-03
10.750	19.000	3.8759e-03
10.750	19.250	5.5482e-03
10.750	19.500	7.8305e-03
10.750	19.750	1.0941e-02
10.750	20.000	1.5089e-02
10.750	20.250	2.0069e-02
10.750	20.500	2.5893e-02
10.750	20.750	2.8975e-02
10.750	21.000	3.0550e-02
10.750	21.250	3.2404e-02
10.750	21.500	3.4472e-02
10.750	21.750	3.5083e-02
10.750	22.000	3.5266e-02
10.750	22.250	3.5307e-02
10.750	22.500	3.5313e-02
10.750	22.750	3.5319e-02
10.750	23.000	3.5322e-02
10.750	23.250	3.5300e-02
10.750	23.500	3.5296e-02
10.750	23.750	3.5295e-02
10.750	24.000	3.5294e-02
11.000	17.000	8.0247e-05
11.000	17.250	1.1531e-04
11.000	17.500	1.7284e-04
11.000	17.750	2.7695e-04
11.000	18.000	4.6733e-04
11.000	18.250	7.8708e-04
11.000	18.500	1.2674e-03
11.000	18.750	1.9151e-03
11.000	19.000	2.8255e-03
11.000	19.250	4.0446e-03
11.000	19.500	5.7142e-03
11.000	19.750	7.9833e-03
11.000	20.000	1.1118e-02
11.000	20.250	1.5283e-02
11.000	20.500	2.0379e-02
11.000	20.750	2.6252e-02
11.000	21.000	2.8777e-02
11.000	21.250	3.0464e-02
11.000	21.500	3.2477e-02
11.000	21.750	3.4448e-02
11.000	22.000	3.5014e-02
11.000	22.250	3.5230e-02
11.000	22.500	3.5300e-02
11.000	22.750	3.5309e-02
11.000	23.000	3.5317e-02
11.000	23.250	3.5323e-02
11.000	23.500	3.5315e-02
11.000	23.750	3.5298e-02
11.000	24.000	3.5296e-02
11.250	17.000	5.8436e-05
11.250	17.250	8.2963e-05
11.250	17.500	1.2444e-04
11.250	17.750	1.9975e-04
11.250	18.000	3.3547e-04
11.250	18.250	5.5967e-04
11.250	18.500	8.8749e-04
11.250	18.750	1.3677e-03
11.250	19.000	2.0241e-03
11.250	19.250	2.9189e-03
11.250	19.500	4.1419e-03
11.250	19.750	5.8064e-03
11.250	20.000	8.0858e-03
11.250	20.250	1.1249e-02
11.250	20.500	1.5437e-02
11.250	20.750	2.0612e-02
11.250	21.000	2.6236e-02
11.250	21.250	2.8642e-02
11.250	21.500	3.0526e-02
11.250	21.750	3.2647e-02
11.250	22.000	3.4408e-02
11.250	22.250	3.4912e-02
11.250	22.500	3.5180e-02
11.250	22.750	3.5287e-02
11.250	23.000	3.5303e-02
11.250	23.250	3.5314e-02
11.250	23.500	3.5323e-02
11.250	23.750	3.5323e-02
11.250	24.000	3.5308e-02
11.500	17.000	4.3374e-05
11.500	17.250	6.0329e-05
11.500	17.500	8.9300e-05
11.500	17.750	1.4230e-04
11.500	18.000	2.3695e-04
11.500	18.250	3.9350e-04
11.500	18.500	6.2329e-04
11.500	18.750	9.5786e-04
11.500	19.000	1.4347e-03
11.500	19.250	2.0822e-03
11.500	19.500	2.9782e-03
11.500	19.750	4.2077e-03
11.500	20.000	5.8785e-03
11.500	20.250	8.1569e-03
11.500	20.500	1.1306e-02
11.500	20.750	1.5472e-02
11.500	21.000	2.0713e-02
11.500	21.250	2.5783e-02
11.500	21.500	2.8640e-02
11.500	21.750	3.0635e-02
11.500	22.000	3.2874e-02
11.500	22.250	3.4295e-02
11.500	22.500	3.4816e-02
11.500	22.750	3.5120e-02
11.500	23.000	3.5267e-02
11.500	23.250	3.5293e-02
11.500	23.500	3.5309e-02
11.500	23.750	3.5322e-02
11.500	24.000	3.5325e-02
11.750	17.000	3.3086e-05
11.750	17.250	4.4691e-05
11.750	17.500	6.4609e-05
11.750	17.750	1.0107e-04
11.750	18.000	1.6642e-04
11.750	18.250	2.7383e-04
11.750	18.500	4.3292e-04
11.750	18.750	6.7103e-04
11.750	19.000	1.0022e-03
11.750	19.250	1.4707e-03
11.750	19.500	2.1218e-03
11.750	19.750	3.0219e-03
11.750	20.000	4.2583e-03
11.750	20.250	5.9007e-03
11.750	20.500	8.1662e-03
11.750	20.750	1.1249e-02
11.750	21.000	1.5347e-02
11.750	21.250	2.0599e-02
11.750	21.500	2.5514e-02
11.750	21.750	2.8576e-02
11.750	22.000	3.0783e-02
11.750	22.250	3.3031e-02
11.750	22.500	3.4166e-02
11.750	22.750	3.4710e-02
11.750	23.000	3.5049e-02
11.750	23.250	3.5241e-02
11.750	23.500	3.5280e-02
11.750	23.750	3.5303e-02
11.750	24.000	3.5321e-02
12.000	17.000	2.5432e-05
12.000	17.250	3.4074e-05
12.000	17.500	4.7654e-05
12.000	17.750	7.2099e-05
12.000	18.000	1.1588e-04
12.000	18.250	1.8864e-04
12.000	18.500	2.9909e-04
12.000	18.750	4.6140e-04
12.000	19.000	6.9621e-04
12.000	19.250	1.0302e-03
12.000	19.500	1.5021e-03
12.000	19.750	2.1597e-03
12.000	20.000	3.0581e-03
12.000	20.250	4.2765e-03
12.000	20.500	5.9071e-03
12.000	20.750	8.1041e-03
12.000	21.000	1.1017e-02
12.000	21.250	1.4953e-02
12.000	21.500	2.0308e-02
12.000	21.750	2.5035e-02
12.000	22.000	2.8465e-02
12.000	22.250	3.0912e-02
12.000	22.500	3.3002e-02
12.000	22.750	3.4010e-02
12.000	23.000	3.4584e-02
12.000	23.250	3.4957e-02
12.000	23.500	3.5206e-02
12.000	23.750	3.5262e-02
12.000	24.000	3.5294e-02
12.250	17.000	1.4239e-05
12.250	17.250	2.6584e-05
12.250	17.500	3.6214e-05
12.250	17.750	5.2428e-05
12.250	18.000	8.1235e-05
12.250	18.250	1.3004e-04
12.250	18.500	2.0502e-04
12.250	18.750	3.1720e-04
12.250	19.000	4.8091e-04
12.250	19.250	7.2082e-04
12.250	19.500	1.0576e-03
12.250	19.750	1.5307e-03
12.250	20.000	2.1797e-03
12.250	20.250	3.0742e-03
12.250	20.500	4.2622e-03
12.250	20.750	5.8242e-03
12.250	21.000	7.8815e-03
12.250	21.250	1.0536e-02
12.250	21.500	1.4426e-02
12.250	21.750	1.9681e-02
12.250	22.000	2.4434e-02
12.250	22.250	2.8248e-02
12.250	22.500	3.0859e-02
12.250	22.750	3.2818e-02
12.250	23.000	3.3813e-02
12.250	23.250	3.4416e-02
12.250	23.500	3.4838e-02
12.250	23.750	3.5162e-02
12.250	24.000	3.5239e-02
12.500	17.000	6.9136e-06
12.500	17.250	1.5967e-05
12.500	17.500	2.8066e-05
12.500	17.750	3.9424e-05
12.500	18.000	5.8436e-05
12.500	18.250	8.9877e-05
12.500	18.500	1.4033e-04
12.500	18.750	2.1802e-04
12.500	19.000	3.3226e-04
12.500	19.250	5.0041e-04
12.500	19.500	7.3926e-04
12.500	19.750	1.0761e-03
12.500	20.000	1.5472e-03
12.500	20.250	2.1915e-03
12.500	20.500	3.0548e-03
12.500	20.750	4.1993e-03
12.500	21.000	5.6593e-03
12.500	21.250	7.4770e-03
12.500	21.500	1.0017e-02
12.500	21.750	1.3564e-02
12.500	22.000	1.8707e-02
12.500	22.250	2.3738e-02
12.500	22.500	2.7945e-02
12.500	22.750	3.0515e-02
12.500	23.000	3.2450e-02
12.500	23.250	3.3510e-02
12.500	23.500	3.4174e-02
12.500	23.750	3.4671e-02
12.500	24.000	3.5103e-02
12.750	17.000	3.6214e-06
12.750	17.250	7.7366e-06
12.750	17.500	1.7037e-05
12.750	17.750	2.9630e-05
12.750	18.000	4.2634e-05
12.750	18.250	6.3210e-05
12.750	18.500	9.6955e-05
12.750	18.750	1.4947e-04
12.750	19.000	2.2840e-04
12.750	19.250	3.4403e-04
12.750	19.500	5.1136e-04
12.750	19.750	7.4988e-04
12.750	20.000	1.0861e-03
12.750	20.250	1.5514e-03
12.750	20.500	2.1798e-03
12.750	20.750	3.0081e-03
12.750	21.000	4.0622e-03
12.750	21.250	5.3498e-03
12.750	21.500	7.0501e-03
12.750	21.750	9.1523e-03
12.750	22.000	1.2472e-02
12.750	22.250	1.7337e-02
12.750	22.500	2.2825e-02
12.750	22.750	2.6859e-02
12.750	23.000	2.9767e-02
12.750	23.250	3.1864e-02
12.750	23.500	3.3065e-02
12.750	23.750	3.3817e-02
12.750	24.000	3.4426e-02
13.000	17.000	9.8765e-07
13.000	17.250	2.2222e-06
13.000	17.500	6.3374e-06
13.000	17.750	1.5144e-05
13.000	18.000	2.7407e-05
13.000	18.250	4.2305e-05
13.000	18.500	6.7407e-05
13.000	18.750	1.0222e-04
13.000	19.000	1.5564e-04
13.000	19.250	2.3531e-04
13.000	19.500	3.5276e-04
13.000	19.750	5.1959e-04
13.000	20.000	7.5679e-04
13.000	20.250	1.0885e-03
13.000	20.500	1.5426e-03
13.000	20.750	2.1467e-03
13.000	21.000	2.9139e-03
13.000	21.250	3.8337e-03
13.000	21.500	5.0240e-03
13.000	21.750	6.3040e-03
13.000	22.000	8.0820e-03
13.000	22.250	1.1263e-02
13.000	22.500	1.5993e-02
13.000	22.750	2.1129e-02
13.000	23.000	2.5293e-02
13.000	23.250	2.8614e-02
13.000	23.500	3.0980e-02
13.000	23.750	3.2390e-02
13.000	24.000	3.3271e-02
13.250	17.000	1.0000e-07
13.250	17.250	1.0700e-06
13.250	17.500	2.4691e-06
13.250	17.750	5.8436e-06
13.250	18.000	1.4239e-05
13.250	18.250	2.7819e-05
13.250	18.500	4.3704e-05
13.250	18.750	7.1111e-05
13.250	19.000	1.0626e-04
13.250	19.250	1.6008e-04
13.250	19.500	2.4082e-04
13.250	19.750	3.5704e-04
13.250	20.000	5.2305e-04
13.250	20.250	7.5761e-04
13.250	20.500	1.0823e-03
13.250	20.750	1.5182e-03
13.250	21.000	2.0788e-03
13.250	21.250	2.7510e-03
13.250	21.500	3.5985e-03
13.250	21.750	4.3949e-03
13.250	22.000	5.3305e-03
13.250	22.250	6.8933e-03
13.250	22.500	9.8488e-03
13.250	22.750	1.4063e-02
13.250	23.000	1.8831e-02
13.250	23.250	2.3297e-02
13.250	23.500	2.7016e-02
13.250	23.750	2.9700e-02
13.250	24.000	3.1387e-02
13.500	17.000	1.0000e-07
13.500	17.250	1.0000e-07
13.500	17.500	1.3992e-06
13.500	17.750	3.0453e-06
13.500	18.000	7.0782e-06
13.500	18.250	1.6461e-05
13.500	18.500	2.9959e-05
13.500	18.750	4.7243e-05
13.500	19.000	7.3663e-05
13.500	19.250	1.0930e-04
13.500	19.500	1.6346e-04
13.500	19.750	2.4296e-04
13.500	20.000	3.5860e-04
13.500	20.250	5.2296e-04
13.500	20.500	7.5284e-04
13.500	20.750	1.0637e-03
13.500	21.000	1.4678e-03
13.500	21.250	1.9561e-03
13.500	21.500	2.5638e-03
13.500	21.750	3.0932e-03
13.500	22.000	3.5142e-03
13.500	22.250	4.2323e-03
13.500	22.500	5.8221e-03
13.500	22.750	8.4881e-03
13.500	23.000	1.2215e-02
13.500	23.250	1.6519e-02
13.500	23.500	2.0945e-02
13.500	23.750	2.4936e-02
13.500	24.000	2.7928e-02
13.750	17.000	1.0000e-07
13.750	17.250	1.0000e-07
13.750	17.500	1.0000e-07
13.750	17.750	1.6461e-06
13.750	18.000	3.7860e-06
13.750	18.250	8.3951e-06
13.750	18.500	1.7531e-05
13.750	18.750	3.1523e-05
13.750	19.000	5.0206e-05
13.750	19.250	7.5309e-05
13.750	19.500	1.1111e-04
13.750	19.750	1.6502e-04
13.750	20.000	2.4428e-04
13.750	20.250	3.5860e-04
13.750	20.500	5.1951e-04
13.750	20.750	7.4033e-04
13.750	21.000	1.0300e-03
13.750	21.250	1.3821e-03
13.750	21.500	1.8239e-03
13.750	21.750	2.1826e-03
13.750	22.000	2.3782e-03
13.750	22.250	2.6333e-03
13.750	22.500	3.4231e-03
13.750	22.750	4.9662e-03
13.750	23.000	7.2184e-03
13.750	23.250	1.0335e-02
13.750	23.500	1.4193e-02
13.750	23.750	1.8171e-02
13.750	24.000	2.2342e-02
14.000	17.000	1.0000e-07
14.000	17.250	1.0000e-07
14.000	17.500	1.0000e-07
14.000	17.750	9.8765e-07
14.000	18.000	1.9753e-06
14.000	18.250	4.5267e-06
14.000	18.500	9.3827e-06
14.000	18.750	1.8436e-05
14.000	19.000	3.3992e-05
14.000	19.250	5.2263e-05
14.000	19.500	7.6296e-05
14.000	19.750	1.1193e-04
14.000	20.000	1.6568e-04
14.000	20.250	2.4403e-04
14.000	20.500	3.5621e-04
14.000	20.750	5.1136e-04
14.000	21.000	7.1728e-04
14.000	21.250	9.7004e-04
14.000	21.500	1.2900e-03
14.000	21.750	1.5383e-03
14.000	22.000	1.6219e-03
14.000	22.250	1.6708e-03
14.000	22.500	2.0353e-03
14.000	22.750	2.9146e-03
14.000	23.000	4.2487e-03
14.000	23.250	6.0584e-03
14.000	23.500	8.5543e-03
14.000	23.750	1.1586e-02
14.000	24.000	1.5077e-02
