InwC 8500.00A  relative to Inci 1215.00A scaled to 1215A.
Hden   Phi(H)  Eq_Width (A)
 7.000	17.000	1.8458e-02
 7.000	17.250	2.4546e-02
 7.000	17.500	3.1439e-02
 7.000	17.750	3.2463e-02
 7.000	18.000	3.2951e-02
 7.000	18.250	3.2976e-02
 7.000	18.500	3.2975e-02
 7.000	18.750	3.2974e-02
 7.000	19.000	3.2978e-02
 7.000	19.250	3.2981e-02
 7.000	19.500	3.2982e-02
 7.000	19.750	3.2983e-02
 7.000	20.000	3.2983e-02
 7.000	20.250	3.2983e-02
 7.000	20.500	3.2983e-02
 7.000	20.750	3.2983e-02
 7.000	21.000	3.2983e-02
 7.000	21.250	3.2983e-02
 7.000	21.500	3.2983e-02
 7.000	21.750	3.2984e-02
 7.000	22.000	3.2984e-02
 7.000	22.250	3.2984e-02
 7.000	22.500	3.2984e-02
 7.000	22.750	3.2984e-02
 7.000	23.000	3.2984e-02
 7.000	23.250	3.2984e-02
 7.000	23.500	3.2984e-02
 7.000	23.750	3.2984e-02
 7.000	24.000	3.2985e-02
 7.250	17.000	1.3314e-02
 7.250	17.250	1.8998e-02
 7.250	17.500	2.4872e-02
 7.250	17.750	3.1444e-02
 7.250	18.000	3.2471e-02
 7.250	18.250	3.2951e-02
 7.250	18.500	3.2976e-02
 7.250	18.750	3.2975e-02
 7.250	19.000	3.2975e-02
 7.250	19.250	3.2978e-02
 7.250	19.500	3.2982e-02
 7.250	19.750	3.2982e-02
 7.250	20.000	3.2983e-02
 7.250	20.250	3.2983e-02
 7.250	20.500	3.2983e-02
 7.250	20.750	3.2983e-02
 7.250	21.000	3.2983e-02
 7.250	21.250	3.2983e-02
 7.250	21.500	3.2983e-02
 7.250	21.750	3.2983e-02
 7.250	22.000	3.2983e-02
 7.250	22.250	3.2983e-02
 7.250	22.500	3.2983e-02
 7.250	22.750	3.2984e-02
 7.250	23.000	3.2984e-02
 7.250	23.250	3.2987e-02
 7.250	23.500	3.2984e-02
 7.250	23.750	3.2984e-02
 7.250	24.000	3.2984e-02
 7.500	17.000	8.8848e-03
 7.500	17.250	1.3670e-02
 7.500	17.500	1.9537e-02
 7.500	17.750	2.5235e-02
 7.500	18.000	3.1448e-02
 7.500	18.250	3.2479e-02
 7.500	18.500	3.2951e-02
 7.500	18.750	3.2976e-02
 7.500	19.000	3.2975e-02
 7.500	19.250	3.2974e-02
 7.500	19.500	3.2978e-02
 7.500	19.750	3.2981e-02
 7.500	20.000	3.2982e-02
 7.500	20.250	3.2983e-02
 7.500	20.500	3.2983e-02
 7.500	20.750	3.2983e-02
 7.500	21.000	3.2983e-02
 7.500	21.250	3.2983e-02
 7.500	21.500	3.2983e-02
 7.500	21.750	3.2983e-02
 7.500	22.000	3.2983e-02
 7.500	22.250	3.2983e-02
 7.500	22.500	3.2983e-02
 7.500	22.750	3.2983e-02
 7.500	23.000	3.2983e-02
 7.500	23.250	3.2984e-02
 7.500	23.500	3.2983e-02
 7.500	23.750	3.2983e-02
 7.500	24.000	3.2983e-02
 7.750	17.000	5.9275e-03
 7.750	17.250	9.1143e-03
 7.750	17.500	1.4116e-02
 7.750	17.750	2.0233e-02
 7.750	18.000	2.5671e-02
 7.750	18.250	3.1452e-02
 7.750	18.500	3.2487e-02
 7.750	18.750	3.2951e-02
 7.750	19.000	3.2976e-02
 7.750	19.250	3.2975e-02
 7.750	19.500	3.2974e-02
 7.750	19.750	3.2978e-02
 7.750	20.000	3.2981e-02
 7.750	20.250	3.2982e-02
 7.750	20.500	3.2983e-02
 7.750	20.750	3.2983e-02
 7.750	21.000	3.2983e-02
 7.750	21.250	3.2983e-02
 7.750	21.500	3.2983e-02
 7.750	21.750	3.2983e-02
 7.750	22.000	3.2983e-02
 7.750	22.250	3.2983e-02
 7.750	22.500	3.2983e-02
 7.750	22.750	3.2983e-02
 7.750	23.000	3.2983e-02
 7.750	23.250	3.2983e-02
 7.750	23.500	3.2983e-02
 7.750	23.750	3.2983e-02
 7.750	24.000	3.2983e-02
 8.000	17.000	4.0362e-03
 8.000	17.250	6.0737e-03
 8.000	17.500	9.4196e-03
 8.000	17.750	1.4716e-02
 8.000	18.000	2.1107e-02
 8.000	18.250	2.6118e-02
 8.000	18.500	3.1453e-02
 8.000	18.750	3.2490e-02
 8.000	19.000	3.2952e-02
 8.000	19.250	3.2976e-02
 8.000	19.500	3.2975e-02
 8.000	19.750	3.2974e-02
 8.000	20.000	3.2978e-02
 8.000	20.250	3.2981e-02
 8.000	20.500	3.2982e-02
 8.000	20.750	3.2983e-02
 8.000	21.000	3.2983e-02
 8.000	21.250	3.2983e-02
 8.000	21.500	3.2983e-02
 8.000	21.750	3.2983e-02
 8.000	22.000	3.2983e-02
 8.000	22.250	3.2983e-02
 8.000	22.500	3.2983e-02
 8.000	22.750	3.2983e-02
 8.000	23.000	3.2983e-02
 8.000	23.250	3.2983e-02
 8.000	23.500	3.2983e-02
 8.000	23.750	3.2983e-02
 8.000	24.000	3.2983e-02
 8.250	17.000	2.8306e-03
 8.250	17.250	4.1648e-03
 8.250	17.500	6.3435e-03
 8.250	17.750	9.9839e-03
 8.250	18.000	1.5795e-02
 8.250	18.250	2.2290e-02
 8.250	18.500	2.6853e-02
 8.250	18.750	3.1456e-02
 8.250	19.000	3.2500e-02
 8.250	19.250	3.2952e-02
 8.250	19.500	3.2976e-02
 8.250	19.750	3.2975e-02
 8.250	20.000	3.2974e-02
 8.250	20.250	3.2978e-02
 8.250	20.500	3.2981e-02
 8.250	20.750	3.2982e-02
 8.250	21.000	3.2983e-02
 8.250	21.250	3.2983e-02
 8.250	21.500	3.2983e-02
 8.250	21.750	3.2983e-02
 8.250	22.000	3.2983e-02
 8.250	22.250	3.2983e-02
 8.250	22.500	3.2983e-02
 8.250	22.750	3.2983e-02
 8.250	23.000	3.2983e-02
 8.250	23.250	3.2983e-02
 8.250	23.500	3.2983e-02
 8.250	23.750	3.2983e-02
 8.250	24.000	3.2983e-02
 8.500	17.000	2.0165e-03
 8.500	17.250	2.9245e-03
 8.500	17.500	4.3686e-03
 8.500	17.750	6.8248e-03
 8.500	18.000	1.1009e-02
 8.500	18.250	1.7480e-02
 8.500	18.500	2.3644e-02
 8.500	18.750	2.7625e-02
 8.500	19.000	3.1459e-02
 8.500	19.250	3.2510e-02
 8.500	19.500	3.2952e-02
 8.500	19.750	3.2976e-02
 8.500	20.000	3.2974e-02
 8.500	20.250	3.2974e-02
 8.500	20.500	3.2978e-02
 8.500	20.750	3.2981e-02
 8.500	21.000	3.2982e-02
 8.500	21.250	3.2983e-02
 8.500	21.500	3.2983e-02
 8.500	21.750	3.2983e-02
 8.500	22.000	3.2983e-02
 8.500	22.250	3.2983e-02
 8.500	22.500	3.2983e-02
 8.500	22.750	3.2983e-02
 8.500	23.000	3.2983e-02
 8.500	23.250	3.2983e-02
 8.500	23.500	3.2983e-02
 8.500	23.750	3.2983e-02
 8.500	24.000	3.2983e-02
 8.750	17.000	1.4459e-03
 8.750	17.250	2.0842e-03
 8.750	17.500	3.0762e-03
 8.750	17.750	4.7228e-03
 8.750	18.000	7.6407e-03
 8.750	18.250	1.2606e-02
 8.750	18.500	1.9459e-02
 8.750	18.750	2.4786e-02
 8.750	19.000	2.8275e-02
 8.750	19.250	3.1459e-02
 8.750	19.500	3.2521e-02
 8.750	19.750	3.2952e-02
 8.750	20.000	3.2976e-02
 8.750	20.250	3.2974e-02
 8.750	20.500	3.2974e-02
 8.750	20.750	3.2978e-02
 8.750	21.000	3.2981e-02
 8.750	21.250	3.2982e-02
 8.750	21.500	3.2983e-02
 8.750	21.750	3.2983e-02
 8.750	22.000	3.2983e-02
 8.750	22.250	3.2983e-02
 8.750	22.500	3.2983e-02
 8.750	22.750	3.2983e-02
 8.750	23.000	3.2983e-02
 8.750	23.250	3.2983e-02
 8.750	23.500	3.2983e-02
 8.750	23.750	3.2983e-02
 8.750	24.000	3.2983e-02
 9.000	17.000	1.0389e-03
 9.000	17.250	1.4959e-03
 9.000	17.500	2.1974e-03
 9.000	17.750	3.3439e-03
 9.000	18.000	5.3629e-03
 9.000	18.250	8.9546e-03
 9.000	18.500	1.4515e-02
 9.000	18.750	2.1251e-02
 9.000	19.000	2.5721e-02
 9.000	19.250	2.9110e-02
 9.000	19.500	3.1454e-02
 9.000	19.750	3.2532e-02
 9.000	20.000	3.2952e-02
 9.000	20.250	3.2975e-02
 9.000	20.500	3.2974e-02
 9.000	20.750	3.2974e-02
 9.000	21.000	3.2978e-02
 9.000	21.250	3.2981e-02
 9.000	21.500	3.2982e-02
 9.000	21.750	3.2983e-02
 9.000	22.000	3.2983e-02
 9.000	22.250	3.2983e-02
 9.000	22.500	3.2983e-02
 9.000	22.750	3.2983e-02
 9.000	23.000	3.2983e-02
 9.000	23.250	3.2983e-02
 9.000	23.500	3.2983e-02
 9.000	23.750	3.2983e-02
 9.000	24.000	3.2983e-02
 9.250	17.000	7.4593e-04
 9.250	17.250	1.0750e-03
 9.250	17.500	1.5807e-03
 9.250	17.750	2.4038e-03
 9.250	18.000	3.8567e-03
 9.250	18.250	6.4607e-03
 9.250	18.500	1.0578e-02
 9.250	18.750	1.6426e-02
 9.250	19.000	2.2912e-02
 9.250	19.250	2.7094e-02
 9.250	19.500	3.0142e-02
 9.250	19.750	3.1443e-02
 9.250	20.000	3.2541e-02
 9.250	20.250	3.2951e-02
 9.250	20.500	3.2975e-02
 9.250	20.750	3.2974e-02
 9.250	21.000	3.2974e-02
 9.250	21.250	3.2978e-02
 9.250	21.500	3.2980e-02
 9.250	21.750	3.2963e-02
 9.250	22.000	3.2954e-02
 9.250	22.250	3.2963e-02
 9.250	22.500	3.2983e-02
 9.250	22.750	3.2983e-02
 9.250	23.000	3.2983e-02
 9.250	23.250	3.2983e-02
 9.250	23.500	3.2983e-02
 9.250	23.750	3.2983e-02
 9.250	24.000	3.2983e-02
 9.500	17.000	5.3514e-04
 9.500	17.250	7.7259e-04
 9.500	17.500	1.1382e-03
 9.500	17.750	1.7419e-03
 9.500	18.000	2.8195e-03
 9.500	18.250	4.7477e-03
 9.500	18.500	7.7759e-03
 9.500	18.750	1.2172e-02
 9.500	19.000	1.8071e-02
 9.500	19.250	2.4549e-02
 9.500	19.500	2.7876e-02
 9.500	19.750	3.0772e-02
 9.500	20.000	3.1428e-02
 9.500	20.250	3.2547e-02
 9.500	20.500	3.2950e-02
 9.500	20.750	3.2975e-02
 9.500	21.000	3.2972e-02
 9.500	21.250	3.2964e-02
 9.500	21.500	3.2951e-02
 9.500	21.750	3.2950e-02
 9.500	22.000	3.2944e-02
 9.500	22.250	3.2934e-02
 9.500	22.500	3.2929e-02
 9.500	22.750	3.2931e-02
 9.500	23.000	3.2931e-02
 9.500	23.250	3.2932e-02
 9.500	23.500	3.2951e-02
 9.500	23.750	3.2951e-02
 9.500	24.000	3.2951e-02
 9.750	17.000	3.8296e-04
 9.750	17.250	5.5465e-04
 9.750	17.500	8.2066e-04
 9.750	17.750	1.2653e-03
 9.750	18.000	2.0758e-03
 9.750	18.250	3.5312e-03
 9.750	18.500	5.7830e-03
 9.750	18.750	9.0335e-03
 9.750	19.000	1.3606e-02
 9.750	19.250	1.9874e-02
 9.750	19.500	2.5427e-02
 9.750	19.750	2.8785e-02
 9.750	20.000	3.0741e-02
 9.750	20.250	3.1405e-02
 9.750	20.500	3.2553e-02
 9.750	20.750	3.2948e-02
 9.750	21.000	3.2974e-02
 9.750	21.250	3.2973e-02
 9.750	21.500	3.2971e-02
 9.750	21.750	3.2962e-02
 9.750	22.000	3.2952e-02
 9.750	22.250	3.2948e-02
 9.750	22.500	3.2942e-02
 9.750	22.750	3.2935e-02
 9.750	23.000	3.2931e-02
 9.750	23.250	3.2929e-02
 9.750	23.500	3.2929e-02
 9.750	23.750	3.2933e-02
 9.750	24.000	3.2930e-02
10.000	17.000	2.7424e-04
10.000	17.250	3.9778e-04
10.000	17.500	5.9185e-04
10.000	17.750	9.2140e-04
10.000	18.000	1.5329e-03
10.000	18.250	2.6147e-03
10.000	18.500	4.2970e-03
10.000	18.750	6.7003e-03
10.000	19.000	1.0089e-02
10.000	19.250	1.4838e-02
10.000	19.500	2.1297e-02
10.000	19.750	2.6040e-02
10.000	20.000	2.9602e-02
10.000	20.250	3.0698e-02
10.000	20.500	3.1400e-02
10.000	20.750	3.2564e-02
10.000	21.000	3.2944e-02
10.000	21.250	3.2973e-02
10.000	21.500	3.2973e-02
10.000	21.750	3.2973e-02
10.000	22.000	3.2973e-02
10.000	22.250	3.2952e-02
10.000	22.500	3.2951e-02
10.000	22.750	3.2947e-02
10.000	23.000	3.2942e-02
10.000	23.250	3.2939e-02
10.000	23.500	3.2936e-02
10.000	23.750	3.2935e-02
10.000	24.000	3.2934e-02
10.250	17.000	1.9695e-04
10.250	17.250	2.8560e-04
10.250	17.500	4.2650e-04
10.250	17.750	6.7185e-04
10.250	18.000	1.1299e-03
10.250	18.250	1.9408e-03
10.250	18.500	3.1830e-03
10.250	18.750	4.9554e-03
10.250	19.000	7.4385e-03
10.250	19.250	1.1021e-02
10.250	19.500	1.6255e-02
10.250	19.750	2.1860e-02
10.250	20.000	2.6766e-02
10.250	20.250	3.0159e-02
10.250	20.500	3.0664e-02
10.250	20.750	3.1385e-02
10.250	21.000	3.2586e-02
10.250	21.250	3.2937e-02
10.250	21.500	3.2972e-02
10.250	21.750	3.2972e-02
10.250	22.000	3.2973e-02
10.250	22.250	3.2976e-02
10.250	22.500	3.2958e-02
10.250	22.750	3.2953e-02
10.250	23.000	3.2951e-02
10.250	23.250	3.2948e-02
10.250	23.500	3.2945e-02
10.250	23.750	3.2943e-02
10.250	24.000	3.2942e-02
10.500	17.000	1.4206e-04
10.500	17.250	2.0551e-04
10.500	17.500	3.0815e-04
10.500	17.750	4.9021e-04
10.500	18.000	8.3053e-04
10.500	18.250	1.4345e-03
10.500	18.500	2.3260e-03
10.500	18.750	3.6151e-03
10.500	19.000	5.4243e-03
10.500	19.250	7.9971e-03
10.500	19.500	1.1716e-02
10.500	19.750	1.6912e-02
10.500	20.000	2.2466e-02
10.500	20.250	2.7519e-02
10.500	20.500	3.0208e-02
10.500	20.750	3.0639e-02
10.500	21.000	3.1395e-02
10.500	21.250	3.2628e-02
10.500	21.500	3.2929e-02
10.500	21.750	3.2968e-02
10.500	22.000	3.2971e-02
10.500	22.250	3.2973e-02
10.500	22.500	3.2977e-02
10.500	22.750	3.2972e-02
10.500	23.000	3.2954e-02
10.500	23.250	3.2953e-02
10.500	23.500	3.2951e-02
10.500	23.750	3.2949e-02
10.500	24.000	3.2948e-02
10.750	17.000	1.0305e-04
10.750	17.250	1.4823e-04
10.750	17.500	2.2288e-04
10.750	17.750	3.5728e-04
10.750	18.000	6.0790e-04
10.750	18.250	1.0422e-03
10.750	18.500	1.6883e-03
10.750	18.750	2.6012e-03
10.750	19.000	3.9129e-03
10.750	19.250	5.7648e-03
10.750	19.500	8.4151e-03
10.750	19.750	1.2224e-02
10.750	20.000	1.7452e-02
10.750	20.250	2.3095e-02
10.750	20.500	2.8333e-02
10.750	20.750	3.0148e-02
10.750	21.000	3.0612e-02
10.750	21.250	3.1439e-02
10.750	21.500	3.2700e-02
10.750	21.750	3.2913e-02
10.750	22.000	3.2960e-02
10.750	22.250	3.2969e-02
10.750	22.500	3.2972e-02
10.750	22.750	3.2976e-02
10.750	23.000	3.2978e-02
10.750	23.250	3.2958e-02
10.750	23.500	3.2954e-02
10.750	23.750	3.2953e-02
10.750	24.000	3.2952e-02
11.000	17.000	7.4239e-05
11.000	17.250	1.0708e-04
11.000	17.500	1.6107e-04
11.000	17.750	2.5942e-04
11.000	18.000	4.4041e-04
11.000	18.250	7.4782e-04
11.000	18.500	1.2184e-03
11.000	18.750	1.8701e-03
11.000	19.000	2.8160e-03
11.000	19.250	4.1312e-03
11.000	19.500	6.0119e-03
11.000	19.750	8.7008e-03
11.000	20.000	1.2624e-02
11.000	20.250	1.7966e-02
11.000	20.500	2.3741e-02
11.000	20.750	2.8966e-02
11.000	21.000	3.0066e-02
11.000	21.250	3.0592e-02
11.000	21.500	3.1584e-02
11.000	21.750	3.2754e-02
11.000	22.000	3.2892e-02
11.000	22.250	3.2949e-02
11.000	22.500	3.2966e-02
11.000	22.750	3.2970e-02
11.000	23.000	3.2976e-02
11.000	23.250	3.2980e-02
11.000	23.500	3.2972e-02
11.000	23.750	3.2955e-02
11.000	24.000	3.2954e-02
11.250	17.000	5.3827e-05
11.250	17.250	7.6790e-05
11.250	17.500	1.1580e-04
11.250	17.750	1.8683e-04
11.250	18.000	3.1531e-04
11.250	18.250	5.2979e-04
11.250	18.500	8.4807e-04
11.250	18.750	1.3239e-03
11.250	19.000	1.9922e-03
11.250	19.250	2.9328e-03
11.250	19.500	4.2700e-03
11.250	19.750	6.1762e-03
11.250	20.000	8.9331e-03
11.250	20.250	1.2993e-02
11.250	20.500	1.8476e-02
11.250	20.750	2.4352e-02
11.250	21.000	2.9212e-02
11.250	21.250	2.9955e-02
11.250	21.500	3.0657e-02
11.250	21.750	3.1797e-02
11.250	22.000	3.2764e-02
11.250	22.250	3.2861e-02
11.250	22.500	3.2932e-02
11.250	22.750	3.2961e-02
11.250	23.000	3.2967e-02
11.250	23.250	3.2974e-02
11.250	23.500	3.2980e-02
11.250	23.750	3.2979e-02
11.250	24.000	3.2965e-02
11.500	17.000	3.9835e-05
11.500	17.250	5.5638e-05
11.500	17.500	8.2881e-05
11.500	17.750	1.3267e-04
11.500	18.000	2.2214e-04
11.500	18.250	3.7111e-04
11.500	18.500	5.9235e-04
11.500	18.750	9.1967e-04
11.500	19.000	1.3961e-03
11.500	19.250	2.0612e-03
11.500	19.500	3.0132e-03
11.500	19.750	4.3756e-03
11.500	20.000	6.3228e-03
11.500	20.250	9.1477e-03
11.500	20.500	1.3312e-02
11.500	20.750	1.8905e-02
11.500	21.000	2.4845e-02
11.500	21.250	2.8990e-02
11.500	21.500	2.9914e-02
11.500	21.750	3.0713e-02
11.500	22.000	3.2029e-02
11.500	22.250	3.2697e-02
11.500	22.500	3.2816e-02
11.500	22.750	3.2905e-02
11.500	23.000	3.2952e-02
11.500	23.250	3.2962e-02
11.500	23.500	3.2971e-02
11.500	23.750	3.2980e-02
11.500	24.000	3.2981e-02
11.750	17.000	3.0123e-05
11.750	17.250	4.1070e-05
11.750	17.500	5.9753e-05
11.750	17.750	9.3992e-05
11.750	18.000	1.5556e-04
11.750	18.250	2.5737e-04
11.750	18.500	4.0947e-04
11.750	18.750	6.3975e-04
11.750	19.000	9.6568e-04
11.750	19.250	1.4371e-03
11.750	19.500	2.1115e-03
11.750	19.750	3.0793e-03
11.750	20.000	4.4703e-03
11.750	20.250	6.4292e-03
11.750	20.500	9.3221e-03
11.750	20.750	1.3554e-02
11.750	21.000	1.9220e-02
11.750	21.250	2.5076e-02
11.750	21.500	2.8693e-02
11.750	21.750	2.9741e-02
11.750	22.000	3.0782e-02
11.750	22.250	3.2156e-02
11.750	22.500	3.2597e-02
11.750	22.750	3.2750e-02
11.750	23.000	3.2866e-02
11.750	23.250	3.2938e-02
11.750	23.500	3.2955e-02
11.750	23.750	3.2967e-02
11.750	24.000	3.2979e-02
12.000	17.000	2.3045e-05
12.000	17.250	3.1111e-05
12.000	17.500	4.3868e-05
12.000	17.750	6.6831e-05
12.000	18.000	1.0807e-04
12.000	18.250	1.7671e-04
12.000	18.500	2.8173e-04
12.000	18.750	4.3745e-04
12.000	19.000	6.6551e-04
12.000	19.250	9.9588e-04
12.000	19.500	1.4741e-03
12.000	19.750	2.1621e-03
12.000	20.000	3.1421e-03
12.000	20.250	4.5434e-03
12.000	20.500	6.5505e-03
12.000	20.750	9.4834e-03
12.000	21.000	1.3679e-02
12.000	21.250	1.9260e-02
12.000	21.500	2.4942e-02
12.000	21.750	2.8084e-02
12.000	22.000	2.9475e-02
12.000	22.250	3.0816e-02
12.000	22.500	3.2061e-02
12.000	22.750	3.2448e-02
12.000	23.000	3.2648e-02
12.000	23.250	3.2803e-02
12.000	23.500	3.2918e-02
12.000	23.750	3.2944e-02
12.000	24.000	3.2961e-02
12.250	17.000	1.2922e-05
12.250	17.250	2.4115e-05
12.250	17.500	3.3169e-05
12.250	17.750	4.8395e-05
12.250	18.000	7.5473e-05
12.250	18.250	1.2140e-04
12.250	18.500	1.9235e-04
12.250	18.750	2.9926e-04
12.250	19.000	4.5671e-04
12.250	19.250	6.9086e-04
12.250	19.500	1.0260e-03
12.250	19.750	1.5097e-03
12.250	20.000	2.1984e-03
12.250	20.250	3.1947e-03
12.250	20.500	4.6048e-03
12.250	20.750	6.6178e-03
12.250	21.000	9.5405e-03
12.250	21.250	1.3593e-02
12.250	21.500	1.8942e-02
12.250	21.750	2.4387e-02
12.250	22.000	2.7244e-02
12.250	22.250	2.9072e-02
12.250	22.500	3.0667e-02
12.250	22.750	3.1798e-02
12.250	23.000	3.2232e-02
12.250	23.250	3.2493e-02
12.250	23.500	3.2706e-02
12.250	23.750	3.2887e-02
12.250	24.000	3.2927e-02
12.500	17.000	6.2551e-06
12.500	17.250	1.4403e-05
12.500	17.500	2.5514e-05
12.500	17.750	3.6132e-05
12.500	18.000	5.4074e-05
12.500	18.250	8.3621e-05
12.500	18.500	1.3119e-04
12.500	18.750	2.0486e-04
12.500	19.000	3.1399e-04
12.500	19.250	4.7638e-04
12.500	19.500	7.1062e-04
12.500	19.750	1.0486e-03
12.500	20.000	1.5365e-03
12.500	20.250	2.2339e-03
12.500	20.500	3.2263e-03
12.500	20.750	4.6502e-03
12.500	21.000	6.6668e-03
12.500	21.250	9.4863e-03
12.500	21.500	1.3305e-02
12.500	21.750	1.8328e-02
12.500	22.000	2.3274e-02
12.500	22.250	2.6203e-02
12.500	22.500	2.8566e-02
12.500	22.750	3.0200e-02
12.500	23.000	3.1344e-02
12.500	23.250	3.1899e-02
12.500	23.500	3.2253e-02
12.500	23.750	3.2553e-02
12.500	24.000	3.2838e-02
12.750	17.000	3.2922e-06
12.750	17.250	6.9959e-06
12.750	17.500	1.5391e-05
12.750	17.750	2.6996e-05
12.750	18.000	3.9177e-05
12.750	18.250	5.8519e-05
12.750	18.500	9.0288e-05
12.750	18.750	1.3992e-04
12.750	19.000	2.1490e-04
12.750	19.250	3.2568e-04
12.750	19.500	4.8798e-04
12.750	19.750	7.2370e-04
12.750	20.000	1.0650e-03
12.750	20.250	1.5563e-03
12.750	20.500	2.2575e-03
12.750	20.750	3.2563e-03
12.750	21.000	4.6681e-03
12.750	21.250	6.6444e-03
12.750	21.500	9.2909e-03
12.750	21.750	1.2790e-02
12.750	22.000	1.7230e-02
12.750	22.250	2.1555e-02
12.750	22.500	2.4869e-02
12.750	22.750	2.7373e-02
12.750	23.000	2.9320e-02
12.750	23.250	3.0671e-02
12.750	23.500	3.1413e-02
12.750	23.750	3.1884e-02
12.750	24.000	3.2312e-02
13.000	17.000	9.0535e-07
13.000	17.250	1.9753e-06
13.000	17.500	5.7613e-06
13.000	17.750	1.3745e-05
13.000	18.000	2.5103e-05
13.000	18.250	3.9095e-05
13.000	18.500	6.2551e-05
13.000	18.750	9.5309e-05
13.000	19.000	1.4593e-04
13.000	19.250	2.2173e-04
13.000	19.500	3.3473e-04
13.000	19.750	4.9770e-04
13.000	20.000	7.3465e-04
13.000	20.250	1.0776e-03
13.000	20.500	1.5715e-03
13.000	20.750	2.2784e-03
13.000	21.000	3.2756e-03
13.000	21.250	4.6593e-03
13.000	21.500	6.5290e-03
13.000	21.750	8.9388e-03
13.000	22.000	1.1860e-02
13.000	22.250	1.5604e-02
13.000	22.500	1.9533e-02
13.000	22.750	2.2891e-02
13.000	23.000	2.5700e-02
13.000	23.250	2.8041e-02
13.000	23.500	2.9709e-02
13.000	23.750	3.0695e-02
13.000	24.000	3.1323e-02
13.250	17.000	1.0000e-07
13.250	17.250	9.8765e-07
13.250	17.500	2.3045e-06
13.250	17.750	5.2675e-06
13.250	18.000	1.3004e-05
13.250	18.250	2.5514e-05
13.250	18.500	4.0412e-05
13.250	18.750	6.6008e-05
13.250	19.000	9.9259e-05
13.250	19.250	1.5021e-04
13.250	19.500	2.2741e-04
13.250	19.750	3.3992e-04
13.250	20.000	5.0370e-04
13.250	20.250	7.4222e-04
13.250	20.500	1.0876e-03
13.250	20.750	1.5843e-03
13.250	21.000	2.2920e-03
13.250	21.250	3.2789e-03
13.250	21.500	4.6033e-03
13.250	21.750	6.2738e-03
13.250	22.000	8.1798e-03
13.250	22.250	1.0314e-02
13.250	22.500	1.3425e-02
13.250	22.750	1.6965e-02
13.250	23.000	2.0335e-02
13.250	23.250	2.3534e-02
13.250	23.500	2.6330e-02
13.250	23.750	2.8364e-02
13.250	24.000	2.9654e-02
13.500	17.000	1.0000e-07
13.500	17.250	1.0000e-07
13.500	17.500	1.2346e-06
13.500	17.750	2.7984e-06
13.500	18.000	6.5021e-06
13.500	18.250	1.4979e-05
13.500	18.500	2.7572e-05
13.500	18.750	4.3704e-05
13.500	19.000	6.8477e-05
13.500	19.250	1.0222e-04
13.500	19.500	1.5374e-04
13.500	19.750	2.3021e-04
13.500	20.000	3.4329e-04
13.500	20.250	5.0807e-04
13.500	20.500	7.4831e-04
13.500	20.750	1.0944e-03
13.500	21.000	1.5909e-03
13.500	21.250	2.2901e-03
13.500	21.500	3.2284e-03
13.500	21.750	4.4207e-03
13.500	22.000	5.6244e-03
13.500	22.250	6.7508e-03
13.500	22.500	8.3934e-03
13.500	22.750	1.1131e-02
13.500	23.000	1.4383e-02
13.500	23.250	1.7656e-02
13.500	23.500	2.1016e-02
13.500	23.750	2.4157e-02
13.500	24.000	2.6548e-02
13.750	17.000	1.0000e-07
13.750	17.250	1.0000e-07
13.750	17.500	1.0000e-07
13.750	17.750	1.4815e-06
13.750	18.000	3.4568e-06
13.750	18.250	7.6543e-06
13.750	18.500	1.6049e-05
13.750	18.750	2.8971e-05
13.750	19.000	4.6502e-05
13.750	19.250	7.0123e-05
13.750	19.500	1.0412e-04
13.750	19.750	1.5572e-04
13.750	20.000	2.3267e-04
13.750	20.250	3.4617e-04
13.750	20.500	5.1202e-04
13.750	20.750	7.5325e-04
13.750	21.000	1.1009e-03
13.750	21.250	1.5927e-03
13.750	21.500	2.2655e-03
13.750	21.750	3.1141e-03
13.750	22.000	3.9220e-03
13.750	22.250	4.4701e-03
13.750	22.500	5.1505e-03
13.750	22.750	6.6522e-03
13.750	23.000	8.9967e-03
13.750	23.250	1.1798e-02
13.750	23.500	1.4925e-02
13.750	23.750	1.8087e-02
13.750	24.000	2.1499e-02
14.000	17.000	1.0000e-07
14.000	17.250	1.0000e-07
14.000	17.500	1.0000e-07
14.000	17.750	9.0535e-07
14.000	18.000	1.8107e-06
14.000	18.250	4.1152e-06
14.000	18.500	8.5597e-06
14.000	18.750	1.6872e-05
14.000	19.000	3.1276e-05
14.000	19.250	4.8395e-05
14.000	19.500	7.1193e-05
14.000	19.750	1.0527e-04
14.000	20.000	1.5712e-04
14.000	20.250	2.3440e-04
14.000	20.500	3.4881e-04
14.000	20.750	5.1597e-04
14.000	21.000	7.5844e-04
14.000	21.250	1.1039e-03
14.000	21.500	1.5840e-03
14.000	21.750	2.1898e-03
14.000	22.000	2.7380e-03
14.000	22.250	3.0011e-03
14.000	22.500	3.2065e-03
14.000	22.750	3.9190e-03
14.000	23.000	5.2871e-03
14.000	23.250	7.1320e-03
14.000	23.500	9.4047e-03
14.000	23.750	1.1952e-02
14.000	24.000	1.4846e-02
