InwC 5600.00A  relative to Inci 1215.00A scaled to 1215A.
Hden   Phi(H)  Eq_Width (A)
 7.000	17.000	3.5920e-02
 7.000	17.250	4.7754e-02
 7.000	17.500	6.1155e-02
 7.000	17.750	6.3145e-02
 7.000	18.000	6.4096e-02
 7.000	18.250	6.4144e-02
 7.000	18.500	6.4141e-02
 7.000	18.750	6.4141e-02
 7.000	19.000	6.4148e-02
 7.000	19.250	6.4155e-02
 7.000	19.500	6.4157e-02
 7.000	19.750	6.4158e-02
 7.000	20.000	6.4158e-02
 7.000	20.250	6.4158e-02
 7.000	20.500	6.4158e-02
 7.000	20.750	6.4158e-02
 7.000	21.000	6.4159e-02
 7.000	21.250	6.4159e-02
 7.000	21.500	6.4159e-02
 7.000	21.750	6.4159e-02
 7.000	22.000	6.4159e-02
 7.000	22.250	6.4159e-02
 7.000	22.500	6.4159e-02
 7.000	22.750	6.4160e-02
 7.000	23.000	6.4160e-02
 7.000	23.250	6.4160e-02
 7.000	23.500	6.4160e-02
 7.000	23.750	6.4160e-02
 7.000	24.000	6.4161e-02
 7.250	17.000	2.5923e-02
 7.250	17.250	3.6970e-02
 7.250	17.500	4.8387e-02
 7.250	17.750	6.1163e-02
 7.250	18.000	6.3161e-02
 7.250	18.250	6.4096e-02
 7.250	18.500	6.4144e-02
 7.250	18.750	6.4142e-02
 7.250	19.000	6.4141e-02
 7.250	19.250	6.4149e-02
 7.250	19.500	6.4155e-02
 7.250	19.750	6.4157e-02
 7.250	20.000	6.4157e-02
 7.250	20.250	6.4158e-02
 7.250	20.500	6.4158e-02
 7.250	20.750	6.4158e-02
 7.250	21.000	6.4159e-02
 7.250	21.250	6.4158e-02
 7.250	21.500	6.4158e-02
 7.250	21.750	6.4159e-02
 7.250	22.000	6.4159e-02
 7.250	22.250	6.4159e-02
 7.250	22.500	6.4159e-02
 7.250	22.750	6.4159e-02
 7.250	23.000	6.4159e-02
 7.250	23.250	6.4165e-02
 7.250	23.500	6.4159e-02
 7.250	23.750	6.4159e-02
 7.250	24.000	6.4159e-02
 7.500	17.000	1.7314e-02
 7.500	17.250	2.6615e-02
 7.500	17.500	3.8016e-02
 7.500	17.750	4.9091e-02
 7.500	18.000	6.1171e-02
 7.500	18.250	6.3177e-02
 7.500	18.500	6.4096e-02
 7.500	18.750	6.4144e-02
 7.500	19.000	6.4141e-02
 7.500	19.250	6.4141e-02
 7.500	19.500	6.4148e-02
 7.500	19.750	6.4155e-02
 7.500	20.000	6.4157e-02
 7.500	20.250	6.4158e-02
 7.500	20.500	6.4158e-02
 7.500	20.750	6.4158e-02
 7.500	21.000	6.4158e-02
 7.500	21.250	6.4158e-02
 7.500	21.500	6.4158e-02
 7.500	21.750	6.4158e-02
 7.500	22.000	6.4158e-02
 7.500	22.250	6.4159e-02
 7.500	22.500	6.4159e-02
 7.500	22.750	6.4159e-02
 7.500	23.000	6.4159e-02
 7.500	23.250	6.4159e-02
 7.500	23.500	6.4159e-02
 7.500	23.750	6.4159e-02
 7.500	24.000	6.4159e-02
 7.750	17.000	1.1567e-02
 7.750	17.250	1.7760e-02
 7.750	17.500	2.7478e-02
 7.750	17.750	3.9363e-02
 7.750	18.000	4.9936e-02
 7.750	18.250	6.1178e-02
 7.750	18.500	6.3192e-02
 7.750	18.750	6.4096e-02
 7.750	19.000	6.4144e-02
 7.750	19.250	6.4143e-02
 7.750	19.500	6.4141e-02
 7.750	19.750	6.4148e-02
 7.750	20.000	6.4155e-02
 7.750	20.250	6.4157e-02
 7.750	20.500	6.4158e-02
 7.750	20.750	6.4158e-02
 7.750	21.000	6.4158e-02
 7.750	21.250	6.4158e-02
 7.750	21.500	6.4158e-02
 7.750	21.750	6.4159e-02
 7.750	22.000	6.4159e-02
 7.750	22.250	6.4158e-02
 7.750	22.500	6.4158e-02
 7.750	22.750	6.4158e-02
 7.750	23.000	6.4159e-02
 7.750	23.250	6.4159e-02
 7.750	23.500	6.4158e-02
 7.750	23.750	6.4158e-02
 7.750	24.000	6.4158e-02
 8.000	17.000	7.8911e-03
 8.000	17.250	1.1850e-02
 8.000	17.500	1.8350e-02
 8.000	17.750	2.8635e-02
 8.000	18.000	4.1042e-02
 8.000	18.250	5.0790e-02
 8.000	18.500	6.1177e-02
 8.000	18.750	6.3199e-02
 8.000	19.000	6.4097e-02
 8.000	19.250	6.4144e-02
 8.000	19.500	6.4142e-02
 8.000	19.750	6.4141e-02
 8.000	20.000	6.4148e-02
 8.000	20.250	6.4155e-02
 8.000	20.500	6.4157e-02
 8.000	20.750	6.4158e-02
 8.000	21.000	6.4158e-02
 8.000	21.250	6.4158e-02
 8.000	21.500	6.4158e-02
 8.000	21.750	6.4158e-02
 8.000	22.000	6.4158e-02
 8.000	22.250	6.4158e-02
 8.000	22.500	6.4159e-02
 8.000	22.750	6.4159e-02
 8.000	23.000	6.4158e-02
 8.000	23.250	6.4158e-02
 8.000	23.500	6.4159e-02
 8.000	23.750	6.4159e-02
 8.000	24.000	6.4159e-02
 8.250	17.000	5.5481e-03
 8.250	17.250	8.1407e-03
 8.250	17.500	1.2373e-02
 8.250	17.750	1.9437e-02
 8.250	18.000	3.0700e-02
 8.250	18.250	4.3292e-02
 8.250	18.500	5.2187e-02
 8.250	18.750	6.1176e-02
 8.250	19.000	6.3217e-02
 8.250	19.250	6.4097e-02
 8.250	19.500	6.4144e-02
 8.250	19.750	6.4142e-02
 8.250	20.000	6.4141e-02
 8.250	20.250	6.4149e-02
 8.250	20.500	6.4155e-02
 8.250	20.750	6.4157e-02
 8.250	21.000	6.4158e-02
 8.250	21.250	6.4158e-02
 8.250	21.500	6.4158e-02
 8.250	21.750	6.4158e-02
 8.250	22.000	6.4158e-02
 8.250	22.250	6.4158e-02
 8.250	22.500	6.4158e-02
 8.250	22.750	6.4158e-02
 8.250	23.000	6.4158e-02
 8.250	23.250	6.4159e-02
 8.250	23.500	6.4159e-02
 8.250	23.750	6.4158e-02
 8.250	24.000	6.4159e-02
 8.500	17.000	3.9659e-03
 8.500	17.250	5.7304e-03
 8.500	17.500	8.5351e-03
 8.500	17.750	1.3299e-02
 8.500	18.000	2.1398e-02
 8.500	18.250	3.3893e-02
 8.500	18.500	4.5827e-02
 8.500	18.750	5.3625e-02
 8.500	19.000	6.1164e-02
 8.500	19.250	6.3236e-02
 8.500	19.500	6.4097e-02
 8.500	19.750	6.4144e-02
 8.500	20.000	6.4141e-02
 8.500	20.250	6.4141e-02
 8.500	20.500	6.4148e-02
 8.500	20.750	6.4155e-02
 8.500	21.000	6.4157e-02
 8.500	21.250	6.4158e-02
 8.500	21.500	6.4158e-02
 8.500	21.750	6.4158e-02
 8.500	22.000	6.4158e-02
 8.500	22.250	6.4158e-02
 8.500	22.500	6.4158e-02
 8.500	22.750	6.4158e-02
 8.500	23.000	6.4158e-02
 8.500	23.250	6.4158e-02
 8.500	23.500	6.4158e-02
 8.500	23.750	6.4158e-02
 8.500	24.000	6.4158e-02
 8.750	17.000	2.8570e-03
 8.750	17.250	4.0972e-03
 8.750	17.500	6.0235e-03
 8.750	17.750	9.2162e-03
 8.750	18.000	1.4858e-02
 8.750	18.250	2.4424e-02
 8.750	18.500	3.7604e-02
 8.750	18.750	4.7916e-02
 8.750	19.000	5.4807e-02
 8.750	19.250	6.1130e-02
 8.750	19.500	6.3256e-02
 8.750	19.750	6.4097e-02
 8.750	20.000	6.4144e-02
 8.750	20.250	6.4141e-02
 8.750	20.500	6.4141e-02
 8.750	20.750	6.4148e-02
 8.750	21.000	6.4155e-02
 8.750	21.250	6.4157e-02
 8.750	21.500	6.4158e-02
 8.750	21.750	6.4158e-02
 8.750	22.000	6.4158e-02
 8.750	22.250	6.4158e-02
 8.750	22.500	6.4158e-02
 8.750	22.750	6.4159e-02
 8.750	23.000	6.4159e-02
 8.750	23.250	6.4158e-02
 8.750	23.500	6.4159e-02
 8.750	23.750	6.4159e-02
 8.750	24.000	6.4158e-02
 9.000	17.000	2.0660e-03
 9.000	17.250	2.9539e-03
 9.000	17.500	4.3156e-03
 9.000	17.750	6.5378e-03
 9.000	18.000	1.0439e-02
 9.000	18.250	1.7351e-02
 9.000	18.500	2.8003e-02
 9.000	18.750	4.0894e-02
 9.000	19.000	4.9576e-02
 9.000	19.250	5.6324e-02
 9.000	19.500	6.1067e-02
 9.000	19.750	6.3272e-02
 9.000	20.000	6.4097e-02
 9.000	20.250	6.4143e-02
 9.000	20.500	6.4141e-02
 9.000	20.750	6.4141e-02
 9.000	21.000	6.4148e-02
 9.000	21.250	6.4155e-02
 9.000	21.500	6.4157e-02
 9.000	21.750	6.4158e-02
 9.000	22.000	6.4158e-02
 9.000	22.250	6.4158e-02
 9.000	22.500	6.4158e-02
 9.000	22.750	6.4158e-02
 9.000	23.000	6.4158e-02
 9.000	23.250	6.4159e-02
 9.000	23.500	6.4158e-02
 9.000	23.750	6.4158e-02
 9.000	24.000	6.4158e-02
 9.250	17.000	1.4965e-03
 9.250	17.250	2.1358e-03
 9.250	17.500	3.1174e-03
 9.250	17.750	4.7119e-03
 9.250	18.000	7.5178e-03
 9.250	18.250	1.2526e-02
 9.250	18.500	2.0396e-02
 9.250	18.750	3.1498e-02
 9.250	19.000	4.3841e-02
 9.250	19.250	5.1994e-02
 9.250	19.500	5.8117e-02
 9.250	19.750	6.0976e-02
 9.250	20.000	6.3279e-02
 9.250	20.250	6.4096e-02
 9.250	20.500	6.4143e-02
 9.250	20.750	6.4140e-02
 9.250	21.000	6.4141e-02
 9.250	21.250	6.4148e-02
 9.250	21.500	6.4151e-02
 9.250	21.750	6.4118e-02
 9.250	22.000	6.4102e-02
 9.250	22.250	6.4119e-02
 9.250	22.500	6.4158e-02
 9.250	22.750	6.4158e-02
 9.250	23.000	6.4158e-02
 9.250	23.250	6.4158e-02
 9.250	23.500	6.4158e-02
 9.250	23.750	6.4158e-02
 9.250	24.000	6.4158e-02
 9.500	17.000	1.0867e-03
 9.500	17.250	1.5482e-03
 9.500	17.500	2.2578e-03
 9.500	17.750	3.4267e-03
 9.500	18.000	5.5077e-03
 9.500	18.250	9.2144e-03
 9.500	18.500	1.4994e-02
 9.500	18.750	2.3297e-02
 9.500	19.000	3.4335e-02
 9.500	19.250	4.6557e-02
 9.500	19.500	5.3190e-02
 9.500	19.750	5.9144e-02
 9.500	20.000	6.0863e-02
 9.500	20.250	6.3267e-02
 9.500	20.500	6.4093e-02
 9.500	20.750	6.4142e-02
 9.500	21.000	6.4136e-02
 9.500	21.250	6.4122e-02
 9.500	21.500	6.4096e-02
 9.500	21.750	6.4094e-02
 9.500	22.000	6.4082e-02
 9.500	22.250	6.4063e-02
 9.500	22.500	6.4053e-02
 9.500	22.750	6.4056e-02
 9.500	23.000	6.4057e-02
 9.500	23.250	6.4058e-02
 9.500	23.500	6.4096e-02
 9.500	23.750	6.4096e-02
 9.500	24.000	6.4096e-02
 9.750	17.000	7.9095e-04
 9.750	17.250	1.1246e-03
 9.750	17.500	1.6408e-03
 9.750	17.750	2.5017e-03
 9.750	18.000	4.0667e-03
 9.750	18.250	6.8657e-03
 9.750	18.500	1.1158e-02
 9.750	18.750	1.7276e-02
 9.750	19.000	2.5746e-02
 9.750	19.250	3.7246e-02
 9.750	19.500	4.7699e-02
 9.750	19.750	5.4661e-02
 9.750	20.000	5.8927e-02
 9.750	20.250	6.0762e-02
 9.750	20.500	6.3238e-02
 9.750	20.750	6.4087e-02
 9.750	21.000	6.4141e-02
 9.750	21.250	6.4139e-02
 9.750	21.500	6.4135e-02
 9.750	21.750	6.4117e-02
 9.750	22.000	6.4097e-02
 9.750	22.250	6.4091e-02
 9.750	22.500	6.4077e-02
 9.750	22.750	6.4064e-02
 9.750	23.000	6.4057e-02
 9.750	23.250	6.4053e-02
 9.750	23.500	6.4053e-02
 9.750	23.750	6.4061e-02
 9.750	24.000	6.4055e-02
10.000	17.000	5.7951e-04
10.000	17.250	8.1967e-04
10.000	17.500	1.1964e-03
10.000	17.750	1.8347e-03
10.000	18.000	3.0160e-03
10.000	18.250	5.0971e-03
10.000	18.500	8.3039e-03
10.000	18.750	1.2819e-02
10.000	19.000	1.9064e-02
10.000	19.250	2.7625e-02
10.000	19.500	3.9108e-02
10.000	19.750	4.8249e-02
10.000	20.000	5.6015e-02
10.000	20.250	5.8709e-02
10.000	20.500	6.0666e-02
10.000	20.750	6.3225e-02
10.000	21.000	6.4069e-02
10.000	21.250	6.4140e-02
10.000	21.500	6.4139e-02
10.000	21.750	6.4139e-02
10.000	22.000	6.4138e-02
10.000	22.250	6.4098e-02
10.000	22.500	6.4096e-02
10.000	22.750	6.4088e-02
10.000	23.000	6.4079e-02
10.000	23.250	6.4071e-02
10.000	23.500	6.4066e-02
10.000	23.750	6.4064e-02
10.000	24.000	6.4063e-02
10.250	17.000	4.2922e-04
10.250	17.250	6.0156e-04
10.250	17.500	8.7523e-04
10.250	17.750	1.3507e-03
10.250	18.000	2.2365e-03
10.250	18.250	3.7988e-03
10.250	18.500	6.1691e-03
10.250	18.750	9.5020e-03
10.250	19.000	1.4073e-02
10.250	19.250	2.0512e-02
10.250	19.500	2.9721e-02
10.250	19.750	3.9754e-02
10.250	20.000	4.9402e-02
10.250	20.250	5.6795e-02
10.250	20.500	5.8504e-02
10.250	20.750	6.0481e-02
10.250	21.000	6.3209e-02
10.250	21.250	6.4041e-02
10.250	21.500	6.4136e-02
10.250	21.750	6.4138e-02
10.250	22.000	6.4139e-02
10.250	22.250	6.4145e-02
10.250	22.500	6.4108e-02
10.250	22.750	6.4099e-02
10.250	23.000	6.4095e-02
10.250	23.250	6.4089e-02
10.250	23.500	6.4084e-02
10.250	23.750	6.4080e-02
10.250	24.000	6.4078e-02
10.500	17.000	3.2222e-04
10.500	17.250	4.4576e-04
10.500	17.500	6.4527e-04
10.500	17.750	9.9852e-04
10.500	18.000	1.6579e-03
10.500	18.250	2.8247e-03
10.500	18.500	4.5320e-03
10.500	18.750	6.9676e-03
10.500	19.000	1.0323e-02
10.500	19.250	1.4997e-02
10.500	19.500	2.1604e-02
10.500	19.750	3.0685e-02
10.500	20.000	4.0678e-02
10.500	20.250	5.0680e-02
10.500	20.500	5.6699e-02
10.500	20.750	5.8240e-02
10.500	21.000	6.0404e-02
10.500	21.250	6.3268e-02
10.500	21.500	6.4005e-02
10.500	21.750	6.4126e-02
10.500	22.000	6.4137e-02
10.500	22.250	6.4139e-02
10.500	22.500	6.4146e-02
10.500	22.750	6.4136e-02
10.500	23.000	6.4100e-02
10.500	23.250	6.4099e-02
10.500	23.500	6.4095e-02
10.500	23.750	6.4093e-02
10.500	24.000	6.4090e-02
10.750	17.000	2.4584e-04
10.750	17.250	3.3416e-04
10.750	17.500	4.7942e-04
10.750	17.750	7.4066e-04
10.750	18.000	1.2277e-03
10.750	18.250	2.0701e-03
10.750	18.500	3.3149e-03
10.750	18.750	5.0519e-03
10.750	19.000	7.5082e-03
10.750	19.250	1.0912e-02
10.750	19.500	1.5684e-02
10.750	19.750	2.2394e-02
10.750	20.000	3.1485e-02
10.750	20.250	4.1673e-02
10.750	20.500	5.2076e-02
10.750	20.750	5.6487e-02
10.750	21.000	5.8173e-02
10.750	21.250	6.0436e-02
10.750	21.500	6.3315e-02
10.750	21.750	6.3953e-02
10.750	22.000	6.4107e-02
10.750	22.250	6.4133e-02
10.750	22.500	6.4137e-02
10.750	22.750	6.4146e-02
10.750	23.000	6.4148e-02
10.750	23.250	6.4109e-02
10.750	23.500	6.4101e-02
10.750	23.750	6.4099e-02
10.750	24.000	6.4098e-02
11.000	17.000	1.8914e-04
11.000	17.250	2.5366e-04
11.000	17.500	3.5901e-04
11.000	17.750	5.5070e-04
11.000	18.000	9.0354e-04
11.000	18.250	1.5029e-03
11.000	18.500	2.4158e-03
11.000	18.750	3.6659e-03
11.000	19.000	5.4546e-03
11.000	19.250	7.8993e-03
11.000	19.500	1.1332e-02
11.000	19.750	1.6140e-02
11.000	20.000	2.3008e-02
11.000	20.250	3.2263e-02
11.000	20.500	4.2724e-02
11.000	20.750	5.3184e-02
11.000	21.000	5.6330e-02
11.000	21.250	5.8142e-02
11.000	21.500	6.0638e-02
11.000	21.750	6.3384e-02
11.000	22.000	6.3902e-02
11.000	22.250	6.4081e-02
11.000	22.500	6.4128e-02
11.000	22.750	6.4134e-02
11.000	23.000	6.4145e-02
11.000	23.250	6.4152e-02
11.000	23.500	6.4136e-02
11.000	23.750	6.4104e-02
11.000	24.000	6.4101e-02
11.250	17.000	1.4889e-04
11.250	17.250	1.9407e-04
11.250	17.500	2.7037e-04
11.250	17.750	4.0914e-04
11.250	18.000	6.6074e-04
11.250	18.250	1.0810e-03
11.250	18.500	1.7021e-03
11.250	18.750	2.6226e-03
11.250	19.000	3.8985e-03
11.250	19.250	5.6683e-03
11.250	19.500	8.1422e-03
11.250	19.750	1.1604e-02
11.250	20.000	1.6508e-02
11.250	20.250	2.3582e-02
11.250	20.500	3.3075e-02
11.250	20.750	4.3782e-02
11.250	21.000	5.3662e-02
11.250	21.250	5.6230e-02
11.250	21.500	5.8240e-02
11.250	21.750	6.1023e-02
11.250	22.000	6.3395e-02
11.250	22.250	6.3823e-02
11.250	22.500	6.4046e-02
11.250	22.750	6.4119e-02
11.250	23.000	6.4130e-02
11.250	23.250	6.4142e-02
11.250	23.500	6.4153e-02
11.250	23.750	6.4150e-02
11.250	24.000	6.4123e-02
11.500	17.000	1.2107e-04
11.500	17.250	1.5193e-04
11.500	17.500	2.0535e-04
11.500	17.750	3.0313e-04
11.500	18.000	4.7885e-04
11.500	18.250	7.7218e-04
11.500	18.500	1.2064e-03
11.500	18.750	1.8439e-03
11.500	19.000	2.7626e-03
11.500	19.250	4.0283e-03
11.500	19.500	5.8137e-03
11.500	19.750	8.3257e-03
11.500	20.000	1.1850e-02
11.500	20.250	1.6858e-02
11.500	20.500	2.4104e-02
11.500	20.750	3.3820e-02
11.500	21.000	4.4774e-02
11.500	21.250	5.3397e-02
11.500	21.500	5.6196e-02
11.500	21.750	5.8438e-02
11.500	22.000	6.1502e-02
11.500	22.250	6.3280e-02
11.500	22.500	6.3741e-02
11.500	22.750	6.3999e-02
11.500	23.000	6.4104e-02
11.500	23.250	6.4123e-02
11.500	23.500	6.4139e-02
11.500	23.750	6.4152e-02
11.500	24.000	6.4154e-02
11.750	17.000	1.0222e-04
11.750	17.250	1.2305e-04
11.750	17.500	1.5934e-04
11.750	17.750	2.2650e-04
11.750	18.000	3.4790e-04
11.750	18.250	5.4914e-04
11.750	18.500	8.4922e-04
11.750	18.750	1.3010e-03
11.750	19.000	1.9347e-03
11.750	19.250	2.8418e-03
11.750	19.500	4.1230e-03
11.750	19.750	5.9335e-03
11.750	20.000	8.4928e-03
11.750	20.250	1.2030e-02
11.750	20.500	1.7161e-02
11.750	20.750	2.4550e-02
11.750	21.000	3.4496e-02
11.750	21.250	4.5537e-02
11.750	21.500	5.3008e-02
11.750	21.750	5.6151e-02
11.750	22.000	5.8740e-02
11.750	22.250	6.1867e-02
11.750	22.500	6.3138e-02
11.750	22.750	6.3642e-02
11.750	23.000	6.3941e-02
11.750	23.250	6.4084e-02
11.750	23.500	6.4113e-02
11.750	23.750	6.4134e-02
11.750	24.000	6.4151e-02
12.000	17.000	8.7737e-05
12.000	17.250	1.0354e-04
12.000	17.500	1.2765e-04
12.000	17.750	1.7235e-04
12.000	18.000	2.5358e-04
12.000	18.250	3.8988e-04
12.000	18.500	5.9794e-04
12.000	18.750	9.0519e-04
12.000	19.000	1.3526e-03
12.000	19.250	1.9948e-03
12.000	19.500	2.9142e-03
12.000	19.750	4.2191e-03
12.000	20.000	6.0492e-03
12.000	20.250	8.6240e-03
12.000	20.500	1.2251e-02
12.000	20.750	1.7471e-02
12.000	21.000	2.4874e-02
12.000	21.250	3.4888e-02
12.000	21.500	4.5513e-02
12.000	21.750	5.2479e-02
12.000	22.000	5.6074e-02
12.000	22.250	5.9101e-02
12.000	22.500	6.1915e-02
12.000	22.750	6.2972e-02
12.000	23.000	6.3514e-02
12.000	23.250	6.3857e-02
12.000	23.500	6.4057e-02
12.000	23.750	6.4099e-02
12.000	24.000	6.4127e-02
12.250	17.000	5.0123e-05
12.250	17.250	9.0288e-05
12.250	17.500	1.0675e-04
12.250	17.750	1.3580e-04
12.250	18.000	1.8872e-04
12.250	18.250	2.8000e-04
12.250	18.500	4.2107e-04
12.250	18.750	6.3325e-04
12.250	19.000	9.4453e-04
12.250	19.250	1.4041e-03
12.250	19.500	2.0555e-03
12.250	19.750	2.9842e-03
12.250	20.000	4.2881e-03
12.250	20.250	6.1478e-03
12.250	20.500	8.7408e-03
12.250	20.750	1.2393e-02
12.250	21.000	1.7644e-02
12.250	21.250	2.4948e-02
12.250	21.500	3.4491e-02
12.250	21.750	4.5327e-02
12.250	22.000	5.1783e-02
12.250	22.250	5.5923e-02
12.250	22.500	5.9301e-02
12.250	22.750	6.1757e-02
12.250	23.000	6.2767e-02
12.250	23.250	6.3346e-02
12.250	23.500	6.3747e-02
12.250	23.750	6.4019e-02
12.250	24.000	6.4080e-02
12.500	17.000	2.3621e-05
12.500	17.250	5.6461e-05
12.500	17.500	9.2757e-05
12.500	17.750	1.1251e-04
12.500	18.000	1.4675e-04
12.500	18.250	2.0502e-04
12.500	18.500	2.9942e-04
12.500	18.750	4.4634e-04
12.500	19.000	6.6337e-04
12.500	19.250	9.8494e-04
12.500	19.500	1.4447e-03
12.500	19.750	2.1008e-03
12.500	20.000	3.0365e-03
12.500	20.250	4.3570e-03
12.500	20.500	6.2106e-03
12.500	20.750	8.8396e-03
12.500	21.000	1.2531e-02
12.500	21.250	1.7692e-02
12.500	21.500	2.4514e-02
12.500	21.750	3.4081e-02
12.500	22.000	4.4445e-02
12.500	22.250	5.0934e-02
12.500	22.500	5.5837e-02
12.500	22.750	5.9134e-02
12.500	23.000	6.1390e-02
12.500	23.250	6.2459e-02
12.500	23.500	6.3109e-02
12.500	23.750	6.3590e-02
12.500	24.000	6.3968e-02
12.750	17.000	1.2593e-05
12.750	17.250	2.7325e-05
12.750	17.500	6.0329e-05
12.750	17.750	9.5885e-05
12.750	18.000	1.1860e-04
12.750	18.250	1.5547e-04
12.750	18.500	2.1778e-04
12.750	18.750	3.1671e-04
12.750	19.000	4.6683e-04
12.750	19.250	6.8765e-04
12.750	19.500	1.0091e-03
12.750	19.750	1.4714e-03
12.750	20.000	2.1338e-03
12.750	20.250	3.0760e-03
12.750	20.500	4.4050e-03
12.750	20.750	6.2775e-03
12.750	21.000	8.9056e-03
12.750	21.250	1.2585e-02
12.750	21.500	1.7365e-02
12.750	21.750	2.4031e-02
12.750	22.000	3.3110e-02
12.750	22.250	4.2681e-02
12.750	22.500	4.9816e-02
12.750	22.750	5.4761e-02
12.750	23.000	5.8430e-02
12.750	23.250	6.0806e-02
12.750	23.500	6.2028e-02
12.750	23.750	6.2769e-02
12.750	24.000	6.3361e-02
13.000	17.000	2.7160e-06
13.000	17.250	6.3374e-06
13.000	17.500	2.0905e-05
13.000	17.750	5.0206e-05
13.000	18.000	8.2881e-05
13.000	18.250	1.1226e-04
13.000	18.500	1.6288e-04
13.000	18.750	2.2741e-04
13.000	19.000	3.2872e-04
13.000	19.250	4.8082e-04
13.000	19.500	7.0650e-04
13.000	19.750	1.0292e-03
13.000	20.000	1.4941e-03
13.000	20.250	2.1595e-03
13.000	20.500	3.1077e-03
13.000	20.750	4.4518e-03
13.000	21.000	6.3353e-03
13.000	21.250	8.9511e-03
13.000	21.500	1.2373e-02
13.000	21.750	1.6998e-02
13.000	22.000	2.3019e-02
13.000	22.250	3.1486e-02
13.000	22.500	4.0608e-02
13.000	22.750	4.7698e-02
13.000	23.000	5.3092e-02
13.000	23.250	5.7237e-02
13.000	23.500	5.9921e-02
13.000	23.750	6.1374e-02
13.000	24.000	6.2252e-02
13.250	17.000	1.5638e-06
13.250	17.250	3.1276e-06
13.250	17.500	7.3251e-06
13.250	17.750	1.7449e-05
13.250	18.000	4.3292e-05
13.250	18.250	7.9835e-05
13.250	18.500	1.1210e-04
13.250	18.750	1.6930e-04
13.250	19.000	2.3498e-04
13.250	19.250	3.3745e-04
13.250	19.500	4.9267e-04
13.250	19.750	7.1745e-04
13.250	20.000	1.0418e-03
13.250	20.250	1.5097e-03
13.250	20.500	2.1805e-03
13.250	20.750	3.1370e-03
13.250	21.000	4.4914e-03
13.250	21.250	6.3816e-03
13.250	21.500	8.8360e-03
13.250	21.750	1.2064e-02
13.250	22.000	1.6035e-02
13.250	22.250	2.1065e-02
13.250	22.500	2.8893e-02
13.250	22.750	3.7430e-02
13.250	23.000	4.4576e-02
13.250	23.250	5.0635e-02
13.250	23.500	5.5504e-02
13.250	23.750	5.8616e-02
13.250	24.000	6.0395e-02
13.500	17.000	9.8765e-07
13.500	17.250	1.8930e-06
13.500	17.500	4.0329e-06
13.500	17.750	9.0535e-06
13.500	18.000	2.1317e-05
13.500	18.250	4.9794e-05
13.500	18.500	8.4774e-05
13.500	18.750	1.2107e-04
13.500	19.000	1.7391e-04
13.500	19.250	2.4082e-04
13.500	19.500	3.4469e-04
13.500	19.750	4.9835e-04
13.500	20.000	7.2436e-04
13.500	20.250	1.0510e-03
13.500	20.500	1.5228e-03
13.500	20.750	2.1967e-03
13.500	21.000	3.1581e-03
13.500	21.250	4.5125e-03
13.500	21.500	6.2700e-03
13.500	21.750	8.5866e-03
13.500	22.000	1.1100e-02
13.500	22.250	1.3903e-02
13.500	22.500	1.8380e-02
13.500	22.750	2.5893e-02
13.500	23.000	3.4073e-02
13.500	23.250	4.1175e-02
13.500	23.500	4.7655e-02
13.500	23.750	5.3147e-02
13.500	24.000	5.6752e-02
13.750	17.000	1.0000e-07
13.750	17.250	1.0700e-06
13.750	17.500	2.3868e-06
13.750	17.750	4.7737e-06
13.750	18.000	1.1523e-05
13.750	18.250	2.5350e-05
13.750	18.500	5.2346e-05
13.750	18.750	8.8395e-05
13.750	19.000	1.2856e-04
13.750	19.250	1.7704e-04
13.750	19.500	2.4453e-04
13.750	19.750	3.4848e-04
13.750	20.000	5.0346e-04
13.750	20.250	7.3045e-04
13.750	20.500	1.0594e-03
13.750	20.750	1.5343e-03
13.750	21.000	2.2148e-03
13.750	21.250	3.1769e-03
13.750	21.500	4.4500e-03
13.750	21.750	6.1058e-03
13.750	22.000	7.7917e-03
13.750	22.250	9.2549e-03
13.750	22.500	1.1387e-02
13.750	22.750	1.5771e-02
13.750	23.000	2.2752e-02
13.750	23.250	3.0290e-02
13.750	23.500	3.7444e-02
13.750	23.750	4.3866e-02
13.750	24.000	5.0044e-02
14.000	17.000	1.0000e-07
14.000	17.250	1.0000e-07
14.000	17.500	1.3992e-06
14.000	17.750	2.8807e-06
14.000	18.000	6.0082e-06
14.000	18.250	1.3663e-05
14.000	18.500	2.8313e-05
14.000	18.750	5.4321e-05
14.000	19.000	9.6626e-05
14.000	19.250	1.3498e-04
14.000	19.500	1.7893e-04
14.000	19.750	2.4675e-04
14.000	20.000	3.5136e-04
14.000	20.250	5.0708e-04
14.000	20.500	7.3605e-04
14.000	20.750	1.0682e-03
14.000	21.000	1.5477e-03
14.000	21.250	2.2304e-03
14.000	21.500	3.1475e-03
14.000	21.750	4.3351e-03
14.000	22.000	5.4759e-03
14.000	22.250	6.2405e-03
14.000	22.500	7.1392e-03
14.000	22.750	9.3812e-03
14.000	23.000	1.3620e-02
14.000	23.250	1.9659e-02
14.000	23.500	2.6331e-02
14.000	23.750	3.2735e-02
14.000	24.000	3.9107e-02
