InwC 8078.61A  relative to Inci 1215.00A scaled to 1215A.
Hden   Phi(H)  Eq_Width (A)
 7.000	17.000	2.0344e-02
 7.000	17.250	2.7054e-02
 7.000	17.500	3.4652e-02
 7.000	17.750	3.5780e-02
 7.000	18.000	3.6318e-02
 7.000	18.250	3.6346e-02
 7.000	18.500	3.6344e-02
 7.000	18.750	3.6344e-02
 7.000	19.000	3.6348e-02
 7.000	19.250	3.6352e-02
 7.000	19.500	3.6353e-02
 7.000	19.750	3.6353e-02
 7.000	20.000	3.6354e-02
 7.000	20.250	3.6354e-02
 7.000	20.500	3.6354e-02
 7.000	20.750	3.6354e-02
 7.000	21.000	3.6354e-02
 7.000	21.250	3.6354e-02
 7.000	21.500	3.6354e-02
 7.000	21.750	3.6354e-02
 7.000	22.000	3.6354e-02
 7.000	22.250	3.6354e-02
 7.000	22.500	3.6354e-02
 7.000	22.750	3.6355e-02
 7.000	23.000	3.6355e-02
 7.000	23.250	3.6355e-02
 7.000	23.500	3.6355e-02
 7.000	23.750	3.6355e-02
 7.000	24.000	3.6355e-02
 7.250	17.000	1.4675e-02
 7.250	17.250	2.0939e-02
 7.250	17.500	2.7412e-02
 7.250	17.750	3.4656e-02
 7.250	18.000	3.5789e-02
 7.250	18.250	3.6318e-02
 7.250	18.500	3.6346e-02
 7.250	18.750	3.6345e-02
 7.250	19.000	3.6344e-02
 7.250	19.250	3.6348e-02
 7.250	19.500	3.6352e-02
 7.250	19.750	3.6353e-02
 7.250	20.000	3.6353e-02
 7.250	20.250	3.6354e-02
 7.250	20.500	3.6354e-02
 7.250	20.750	3.6354e-02
 7.250	21.000	3.6354e-02
 7.250	21.250	3.6354e-02
 7.250	21.500	3.6354e-02
 7.250	21.750	3.6354e-02
 7.250	22.000	3.6354e-02
 7.250	22.250	3.6354e-02
 7.250	22.500	3.6354e-02
 7.250	22.750	3.6354e-02
 7.250	23.000	3.6354e-02
 7.250	23.250	3.6358e-02
 7.250	23.500	3.6354e-02
 7.250	23.750	3.6354e-02
 7.250	24.000	3.6354e-02
 7.500	17.000	9.7930e-03
 7.500	17.250	1.5066e-02
 7.500	17.500	2.1530e-02
 7.500	17.750	2.7810e-02
 7.500	18.000	3.4661e-02
 7.500	18.250	3.5797e-02
 7.500	18.500	3.6318e-02
 7.500	18.750	3.6346e-02
 7.500	19.000	3.6344e-02
 7.500	19.250	3.6344e-02
 7.500	19.500	3.6348e-02
 7.500	19.750	3.6352e-02
 7.500	20.000	3.6353e-02
 7.500	20.250	3.6353e-02
 7.500	20.500	3.6354e-02
 7.500	20.750	3.6354e-02
 7.500	21.000	3.6354e-02
 7.500	21.250	3.6354e-02
 7.500	21.500	3.6354e-02
 7.500	21.750	3.6354e-02
 7.500	22.000	3.6354e-02
 7.500	22.250	3.6354e-02
 7.500	22.500	3.6354e-02
 7.500	22.750	3.6354e-02
 7.500	23.000	3.6354e-02
 7.500	23.250	3.6354e-02
 7.500	23.500	3.6354e-02
 7.500	23.750	3.6354e-02
 7.500	24.000	3.6354e-02
 7.750	17.000	6.5337e-03
 7.750	17.250	1.0045e-02
 7.750	17.500	1.5552e-02
 7.750	17.750	2.2288e-02
 7.750	18.000	2.8284e-02
 7.750	18.250	3.4663e-02
 7.750	18.500	3.5806e-02
 7.750	18.750	3.6319e-02
 7.750	19.000	3.6346e-02
 7.750	19.250	3.6345e-02
 7.750	19.500	3.6344e-02
 7.750	19.750	3.6348e-02
 7.750	20.000	3.6352e-02
 7.750	20.250	3.6353e-02
 7.750	20.500	3.6353e-02
 7.750	20.750	3.6354e-02
 7.750	21.000	3.6354e-02
 7.750	21.250	3.6354e-02
 7.750	21.500	3.6354e-02
 7.750	21.750	3.6354e-02
 7.750	22.000	3.6354e-02
 7.750	22.250	3.6354e-02
 7.750	22.500	3.6354e-02
 7.750	22.750	3.6354e-02
 7.750	23.000	3.6354e-02
 7.750	23.250	3.6354e-02
 7.750	23.500	3.6354e-02
 7.750	23.750	3.6354e-02
 7.750	24.000	3.6354e-02
 8.000	17.000	4.4494e-03
 8.000	17.250	6.6937e-03
 8.000	17.500	1.0376e-02
 8.000	17.750	1.6198e-02
 8.000	18.000	2.3220e-02
 8.000	18.250	2.8755e-02
 8.000	18.500	3.4660e-02
 8.000	18.750	3.5810e-02
 8.000	19.000	3.6319e-02
 8.000	19.250	3.6346e-02
 8.000	19.500	3.6345e-02
 8.000	19.750	3.6344e-02
 8.000	20.000	3.6348e-02
 8.000	20.250	3.6352e-02
 8.000	20.500	3.6353e-02
 8.000	20.750	3.6353e-02
 8.000	21.000	3.6354e-02
 8.000	21.250	3.6354e-02
 8.000	21.500	3.6354e-02
 8.000	21.750	3.6354e-02
 8.000	22.000	3.6354e-02
 8.000	22.250	3.6354e-02
 8.000	22.500	3.6354e-02
 8.000	22.750	3.6354e-02
 8.000	23.000	3.6354e-02
 8.000	23.250	3.6354e-02
 8.000	23.500	3.6354e-02
 8.000	23.750	3.6354e-02
 8.000	24.000	3.6354e-02
 8.250	17.000	3.1207e-03
 8.250	17.250	4.5900e-03
 8.250	17.500	6.9871e-03
 8.250	17.750	1.0982e-02
 8.250	18.000	1.7335e-02
 8.250	18.250	2.4442e-02
 8.250	18.500	2.9512e-02
 8.250	18.750	3.4652e-02
 8.250	19.000	3.5820e-02
 8.250	19.250	3.6319e-02
 8.250	19.500	3.6346e-02
 8.250	19.750	3.6344e-02
 8.250	20.000	3.6344e-02
 8.250	20.250	3.6348e-02
 8.250	20.500	3.6352e-02
 8.250	20.750	3.6353e-02
 8.250	21.000	3.6353e-02
 8.250	21.250	3.6354e-02
 8.250	21.500	3.6354e-02
 8.250	21.750	3.6354e-02
 8.250	22.000	3.6354e-02
 8.250	22.250	3.6354e-02
 8.250	22.500	3.6354e-02
 8.250	22.750	3.6354e-02
 8.250	23.000	3.6354e-02
 8.250	23.250	3.6354e-02
 8.250	23.500	3.6354e-02
 8.250	23.750	3.6354e-02
 8.250	24.000	3.6354e-02
 8.500	17.000	2.2234e-03
 8.500	17.250	3.2232e-03
 8.500	17.500	4.8111e-03
 8.500	17.750	7.5026e-03
 8.500	18.000	1.2059e-02
 8.500	18.250	1.9058e-02
 8.500	18.500	2.5771e-02
 8.500	18.750	3.0260e-02
 8.500	19.000	3.4626e-02
 8.500	19.250	3.5830e-02
 8.500	19.500	3.6319e-02
 8.500	19.750	3.6346e-02
 8.500	20.000	3.6344e-02
 8.500	20.250	3.6344e-02
 8.500	20.500	3.6348e-02
 8.500	20.750	3.6352e-02
 8.500	21.000	3.6353e-02
 8.500	21.250	3.6353e-02
 8.500	21.500	3.6354e-02
 8.500	21.750	3.6354e-02
 8.500	22.000	3.6354e-02
 8.500	22.250	3.6354e-02
 8.500	22.500	3.6354e-02
 8.500	22.750	3.6354e-02
 8.500	23.000	3.6354e-02
 8.500	23.250	3.6354e-02
 8.500	23.500	3.6354e-02
 8.500	23.750	3.6354e-02
 8.500	24.000	3.6354e-02
 8.750	17.000	1.5946e-03
 8.750	17.250	2.2971e-03
 8.750	17.500	3.3870e-03
 8.750	17.750	5.1889e-03
 8.750	18.000	8.3564e-03
 8.750	18.250	1.3687e-02
 8.750	18.500	2.1004e-02
 8.750	18.750	2.6806e-02
 8.750	19.000	3.0837e-02
 8.750	19.250	3.4569e-02
 8.750	19.500	3.5838e-02
 8.750	19.750	3.6319e-02
 8.750	20.000	3.6345e-02
 8.750	20.250	3.6344e-02
 8.750	20.500	3.6344e-02
 8.750	20.750	3.6348e-02
 8.750	21.000	3.6352e-02
 8.750	21.250	3.6353e-02
 8.750	21.500	3.6353e-02
 8.750	21.750	3.6354e-02
 8.750	22.000	3.6354e-02
 8.750	22.250	3.6354e-02
 8.750	22.500	3.6354e-02
 8.750	22.750	3.6354e-02
 8.750	23.000	3.6354e-02
 8.750	23.250	3.6354e-02
 8.750	23.500	3.6354e-02
 8.750	23.750	3.6354e-02
 8.750	24.000	3.6354e-02
 9.000	17.000	1.1460e-03
 9.000	17.250	1.6488e-03
 9.000	17.500	2.4188e-03
 9.000	17.750	3.6713e-03
 9.000	18.000	5.8571e-03
 9.000	18.250	9.6975e-03
 9.000	18.500	1.5564e-02
 9.000	18.750	2.2646e-02
 9.000	19.000	2.7563e-02
 9.000	19.250	3.1570e-02
 9.000	19.500	3.4473e-02
 9.000	19.750	3.5840e-02
 9.000	20.000	3.6318e-02
 9.000	20.250	3.6345e-02
 9.000	20.500	3.6344e-02
 9.000	20.750	3.6344e-02
 9.000	21.000	3.6348e-02
 9.000	21.250	3.6352e-02
 9.000	21.500	3.6353e-02
 9.000	21.750	3.6353e-02
 9.000	22.000	3.6353e-02
 9.000	22.250	3.6354e-02
 9.000	22.500	3.6354e-02
 9.000	22.750	3.6354e-02
 9.000	23.000	3.6354e-02
 9.000	23.250	3.6354e-02
 9.000	23.500	3.6354e-02
 9.000	23.750	3.6354e-02
 9.000	24.000	3.6354e-02
 9.250	17.000	8.2313e-04
 9.250	17.250	1.1849e-03
 9.250	17.500	1.7396e-03
 9.250	17.750	2.6370e-03
 9.250	18.000	4.2063e-03
 9.250	18.250	6.9831e-03
 9.250	18.500	1.1297e-02
 9.250	18.750	1.7306e-02
 9.250	19.000	2.4013e-02
 9.250	19.250	2.8673e-02
 9.250	19.500	3.2393e-02
 9.250	19.750	3.4341e-02
 9.250	20.000	3.5830e-02
 9.250	20.250	3.6316e-02
 9.250	20.500	3.6344e-02
 9.250	20.750	3.6343e-02
 9.250	21.000	3.6344e-02
 9.250	21.250	3.6348e-02
 9.250	21.500	3.6350e-02
 9.250	21.750	3.6331e-02
 9.250	22.000	3.6322e-02
 9.250	22.250	3.6332e-02
 9.250	22.500	3.6353e-02
 9.250	22.750	3.6354e-02
 9.250	23.000	3.6354e-02
 9.250	23.250	3.6354e-02
 9.250	23.500	3.6354e-02
 9.250	23.750	3.6354e-02
 9.250	24.000	3.6354e-02
 9.500	17.000	5.9078e-04
 9.500	17.250	8.5193e-04
 9.500	17.500	1.2524e-03
 9.500	17.750	1.9095e-03
 9.500	18.000	3.0718e-03
 9.500	18.250	5.1233e-03
 9.500	18.500	8.2783e-03
 9.500	18.750	1.2730e-02
 9.500	19.000	1.8560e-02
 9.500	19.250	2.5117e-02
 9.500	19.500	2.9069e-02
 9.500	19.750	3.2773e-02
 9.500	20.000	3.4182e-02
 9.500	20.250	3.5794e-02
 9.500	20.500	3.6312e-02
 9.500	20.750	3.6343e-02
 9.500	21.000	3.6341e-02
 9.500	21.250	3.6333e-02
 9.500	21.500	3.6318e-02
 9.500	21.750	3.6317e-02
 9.500	22.000	3.6310e-02
 9.500	22.250	3.6300e-02
 9.500	22.500	3.6294e-02
 9.500	22.750	3.6296e-02
 9.500	23.000	3.6297e-02
 9.500	23.250	3.6297e-02
 9.500	23.500	3.6319e-02
 9.500	23.750	3.6318e-02
 9.500	24.000	3.6318e-02
 9.750	17.000	4.2321e-04
 9.750	17.250	6.1185e-04
 9.750	17.500	9.0296e-04
 9.750	17.750	1.3863e-03
 9.750	18.000	2.2594e-03
 9.750	18.250	3.8062e-03
 9.750	18.500	6.1403e-03
 9.750	18.750	9.3958e-03
 9.750	19.000	1.3793e-02
 9.750	19.250	1.9681e-02
 9.750	19.500	2.5305e-02
 9.750	19.750	2.9639e-02
 9.750	20.000	3.2492e-02
 9.750	20.250	3.4038e-02
 9.750	20.500	3.5727e-02
 9.750	20.750	3.6302e-02
 9.750	21.000	3.6342e-02
 9.750	21.250	3.6342e-02
 9.750	21.500	3.6340e-02
 9.750	21.750	3.6330e-02
 9.750	22.000	3.6319e-02
 9.750	22.250	3.6315e-02
 9.750	22.500	3.6308e-02
 9.750	22.750	3.6301e-02
 9.750	23.000	3.6297e-02
 9.750	23.250	3.6294e-02
 9.750	23.500	3.6294e-02
 9.750	23.750	3.6299e-02
 9.750	24.000	3.6295e-02
10.000	17.000	3.0337e-04
10.000	17.250	4.3909e-04
10.000	17.500	6.5144e-04
10.000	17.750	1.0095e-03
10.000	18.000	1.6679e-03
10.000	18.250	2.8159e-03
10.000	18.500	4.5544e-03
10.000	18.750	6.9430e-03
10.000	19.000	1.0150e-02
10.000	19.250	1.4409e-02
10.000	19.500	2.0026e-02
10.000	19.750	2.5134e-02
10.000	20.000	3.0207e-02
10.000	20.250	3.2212e-02
10.000	20.500	3.3890e-02
10.000	20.750	3.5669e-02
10.000	21.000	3.6275e-02
10.000	21.250	3.6339e-02
10.000	21.500	3.6341e-02
10.000	21.750	3.6342e-02
10.000	22.000	3.6342e-02
10.000	22.250	3.6320e-02
10.000	22.500	3.6319e-02
10.000	22.750	3.6314e-02
10.000	23.000	3.6309e-02
10.000	23.250	3.6304e-02
10.000	23.500	3.6302e-02
10.000	23.750	3.6300e-02
10.000	24.000	3.6300e-02
10.250	17.000	2.1827e-04
10.250	17.250	3.1556e-04
10.250	17.500	4.6971e-04
10.250	17.750	7.3630e-04
10.250	18.000	1.2295e-03
10.250	18.250	2.0900e-03
10.250	18.500	3.3713e-03
10.250	18.750	5.1274e-03
10.250	19.000	7.4602e-03
10.250	19.250	1.0639e-02
10.250	19.500	1.5068e-02
10.250	19.750	2.0075e-02
10.250	20.000	2.5591e-02
10.250	20.250	3.0363e-02
10.250	20.500	3.1942e-02
10.250	20.750	3.3611e-02
10.250	21.000	3.5581e-02
10.250	21.250	3.6235e-02
10.250	21.500	3.6333e-02
10.250	21.750	3.6340e-02
10.250	22.000	3.6342e-02
10.250	22.250	3.6345e-02
10.250	22.500	3.6325e-02
10.250	22.750	3.6320e-02
10.250	23.000	3.6318e-02
10.250	23.250	3.6314e-02
10.250	23.500	3.6312e-02
10.250	23.750	3.6309e-02
10.250	24.000	3.6309e-02
10.500	17.000	1.5778e-04
10.500	17.250	2.2749e-04
10.500	17.500	3.3975e-04
10.500	17.750	5.3761e-04
10.500	18.000	9.0453e-04
10.500	18.250	1.5463e-03
10.500	18.500	2.4683e-03
10.500	18.750	3.7537e-03
10.500	19.000	5.4801e-03
10.500	19.250	7.8218e-03
10.500	19.500	1.1039e-02
10.500	19.750	1.5373e-02
10.500	20.000	2.0400e-02
10.500	20.250	2.6140e-02
10.500	20.500	3.0122e-02
10.500	20.750	3.1592e-02
10.500	21.000	3.3446e-02
10.500	21.250	3.5563e-02
10.500	21.500	3.6183e-02
10.500	21.750	3.6318e-02
10.500	22.000	3.6338e-02
10.500	22.250	3.6341e-02
10.500	22.500	3.6346e-02
10.500	22.750	3.6341e-02
10.500	23.000	3.6321e-02
10.500	23.250	3.6320e-02
10.500	23.500	3.6318e-02
10.500	23.750	3.6316e-02
10.500	24.000	3.6315e-02
10.750	17.000	1.1473e-04
10.750	17.250	1.6444e-04
10.750	17.500	2.4609e-04
10.750	17.750	3.9235e-04
10.750	18.000	6.6313e-04
10.750	18.250	1.1263e-03
10.750	18.500	1.7997e-03
10.750	18.750	2.7219e-03
10.750	19.000	3.9999e-03
10.750	19.250	5.7300e-03
10.750	19.500	8.0933e-03
10.750	19.750	1.1317e-02
10.750	20.000	1.5613e-02
10.750	20.250	2.0745e-02
10.750	20.500	2.6704e-02
10.750	20.750	2.9858e-02
10.750	21.000	3.1478e-02
10.750	21.250	3.3381e-02
10.750	21.500	3.5494e-02
10.750	21.750	3.6109e-02
10.750	22.000	3.6292e-02
10.750	22.250	3.6333e-02
10.750	22.500	3.6339e-02
10.750	22.750	3.6345e-02
10.750	23.000	3.6348e-02
10.750	23.250	3.6326e-02
10.750	23.500	3.6321e-02
10.750	23.750	3.6320e-02
10.750	24.000	3.6319e-02
11.000	17.000	8.2963e-05
11.000	17.250	1.1909e-04
11.000	17.500	1.7827e-04
11.000	17.750	2.8543e-04
11.000	18.000	4.8156e-04
11.000	18.250	8.1103e-04
11.000	18.500	1.3063e-03
11.000	18.750	1.9746e-03
11.000	19.000	2.9150e-03
11.000	19.250	4.1754e-03
11.000	19.500	5.9031e-03
11.000	19.750	8.2532e-03
11.000	20.000	1.1502e-02
11.000	20.250	1.5815e-02
11.000	20.500	2.1058e-02
11.000	20.750	2.7067e-02
11.000	21.000	2.9658e-02
11.000	21.250	3.1392e-02
11.000	21.500	3.3461e-02
11.000	21.750	3.5474e-02
11.000	22.000	3.6040e-02
11.000	22.250	3.6256e-02
11.000	22.500	3.6326e-02
11.000	22.750	3.6335e-02
11.000	23.000	3.6343e-02
11.000	23.250	3.6349e-02
11.000	23.500	3.6341e-02
11.000	23.750	3.6323e-02
11.000	24.000	3.6321e-02
11.250	17.000	6.0494e-05
11.250	17.250	8.5761e-05
11.250	17.500	1.2848e-04
11.250	17.750	2.0601e-04
11.250	18.000	3.4568e-04
11.250	18.250	5.7671e-04
11.250	18.500	9.1465e-04
11.250	18.750	1.4100e-03
11.250	19.000	2.0876e-03
11.250	19.250	3.0120e-03
11.250	19.500	4.2768e-03
11.250	19.750	5.9998e-03
11.250	20.000	8.3612e-03
11.250	20.250	1.1640e-02
11.250	20.500	1.5974e-02
11.250	20.750	2.1293e-02
11.250	21.000	2.7049e-02
11.250	21.250	2.9521e-02
11.250	21.500	3.1460e-02
11.250	21.750	3.3644e-02
11.250	22.000	3.5435e-02
11.250	22.250	3.5938e-02
11.250	22.500	3.6207e-02
11.250	22.750	3.6313e-02
11.250	23.000	3.6329e-02
11.250	23.250	3.6340e-02
11.250	23.500	3.6349e-02
11.250	23.750	3.6348e-02
11.250	24.000	3.6334e-02
11.500	17.000	4.5021e-05
11.500	17.250	6.2387e-05
11.500	17.500	9.2263e-05
11.500	17.750	1.4683e-04
11.500	18.000	2.4436e-04
11.500	18.250	4.0551e-04
11.500	18.500	6.4239e-04
11.500	18.750	9.8733e-04
11.500	19.000	1.4793e-03
11.500	19.250	2.1479e-03
11.500	19.500	3.0737e-03
11.500	19.750	4.3455e-03
11.500	20.000	6.0755e-03
11.500	20.250	8.4368e-03
11.500	20.500	1.1702e-02
11.500	20.750	1.6013e-02
11.500	21.000	2.1394e-02
11.500	21.250	2.6590e-02
11.500	21.500	2.9519e-02
11.500	21.750	3.1580e-02
11.500	22.000	3.3884e-02
11.500	22.250	3.5322e-02
11.500	22.500	3.5842e-02
11.500	22.750	3.6147e-02
11.500	23.000	3.6293e-02
11.500	23.250	3.6319e-02
11.500	23.500	3.6335e-02
11.500	23.750	3.6348e-02
11.500	24.000	3.6351e-02
11.750	17.000	3.4403e-05
11.750	17.250	4.6337e-05
11.750	17.500	6.6831e-05
11.750	17.750	1.0436e-04
11.750	18.000	1.7169e-04
11.750	18.250	2.8230e-04
11.750	18.500	4.4626e-04
11.750	18.750	6.9160e-04
11.750	19.000	1.0332e-03
11.750	19.250	1.5165e-03
11.750	19.500	2.1890e-03
11.750	19.750	3.1194e-03
11.750	20.000	4.3987e-03
11.750	20.250	6.1002e-03
11.750	20.500	8.4498e-03
11.750	20.750	1.1648e-02
11.750	21.000	1.5889e-02
11.750	21.250	2.1277e-02
11.750	21.500	2.6305e-02
11.750	21.750	2.9460e-02
11.750	22.000	3.1745e-02
11.750	22.250	3.4052e-02
11.750	22.500	3.5193e-02
11.750	22.750	3.5737e-02
11.750	23.000	3.6076e-02
11.750	23.250	3.6267e-02
11.750	23.500	3.6306e-02
11.750	23.750	3.6329e-02
11.750	24.000	3.6347e-02
12.000	17.000	2.6584e-05
12.000	17.250	3.5391e-05
12.000	17.500	4.9383e-05
12.000	17.750	7.4568e-05
12.000	18.000	1.1967e-04
12.000	18.250	1.9457e-04
12.000	18.500	3.0831e-04
12.000	18.750	4.7556e-04
12.000	19.000	7.1761e-04
12.000	19.250	1.0621e-03
12.000	19.500	1.5492e-03
12.000	19.750	2.2284e-03
12.000	20.000	3.1575e-03
12.000	20.250	4.4190e-03
12.000	20.500	6.1100e-03
12.000	20.750	8.3917e-03
12.000	21.000	1.1418e-02
12.000	21.250	1.5489e-02
12.000	21.500	2.0967e-02
12.000	21.750	2.5817e-02
12.000	22.000	2.9358e-02
12.000	22.250	3.1893e-02
12.000	22.500	3.4026e-02
12.000	22.750	3.5038e-02
12.000	23.000	3.5611e-02
12.000	23.250	3.5984e-02
12.000	23.500	3.6232e-02
12.000	23.750	3.6288e-02
12.000	24.000	3.6320e-02
12.250	17.000	1.4897e-05
12.250	17.250	2.7737e-05
12.250	17.500	3.7613e-05
12.250	17.750	5.4321e-05
12.250	18.000	8.3951e-05
12.250	18.250	1.3416e-04
12.250	18.500	2.1144e-04
12.250	18.750	3.2700e-04
12.250	19.000	4.9572e-04
12.250	19.250	7.4305e-04
12.250	19.500	1.0905e-03
12.250	19.750	1.5789e-03
12.250	20.000	2.2496e-03
12.250	20.250	3.1753e-03
12.250	20.500	4.4067e-03
12.250	20.750	6.0292e-03
12.250	21.000	8.1705e-03
12.250	21.250	1.0932e-02
12.250	21.500	1.4938e-02
12.250	21.750	2.0323e-02
12.250	22.000	2.5212e-02
12.250	22.250	2.9156e-02
12.250	22.500	3.1855e-02
12.250	22.750	3.3843e-02
12.250	23.000	3.4840e-02
12.250	23.250	3.5443e-02
12.250	23.500	3.5865e-02
12.250	23.750	3.6188e-02
12.250	24.000	3.6265e-02
12.500	17.000	7.2428e-06
12.500	17.250	1.6626e-05
12.500	17.500	2.9218e-05
12.500	17.750	4.0905e-05
12.500	18.000	6.0494e-05
12.500	18.250	9.2922e-05
12.500	18.500	1.4486e-04
12.500	18.750	2.2486e-04
12.500	19.000	3.4255e-04
12.500	19.250	5.1588e-04
12.500	19.500	7.6214e-04
12.500	19.750	1.1097e-03
12.500	20.000	1.5963e-03
12.500	20.250	2.2626e-03
12.500	20.500	3.1571e-03
12.500	20.750	4.3457e-03
12.500	21.000	5.8667e-03
12.500	21.250	7.7644e-03
12.500	21.500	1.0393e-02
12.500	21.750	1.4054e-02
12.500	22.000	1.9326e-02
12.500	22.250	2.4516e-02
12.500	22.500	2.8881e-02
12.500	22.750	3.1517e-02
12.500	23.000	3.3473e-02
12.500	23.250	3.4535e-02
12.500	23.500	3.5200e-02
12.500	23.750	3.5698e-02
12.500	24.000	3.6130e-02
12.750	17.000	3.7860e-06
12.750	17.250	8.0658e-06
12.750	17.500	1.7778e-05
12.750	17.750	3.0864e-05
12.750	18.000	4.4198e-05
12.750	18.250	6.5432e-05
12.750	18.500	1.0008e-04
12.750	18.750	1.5416e-04
12.750	19.000	2.3556e-04
12.750	19.250	3.5473e-04
12.750	19.500	5.2716e-04
12.750	19.750	7.7317e-04
12.750	20.000	1.1203e-03
12.750	20.250	1.6013e-03
12.750	20.500	2.2519e-03
12.750	20.750	3.1120e-03
12.750	21.000	4.2105e-03
12.750	21.250	5.5580e-03
12.750	21.500	7.3245e-03
12.750	21.750	9.5092e-03
12.750	22.000	1.2931e-02
12.750	22.250	1.7927e-02
12.750	22.500	2.3612e-02
12.750	22.750	2.7793e-02
12.750	23.000	3.0765e-02
12.750	23.250	3.2883e-02
12.750	23.500	3.4089e-02
12.750	23.750	3.4842e-02
12.750	24.000	3.5452e-02
13.000	17.000	9.8765e-07
13.000	17.250	2.3045e-06
13.000	17.500	6.5844e-06
13.000	17.750	1.5720e-05
13.000	18.000	2.8477e-05
13.000	18.250	4.3868e-05
13.000	18.500	6.9794e-05
13.000	18.750	1.0551e-04
13.000	19.000	1.6058e-04
13.000	19.250	2.4263e-04
13.000	19.500	3.6370e-04
13.000	19.750	5.3580e-04
13.000	20.000	7.8058e-04
13.000	20.250	1.1232e-03
13.000	20.500	1.5933e-03
13.000	20.750	2.2202e-03
13.000	21.000	3.0196e-03
13.000	21.250	3.9834e-03
13.000	21.500	5.2241e-03
13.000	21.750	6.5653e-03
13.000	22.000	8.4082e-03
13.000	22.250	1.1685e-02
13.000	22.500	1.6566e-02
13.000	22.750	2.1910e-02
13.000	23.000	2.6214e-02
13.000	23.250	2.9603e-02
13.000	23.500	3.1993e-02
13.000	23.750	3.3410e-02
13.000	24.000	3.4295e-02
13.250	17.000	1.0000e-07
13.250	17.250	1.1523e-06
13.250	17.500	2.5514e-06
13.250	17.750	6.0082e-06
13.250	18.000	1.4815e-05
13.250	18.250	2.8889e-05
13.250	18.500	4.5267e-05
13.250	18.750	7.3498e-05
13.250	19.000	1.0971e-04
13.250	19.250	1.6510e-04
13.250	19.500	2.4840e-04
13.250	19.750	3.6823e-04
13.250	20.000	5.3942e-04
13.250	20.250	7.8173e-04
13.250	20.500	1.1176e-03
13.250	20.750	1.5697e-03
13.250	21.000	2.1537e-03
13.250	21.250	2.8585e-03
13.250	21.500	3.7440e-03
13.250	21.750	4.5863e-03
13.250	22.000	5.5648e-03
13.250	22.250	7.1747e-03
13.250	22.500	1.0226e-02
13.250	22.750	1.4595e-02
13.250	23.000	1.9563e-02
13.250	23.250	2.4181e-02
13.250	23.500	2.7986e-02
13.250	23.750	3.0703e-02
13.250	24.000	3.2401e-02
13.500	17.000	1.0000e-07
13.500	17.250	1.0000e-07
13.500	17.500	1.3992e-06
13.500	17.750	3.1276e-06
13.500	18.000	7.3251e-06
13.500	18.250	1.7119e-05
13.500	18.500	3.1111e-05
13.500	18.750	4.8971e-05
13.500	19.000	7.6132e-05
13.500	19.250	1.1284e-04
13.500	19.500	1.6864e-04
13.500	19.750	2.5062e-04
13.500	20.000	3.6988e-04
13.500	20.250	5.3959e-04
13.500	20.500	7.7737e-04
13.500	20.750	1.0996e-03
13.500	21.000	1.5204e-03
13.500	21.250	2.0325e-03
13.500	21.500	2.6684e-03
13.500	21.750	3.2328e-03
13.500	22.000	3.6811e-03
13.500	22.250	4.4197e-03
13.500	22.500	6.0559e-03
13.500	22.750	8.8236e-03
13.500	23.000	1.2706e-02
13.500	23.250	1.7194e-02
13.500	23.500	2.1785e-02
13.500	23.750	2.5878e-02
13.500	24.000	2.8913e-02
13.750	17.000	1.0000e-07
13.750	17.250	1.0000e-07
13.750	17.500	8.2305e-07
13.750	17.750	1.7284e-06
13.750	18.000	3.9506e-06
13.750	18.250	8.7243e-06
13.750	18.500	1.8272e-05
13.750	18.750	3.2675e-05
13.750	19.000	5.2016e-05
13.750	19.250	7.7860e-05
13.750	19.500	1.1473e-04
13.750	19.750	1.7029e-04
13.750	20.000	2.5202e-04
13.750	20.250	3.7004e-04
13.750	20.500	5.3638e-04
13.750	20.750	7.6519e-04
13.750	21.000	1.0667e-03
13.750	21.250	1.4359e-03
13.750	21.500	1.8988e-03
13.750	21.750	2.2839e-03
13.750	22.000	2.4982e-03
13.750	22.250	2.7595e-03
13.750	22.500	3.5672e-03
13.750	22.750	5.1649e-03
13.750	23.000	7.5131e-03
13.750	23.250	1.0776e-02
13.750	23.500	1.4809e-02
13.750	23.750	1.8953e-02
13.750	24.000	2.3242e-02
14.000	17.000	1.0000e-07
14.000	17.250	1.0000e-07
14.000	17.500	1.0000e-07
14.000	17.750	9.8765e-07
14.000	18.000	2.0576e-06
14.000	18.250	4.6914e-06
14.000	18.500	9.7119e-06
14.000	18.750	1.9177e-05
14.000	19.000	3.5309e-05
14.000	19.250	5.4156e-05
14.000	19.500	7.8930e-05
14.000	19.750	1.1564e-04
14.000	20.000	1.7095e-04
14.000	20.250	2.5193e-04
14.000	20.500	3.6782e-04
14.000	20.750	5.2856e-04
14.000	21.000	7.4288e-04
14.000	21.250	1.0077e-03
14.000	21.500	1.3432e-03
14.000	21.750	1.6111e-03
14.000	22.000	1.7077e-03
14.000	22.250	1.7568e-03
14.000	22.500	2.1258e-03
14.000	22.750	3.0335e-03
14.000	23.000	4.4240e-03
14.000	23.250	6.3188e-03
14.000	23.500	8.9431e-03
14.000	23.750	1.2132e-02
14.000	24.000	1.5778e-02
