InwC 7500.00A  relative to Inci 1215.00A scaled to 1215A.
Hden   Phi(H)  Eq_Width (A)
 7.000	17.000	2.3307e-02
 7.000	17.250	3.0993e-02
 7.000	17.500	3.9697e-02
 7.000	17.750	4.0989e-02
 7.000	18.000	4.1606e-02
 7.000	18.250	4.1637e-02
 7.000	18.500	4.1636e-02
 7.000	18.750	4.1636e-02
 7.000	19.000	4.1640e-02
 7.000	19.250	4.1644e-02
 7.000	19.500	4.1646e-02
 7.000	19.750	4.1646e-02
 7.000	20.000	4.1647e-02
 7.000	20.250	4.1647e-02
 7.000	20.500	4.1647e-02
 7.000	20.750	4.1647e-02
 7.000	21.000	4.1647e-02
 7.000	21.250	4.1647e-02
 7.000	21.500	4.1647e-02
 7.000	21.750	4.1647e-02
 7.000	22.000	4.1647e-02
 7.000	22.250	4.1647e-02
 7.000	22.500	4.1647e-02
 7.000	22.750	4.1648e-02
 7.000	23.000	4.1648e-02
 7.000	23.250	4.1648e-02
 7.000	23.500	4.1648e-02
 7.000	23.750	4.1648e-02
 7.000	24.000	4.1649e-02
 7.250	17.000	1.6813e-02
 7.250	17.250	2.3988e-02
 7.250	17.500	3.1404e-02
 7.250	17.750	3.9702e-02
 7.250	18.000	4.0999e-02
 7.250	18.250	4.1606e-02
 7.250	18.500	4.1637e-02
 7.250	18.750	4.1636e-02
 7.250	19.000	4.1636e-02
 7.250	19.250	4.1640e-02
 7.250	19.500	4.1645e-02
 7.250	19.750	4.1646e-02
 7.250	20.000	4.1646e-02
 7.250	20.250	4.1647e-02
 7.250	20.500	4.1647e-02
 7.250	20.750	4.1647e-02
 7.250	21.000	4.1647e-02
 7.250	21.250	4.1647e-02
 7.250	21.500	4.1647e-02
 7.250	21.750	4.1647e-02
 7.250	22.000	4.1647e-02
 7.250	22.250	4.1647e-02
 7.250	22.500	4.1647e-02
 7.250	22.750	4.1647e-02
 7.250	23.000	4.1647e-02
 7.250	23.250	4.1651e-02
 7.250	23.500	4.1647e-02
 7.250	23.750	4.1647e-02
 7.250	24.000	4.1647e-02
 7.500	17.000	1.1221e-02
 7.500	17.250	1.7261e-02
 7.500	17.500	2.4666e-02
 7.500	17.750	3.1860e-02
 7.500	18.000	3.9707e-02
 7.500	18.250	4.1009e-02
 7.500	18.500	4.1606e-02
 7.500	18.750	4.1638e-02
 7.500	19.000	4.1636e-02
 7.500	19.250	4.1636e-02
 7.500	19.500	4.1640e-02
 7.500	19.750	4.1645e-02
 7.500	20.000	4.1646e-02
 7.500	20.250	4.1646e-02
 7.500	20.500	4.1647e-02
 7.500	20.750	4.1647e-02
 7.500	21.000	4.1647e-02
 7.500	21.250	4.1647e-02
 7.500	21.500	4.1647e-02
 7.500	21.750	4.1647e-02
 7.500	22.000	4.1647e-02
 7.500	22.250	4.1647e-02
 7.500	22.500	4.1647e-02
 7.500	22.750	4.1647e-02
 7.500	23.000	4.1647e-02
 7.500	23.250	4.1647e-02
 7.500	23.500	4.1647e-02
 7.500	23.750	4.1647e-02
 7.500	24.000	4.1647e-02
 7.750	17.000	7.4874e-03
 7.750	17.250	1.1510e-02
 7.750	17.500	1.7819e-02
 7.750	17.750	2.5536e-02
 7.750	18.000	3.2405e-02
 7.750	18.250	3.9711e-02
 7.750	18.500	4.1020e-02
 7.750	18.750	4.1607e-02
 7.750	19.000	4.1638e-02
 7.750	19.250	4.1637e-02
 7.750	19.500	4.1636e-02
 7.750	19.750	4.1640e-02
 7.750	20.000	4.1644e-02
 7.750	20.250	4.1646e-02
 7.750	20.500	4.1647e-02
 7.750	20.750	4.1647e-02
 7.750	21.000	4.1647e-02
 7.750	21.250	4.1647e-02
 7.750	21.500	4.1647e-02
 7.750	21.750	4.1647e-02
 7.750	22.000	4.1647e-02
 7.750	22.250	4.1647e-02
 7.750	22.500	4.1647e-02
 7.750	22.750	4.1647e-02
 7.750	23.000	4.1647e-02
 7.750	23.250	4.1647e-02
 7.750	23.500	4.1647e-02
 7.750	23.750	4.1647e-02
 7.750	24.000	4.1647e-02
 8.000	17.000	5.0998e-03
 8.000	17.250	7.6709e-03
 8.000	17.500	1.1890e-02
 8.000	17.750	1.8562e-02
 8.000	18.000	2.6610e-02
 8.000	18.250	3.2948e-02
 8.000	18.500	3.9708e-02
 8.000	18.750	4.1024e-02
 8.000	19.000	4.1607e-02
 8.000	19.250	4.1638e-02
 8.000	19.500	4.1636e-02
 8.000	19.750	4.1636e-02
 8.000	20.000	4.1640e-02
 8.000	20.250	4.1645e-02
 8.000	20.500	4.1646e-02
 8.000	20.750	4.1646e-02
 8.000	21.000	4.1647e-02
 8.000	21.250	4.1647e-02
 8.000	21.500	4.1647e-02
 8.000	21.750	4.1647e-02
 8.000	22.000	4.1647e-02
 8.000	22.250	4.1647e-02
 8.000	22.500	4.1647e-02
 8.000	22.750	4.1647e-02
 8.000	23.000	4.1647e-02
 8.000	23.250	4.1647e-02
 8.000	23.500	4.1647e-02
 8.000	23.750	4.1647e-02
 8.000	24.000	4.1647e-02
 8.250	17.000	3.5777e-03
 8.250	17.250	5.2612e-03
 8.250	17.500	8.0079e-03
 8.250	17.750	1.2587e-02
 8.250	18.000	1.9876e-02
 8.250	18.250	2.8028e-02
 8.250	18.500	3.3827e-02
 8.250	18.750	3.9701e-02
 8.250	19.000	4.1035e-02
 8.250	19.250	4.1607e-02
 8.250	19.500	4.1637e-02
 8.250	19.750	4.1636e-02
 8.250	20.000	4.1636e-02
 8.250	20.250	4.1640e-02
 8.250	20.500	4.1645e-02
 8.250	20.750	4.1646e-02
 8.250	21.000	4.1646e-02
 8.250	21.250	4.1647e-02
 8.250	21.500	4.1647e-02
 8.250	21.750	4.1647e-02
 8.250	22.000	4.1647e-02
 8.250	22.250	4.1647e-02
 8.250	22.500	4.1647e-02
 8.250	22.750	4.1647e-02
 8.250	23.000	4.1647e-02
 8.250	23.250	4.1647e-02
 8.250	23.500	4.1647e-02
 8.250	23.750	4.1647e-02
 8.250	24.000	4.1647e-02
 8.500	17.000	2.5499e-03
 8.500	17.250	3.6954e-03
 8.500	17.500	5.5151e-03
 8.500	17.750	8.6016e-03
 8.500	18.000	1.3832e-02
 8.500	18.250	2.1878e-02
 8.500	18.500	2.9585e-02
 8.500	18.750	3.4706e-02
 8.500	19.000	3.9678e-02
 8.500	19.250	4.1047e-02
 8.500	19.500	4.1607e-02
 8.500	19.750	4.1637e-02
 8.500	20.000	4.1636e-02
 8.500	20.250	4.1636e-02
 8.500	20.500	4.1640e-02
 8.500	20.750	4.1645e-02
 8.500	21.000	4.1646e-02
 8.500	21.250	4.1646e-02
 8.500	21.500	4.1647e-02
 8.500	21.750	4.1647e-02
 8.500	22.000	4.1647e-02
 8.500	22.250	4.1647e-02
 8.500	22.500	4.1647e-02
 8.500	22.750	4.1647e-02
 8.500	23.000	4.1647e-02
 8.500	23.250	4.1647e-02
 8.500	23.500	4.1647e-02
 8.500	23.750	4.1647e-02
 8.500	24.000	4.1647e-02
 8.750	17.000	1.8295e-03
 8.750	17.250	2.6345e-03
 8.750	17.500	3.8838e-03
 8.750	17.750	5.9506e-03
 8.750	18.000	9.5893e-03
 8.750	18.250	1.5725e-02
 8.750	18.500	2.4157e-02
 8.750	18.750	3.0817e-02
 8.750	19.000	3.5395e-02
 8.750	19.250	3.9625e-02
 8.750	19.500	4.1057e-02
 8.750	19.750	4.1607e-02
 8.750	20.000	4.1637e-02
 8.750	20.250	4.1635e-02
 8.750	20.500	4.1636e-02
 8.750	20.750	4.1640e-02
 8.750	21.000	4.1645e-02
 8.750	21.250	4.1646e-02
 8.750	21.500	4.1646e-02
 8.750	21.750	4.1647e-02
 8.750	22.000	4.1647e-02
 8.750	22.250	4.1647e-02
 8.750	22.500	4.1647e-02
 8.750	22.750	4.1647e-02
 8.750	23.000	4.1647e-02
 8.750	23.250	4.1647e-02
 8.750	23.500	4.1647e-02
 8.750	23.750	4.1647e-02
 8.750	24.000	4.1647e-02
 9.000	17.000	1.3157e-03
 9.000	17.250	1.8919e-03
 9.000	17.500	2.7746e-03
 9.000	17.750	4.2118e-03
 9.000	18.000	6.7241e-03
 9.000	18.250	1.1148e-02
 9.000	18.500	1.7923e-02
 9.000	18.750	2.6108e-02
 9.000	19.000	3.1742e-02
 9.000	19.250	3.6273e-02
 9.000	19.500	3.9533e-02
 9.000	19.750	4.1062e-02
 9.000	20.000	4.1606e-02
 9.000	20.250	4.1637e-02
 9.000	20.500	4.1635e-02
 9.000	20.750	4.1636e-02
 9.000	21.000	4.1640e-02
 9.000	21.250	4.1645e-02
 9.000	21.500	4.1646e-02
 9.000	21.750	4.1646e-02
 9.000	22.000	4.1647e-02
 9.000	22.250	4.1647e-02
 9.000	22.500	4.1647e-02
 9.000	22.750	4.1647e-02
 9.000	23.000	4.1647e-02
 9.000	23.250	4.1647e-02
 9.000	23.500	4.1647e-02
 9.000	23.750	4.1647e-02
 9.000	24.000	4.1647e-02
 9.250	17.000	9.4584e-04
 9.250	17.250	1.3606e-03
 9.250	17.500	1.9965e-03
 9.250	17.750	3.0266e-03
 9.250	18.000	4.8312e-03
 9.250	18.250	8.0320e-03
 9.250	18.500	1.3020e-02
 9.250	18.750	1.9993e-02
 9.250	19.000	2.7766e-02
 9.250	19.250	3.3091e-02
 9.250	19.500	3.7270e-02
 9.250	19.750	3.9405e-02
 9.250	20.000	4.1055e-02
 9.250	20.250	4.1604e-02
 9.250	20.500	4.1636e-02
 9.250	20.750	4.1635e-02
 9.250	21.000	4.1636e-02
 9.250	21.250	4.1640e-02
 9.250	21.500	4.1642e-02
 9.250	21.750	4.1621e-02
 9.250	22.000	4.1610e-02
 9.250	22.250	4.1622e-02
 9.250	22.500	4.1647e-02
 9.250	22.750	4.1647e-02
 9.250	23.000	4.1647e-02
 9.250	23.250	4.1647e-02
 9.250	23.500	4.1647e-02
 9.250	23.750	4.1647e-02
 9.250	24.000	4.1647e-02
 9.500	17.000	6.7975e-04
 9.500	17.250	9.7901e-04
 9.500	17.500	1.4384e-03
 9.500	17.750	2.1928e-03
 9.500	18.000	3.5298e-03
 9.500	18.250	5.8958e-03
 9.500	18.500	9.5481e-03
 9.500	18.750	1.4727e-02
 9.500	19.000	2.1538e-02
 9.500	19.250	2.9159e-02
 9.500	19.500	3.3618e-02
 9.500	19.750	3.7764e-02
 9.500	20.000	3.9252e-02
 9.500	20.250	4.1023e-02
 9.500	20.500	4.1600e-02
 9.500	20.750	4.1635e-02
 9.500	21.000	4.1632e-02
 9.500	21.250	4.1623e-02
 9.500	21.500	4.1606e-02
 9.500	21.750	4.1605e-02
 9.500	22.000	4.1597e-02
 9.500	22.250	4.1585e-02
 9.500	22.500	4.1579e-02
 9.500	22.750	4.1580e-02
 9.500	23.000	4.1581e-02
 9.500	23.250	4.1582e-02
 9.500	23.500	4.1607e-02
 9.500	23.750	4.1606e-02
 9.500	24.000	4.1606e-02
 9.750	17.000	4.8765e-04
 9.750	17.250	7.0395e-04
 9.750	17.500	1.0379e-03
 9.750	17.750	1.5931e-03
 9.750	18.000	2.5977e-03
 9.750	18.250	4.3821e-03
 9.750	18.500	7.0869e-03
 9.750	18.750	1.0882e-02
 9.750	19.000	1.6043e-02
 9.750	19.250	2.2977e-02
 9.750	19.500	2.9504e-02
 9.750	19.750	3.4339e-02
 9.750	20.000	3.7483e-02
 9.750	20.250	3.9111e-02
 9.750	20.500	4.0963e-02
 9.750	20.750	4.1591e-02
 9.750	21.000	4.1634e-02
 9.750	21.250	4.1633e-02
 9.750	21.500	4.1631e-02
 9.750	21.750	4.1620e-02
 9.750	22.000	4.1607e-02
 9.750	22.250	4.1603e-02
 9.750	22.500	4.1594e-02
 9.750	22.750	4.1586e-02
 9.750	23.000	4.1581e-02
 9.750	23.250	4.1579e-02
 9.750	23.500	4.1579e-02
 9.750	23.750	4.1584e-02
 9.750	24.000	4.1580e-02
10.000	17.000	3.5037e-04
10.000	17.250	5.0601e-04
10.000	17.500	7.4963e-04
10.000	17.750	1.1610e-03
10.000	18.000	1.9187e-03
10.000	18.250	3.2436e-03
10.000	18.500	5.2597e-03
10.000	18.750	8.0485e-03
10.000	19.000	1.1823e-02
10.000	19.250	1.6877e-02
10.000	19.500	2.3568e-02
10.000	19.750	2.9433e-02
10.000	20.000	3.5036e-02
10.000	20.250	3.7204e-02
10.000	20.500	3.8971e-02
10.000	20.750	4.0912e-02
10.000	21.000	4.1566e-02
10.000	21.250	4.1631e-02
10.000	21.500	4.1633e-02
10.000	21.750	4.1633e-02
10.000	22.000	4.1633e-02
10.000	22.250	4.1608e-02
10.000	22.500	4.1606e-02
10.000	22.750	4.1601e-02
10.000	23.000	4.1595e-02
10.000	23.250	4.1590e-02
10.000	23.500	4.1587e-02
10.000	23.750	4.1586e-02
10.000	24.000	4.1585e-02
10.250	17.000	2.5284e-04
10.250	17.250	3.6444e-04
10.250	17.500	5.4132e-04
10.250	17.750	8.4757e-04
10.250	18.000	1.4153e-03
10.250	18.250	2.4086e-03
10.250	18.500	3.8953e-03
10.250	18.750	5.9476e-03
10.250	19.000	8.6977e-03
10.250	19.250	1.2478e-02
10.250	19.500	1.7778e-02
10.250	19.750	2.3702e-02
10.250	20.000	2.9999e-02
10.250	20.250	3.5294e-02
10.250	20.500	3.6940e-02
10.250	20.750	3.8703e-02
10.250	21.000	4.0837e-02
10.250	21.250	4.1528e-02
10.250	21.500	4.1626e-02
10.250	21.750	4.1632e-02
10.250	22.000	4.1633e-02
10.250	22.250	4.1637e-02
10.250	22.500	4.1614e-02
10.250	22.750	4.1608e-02
10.250	23.000	4.1606e-02
10.250	23.250	4.1602e-02
10.250	23.500	4.1599e-02
10.250	23.750	4.1596e-02
10.250	24.000	4.1595e-02
10.500	17.000	1.8354e-04
10.500	17.250	2.6346e-04
10.500	17.500	3.9226e-04
10.500	17.750	6.1967e-04
10.500	18.000	1.0420e-03
10.500	18.250	1.7829e-03
10.500	18.500	2.8526e-03
10.500	18.750	4.3537e-03
10.500	19.000	6.3841e-03
10.500	19.250	9.1580e-03
10.500	19.500	1.2997e-02
10.500	19.750	1.8191e-02
10.500	20.000	2.4123e-02
10.500	20.250	3.0666e-02
10.500	20.500	3.5065e-02
10.500	20.750	3.6597e-02
10.500	21.000	3.8552e-02
10.500	21.250	4.0833e-02
10.500	21.500	4.1478e-02
10.500	21.750	4.1611e-02
10.500	22.000	4.1630e-02
10.500	22.250	4.1633e-02
10.500	22.500	4.1638e-02
10.500	22.750	4.1632e-02
10.500	23.000	4.1609e-02
10.500	23.250	4.1608e-02
10.500	23.500	4.1606e-02
10.500	23.750	4.1604e-02
10.500	24.000	4.1602e-02
10.750	17.000	1.3424e-04
10.750	17.250	1.9119e-04
10.750	17.500	2.8494e-04
10.750	17.750	4.5292e-04
10.750	18.000	7.6453e-04
10.750	18.250	1.2992e-03
10.750	18.500	2.0797e-03
10.750	18.750	3.1544e-03
10.750	19.000	4.6528e-03
10.750	19.250	6.6942e-03
10.750	19.500	9.5020e-03
10.750	19.750	1.3360e-02
10.750	20.000	1.8520e-02
10.750	20.250	2.4566e-02
10.750	20.500	3.1363e-02
10.750	20.750	3.4803e-02
10.750	21.000	3.6489e-02
10.750	21.250	3.8506e-02
10.750	21.500	4.0786e-02
10.750	21.750	4.1408e-02
10.750	22.000	4.1587e-02
10.750	22.250	4.1625e-02
10.750	22.500	4.1630e-02
10.750	22.750	4.1637e-02
10.750	23.000	4.1640e-02
10.750	23.250	4.1615e-02
10.750	23.500	4.1609e-02
10.750	23.750	4.1608e-02
10.750	24.000	4.1607e-02
11.000	17.000	9.7778e-05
11.000	17.250	1.3926e-04
11.000	17.500	2.0716e-04
11.000	17.750	3.3029e-04
11.000	18.000	5.5588e-04
11.000	18.250	9.3588e-04
11.000	18.500	1.5091e-03
11.000	18.750	2.2863e-03
11.000	19.000	3.3853e-03
11.000	19.250	4.8668e-03
11.000	19.500	6.9109e-03
11.000	19.750	9.7122e-03
11.000	20.000	1.3616e-02
11.000	20.250	1.8810e-02
11.000	20.500	2.4989e-02
11.000	20.750	3.1842e-02
11.000	21.000	3.4606e-02
11.000	21.250	3.6414e-02
11.000	21.500	3.8617e-02
11.000	21.750	4.0783e-02
11.000	22.000	4.1342e-02
11.000	22.250	4.1552e-02
11.000	22.500	4.1618e-02
11.000	22.750	4.1627e-02
11.000	23.000	4.1636e-02
11.000	23.250	4.1642e-02
11.000	23.500	4.1632e-02
11.000	23.750	4.1611e-02
11.000	24.000	4.1610e-02
11.250	17.000	7.2016e-05
11.250	17.250	1.0099e-04
11.250	17.500	1.5004e-04
11.250	17.750	2.3909e-04
11.250	18.000	3.9975e-04
11.250	18.250	6.6609e-04
11.250	18.500	1.0567e-03
11.250	18.750	1.6314e-03
11.250	19.000	2.4207e-03
11.250	19.250	3.5033e-03
11.250	19.500	4.9933e-03
11.250	19.750	7.0378e-03
11.250	20.000	9.8636e-03
11.250	20.250	1.3823e-02
11.250	20.500	1.9065e-02
11.250	20.750	2.5342e-02
11.250	21.000	3.1895e-02
11.250	21.250	3.4477e-02
11.250	21.500	3.6499e-02
11.250	21.750	3.8853e-02
11.250	22.000	4.0757e-02
11.250	22.250	4.1244e-02
11.250	22.500	4.1505e-02
11.250	22.750	4.1606e-02
11.250	23.000	4.1621e-02
11.250	23.250	4.1633e-02
11.250	23.500	4.1642e-02
11.250	23.750	4.1641e-02
11.250	24.000	4.1624e-02
11.500	17.000	5.4239e-05
11.500	17.250	7.4156e-05
11.500	17.500	1.0848e-04
11.500	17.750	1.7111e-04
11.500	18.000	2.8321e-04
11.500	18.250	4.6897e-04
11.500	18.500	7.4239e-04
11.500	18.750	1.1418e-03
11.500	19.000	1.7133e-03
11.500	19.250	2.4935e-03
11.500	19.500	3.5798e-03
11.500	19.750	5.0819e-03
11.500	20.000	7.1421e-03
11.500	20.250	9.9829e-03
11.500	20.500	1.3953e-02
11.500	20.750	1.9200e-02
11.500	21.000	2.5564e-02
11.500	21.250	3.1452e-02
11.500	21.500	3.4473e-02
11.500	21.750	3.6656e-02
11.500	22.000	3.9154e-02
11.500	22.250	4.0647e-02
11.500	22.500	4.1151e-02
11.500	22.750	4.1448e-02
11.500	23.000	4.1587e-02
11.500	23.250	4.1612e-02
11.500	23.500	4.1628e-02
11.500	23.750	4.1641e-02
11.500	24.000	4.1643e-02
11.750	17.000	4.2058e-05
11.750	17.250	5.5720e-05
11.750	17.500	7.9259e-05
11.750	17.750	1.2230e-04
11.750	18.000	1.9967e-04
11.750	18.250	3.2708e-04
11.750	18.500	5.1621e-04
11.750	18.750	7.9975e-04
11.750	19.000	1.1956e-03
11.750	19.250	1.7580e-03
11.750	19.500	2.5440e-03
11.750	19.750	3.6384e-03
11.750	20.000	5.1546e-03
11.750	20.250	7.1918e-03
11.750	20.500	1.0040e-02
11.750	20.750	1.3968e-02
11.750	21.000	1.9175e-02
11.750	21.250	2.5555e-02
11.750	21.500	3.1124e-02
11.750	21.750	3.4430e-02
11.750	22.000	3.6872e-02
11.750	22.250	3.9368e-02
11.750	22.500	4.0519e-02
11.750	22.750	4.1048e-02
11.750	23.000	4.1379e-02
11.750	23.250	4.1562e-02
11.750	23.500	4.1599e-02
11.750	23.750	4.1622e-02
11.750	24.000	4.1640e-02
12.000	17.000	3.3004e-05
12.000	17.250	4.3210e-05
12.000	17.500	5.9177e-05
12.000	17.750	8.8066e-05
12.000	18.000	1.3984e-04
12.000	18.250	2.2609e-04
12.000	18.500	3.5720e-04
12.000	18.750	5.5029e-04
12.000	19.000	8.3037e-04
12.000	19.250	1.2300e-03
12.000	19.500	1.7976e-03
12.000	19.750	2.5933e-03
12.000	20.000	3.6898e-03
12.000	20.250	5.1930e-03
12.000	20.500	7.2344e-03
12.000	20.750	1.0034e-02
12.000	21.000	1.3803e-02
12.000	21.250	1.8853e-02
12.000	21.500	2.5233e-02
12.000	21.750	3.0613e-02
12.000	22.000	3.4348e-02
12.000	22.250	3.7083e-02
12.000	22.500	3.9359e-02
12.000	22.750	4.0363e-02
12.000	23.000	4.0924e-02
12.000	23.250	4.1288e-02
12.000	23.500	4.1528e-02
12.000	23.750	4.1582e-02
12.000	24.000	4.1613e-02
12.250	17.000	1.8601e-05
12.250	17.250	3.4403e-05
12.250	17.500	4.5597e-05
12.250	17.750	6.4774e-05
12.250	18.000	9.8765e-05
12.250	18.250	1.5663e-04
12.250	18.500	2.4551e-04
12.250	18.750	3.7885e-04
12.250	19.000	5.7383e-04
12.250	19.250	8.6033e-04
12.250	19.500	1.2640e-03
12.250	19.750	1.8343e-03
12.250	20.000	2.6227e-03
12.250	20.250	3.7211e-03
12.250	20.500	5.2009e-03
12.250	20.750	7.1850e-03
12.250	21.000	9.8602e-03
12.250	21.250	1.3364e-02
12.250	21.500	1.8247e-02
12.250	21.750	2.4594e-02
12.250	22.000	2.9973e-02
12.250	22.250	3.4173e-02
12.250	22.500	3.7097e-02
12.250	22.750	3.9177e-02
12.250	23.000	4.0165e-02
12.250	23.250	4.0756e-02
12.250	23.500	4.1172e-02
12.250	23.750	4.1485e-02
12.250	24.000	4.1560e-02
12.500	17.000	8.9712e-06
12.500	17.250	2.0823e-05
12.500	17.500	3.6132e-05
12.500	17.750	4.9465e-05
12.500	18.000	7.1852e-05
12.500	18.250	1.0905e-04
12.500	18.500	1.6889e-04
12.500	18.750	2.6107e-04
12.500	19.000	3.9695e-04
12.500	19.250	5.9745e-04
12.500	19.500	8.8313e-04
12.500	19.750	1.2878e-03
12.500	20.000	1.8577e-03
12.500	20.250	2.6452e-03
12.500	20.500	3.7156e-03
12.500	20.750	5.1630e-03
12.500	21.000	7.0612e-03
12.500	21.250	9.4967e-03
12.500	21.500	1.2773e-02
12.500	21.750	1.7334e-02
12.500	22.000	2.3533e-02
12.500	22.250	2.9238e-02
12.500	22.500	3.3961e-02
12.500	22.750	3.6784e-02
12.500	23.000	3.8800e-02
12.500	23.250	3.9856e-02
12.500	23.500	4.0514e-02
12.500	23.750	4.1007e-02
12.500	24.000	4.1428e-02
12.750	17.000	4.6914e-06
12.750	17.250	1.0123e-05
12.750	17.500	2.2222e-05
12.750	17.750	3.8025e-05
12.750	18.000	5.3251e-05
12.750	18.250	7.7449e-05
12.750	18.500	1.1737e-04
12.750	18.750	1.7967e-04
12.750	19.000	2.7358e-04
12.750	19.250	4.1128e-04
12.750	19.500	6.1095e-04
12.750	19.750	8.9687e-04
12.750	20.000	1.3022e-03
12.750	20.250	1.8686e-03
12.750	20.500	2.6439e-03
12.750	20.750	3.6871e-03
12.750	21.000	5.0540e-03
12.750	21.250	6.7902e-03
12.750	21.500	9.0215e-03
12.750	21.750	1.1853e-02
12.750	22.000	1.6104e-02
12.750	22.250	2.1982e-02
12.750	22.500	2.8294e-02
12.750	22.750	3.2851e-02
12.750	23.000	3.6018e-02
12.750	23.250	3.8195e-02
12.750	23.500	3.9403e-02
12.750	23.750	4.0153e-02
12.750	24.000	4.0761e-02
13.000	17.000	1.2346e-06
13.000	17.250	2.7984e-06
13.000	17.500	8.1481e-06
13.000	17.750	1.9506e-05
13.000	18.000	3.4733e-05
13.000	18.250	5.2510e-05
13.000	18.500	8.2469e-05
13.000	18.750	1.2362e-04
13.000	19.000	1.8708e-04
13.000	19.250	2.8189e-04
13.000	19.500	4.2189e-04
13.000	19.750	6.2156e-04
13.000	20.000	9.0683e-04
13.000	20.250	1.3090e-03
13.000	20.500	1.8670e-03
13.000	20.750	2.6241e-03
13.000	21.000	3.6151e-03
13.000	21.250	4.8572e-03
13.000	21.500	6.4368e-03
13.000	21.750	8.2412e-03
13.000	22.000	1.0628e-02
13.000	22.250	1.4667e-02
13.000	22.500	2.0448e-02
13.000	22.750	2.6484e-02
13.000	23.000	3.1205e-02
13.000	23.250	3.4811e-02
13.000	23.500	3.7280e-02
13.000	23.750	3.8713e-02
13.000	24.000	3.9601e-02
13.250	17.000	1.0000e-07
13.250	17.250	1.3992e-06
13.250	17.500	3.1276e-06
13.250	17.750	7.3251e-06
13.250	18.000	1.8025e-05
13.250	18.250	3.4979e-05
13.250	18.500	5.3909e-05
13.250	18.750	8.6749e-05
13.250	19.000	1.2840e-04
13.250	19.250	1.9235e-04
13.250	19.500	2.8864e-04
13.250	19.750	4.2749e-04
13.250	20.000	6.2675e-04
13.250	20.250	9.1045e-04
13.250	20.500	1.3077e-03
13.250	20.750	1.8516e-03
13.250	21.000	2.5726e-03
13.250	21.250	3.4789e-03
13.250	21.500	4.6101e-03
13.250	21.750	5.7859e-03
13.250	22.000	7.1217e-03
13.250	22.250	9.1418e-03
13.250	22.500	1.2919e-02
13.250	22.750	1.8176e-02
13.250	23.000	2.3887e-02
13.250	23.250	2.9006e-02
13.250	23.500	3.3115e-02
13.250	23.750	3.5948e-02
13.250	24.000	3.7683e-02
13.500	17.000	1.0000e-07
13.500	17.250	1.0000e-07
13.500	17.500	1.7284e-06
13.500	17.750	3.8683e-06
13.500	18.000	8.9712e-06
13.500	18.250	2.0823e-05
13.500	18.500	3.7613e-05
13.500	18.750	5.8272e-05
13.500	19.000	8.9794e-05
13.500	19.250	1.3202e-04
13.500	19.500	1.9654e-04
13.500	19.750	2.9144e-04
13.500	20.000	4.3012e-04
13.500	20.250	6.2840e-04
13.500	20.500	9.0897e-04
13.500	20.750	1.2951e-03
13.500	21.000	1.8124e-03
13.500	21.250	2.4687e-03
13.500	21.500	3.2821e-03
13.500	21.750	4.0919e-03
13.500	22.000	4.7677e-03
13.500	22.250	5.7049e-03
13.500	22.500	7.7100e-03
13.500	22.750	1.1204e-02
13.500	23.000	1.5961e-02
13.500	23.250	2.1212e-02
13.500	23.500	2.6399e-02
13.500	23.750	3.0881e-02
13.500	24.000	3.4088e-02
13.750	17.000	1.0000e-07
13.750	17.250	1.0000e-07
13.750	17.500	9.8765e-07
13.750	17.750	2.0576e-06
13.750	18.000	4.8560e-06
13.750	18.250	1.0617e-05
13.750	18.500	2.2222e-05
13.750	18.750	3.9424e-05
13.750	19.000	6.1893e-05
13.750	19.250	9.1770e-05
13.750	19.500	1.3424e-04
13.750	19.750	1.9852e-04
13.750	20.000	2.9350e-04
13.750	20.250	4.3119e-04
13.750	20.500	6.2716e-04
13.750	20.750	9.0058e-04
13.750	21.000	1.2698e-03
13.750	21.250	1.7410e-03
13.750	21.500	2.3331e-03
13.750	21.750	2.8970e-03
13.750	22.000	3.2662e-03
13.750	22.250	3.6099e-03
13.750	22.500	4.5677e-03
13.750	22.750	6.5667e-03
13.750	23.000	9.5776e-03
13.750	23.250	1.3649e-02
13.750	23.500	1.8472e-02
13.750	23.750	2.3267e-02
13.750	24.000	2.8052e-02
14.000	17.000	1.0000e-07
14.000	17.250	1.0000e-07
14.000	17.500	1.0000e-07
14.000	17.750	1.2346e-06
14.000	18.000	2.5514e-06
14.000	18.250	5.6790e-06
14.000	18.500	1.1852e-05
14.000	18.750	2.3292e-05
14.000	19.000	4.2634e-05
14.000	19.250	6.4527e-05
14.000	19.500	9.3004e-05
14.000	19.750	1.3539e-04
14.000	20.000	1.9959e-04
14.000	20.250	2.9399e-04
14.000	20.500	4.3037e-04
14.000	20.750	6.2206e-04
14.000	21.000	8.8362e-04
14.000	21.250	1.2206e-03
14.000	21.500	1.6493e-03
14.000	21.750	2.0472e-03
14.000	22.000	2.2503e-03
14.000	22.250	2.3281e-03
14.000	22.500	2.7410e-03
14.000	22.750	3.8540e-03
14.000	23.000	5.6416e-03
14.000	23.250	8.0899e-03
14.000	23.500	1.1421e-02
14.000	23.750	1.5342e-02
14.000	24.000	1.9663e-02
