InwC 9500.00A  relative to Inci 1215.00A scaled to 1215A.
Hden   Phi(H)  Eq_Width (A)
 7.000	17.000	1.4600e-02
 7.000	17.250	1.9416e-02
 7.000	17.500	2.4869e-02
 7.000	17.750	2.5678e-02
 7.000	18.000	2.6065e-02
 7.000	18.250	2.6084e-02
 7.000	18.500	2.6083e-02
 7.000	18.750	2.6083e-02
 7.000	19.000	2.6086e-02
 7.000	19.250	2.6089e-02
 7.000	19.500	2.6090e-02
 7.000	19.750	2.6090e-02
 7.000	20.000	2.6090e-02
 7.000	20.250	2.6090e-02
 7.000	20.500	2.6090e-02
 7.000	20.750	2.6090e-02
 7.000	21.000	2.6090e-02
 7.000	21.250	2.6091e-02
 7.000	21.500	2.6090e-02
 7.000	21.750	2.6091e-02
 7.000	22.000	2.6091e-02
 7.000	22.250	2.6091e-02
 7.000	22.500	2.6091e-02
 7.000	22.750	2.6091e-02
 7.000	23.000	2.6091e-02
 7.000	23.250	2.6091e-02
 7.000	23.500	2.6091e-02
 7.000	23.750	2.6091e-02
 7.000	24.000	2.6091e-02
 7.250	17.000	1.0531e-02
 7.250	17.250	1.5027e-02
 7.250	17.500	1.9674e-02
 7.250	17.750	2.4872e-02
 7.250	18.000	2.5685e-02
 7.250	18.250	2.6065e-02
 7.250	18.500	2.6085e-02
 7.250	18.750	2.6084e-02
 7.250	19.000	2.6083e-02
 7.250	19.250	2.6086e-02
 7.250	19.500	2.6089e-02
 7.250	19.750	2.6090e-02
 7.250	20.000	2.6090e-02
 7.250	20.250	2.6090e-02
 7.250	20.500	2.6090e-02
 7.250	20.750	2.6090e-02
 7.250	21.000	2.6090e-02
 7.250	21.250	2.6090e-02
 7.250	21.500	2.6090e-02
 7.250	21.750	2.6091e-02
 7.250	22.000	2.6090e-02
 7.250	22.250	2.6090e-02
 7.250	22.500	2.6091e-02
 7.250	22.750	2.6091e-02
 7.250	23.000	2.6091e-02
 7.250	23.250	2.6093e-02
 7.250	23.500	2.6091e-02
 7.250	23.750	2.6091e-02
 7.250	24.000	2.6091e-02
 7.500	17.000	7.0271e-03
 7.500	17.250	1.0813e-02
 7.500	17.500	1.5453e-02
 7.500	17.750	1.9961e-02
 7.500	18.000	2.4876e-02
 7.500	18.250	2.5691e-02
 7.500	18.500	2.6065e-02
 7.500	18.750	2.6085e-02
 7.500	19.000	2.6083e-02
 7.500	19.250	2.6083e-02
 7.500	19.500	2.6086e-02
 7.500	19.750	2.6089e-02
 7.500	20.000	2.6090e-02
 7.500	20.250	2.6090e-02
 7.500	20.500	2.6090e-02
 7.500	20.750	2.6090e-02
 7.500	21.000	2.6090e-02
 7.500	21.250	2.6090e-02
 7.500	21.500	2.6090e-02
 7.500	21.750	2.6090e-02
 7.500	22.000	2.6090e-02
 7.500	22.250	2.6090e-02
 7.500	22.500	2.6090e-02
 7.500	22.750	2.6090e-02
 7.500	23.000	2.6090e-02
 7.500	23.250	2.6091e-02
 7.500	23.500	2.6090e-02
 7.500	23.750	2.6091e-02
 7.500	24.000	2.6091e-02
 7.750	17.000	4.6876e-03
 7.750	17.250	7.2086e-03
 7.750	17.500	1.1165e-02
 7.750	17.750	1.6004e-02
 7.750	18.000	2.0306e-02
 7.750	18.250	2.4879e-02
 7.750	18.500	2.5697e-02
 7.750	18.750	2.6065e-02
 7.750	19.000	2.6085e-02
 7.750	19.250	2.6084e-02
 7.750	19.500	2.6083e-02
 7.750	19.750	2.6086e-02
 7.750	20.000	2.6089e-02
 7.750	20.250	2.6090e-02
 7.750	20.500	2.6090e-02
 7.750	20.750	2.6090e-02
 7.750	21.000	2.6090e-02
 7.750	21.250	2.6090e-02
 7.750	21.500	2.6090e-02
 7.750	21.750	2.6090e-02
 7.750	22.000	2.6090e-02
 7.750	22.250	2.6090e-02
 7.750	22.500	2.6090e-02
 7.750	22.750	2.6090e-02
 7.750	23.000	2.6090e-02
 7.750	23.250	2.6090e-02
 7.750	23.500	2.6090e-02
 7.750	23.750	2.6090e-02
 7.750	24.000	2.6090e-02
 8.000	17.000	3.1915e-03
 8.000	17.250	4.8033e-03
 8.000	17.500	7.4501e-03
 8.000	17.750	1.1640e-02
 8.000	18.000	1.6695e-02
 8.000	18.250	2.0659e-02
 8.000	18.500	2.4879e-02
 8.000	18.750	2.5700e-02
 8.000	19.000	2.6065e-02
 8.000	19.250	2.6085e-02
 8.000	19.500	2.6084e-02
 8.000	19.750	2.6083e-02
 8.000	20.000	2.6086e-02
 8.000	20.250	2.6089e-02
 8.000	20.500	2.6090e-02
 8.000	20.750	2.6090e-02
 8.000	21.000	2.6090e-02
 8.000	21.250	2.6090e-02
 8.000	21.500	2.6090e-02
 8.000	21.750	2.6090e-02
 8.000	22.000	2.6090e-02
 8.000	22.250	2.6090e-02
 8.000	22.500	2.6090e-02
 8.000	22.750	2.6090e-02
 8.000	23.000	2.6090e-02
 8.000	23.250	2.6090e-02
 8.000	23.500	2.6090e-02
 8.000	23.750	2.6090e-02
 8.000	24.000	2.6090e-02
 8.250	17.000	2.2378e-03
 8.250	17.250	3.2932e-03
 8.250	17.500	5.0167e-03
 8.250	17.750	7.8964e-03
 8.250	18.000	1.2493e-02
 8.250	18.250	1.7630e-02
 8.250	18.500	2.1240e-02
 8.250	18.750	2.4882e-02
 8.250	19.000	2.5708e-02
 8.250	19.250	2.6065e-02
 8.250	19.500	2.6084e-02
 8.250	19.750	2.6083e-02
 8.250	20.000	2.6083e-02
 8.250	20.250	2.6086e-02
 8.250	20.500	2.6089e-02
 8.250	20.750	2.6090e-02
 8.250	21.000	2.6090e-02
 8.250	21.250	2.6090e-02
 8.250	21.500	2.6090e-02
 8.250	21.750	2.6090e-02
 8.250	22.000	2.6090e-02
 8.250	22.250	2.6090e-02
 8.250	22.500	2.6090e-02
 8.250	22.750	2.6090e-02
 8.250	23.000	2.6090e-02
 8.250	23.250	2.6090e-02
 8.250	23.500	2.6090e-02
 8.250	23.750	2.6090e-02
 8.250	24.000	2.6090e-02
 8.500	17.000	1.5937e-03
 8.500	17.250	2.3121e-03
 8.500	17.500	3.4545e-03
 8.500	17.750	5.3974e-03
 8.500	18.000	8.7068e-03
 8.500	18.250	1.3823e-02
 8.500	18.500	1.8696e-02
 8.500	18.750	2.1848e-02
 8.500	19.000	2.4884e-02
 8.500	19.250	2.5716e-02
 8.500	19.500	2.6065e-02
 8.500	19.750	2.6084e-02
 8.500	20.000	2.6083e-02
 8.500	20.250	2.6083e-02
 8.500	20.500	2.6086e-02
 8.500	20.750	2.6089e-02
 8.500	21.000	2.6090e-02
 8.500	21.250	2.6090e-02
 8.500	21.500	2.6090e-02
 8.500	21.750	2.6090e-02
 8.500	22.000	2.6090e-02
 8.500	22.250	2.6090e-02
 8.500	22.500	2.6090e-02
 8.500	22.750	2.6090e-02
 8.500	23.000	2.6090e-02
 8.500	23.250	2.6090e-02
 8.500	23.500	2.6090e-02
 8.500	23.750	2.6090e-02
 8.500	24.000	2.6090e-02
 8.750	17.000	1.1424e-03
 8.750	17.250	1.6473e-03
 8.750	17.500	2.4321e-03
 8.750	17.750	3.7346e-03
 8.750	18.000	6.0421e-03
 8.750	18.250	9.9665e-03
 8.750	18.500	1.5381e-02
 8.750	18.750	1.9593e-02
 8.750	19.000	2.2358e-02
 8.750	19.250	2.4883e-02
 8.750	19.500	2.5724e-02
 8.750	19.750	2.6065e-02
 8.750	20.000	2.6084e-02
 8.750	20.250	2.6083e-02
 8.750	20.500	2.6083e-02
 8.750	20.750	2.6086e-02
 8.750	21.000	2.6089e-02
 8.750	21.250	2.6090e-02
 8.750	21.500	2.6090e-02
 8.750	21.750	2.6090e-02
 8.750	22.000	2.6090e-02
 8.750	22.250	2.6090e-02
 8.750	22.500	2.6090e-02
 8.750	22.750	2.6090e-02
 8.750	23.000	2.6090e-02
 8.750	23.250	2.6090e-02
 8.750	23.500	2.6090e-02
 8.750	23.750	2.6090e-02
 8.750	24.000	2.6090e-02
 9.000	17.000	8.2041e-04
 9.000	17.250	1.1820e-03
 9.000	17.500	1.7369e-03
 9.000	17.750	2.6437e-03
 9.000	18.000	4.2403e-03
 9.000	18.250	7.0789e-03
 9.000	18.500	1.1470e-02
 9.000	18.750	1.6788e-02
 9.000	19.000	2.0323e-02
 9.000	19.250	2.3012e-02
 9.000	19.500	2.4876e-02
 9.000	19.750	2.5732e-02
 9.000	20.000	2.6065e-02
 9.000	20.250	2.6084e-02
 9.000	20.500	2.6083e-02
 9.000	20.750	2.6083e-02
 9.000	21.000	2.6086e-02
 9.000	21.250	2.6089e-02
 9.000	21.500	2.6090e-02
 9.000	21.750	2.6090e-02
 9.000	22.000	2.6090e-02
 9.000	22.250	2.6090e-02
 9.000	22.500	2.6090e-02
 9.000	22.750	2.6090e-02
 9.000	23.000	2.6090e-02
 9.000	23.250	2.6090e-02
 9.000	23.500	2.6090e-02
 9.000	23.750	2.6090e-02
 9.000	24.000	2.6090e-02
 9.250	17.000	5.8864e-04
 9.250	17.250	8.4897e-04
 9.250	17.500	1.2491e-03
 9.250	17.750	1.9001e-03
 9.250	18.000	3.0490e-03
 9.250	18.250	5.1068e-03
 9.250	18.500	8.3577e-03
 9.250	18.750	1.2971e-02
 9.250	19.000	1.8087e-02
 9.250	19.250	2.1397e-02
 9.250	19.500	2.3822e-02
 9.250	19.750	2.4864e-02
 9.250	20.000	2.5739e-02
 9.250	20.250	2.6065e-02
 9.250	20.500	2.6084e-02
 9.250	20.750	2.6083e-02
 9.250	21.000	2.6083e-02
 9.250	21.250	2.6086e-02
 9.250	21.500	2.6087e-02
 9.250	21.750	2.6074e-02
 9.250	22.000	2.6067e-02
 9.250	22.250	2.6074e-02
 9.250	22.500	2.6090e-02
 9.250	22.750	2.6090e-02
 9.250	23.000	2.6090e-02
 9.250	23.250	2.6090e-02
 9.250	23.500	2.6090e-02
 9.250	23.750	2.6090e-02
 9.250	24.000	2.6090e-02
 9.500	17.000	4.2189e-04
 9.500	17.250	6.0979e-04
 9.500	17.500	8.9901e-04
 9.500	17.750	1.3765e-03
 9.500	18.000	2.2286e-03
 9.500	18.250	3.7523e-03
 9.500	18.500	6.1436e-03
 9.500	18.750	9.6115e-03
 9.500	19.000	1.4259e-02
 9.500	19.250	1.9365e-02
 9.500	19.500	2.2005e-02
 9.500	19.750	2.4312e-02
 9.500	20.000	2.4847e-02
 9.500	20.250	2.5743e-02
 9.500	20.500	2.6064e-02
 9.500	20.750	2.6083e-02
 9.500	21.000	2.6081e-02
 9.500	21.250	2.6075e-02
 9.500	21.500	2.6065e-02
 9.500	21.750	2.6064e-02
 9.500	22.000	2.6059e-02
 9.500	22.250	2.6052e-02
 9.500	22.500	2.6048e-02
 9.500	22.750	2.6049e-02
 9.500	23.000	2.6049e-02
 9.500	23.250	2.6050e-02
 9.500	23.500	2.6065e-02
 9.500	23.750	2.6065e-02
 9.500	24.000	2.6065e-02
 9.750	17.000	3.0156e-04
 9.750	17.250	4.3737e-04
 9.750	17.500	6.4782e-04
 9.750	17.750	9.9951e-04
 9.750	18.000	1.6404e-03
 9.750	18.250	2.7906e-03
 9.750	18.500	4.5691e-03
 9.750	18.750	7.1336e-03
 9.750	19.000	1.0736e-02
 9.750	19.250	1.5668e-02
 9.750	19.500	2.0045e-02
 9.750	19.750	2.2713e-02
 9.750	20.000	2.4279e-02
 9.750	20.250	2.4822e-02
 9.750	20.500	2.5745e-02
 9.750	20.750	2.6062e-02
 9.750	21.000	2.6082e-02
 9.750	21.250	2.6082e-02
 9.750	21.500	2.6081e-02
 9.750	21.750	2.6073e-02
 9.750	22.000	2.6065e-02
 9.750	22.250	2.6063e-02
 9.750	22.500	2.6057e-02
 9.750	22.750	2.6052e-02
 9.750	23.000	2.6049e-02
 9.750	23.250	2.6048e-02
 9.750	23.500	2.6048e-02
 9.750	23.750	2.6051e-02
 9.750	24.000	2.6048e-02
10.000	17.000	2.1547e-04
10.000	17.250	3.1325e-04
10.000	17.500	4.6683e-04
10.000	17.750	7.2749e-04
10.000	18.000	1.2111e-03
10.000	18.250	2.0662e-03
10.000	18.500	3.3951e-03
10.000	18.750	5.2920e-03
10.000	19.000	7.9627e-03
10.000	19.250	1.1698e-02
10.000	19.500	1.6770e-02
10.000	19.750	2.0510e-02
10.000	20.000	2.3350e-02
10.000	20.250	2.4234e-02
10.000	20.500	2.4813e-02
10.000	20.750	2.5750e-02
10.000	21.000	2.6057e-02
10.000	21.250	2.6081e-02
10.000	21.500	2.6082e-02
10.000	21.750	2.6082e-02
10.000	22.000	2.6082e-02
10.000	22.250	2.6066e-02
10.000	22.500	2.6065e-02
10.000	22.750	2.6062e-02
10.000	23.000	2.6058e-02
10.000	23.250	2.6055e-02
10.000	23.500	2.6053e-02
10.000	23.750	2.6052e-02
10.000	24.000	2.6052e-02
10.250	17.000	1.5440e-04
10.250	17.250	2.2453e-04
10.250	17.500	3.3605e-04
10.250	17.750	5.3004e-04
10.250	18.000	8.9243e-04
10.250	18.250	1.5335e-03
10.250	18.500	2.5152e-03
10.250	18.750	3.9147e-03
10.250	19.000	5.8727e-03
10.250	19.250	8.6918e-03
10.250	19.500	1.2801e-02
10.250	19.750	1.7200e-02
10.250	20.000	2.1074e-02
10.250	20.250	2.3777e-02
10.250	20.500	2.4199e-02
10.250	20.750	2.4792e-02
10.250	21.000	2.5763e-02
10.250	21.250	2.6050e-02
10.250	21.500	2.6080e-02
10.250	21.750	2.6081e-02
10.250	22.000	2.6082e-02
10.250	22.250	2.6085e-02
10.250	22.500	2.6070e-02
10.250	22.750	2.6066e-02
10.250	23.000	2.6065e-02
10.250	23.250	2.6062e-02
10.250	23.500	2.6060e-02
10.250	23.750	2.6059e-02
10.250	24.000	2.6058e-02
10.500	17.000	1.1103e-04
10.500	17.250	1.6123e-04
10.500	17.500	2.4239e-04
10.500	17.750	3.8642e-04
10.500	18.000	6.5564e-04
10.500	18.250	1.1334e-03
10.500	18.500	1.8384e-03
10.500	18.750	2.8568e-03
10.500	19.000	4.2843e-03
10.500	19.250	6.3109e-03
10.500	19.500	9.2337e-03
10.500	19.750	1.3308e-02
10.500	20.000	1.7665e-02
10.500	20.250	2.1656e-02
10.500	20.500	2.3805e-02
10.500	20.750	2.4170e-02
10.500	21.000	2.4793e-02
10.500	21.250	2.5791e-02
10.500	21.500	2.6042e-02
10.500	21.750	2.6076e-02
10.500	22.000	2.6080e-02
10.500	22.250	2.6082e-02
10.500	22.500	2.6085e-02
10.500	22.750	2.6081e-02
10.500	23.000	2.6067e-02
10.500	23.250	2.6066e-02
10.500	23.500	2.6065e-02
10.500	23.750	2.6064e-02
10.500	24.000	2.6062e-02
10.750	17.000	8.0165e-05
10.750	17.250	1.1588e-04
10.750	17.500	1.7498e-04
10.750	17.750	2.8132e-04
10.750	18.000	4.7967e-04
10.750	18.250	8.2337e-04
10.750	18.500	1.3345e-03
10.750	18.750	2.0560e-03
10.750	19.000	3.0919e-03
10.750	19.250	4.5519e-03
10.750	19.500	6.6374e-03
10.750	19.750	9.6267e-03
10.750	20.000	1.3718e-02
10.750	20.250	1.8138e-02
10.750	20.500	2.2276e-02
10.750	20.750	2.3742e-02
10.750	21.000	2.4137e-02
10.750	21.250	2.4818e-02
10.750	21.500	2.5844e-02
10.750	21.750	2.6026e-02
10.750	22.000	2.6069e-02
10.750	22.250	2.6078e-02
10.750	22.500	2.6081e-02
10.750	22.750	2.6085e-02
10.750	23.000	2.6086e-02
10.750	23.250	2.6070e-02
10.750	23.500	2.6067e-02
10.750	23.750	2.6066e-02
10.750	24.000	2.6066e-02
11.000	17.000	5.7366e-05
11.000	17.250	8.3374e-05
11.000	17.500	1.2609e-04
11.000	17.750	2.0395e-04
11.000	18.000	3.4724e-04
11.000	18.250	5.9062e-04
11.000	18.500	9.6313e-04
11.000	18.750	1.4785e-03
11.000	19.000	2.2258e-03
11.000	19.250	3.2635e-03
11.000	19.500	4.7449e-03
11.000	19.750	6.8574e-03
11.000	20.000	9.9293e-03
11.000	20.250	1.4096e-02
11.000	20.500	1.8608e-02
11.000	20.750	2.2738e-02
11.000	21.000	2.3655e-02
11.000	21.250	2.4106e-02
11.000	21.500	2.4929e-02
11.000	21.750	2.5879e-02
11.000	22.000	2.6004e-02
11.000	22.250	2.6057e-02
11.000	22.500	2.6075e-02
11.000	22.750	2.6079e-02
11.000	23.000	2.6084e-02
11.000	23.250	2.6087e-02
11.000	23.500	2.6081e-02
11.000	23.750	2.6068e-02
11.000	24.000	2.6067e-02
11.250	17.000	4.1317e-05
11.250	17.250	5.9506e-05
11.250	17.500	9.0288e-05
11.250	17.750	1.4650e-04
11.250	18.000	2.4840e-04
11.250	18.250	4.1827e-04
11.250	18.500	6.7029e-04
11.250	18.750	1.0467e-03
11.250	19.000	1.5751e-03
11.250	19.250	2.3178e-03
11.250	19.500	3.3718e-03
11.250	19.750	4.8709e-03
11.250	20.000	7.0312e-03
11.250	20.250	1.0197e-02
11.250	20.500	1.4452e-02
11.250	20.750	1.9023e-02
11.250	21.000	2.2874e-02
11.250	21.250	2.3537e-02
11.250	21.500	2.4155e-02
11.250	21.750	2.5083e-02
11.250	22.000	2.5879e-02
11.250	22.250	2.5973e-02
11.250	22.500	2.6040e-02
11.250	22.750	2.6069e-02
11.250	23.000	2.6076e-02
11.250	23.250	2.6082e-02
11.250	23.500	2.6087e-02
11.250	23.750	2.6087e-02
11.250	24.000	2.6076e-02
11.500	17.000	3.0206e-05
11.500	17.250	4.2716e-05
11.500	17.500	6.4280e-05
11.500	17.750	1.0379e-04
11.500	18.000	1.7473e-04
11.500	18.250	2.9276e-04
11.500	18.500	4.6798e-04
11.500	18.750	7.2708e-04
11.500	19.000	1.1040e-03
11.500	19.250	1.6294e-03
11.500	19.500	2.3804e-03
11.500	19.750	3.4526e-03
11.500	20.000	4.9798e-03
11.500	20.250	7.1836e-03
11.500	20.500	1.0409e-02
11.500	20.750	1.4711e-02
11.500	21.000	1.9303e-02
11.500	21.250	2.2612e-02
11.500	21.500	2.3497e-02
11.500	21.750	2.4173e-02
11.500	22.000	2.5245e-02
11.500	22.250	2.5812e-02
11.500	22.500	2.5929e-02
11.500	22.750	2.6013e-02
11.500	23.000	2.6060e-02
11.500	23.250	2.6071e-02
11.500	23.500	2.6079e-02
11.500	23.750	2.6087e-02
11.500	24.000	2.6088e-02
11.750	17.000	2.2551e-05
11.750	17.250	3.1276e-05
11.750	17.500	4.6008e-05
11.750	17.750	7.3251e-05
11.750	18.000	1.2206e-04
11.750	18.250	2.0272e-04
11.750	18.500	3.2329e-04
11.750	18.750	5.0568e-04
11.750	19.000	7.6354e-04
11.750	19.250	1.1362e-03
11.750	19.500	1.6686e-03
11.750	19.750	2.4308e-03
11.750	20.000	3.5226e-03
11.750	20.250	5.0518e-03
11.750	20.500	7.2923e-03
11.750	20.750	1.0535e-02
11.750	21.000	1.4834e-02
11.750	21.250	1.9324e-02
11.750	21.500	2.2338e-02
11.750	21.750	2.3310e-02
11.750	22.000	2.4189e-02
11.750	22.250	2.5318e-02
11.750	22.500	2.5714e-02
11.750	22.750	2.5863e-02
11.750	23.000	2.5974e-02
11.750	23.250	2.6047e-02
11.750	23.500	2.6064e-02
11.750	23.750	2.6075e-02
11.750	24.000	2.6086e-02
12.000	17.000	1.6955e-05
12.000	17.250	2.3374e-05
12.000	17.500	3.3498e-05
12.000	17.750	5.1770e-05
12.000	18.000	8.4444e-05
12.000	18.250	1.3893e-04
12.000	18.500	2.2214e-04
12.000	18.750	3.4551e-04
12.000	19.000	5.2609e-04
12.000	19.250	7.8741e-04
12.000	19.500	1.1651e-03
12.000	19.750	1.7073e-03
12.000	20.000	2.4770e-03
12.000	20.250	3.5717e-03
12.000	20.500	5.1265e-03
12.000	20.750	7.3707e-03
12.000	21.000	1.0530e-02
12.000	21.250	1.4681e-02
12.000	21.500	1.9122e-02
12.000	21.750	2.1742e-02
12.000	22.000	2.3027e-02
12.000	22.250	2.4156e-02
12.000	22.500	2.5205e-02
12.000	22.750	2.5569e-02
12.000	23.000	2.5764e-02
12.000	23.250	2.5912e-02
12.000	23.500	2.6027e-02
12.000	23.750	2.6052e-02
12.000	24.000	2.6069e-02
12.250	17.000	9.4650e-06
12.250	17.250	1.7778e-05
12.250	17.500	2.5021e-05
12.250	17.750	3.7202e-05
12.250	18.000	5.8683e-05
12.250	18.250	9.5144e-05
12.250	18.500	1.5136e-04
12.250	18.750	2.3613e-04
12.250	19.000	3.6082e-04
12.250	19.250	5.4617e-04
12.250	19.500	8.1103e-04
12.250	19.750	1.1925e-03
12.250	20.000	1.7337e-03
12.250	20.250	2.5126e-03
12.250	20.500	3.6056e-03
12.250	20.750	5.1456e-03
12.250	21.000	7.3400e-03
12.250	21.250	1.0313e-02
12.250	21.500	1.4318e-02
12.250	21.750	1.8470e-02
12.250	22.000	2.0936e-02
12.250	22.250	2.2603e-02
12.250	22.500	2.3951e-02
12.250	22.750	2.4944e-02
12.250	23.000	2.5360e-02
12.250	23.250	2.5612e-02
12.250	23.500	2.5818e-02
12.250	23.750	2.5996e-02
12.250	24.000	2.6035e-02
12.500	17.000	4.6091e-06
12.500	17.250	1.0535e-05
12.500	17.500	1.8930e-05
12.500	17.750	2.7407e-05
12.500	18.000	4.1646e-05
12.500	18.250	6.5185e-05
12.500	18.500	1.0296e-04
12.500	18.750	1.6132e-04
12.500	19.000	2.4782e-04
12.500	19.250	3.7646e-04
12.500	19.500	5.6173e-04
12.500	19.750	8.2840e-04
12.500	20.000	1.2121e-03
12.500	20.250	1.7579e-03
12.500	20.500	2.5276e-03
12.500	20.750	3.6177e-03
12.500	21.000	5.1305e-03
12.500	21.250	7.1850e-03
12.500	21.500	9.9936e-03
12.500	21.750	1.3590e-02
12.500	22.000	1.7364e-02
12.500	22.250	1.9953e-02
12.500	22.500	2.2050e-02
12.500	22.750	2.3466e-02
12.500	23.000	2.4509e-02
12.500	23.250	2.5040e-02
12.500	23.500	2.5380e-02
12.500	23.750	2.5668e-02
12.500	24.000	2.5948e-02
12.750	17.000	2.3868e-06
12.750	17.250	5.1029e-06
12.750	17.500	1.1276e-05
12.750	17.750	2.0082e-05
12.750	18.000	2.9794e-05
12.750	18.250	4.5267e-05
12.750	18.500	7.0453e-05
12.750	18.750	1.0988e-04
12.750	19.000	1.6938e-04
12.750	19.250	2.5720e-04
12.750	19.500	3.8560e-04
12.750	19.750	5.7169e-04
12.750	20.000	8.4041e-04
12.750	20.250	1.2251e-03
12.750	20.500	1.7698e-03
12.750	20.750	2.5352e-03
12.750	21.000	3.5947e-03
12.750	21.250	5.0314e-03
12.750	21.500	6.9607e-03
12.750	21.750	9.3791e-03
12.750	22.000	1.2472e-02
12.750	22.250	1.5797e-02
12.750	22.500	1.8715e-02
12.750	22.750	2.0909e-02
12.750	23.000	2.2623e-02
12.750	23.250	2.3870e-02
12.750	23.500	2.4575e-02
12.750	23.750	2.5026e-02
12.750	24.000	2.5435e-02
13.000	17.000	1.0000e-07
13.000	17.250	1.4815e-06
13.000	17.500	4.2798e-06
13.000	17.750	1.0123e-05
13.000	18.000	1.8848e-05
13.000	18.250	2.9877e-05
13.000	18.500	4.8477e-05
13.000	18.750	7.4568e-05
13.000	19.000	1.1465e-04
13.000	19.250	1.7481e-04
13.000	19.500	2.6428e-04
13.000	19.750	3.9309e-04
13.000	20.000	5.7975e-04
13.000	20.250	8.4856e-04
13.000	20.500	1.2328e-03
13.000	20.750	1.7754e-03
13.000	21.000	2.5247e-03
13.000	21.250	3.5304e-03
13.000	21.500	4.8879e-03
13.000	21.750	6.5135e-03
13.000	22.000	8.4227e-03
13.000	22.250	1.0999e-02
13.000	22.500	1.4054e-02
13.000	22.750	1.6928e-02
13.000	23.000	1.9359e-02
13.000	23.250	2.1434e-02
13.000	23.500	2.2964e-02
13.000	23.750	2.3892e-02
13.000	24.000	2.4489e-02
13.250	17.000	1.0000e-07
13.250	17.250	1.0000e-07
13.250	17.500	1.7284e-06
13.250	17.750	3.9506e-06
13.250	18.000	9.7119e-06
13.250	18.250	1.9342e-05
13.250	18.500	3.1029e-05
13.250	18.750	5.1276e-05
13.250	19.000	7.7695e-05
13.250	19.250	1.1819e-04
13.250	19.500	1.7934e-04
13.250	19.750	2.6831e-04
13.250	20.000	3.9745e-04
13.250	20.250	5.8461e-04
13.250	20.500	8.5358e-04
13.250	20.750	1.2356e-03
13.250	21.000	1.7686e-03
13.250	21.250	2.4871e-03
13.250	21.500	3.4477e-03
13.250	21.750	4.5563e-03
13.250	22.000	5.7309e-03
13.250	22.250	7.0672e-03
13.250	22.500	9.2224e-03
13.250	22.750	1.1939e-02
13.250	23.000	1.4729e-02
13.250	23.250	1.7452e-02
13.250	23.500	1.9876e-02
13.250	23.750	2.1715e-02
13.250	24.000	2.2913e-02
13.500	17.000	1.0000e-07
13.500	17.250	1.0000e-07
13.500	17.500	9.0535e-07
13.500	17.750	2.0576e-06
13.500	18.000	4.8560e-06
13.500	18.250	1.1276e-05
13.500	18.500	2.0905e-05
13.500	18.750	3.3580e-05
13.500	19.000	5.3251e-05
13.500	19.250	8.0082e-05
13.500	19.500	1.2099e-04
13.500	19.750	1.8140e-04
13.500	20.000	2.7062e-04
13.500	20.250	4.0016e-04
13.500	20.500	5.8757e-04
13.500	20.750	8.5424e-04
13.500	21.000	1.2292e-03
13.500	21.250	1.7398e-03
13.500	21.500	2.4213e-03
13.500	21.750	3.2066e-03
13.500	22.000	3.9041e-03
13.500	22.250	4.5290e-03
13.500	22.500	5.6027e-03
13.500	22.750	7.4914e-03
13.500	23.000	9.9083e-03
13.500	23.250	1.2517e-02
13.500	23.500	1.5282e-02
13.500	23.750	1.7942e-02
13.500	24.000	2.0057e-02
13.750	17.000	1.0000e-07
13.750	17.250	1.0000e-07
13.750	17.500	1.0000e-07
13.750	17.750	1.1523e-06
13.750	18.000	2.6337e-06
13.750	18.250	5.7613e-06
13.750	18.500	1.2099e-05
13.750	18.750	2.1975e-05
13.750	19.000	3.5720e-05
13.750	19.250	5.4568e-05
13.750	19.500	8.1564e-05
13.750	19.750	1.2239e-04
13.750	20.000	1.8321e-04
13.750	20.250	2.7251e-04
13.750	20.500	4.0198e-04
13.750	20.750	5.8831e-04
13.750	21.000	8.5152e-04
13.750	21.250	1.2119e-03
13.750	21.500	1.7016e-03
13.750	21.750	2.2587e-03
13.750	22.000	2.7061e-03
13.750	22.250	2.9470e-03
13.750	22.500	3.3681e-03
13.750	22.750	4.3988e-03
13.750	23.000	5.9730e-03
13.750	23.250	7.9708e-03
13.750	23.500	1.0349e-02
13.750	23.750	1.2846e-02
13.750	24.000	1.5639e-02
14.000	17.000	1.0000e-07
14.000	17.250	1.0000e-07
14.000	17.500	1.0000e-07
14.000	17.750	1.0000e-07
14.000	18.000	1.3992e-06
14.000	18.250	3.0453e-06
14.000	18.500	6.4198e-06
14.000	18.750	1.2675e-05
14.000	19.000	2.3704e-05
14.000	19.250	3.7202e-05
14.000	19.500	5.5391e-05
14.000	19.750	8.2387e-05
14.000	20.000	1.2346e-04
14.000	20.250	1.8428e-04
14.000	20.500	2.7374e-04
14.000	20.750	4.0296e-04
14.000	21.000	5.8700e-04
14.000	21.250	8.4091e-04
14.000	21.500	1.1910e-03
14.000	21.750	1.5886e-03
14.000	22.000	1.8816e-03
14.000	22.250	1.9513e-03
14.000	22.500	2.0568e-03
14.000	22.750	2.5694e-03
14.000	23.000	3.4848e-03
14.000	23.250	4.6926e-03
14.000	23.500	6.2523e-03
14.000	23.750	8.0940e-03
14.000	24.000	1.0282e-02
