nFnu 399.153A  relative to Inci 1215.00A scaled to 1215A.
Hden   Phi(H)  Eq_Width (A)
 7.000	17.000	3.8628e-02
 7.000	17.250	4.3499e-02
 7.000	17.500	4.9606e-02
 7.000	17.750	4.8842e-02
 7.000	18.000	4.0222e-02
 7.000	18.250	3.2551e-02
 7.000	18.500	2.6991e-02
 7.000	18.750	2.4439e-02
 7.000	19.000	2.3148e-02
 7.000	19.250	2.2441e-02
 7.000	19.500	2.2139e-02
 7.000	19.750	2.2008e-02
 7.000	20.000	2.1949e-02
 7.000	20.250	2.1921e-02
 7.000	20.500	2.1907e-02
 7.000	20.750	2.1899e-02
 7.000	21.000	2.1895e-02
 7.000	21.250	2.1893e-02
 7.000	21.500	2.1892e-02
 7.000	21.750	2.1892e-02
 7.000	22.000	2.1891e-02
 7.000	22.250	2.1891e-02
 7.000	22.500	2.1891e-02
 7.000	22.750	2.1891e-02
 7.000	23.000	2.1891e-02
 7.000	23.250	2.1891e-02
 7.000	23.500	2.1891e-02
 7.000	23.750	2.1891e-02
 7.000	24.000	2.1891e-02
 7.250	17.000	1.7878e-02
 7.250	17.250	3.5625e-02
 7.250	17.500	4.0627e-02
 7.250	17.750	4.8267e-02
 7.250	18.000	4.8207e-02
 7.250	18.250	3.9872e-02
 7.250	18.500	3.2380e-02
 7.250	18.750	2.6928e-02
 7.250	19.000	2.4414e-02
 7.250	19.250	2.3140e-02
 7.250	19.500	2.2439e-02
 7.250	19.750	2.2139e-02
 7.250	20.000	2.2008e-02
 7.250	20.250	2.1949e-02
 7.250	20.500	2.1921e-02
 7.250	20.750	2.1907e-02
 7.250	21.000	2.1899e-02
 7.250	21.250	2.1895e-02
 7.250	21.500	2.1893e-02
 7.250	21.750	2.1892e-02
 7.250	22.000	2.1894e-02
 7.250	22.250	2.1891e-02
 7.250	22.500	2.1891e-02
 7.250	22.750	2.1891e-02
 7.250	23.000	2.1891e-02
 7.250	23.250	2.1892e-02
 7.250	23.500	2.1891e-02
 7.250	23.750	2.1892e-02
 7.250	24.000	2.1891e-02
 7.500	17.000	1.2082e-02
 7.500	17.250	1.7075e-02
 7.500	17.500	3.3865e-02
 7.500	17.750	3.8937e-02
 7.500	18.000	4.7544e-02
 7.500	18.250	4.7870e-02
 7.500	18.500	3.9663e-02
 7.500	18.750	3.2272e-02
 7.500	19.000	2.6887e-02
 7.500	19.250	2.4398e-02
 7.500	19.500	2.3134e-02
 7.500	19.750	2.2438e-02
 7.500	20.000	2.2139e-02
 7.500	20.250	2.2008e-02
 7.500	20.500	2.1949e-02
 7.500	20.750	2.1921e-02
 7.500	21.000	2.1907e-02
 7.500	21.250	2.1899e-02
 7.500	21.500	2.1895e-02
 7.500	21.750	2.1893e-02
 7.500	22.000	2.1892e-02
 7.500	22.250	2.1891e-02
 7.500	22.500	2.1891e-02
 7.500	22.750	2.1891e-02
 7.500	23.000	2.1890e-02
 7.500	23.250	2.1890e-02
 7.500	23.500	2.1890e-02
 7.500	23.750	2.1891e-02
 7.500	24.000	2.1890e-02
 7.750	17.000	8.9427e-03
 7.750	17.250	1.1646e-02
 7.750	17.500	1.6610e-02
 7.750	17.750	3.2852e-02
 7.750	18.000	3.7974e-02
 7.750	18.250	4.7210e-02
 7.750	18.500	4.7738e-02
 7.750	18.750	3.9546e-02
 7.750	19.000	3.2207e-02
 7.750	19.250	2.6862e-02
 7.750	19.500	2.4388e-02
 7.750	19.750	2.3131e-02
 7.750	20.000	2.2437e-02
 7.750	20.250	2.2138e-02
 7.750	20.500	2.2008e-02
 7.750	20.750	2.1949e-02
 7.750	21.000	2.1921e-02
 7.750	21.250	2.1907e-02
 7.750	21.500	2.1899e-02
 7.750	21.750	2.1895e-02
 7.750	22.000	2.1893e-02
 7.750	22.250	2.1892e-02
 7.750	22.500	2.1891e-02
 7.750	22.750	2.1891e-02
 7.750	23.000	2.1891e-02
 7.750	23.250	2.1890e-02
 7.750	23.500	2.1890e-02
 7.750	23.750	2.1890e-02
 7.750	24.000	2.1890e-02
 8.000	17.000	7.0909e-03
 8.000	17.250	8.6648e-03
 8.000	17.500	1.1339e-02
 8.000	17.750	1.6289e-02
 8.000	18.000	3.2246e-02
 8.000	18.250	3.7439e-02
 8.000	18.500	4.7130e-02
 8.000	18.750	4.7741e-02
 8.000	19.000	3.9488e-02
 8.000	19.250	3.2169e-02
 8.000	19.500	2.6846e-02
 8.000	19.750	2.4382e-02
 8.000	20.000	2.3129e-02
 8.000	20.250	2.2437e-02
 8.000	20.500	2.2138e-02
 8.000	20.750	2.2008e-02
 8.000	21.000	2.1949e-02
 8.000	21.250	2.1921e-02
 8.000	21.500	2.1907e-02
 8.000	21.750	2.1899e-02
 8.000	22.000	2.1895e-02
 8.000	22.250	2.1893e-02
 8.000	22.500	2.1892e-02
 8.000	22.750	2.1891e-02
 8.000	23.000	2.1891e-02
 8.000	23.250	2.1890e-02
 8.000	23.500	2.1890e-02
 8.000	23.750	2.1890e-02
 8.000	24.000	2.1892e-02
 8.250	17.000	5.9852e-03
 8.250	17.250	6.9593e-03
 8.250	17.500	8.5223e-03
 8.250	17.750	1.1194e-02
 8.250	18.000	1.6152e-02
 8.250	18.250	3.1908e-02
 8.250	18.500	3.7142e-02
 8.250	18.750	4.7203e-02
 8.250	19.000	4.7827e-02
 8.250	19.250	3.9467e-02
 8.250	19.500	3.2146e-02
 8.250	19.750	2.6837e-02
 8.250	20.000	2.4378e-02
 8.250	20.250	2.3127e-02
 8.250	20.500	2.2437e-02
 8.250	20.750	2.2138e-02
 8.250	21.000	2.2008e-02
 8.250	21.250	2.1949e-02
 8.250	21.500	2.1921e-02
 8.250	21.750	2.1907e-02
 8.250	22.000	2.1899e-02
 8.250	22.250	2.1895e-02
 8.250	22.500	2.1893e-02
 8.250	22.750	2.1892e-02
 8.250	23.000	2.1892e-02
 8.250	23.250	2.1891e-02
 8.250	23.500	2.1890e-02
 8.250	23.750	2.1890e-02
 8.250	24.000	2.1890e-02
 8.500	17.000	5.2553e-03
 8.500	17.250	5.9160e-03
 8.500	17.500	6.8870e-03
 8.500	17.750	8.4389e-03
 8.500	18.000	1.1119e-02
 8.500	18.250	1.6056e-02
 8.500	18.500	3.1660e-02
 8.500	18.750	3.7000e-02
 8.500	19.000	4.7392e-02
 8.500	19.250	4.7972e-02
 8.500	19.500	3.9468e-02
 8.500	19.750	3.2133e-02
 8.500	20.000	2.6831e-02
 8.500	20.250	2.4376e-02
 8.500	20.500	2.3127e-02
 8.500	20.750	2.2436e-02
 8.500	21.000	2.2138e-02
 8.500	21.250	2.2008e-02
 8.500	21.500	2.1949e-02
 8.500	21.750	2.1921e-02
 8.500	22.000	2.1907e-02
 8.500	22.250	2.1899e-02
 8.500	22.500	2.1895e-02
 8.500	22.750	2.1893e-02
 8.500	23.000	2.1892e-02
 8.500	23.250	2.1891e-02
 8.500	23.500	2.1890e-02
 8.500	23.750	2.1890e-02
 8.500	24.000	2.1890e-02
 8.750	17.000	4.7002e-03
 8.750	17.250	5.2276e-03
 8.750	17.500	5.8850e-03
 8.750	17.750	6.8557e-03
 8.750	18.000	8.4247e-03
 8.750	18.250	1.1120e-02
 8.750	18.500	1.6052e-02
 8.750	18.750	3.1513e-02
 8.750	19.000	3.6930e-02
 8.750	19.250	4.7646e-02
 8.750	19.500	4.8158e-02
 8.750	19.750	3.9481e-02
 8.750	20.000	3.2126e-02
 8.750	20.250	2.6828e-02
 8.750	20.500	2.4375e-02
 8.750	20.750	2.3126e-02
 8.750	21.000	2.2436e-02
 8.750	21.250	2.2138e-02
 8.750	21.500	2.2008e-02
 8.750	21.750	2.1949e-02
 8.750	22.000	2.1921e-02
 8.750	22.250	2.1907e-02
 8.750	22.500	2.1899e-02
 8.750	22.750	2.1895e-02
 8.750	23.000	2.1893e-02
 8.750	23.250	2.1892e-02
 8.750	23.500	2.1891e-02
 8.750	23.750	2.1890e-02
 8.750	24.000	2.1890e-02
 9.000	17.000	4.2090e-03
 9.000	17.250	4.7183e-03
 9.000	17.500	5.2446e-03
 9.000	17.750	5.9081e-03
 9.000	18.000	6.8854e-03
 9.000	18.250	8.4765e-03
 9.000	18.500	1.1222e-02
 9.000	18.750	1.6210e-02
 9.000	19.000	3.1447e-02
 9.000	19.250	3.6879e-02
 9.000	19.500	4.7913e-02
 9.000	19.750	4.8360e-02
 9.000	20.000	3.9500e-02
 9.000	20.250	3.2121e-02
 9.000	20.500	2.6825e-02
 9.000	20.750	2.4374e-02
 9.000	21.000	2.3126e-02
 9.000	21.250	2.2436e-02
 9.000	21.500	2.2138e-02
 9.000	21.750	2.2008e-02
 9.000	22.000	2.1949e-02
 9.000	22.250	2.1921e-02
 9.000	22.500	2.1907e-02
 9.000	22.750	2.1899e-02
 9.000	23.000	2.1895e-02
 9.000	23.250	2.1893e-02
 9.000	23.500	2.1892e-02
 9.000	23.750	2.1891e-02
 9.000	24.000	2.1891e-02
 9.250	17.000	3.6917e-03
 9.250	17.250	4.2661e-03
 9.250	17.500	4.7966e-03
 9.250	17.750	5.3402e-03
 9.250	18.000	6.0142e-03
 9.250	18.250	7.0117e-03
 9.250	18.500	8.6617e-03
 9.250	18.750	1.1579e-02
 9.250	19.000	1.8068e-02
 9.250	19.250	3.1541e-02
 9.250	19.500	3.6815e-02
 9.250	19.750	4.8158e-02
 9.250	20.000	4.8557e-02
 9.250	20.250	3.9523e-02
 9.250	20.500	3.2119e-02
 9.250	20.750	2.6824e-02
 9.250	21.000	2.4374e-02
 9.250	21.250	2.3126e-02
 9.250	21.500	2.2433e-02
 9.250	21.750	2.2134e-02
 9.250	22.000	2.2003e-02
 9.250	22.250	2.1945e-02
 9.250	22.500	2.1920e-02
 9.250	22.750	2.1906e-02
 9.250	23.000	2.1899e-02
 9.250	23.250	2.1895e-02
 9.250	23.500	2.1893e-02
 9.250	23.750	2.1891e-02
 9.250	24.000	2.1891e-02
 9.500	17.000	3.1006e-03
 9.500	17.250	3.7821e-03
 9.500	17.500	4.4060e-03
 9.500	17.750	4.9760e-03
 9.500	18.000	5.5319e-03
 9.500	18.250	6.2239e-03
 9.500	18.500	7.2862e-03
 9.500	18.750	9.1190e-03
 9.500	19.000	1.2348e-02
 9.500	19.250	2.3112e-02
 9.500	19.500	3.1801e-02
 9.500	19.750	3.6736e-02
 9.500	20.000	4.8332e-02
 9.500	20.250	4.8731e-02
 9.500	20.500	3.9545e-02
 9.500	20.750	3.2116e-02
 9.500	21.000	2.6818e-02
 9.500	21.250	2.4369e-02
 9.500	21.500	2.3121e-02
 9.500	21.750	2.2430e-02
 9.500	22.000	2.2131e-02
 9.500	22.250	2.2001e-02
 9.500	22.500	2.1942e-02
 9.500	22.750	2.1914e-02
 9.500	23.000	2.1900e-02
 9.500	23.250	2.1893e-02
 9.500	23.500	2.1889e-02
 9.500	23.750	2.1887e-02
 9.500	24.000	2.1886e-02
 9.750	17.000	2.3989e-03
 9.750	17.250	3.1993e-03
 9.750	17.500	3.9613e-03
 9.750	17.750	4.6580e-03
 9.750	18.000	5.2575e-03
 9.750	18.250	5.8468e-03
 9.750	18.500	6.6228e-03
 9.750	18.750	7.8578e-03
 9.750	19.000	9.9970e-03
 9.750	19.250	1.3660e-02
 9.750	19.500	2.7421e-02
 9.750	19.750	3.2263e-02
 9.750	20.000	3.6641e-02
 9.750	20.250	4.8406e-02
 9.750	20.500	4.8867e-02
 9.750	20.750	3.9562e-02
 9.750	21.000	3.2116e-02
 9.750	21.250	2.6818e-02
 9.750	21.500	2.4369e-02
 9.750	21.750	2.3122e-02
 9.750	22.000	2.2431e-02
 9.750	22.250	2.2131e-02
 9.750	22.500	2.2001e-02
 9.750	22.750	2.1942e-02
 9.750	23.000	2.1914e-02
 9.750	23.250	2.1900e-02
 9.750	23.500	2.1893e-02
 9.750	23.750	2.1888e-02
 9.750	24.000	2.1886e-02
10.000	17.000	1.5909e-03
10.000	17.250	2.4802e-03
10.000	17.500	3.3848e-03
10.000	17.750	4.2432e-03
10.000	18.000	5.0136e-03
10.000	18.250	5.6783e-03
10.000	18.500	6.3548e-03
10.000	18.750	7.2881e-03
10.000	19.000	8.7922e-03
10.000	19.250	1.1290e-02
10.000	19.500	1.5868e-02
10.000	19.750	3.0509e-02
10.000	20.000	3.3101e-02
10.000	20.250	3.6582e-02
10.000	20.500	4.8432e-02
10.000	20.750	4.8983e-02
10.000	21.000	3.9577e-02
10.000	21.250	3.2116e-02
10.000	21.500	2.6818e-02
10.000	21.750	2.4370e-02
10.000	22.000	2.3122e-02
10.000	22.250	2.2432e-02
10.000	22.500	2.2132e-02
10.000	22.750	2.2001e-02
10.000	23.000	2.1942e-02
10.000	23.250	2.1914e-02
10.000	23.500	2.1900e-02
10.000	23.750	2.1893e-02
10.000	24.000	2.1888e-02
10.250	17.000	9.8568e-04
10.250	17.250	1.6454e-03
10.250	17.500	2.6370e-03
10.250	17.750	3.6502e-03
10.250	18.000	4.6214e-03
10.250	18.250	5.5065e-03
10.250	18.500	6.2737e-03
10.250	18.750	7.1140e-03
10.250	19.000	8.2481e-03
10.250	19.250	1.0020e-02
10.250	19.500	1.2879e-02
10.250	19.750	2.3028e-02
10.250	20.000	3.3227e-02
10.250	20.250	3.4148e-02
10.250	20.500	3.6663e-02
10.250	20.750	4.8408e-02
10.250	21.000	4.9054e-02
10.250	21.250	3.9588e-02
10.250	21.500	3.2117e-02
10.250	21.750	2.6818e-02
10.250	22.000	2.4372e-02
10.250	22.250	2.3122e-02
10.250	22.500	2.2432e-02
10.250	22.750	2.2133e-02
10.250	23.000	2.2001e-02
10.250	23.250	2.1942e-02
10.250	23.500	2.1914e-02
10.250	23.750	2.1900e-02
10.250	24.000	2.1893e-02
10.500	17.000	5.9267e-04
10.500	17.250	1.0081e-03
10.500	17.500	1.7445e-03
10.500	17.750	2.8559e-03
10.500	18.000	4.0030e-03
10.500	18.250	5.1066e-03
10.500	18.500	6.1090e-03
10.500	18.750	7.0288e-03
10.500	19.000	8.0307e-03
10.500	19.250	9.3947e-03
10.500	19.500	1.1478e-02
10.500	19.750	1.4706e-02
10.500	20.000	3.0187e-02
10.500	20.250	3.6242e-02
10.500	20.500	3.5396e-02
10.500	20.750	3.6965e-02
10.500	21.000	4.8379e-02
10.500	21.250	4.9096e-02
10.500	21.500	3.9591e-02
10.500	21.750	3.2118e-02
10.500	22.000	2.6818e-02
10.500	22.250	2.4373e-02
10.500	22.500	2.3124e-02
10.500	22.750	2.2433e-02
10.500	23.000	2.2134e-02
10.500	23.250	2.2002e-02
10.500	23.500	2.1943e-02
10.500	23.750	2.1914e-02
10.500	24.000	2.1900e-02
10.750	17.000	3.7185e-04
10.750	17.250	5.9547e-04
10.750	17.500	1.0549e-03
10.750	17.750	1.9156e-03
10.750	18.000	3.1348e-03
10.750	18.250	4.4440e-03
10.750	18.500	5.6754e-03
10.750	18.750	6.8033e-03
10.750	19.000	7.8739e-03
10.750	19.250	9.0863e-03
10.750	19.500	1.0736e-02
10.750	19.750	1.3180e-02
10.750	20.000	1.6691e-02
10.750	20.250	3.5105e-02
10.750	20.500	3.9528e-02
10.750	20.750	3.7104e-02
10.750	21.000	3.7686e-02
10.750	21.250	4.8415e-02
10.750	21.500	4.9111e-02
10.750	21.750	3.9593e-02
10.750	22.000	3.2121e-02
10.750	22.250	2.6817e-02
10.750	22.500	2.4374e-02
10.750	22.750	2.3126e-02
10.750	23.000	2.2433e-02
10.750	23.250	2.2134e-02
10.750	23.500	2.2003e-02
10.750	23.750	2.1944e-02
10.750	24.000	2.1915e-02
11.000	17.000	2.4889e-04
11.000	17.250	3.6461e-04
11.000	17.500	6.0403e-04
11.000	17.750	1.1263e-03
11.000	18.000	2.0963e-03
11.000	18.250	3.4367e-03
11.000	18.500	4.9043e-03
11.000	18.750	6.2850e-03
11.000	19.000	7.5505e-03
11.000	19.250	8.8221e-03
11.000	19.500	1.0297e-02
11.000	19.750	1.2280e-02
11.000	20.000	1.5089e-02
11.000	20.250	1.8878e-02
11.000	20.500	4.0957e-02
11.000	20.750	4.3320e-02
11.000	21.000	3.9010e-02
11.000	21.250	3.8975e-02
11.000	21.500	4.8620e-02
11.000	21.750	4.9106e-02
11.000	22.000	3.9595e-02
11.000	22.250	3.2127e-02
11.000	22.500	2.6816e-02
11.000	22.750	2.4375e-02
11.000	23.000	2.3127e-02
11.000	23.250	2.2433e-02
11.000	23.500	2.2134e-02
11.000	23.750	2.2004e-02
11.000	24.000	2.1944e-02
11.250	17.000	1.7202e-04
11.250	17.250	2.3580e-04
11.250	17.500	3.5547e-04
11.250	17.750	6.1391e-04
11.250	18.000	1.1879e-03
11.250	18.250	2.2593e-03
11.250	18.500	3.7496e-03
11.250	18.750	5.3893e-03
11.250	19.000	6.9126e-03
11.250	19.250	8.3658e-03
11.250	19.500	9.8988e-03
11.250	19.750	1.1691e-02
11.250	20.000	1.4021e-02
11.250	20.250	1.7189e-02
11.250	20.500	2.1335e-02
11.250	20.750	4.5506e-02
11.250	21.000	4.7296e-02
11.250	21.250	4.0623e-02
11.250	21.500	4.0977e-02
11.250	21.750	4.9133e-02
11.250	22.000	4.9090e-02
11.250	22.250	3.9595e-02
11.250	22.500	3.2135e-02
11.250	22.750	2.6816e-02
11.250	23.000	2.4375e-02
11.250	23.250	2.3128e-02
11.250	23.500	2.2435e-02
11.250	23.750	2.2134e-02
11.250	24.000	2.2004e-02
11.500	17.000	1.2099e-04
11.500	17.250	1.5852e-04
11.500	17.500	2.2156e-04
11.500	17.750	3.4247e-04
11.500	18.000	6.1325e-04
11.500	18.250	1.2392e-03
11.500	18.500	2.4240e-03
11.500	18.750	4.0909e-03
11.500	19.000	5.9153e-03
11.500	19.250	7.5953e-03
11.500	19.500	9.2731e-03
11.500	19.750	1.1139e-02
11.500	20.000	1.3284e-02
11.500	20.250	1.5936e-02
11.500	20.500	1.9409e-02
11.500	20.750	2.9143e-02
11.500	21.000	5.0595e-02
11.500	21.250	5.0651e-02
11.500	21.500	4.1460e-02
11.500	21.750	4.3644e-02
11.500	22.000	5.0078e-02
11.500	22.250	4.9078e-02
11.500	22.500	3.9598e-02
11.500	22.750	3.2149e-02
11.500	23.000	2.6816e-02
11.500	23.250	2.4376e-02
11.500	23.500	2.3129e-02
11.500	23.750	2.2436e-02
11.500	24.000	2.2135e-02
11.750	17.000	8.5432e-05
11.750	17.250	1.0864e-04
11.750	17.500	1.4469e-04
11.750	17.750	2.0560e-04
11.750	18.000	3.2642e-04
11.750	18.250	6.1416e-04
11.750	18.500	1.3050e-03
11.750	18.750	2.6295e-03
11.750	19.000	4.4913e-03
11.750	19.250	6.4998e-03
11.750	19.500	8.3665e-03
11.750	19.750	1.0324e-02
11.750	20.000	1.2559e-02
11.750	20.250	1.5069e-02
11.750	20.500	1.8055e-02
11.750	20.750	2.1684e-02
11.750	21.000	3.2928e-02
11.750	21.250	5.5363e-02
11.750	21.500	5.2846e-02
11.750	21.750	4.1023e-02
11.750	22.000	4.6884e-02
11.750	22.250	5.1470e-02
11.750	22.500	4.9095e-02
11.750	22.750	3.9600e-02
11.750	23.000	3.2166e-02
11.750	23.250	2.6817e-02
11.750	23.500	2.4388e-02
11.750	23.750	2.3130e-02
11.750	24.000	2.2437e-02
12.000	17.000	6.0823e-05
12.000	17.250	7.5720e-05
12.000	17.500	9.7613e-05
12.000	17.750	1.3210e-04
12.000	18.000	1.9218e-04
12.000	18.250	3.1959e-04
12.000	18.500	6.3580e-04
12.000	18.750	1.4069e-03
12.000	19.000	2.9006e-03
12.000	19.250	4.9807e-03
12.000	19.500	7.1837e-03
12.000	19.750	9.2778e-03
12.000	20.000	1.1584e-02
12.000	20.250	1.4208e-02
12.000	20.500	1.7070e-02
12.000	20.750	2.0258e-02
12.000	21.000	2.3827e-02
12.000	21.250	3.8386e-02
12.000	21.500	5.9384e-02
12.000	21.750	5.3397e-02
12.000	22.000	4.3306e-02
12.000	22.250	5.0292e-02
12.000	22.500	5.3232e-02
12.000	22.750	4.9163e-02
12.000	23.000	3.9600e-02
12.000	23.250	3.2185e-02
12.000	23.500	2.6818e-02
12.000	23.750	2.4378e-02
12.000	24.000	2.3131e-02
12.250	17.000	4.3951e-05
12.250	17.250	5.3992e-05
12.250	17.500	6.7819e-05
12.250	17.750	8.9300e-05
12.250	18.000	1.2428e-04
12.250	18.250	1.8996e-04
12.250	18.500	3.3457e-04
12.250	18.750	6.9630e-04
12.250	19.000	1.5740e-03
12.250	19.250	3.2630e-03
12.250	19.500	5.5888e-03
12.250	19.750	8.0024e-03
12.250	20.000	1.0380e-02
12.250	20.250	1.3079e-02
12.250	20.500	1.6053e-02
12.250	20.750	1.9155e-02
12.250	21.000	2.2338e-02
12.250	21.250	2.5621e-02
12.250	21.500	4.1816e-02
12.250	21.750	6.1297e-02
12.250	22.000	5.2868e-02
12.250	22.250	4.8730e-02
12.250	22.500	5.4256e-02
12.250	22.750	5.5298e-02
12.250	23.000	4.9313e-02
12.250	23.250	3.9597e-02
12.250	23.500	3.2205e-02
12.250	23.750	2.6818e-02
12.250	24.000	2.4379e-02
12.500	17.000	3.1934e-05
12.500	17.250	3.9506e-05
12.500	17.500	4.8889e-05
12.500	17.750	6.2963e-05
12.500	18.000	8.6173e-05
12.500	18.250	1.2749e-04
12.500	18.500	2.0914e-04
12.500	18.750	3.8568e-04
12.500	19.000	8.1465e-04
12.500	19.250	1.8291e-03
12.500	19.500	3.7541e-03
12.500	19.750	6.3342e-03
12.500	20.000	8.9977e-03
12.500	20.250	1.1692e-02
12.500	20.500	1.4765e-02
12.500	20.750	1.7987e-02
12.500	21.000	2.1140e-02
12.500	21.250	2.4259e-02
12.500	21.500	2.7191e-02
12.500	21.750	4.6841e-02
12.500	22.000	6.5258e-02
12.500	22.250	5.2526e-02
12.500	22.500	5.5097e-02
12.500	22.750	5.8708e-02
12.500	23.000	5.7591e-02
12.500	23.250	4.9547e-02
12.500	23.500	3.9592e-02
12.500	23.750	3.2223e-02
12.500	24.000	2.6816e-02
12.750	17.000	2.3292e-05
12.750	17.250	2.9136e-05
12.750	17.500	3.6296e-05
12.750	17.750	4.6584e-05
12.750	18.000	6.3210e-05
12.750	18.250	9.3251e-05
12.750	18.500	1.5119e-04
12.750	18.750	2.6296e-04
12.750	19.000	4.8930e-04
12.750	19.250	1.0095e-03
12.750	19.500	2.1896e-03
12.750	19.750	4.3543e-03
12.750	20.000	7.1607e-03
12.750	20.250	1.0083e-02
12.750	20.500	1.3150e-02
12.750	20.750	1.6498e-02
12.750	21.000	1.9913e-02
12.750	21.250	2.3036e-02
12.750	21.500	2.5700e-02
12.750	21.750	2.8946e-02
12.750	22.000	5.2675e-02
12.750	22.250	6.8451e-02
12.750	22.500	5.4274e-02
12.750	22.750	6.2039e-02
12.750	23.000	6.3966e-02
12.750	23.250	5.9791e-02
12.750	23.500	4.9744e-02
12.750	23.750	3.9597e-02
12.750	24.000	3.2237e-02
13.000	17.000	1.7284e-05
13.000	17.250	2.1811e-05
13.000	17.500	2.7490e-05
13.000	17.750	3.5473e-05
13.000	18.000	4.8642e-05
13.000	18.250	7.2757e-05
13.000	18.500	1.2058e-04
13.000	18.750	2.1062e-04
13.000	19.000	3.6971e-04
13.000	19.250	6.6667e-04
13.000	19.500	1.2872e-03
13.000	19.750	2.6342e-03
13.000	20.000	4.9857e-03
13.000	20.250	8.0184e-03
13.000	20.500	1.1277e-02
13.000	20.750	1.4623e-02
13.000	21.000	1.8165e-02
13.000	21.250	2.1697e-02
13.000	21.500	2.4711e-02
13.000	21.750	2.7569e-02
13.000	22.000	3.0682e-02
13.000	22.250	6.0766e-02
13.000	22.500	7.2554e-02
13.000	22.750	6.0423e-02
13.000	23.000	7.0083e-02
13.000	23.250	6.9248e-02
13.000	23.500	6.1996e-02
13.000	23.750	5.0080e-02
13.000	24.000	3.9621e-02
13.250	17.000	1.2757e-05
13.250	17.250	1.6543e-05
13.250	17.500	2.1152e-05
13.250	17.750	2.7901e-05
13.250	18.000	3.9259e-05
13.250	18.250	6.0000e-05
13.250	18.500	1.0198e-04
13.250	18.750	1.8428e-04
13.250	19.000	3.2593e-04
13.250	19.250	5.5383e-04
13.250	19.500	9.4222e-04
13.250	19.750	1.6807e-03
13.250	20.000	3.1409e-03
13.250	20.250	5.6212e-03
13.250	20.500	8.9142e-03
13.250	20.750	1.2497e-02
13.250	21.000	1.6094e-02
13.250	21.250	1.9883e-02
13.250	21.500	2.3117e-02
13.250	21.750	2.6919e-02
13.250	22.000	3.0786e-02
13.250	22.250	3.4957e-02
13.250	22.500	7.3819e-02
13.250	22.750	8.0809e-02
13.250	23.000	6.9838e-02
13.250	23.250	7.8135e-02
13.250	23.500	7.4265e-02
13.250	23.750	6.4006e-02
13.250	24.000	5.0542e-02
13.500	17.000	9.3827e-06
13.500	17.250	1.2510e-05
13.500	17.500	1.6543e-05
13.500	17.750	2.2469e-05
13.500	18.000	3.2922e-05
13.500	18.250	5.2593e-05
13.500	18.500	9.0947e-05
13.500	18.750	1.6774e-04
13.500	19.000	3.0609e-04
13.500	19.250	5.2255e-04
13.500	19.500	8.4971e-04
13.500	19.750	1.3675e-03
13.500	20.000	2.2560e-03
13.500	20.250	3.8522e-03
13.500	20.500	6.4637e-03
13.500	20.750	9.9818e-03
13.500	21.000	1.3843e-02
13.500	21.250	1.8091e-02
13.500	21.500	2.2192e-02
13.500	21.750	2.7060e-02
13.500	22.000	3.2057e-02
13.500	22.250	3.6595e-02
13.500	22.500	4.5886e-02
13.500	22.750	9.1999e-02
13.500	23.000	9.8567e-02
13.500	23.250	8.2604e-02
13.500	23.500	8.6809e-02
13.500	23.750	8.0510e-02
13.500	24.000	6.5861e-02
13.750	17.000	6.9959e-06
13.750	17.250	9.4650e-06
13.750	17.500	1.3086e-05
13.750	17.750	1.8519e-05
13.750	18.000	2.8395e-05
13.750	18.250	4.7654e-05
13.750	18.500	8.5514e-05
13.750	18.750	1.5819e-04
13.750	19.000	2.9062e-04
13.750	19.250	5.0864e-04
13.750	19.500	8.3103e-04
13.750	19.750	1.2993e-03
13.750	20.000	2.0061e-03
13.750	20.250	3.1257e-03
13.750	20.500	4.9405e-03
13.750	20.750	7.7612e-03
13.750	21.000	1.1550e-02
13.750	21.250	1.6005e-02
13.750	21.500	2.0671e-02
13.750	21.750	2.6256e-02
13.750	22.000	3.2350e-02
13.750	22.250	3.8269e-02
13.750	22.500	4.5185e-02
13.750	22.750	6.9652e-02
13.750	23.000	1.2403e-01
13.750	23.250	1.1921e-01
13.750	23.500	9.8351e-02
13.750	23.750	9.6639e-02
13.750	24.000	8.5338e-02
14.000	17.000	5.1852e-06
14.000	17.250	7.2428e-06
14.000	17.500	1.0206e-05
14.000	17.750	1.5473e-05
14.000	18.000	2.5103e-05
14.000	18.250	4.4033e-05
14.000	18.500	8.1399e-05
14.000	18.750	1.5218e-04
14.000	19.000	2.7844e-04
14.000	19.250	4.8872e-04
14.000	19.500	8.1432e-04
14.000	19.750	1.2818e-03
14.000	20.000	1.9423e-03
14.000	20.250	2.9007e-03
14.000	20.500	4.3255e-03
14.000	20.750	6.4563e-03
14.000	21.000	9.5835e-03
14.000	21.250	1.3860e-02
14.000	21.500	1.8858e-02
14.000	21.750	2.4664e-02
14.000	22.000	3.1077e-02
14.000	22.250	3.8455e-02
14.000	22.500	4.6771e-02
14.000	22.750	5.5731e-02
14.000	23.000	1.0401e-01
14.000	23.250	1.5884e-01
14.000	23.500	1.3989e-01
14.000	23.750	1.1418e-01
14.000	24.000	1.0653e-01
