nFnu 9500.00A  relative to Inci 1215.00A scaled to 1215A.
Hden   Phi(H)  Eq_Width (A)
 7.000	17.000	3.0181e-02
 7.000	17.250	1.9175e-02
 7.000	17.500	1.2179e-02
 7.000	17.750	8.5799e-03
 7.000	18.000	6.8228e-03
 7.000	18.250	5.8903e-03
 7.000	18.500	5.3651e-03
 7.000	18.750	5.1414e-03
 7.000	19.000	5.0277e-03
 7.000	19.250	4.9651e-03
 7.000	19.500	4.9408e-03
 7.000	19.750	4.9312e-03
 7.000	20.000	4.9271e-03
 7.000	20.250	4.9252e-03
 7.000	20.500	4.9243e-03
 7.000	20.750	4.9238e-03
 7.000	21.000	4.9236e-03
 7.000	21.250	4.9235e-03
 7.000	21.500	4.9235e-03
 7.000	21.750	4.9234e-03
 7.000	22.000	4.9234e-03
 7.000	22.250	4.9234e-03
 7.000	22.500	4.9234e-03
 7.000	22.750	4.9234e-03
 7.000	23.000	4.9234e-03
 7.000	23.250	4.9234e-03
 7.000	23.500	4.9234e-03
 7.000	23.750	4.9234e-03
 7.000	24.000	4.9234e-03
 7.250	17.000	4.6093e-02
 7.250	17.250	3.0150e-02
 7.250	17.500	1.9159e-02
 7.250	17.750	1.2171e-02
 7.250	18.000	8.5757e-03
 7.250	18.250	6.8220e-03
 7.250	18.500	5.8902e-03
 7.250	18.750	5.3651e-03
 7.250	19.000	5.1414e-03
 7.250	19.250	5.0277e-03
 7.250	19.500	4.9651e-03
 7.250	19.750	4.9408e-03
 7.250	20.000	4.9311e-03
 7.250	20.250	4.9271e-03
 7.250	20.500	4.9252e-03
 7.250	20.750	4.9243e-03
 7.250	21.000	4.9238e-03
 7.250	21.250	4.9235e-03
 7.250	21.500	4.9234e-03
 7.250	21.750	4.9234e-03
 7.250	22.000	4.9239e-03
 7.250	22.250	4.9233e-03
 7.250	22.500	4.9234e-03
 7.250	22.750	4.9234e-03
 7.250	23.000	4.9234e-03
 7.250	23.250	4.9235e-03
 7.250	23.500	4.9234e-03
 7.250	23.750	4.9235e-03
 7.250	24.000	4.9234e-03
 7.500	17.000	5.0275e-02
 7.500	17.250	4.6221e-02
 7.500	17.500	3.0124e-02
 7.500	17.750	1.9146e-02
 7.500	18.000	1.2163e-02
 7.500	18.250	8.5709e-03
 7.500	18.500	6.8207e-03
 7.500	18.750	5.8900e-03
 7.500	19.000	5.3650e-03
 7.500	19.250	5.1413e-03
 7.500	19.500	5.0277e-03
 7.500	19.750	4.9651e-03
 7.500	20.000	4.9408e-03
 7.500	20.250	4.9312e-03
 7.500	20.500	4.9271e-03
 7.500	20.750	4.9252e-03
 7.500	21.000	4.9243e-03
 7.500	21.250	4.9238e-03
 7.500	21.500	4.9235e-03
 7.500	21.750	4.9234e-03
 7.500	22.000	4.9234e-03
 7.500	22.250	4.9233e-03
 7.500	22.500	4.9233e-03
 7.500	22.750	4.9233e-03
 7.500	23.000	4.9233e-03
 7.500	23.250	4.9233e-03
 7.500	23.500	4.9233e-03
 7.500	23.750	4.9233e-03
 7.500	24.000	4.9233e-03
 7.750	17.000	5.3498e-02
 7.750	17.250	5.0755e-02
 7.750	17.500	4.6307e-02
 7.750	17.750	3.0106e-02
 7.750	18.000	1.9136e-02
 7.750	18.250	1.2154e-02
 7.750	18.500	8.5651e-03
 7.750	18.750	6.8193e-03
 7.750	19.000	5.8898e-03
 7.750	19.250	5.3649e-03
 7.750	19.500	5.1413e-03
 7.750	19.750	5.0277e-03
 7.750	20.000	4.9651e-03
 7.750	20.250	4.9408e-03
 7.750	20.500	4.9312e-03
 7.750	20.750	4.9271e-03
 7.750	21.000	4.9252e-03
 7.750	21.250	4.9243e-03
 7.750	21.500	4.9238e-03
 7.750	21.750	4.9235e-03
 7.750	22.000	4.9234e-03
 7.750	22.250	4.9233e-03
 7.750	22.500	4.9233e-03
 7.750	22.750	4.9232e-03
 7.750	23.000	4.9233e-03
 7.750	23.250	4.9232e-03
 7.750	23.500	4.9232e-03
 7.750	23.750	4.9232e-03
 7.750	24.000	4.9232e-03
 8.000	17.000	5.4623e-02
 8.000	17.250	5.3727e-02
 8.000	17.500	5.0678e-02
 8.000	17.750	4.5988e-02
 8.000	18.000	3.0072e-02
 8.000	18.250	1.9129e-02
 8.000	18.500	1.2145e-02
 8.000	18.750	8.5584e-03
 8.000	19.000	6.8175e-03
 8.000	19.250	5.8896e-03
 8.000	19.500	5.3649e-03
 8.000	19.750	5.1413e-03
 8.000	20.000	5.0277e-03
 8.000	20.250	4.9651e-03
 8.000	20.500	4.9408e-03
 8.000	20.750	4.9311e-03
 8.000	21.000	4.9271e-03
 8.000	21.250	4.9252e-03
 8.000	21.500	4.9243e-03
 8.000	21.750	4.9238e-03
 8.000	22.000	4.9235e-03
 8.000	22.250	4.9234e-03
 8.000	22.500	4.9233e-03
 8.000	22.750	4.9232e-03
 8.000	23.000	4.9232e-03
 8.000	23.250	4.9232e-03
 8.000	23.500	4.9232e-03
 8.000	23.750	4.9232e-03
 8.000	24.000	4.9237e-03
 8.250	17.000	5.5901e-02
 8.250	17.250	5.5551e-02
 8.250	17.500	5.4601e-02
 8.250	17.750	5.1151e-02
 8.250	18.000	4.6063e-02
 8.250	18.250	3.0067e-02
 8.250	18.500	1.9124e-02
 8.250	18.750	1.2135e-02
 8.250	19.000	8.5509e-03
 8.250	19.250	6.8154e-03
 8.250	19.500	5.8893e-03
 8.250	19.750	5.3648e-03
 8.250	20.000	5.1413e-03
 8.250	20.250	5.0277e-03
 8.250	20.500	4.9651e-03
 8.250	20.750	4.9408e-03
 8.250	21.000	4.9311e-03
 8.250	21.250	4.9271e-03
 8.250	21.500	4.9252e-03
 8.250	21.750	4.9243e-03
 8.250	22.000	4.9238e-03
 8.250	22.250	4.9235e-03
 8.250	22.500	4.9234e-03
 8.250	22.750	4.9233e-03
 8.250	23.000	4.9234e-03
 8.250	23.250	4.9233e-03
 8.250	23.500	4.9232e-03
 8.250	23.750	4.9232e-03
 8.250	24.000	4.9232e-03
 8.500	17.000	5.7207e-02
 8.500	17.250	5.6945e-02
 8.500	17.500	5.6770e-02
 8.500	17.750	5.5888e-02
 8.500	18.000	5.1958e-02
 8.500	18.250	4.6266e-02
 8.500	18.500	3.0066e-02
 8.500	18.750	1.9121e-02
 8.500	19.000	1.2124e-02
 8.500	19.250	8.5423e-03
 8.500	19.500	6.8131e-03
 8.500	19.750	5.8890e-03
 8.500	20.000	5.3647e-03
 8.500	20.250	5.1413e-03
 8.500	20.500	5.0277e-03
 8.500	20.750	4.9651e-03
 8.500	21.000	4.9408e-03
 8.500	21.250	4.9311e-03
 8.500	21.500	4.9271e-03
 8.500	21.750	4.9252e-03
 8.500	22.000	4.9243e-03
 8.500	22.250	4.9238e-03
 8.500	22.500	4.9235e-03
 8.500	22.750	4.9235e-03
 8.500	23.000	4.9233e-03
 8.500	23.250	4.9232e-03
 8.500	23.500	4.9232e-03
 8.500	23.750	4.9232e-03
 8.500	24.000	4.9232e-03
 8.750	17.000	5.8480e-02
 8.750	17.250	5.8396e-02
 8.750	17.500	5.8513e-02
 8.750	17.750	5.8820e-02
 8.750	18.000	5.7989e-02
 8.750	18.250	5.3448e-02
 8.750	18.500	4.6629e-02
 8.750	18.750	3.0068e-02
 8.750	19.000	1.9120e-02
 8.750	19.250	1.2112e-02
 8.750	19.500	8.5330e-03
 8.750	19.750	6.8105e-03
 8.750	20.000	5.8886e-03
 8.750	20.250	5.3646e-03
 8.750	20.500	5.1413e-03
 8.750	20.750	5.0277e-03
 8.750	21.000	4.9651e-03
 8.750	21.250	4.9408e-03
 8.750	21.500	4.9311e-03
 8.750	21.750	4.9271e-03
 8.750	22.000	4.9252e-03
 8.750	22.250	4.9243e-03
 8.750	22.500	4.9238e-03
 8.750	22.750	4.9235e-03
 8.750	23.000	4.9234e-03
 8.750	23.250	4.9233e-03
 8.750	23.500	4.9232e-03
 8.750	23.750	4.9232e-03
 8.750	24.000	4.9232e-03
 9.000	17.000	5.9630e-02
 9.000	17.250	5.9840e-02
 9.000	17.500	6.0368e-02
 9.000	17.750	6.1383e-02
 9.000	18.000	6.2713e-02
 9.000	18.250	6.2219e-02
 9.000	18.500	5.6367e-02
 9.000	18.750	4.7607e-02
 9.000	19.000	3.0068e-02
 9.000	19.250	1.9121e-02
 9.000	19.500	1.2101e-02
 9.000	19.750	8.5234e-03
 9.000	20.000	6.8080e-03
 9.000	20.250	5.8881e-03
 9.000	20.500	5.3644e-03
 9.000	20.750	5.1413e-03
 9.000	21.000	5.0277e-03
 9.000	21.250	4.9651e-03
 9.000	21.500	4.9408e-03
 9.000	21.750	4.9311e-03
 9.000	22.000	4.9271e-03
 9.000	22.250	4.9252e-03
 9.000	22.500	4.9243e-03
 9.000	22.750	4.9238e-03
 9.000	23.000	4.9235e-03
 9.000	23.250	4.9234e-03
 9.000	23.500	4.9233e-03
 9.000	23.750	4.9232e-03
 9.000	24.000	4.9234e-03
 9.250	17.000	6.0628e-02
 9.250	17.250	6.1195e-02
 9.250	17.500	6.2374e-02
 9.250	17.750	6.4391e-02
 9.250	18.000	6.7417e-02
 9.250	18.250	7.0375e-02
 9.250	18.500	6.9479e-02
 9.250	18.750	6.1954e-02
 9.250	19.000	4.7645e-02
 9.250	19.250	3.0061e-02
 9.250	19.500	1.9125e-02
 9.250	19.750	1.2091e-02
 9.250	20.000	8.5142e-03
 9.250	20.250	6.8054e-03
 9.250	20.500	5.8877e-03
 9.250	20.750	5.3644e-03
 9.250	21.000	5.1413e-03
 9.250	21.250	5.0277e-03
 9.250	21.500	4.9643e-03
 9.250	21.750	4.9399e-03
 9.250	22.000	4.9302e-03
 9.250	22.250	4.9262e-03
 9.250	22.500	4.9250e-03
 9.250	22.750	4.9241e-03
 9.250	23.000	4.9237e-03
 9.250	23.250	4.9235e-03
 9.250	23.500	4.9233e-03
 9.250	23.750	4.9233e-03
 9.250	24.000	4.9232e-03
 9.500	17.000	6.1676e-02
 9.500	17.250	6.2585e-02
 9.500	17.500	6.4474e-02
 9.500	17.750	6.7821e-02
 9.500	18.000	7.2931e-02
 9.500	18.250	7.9069e-02
 9.500	18.500	8.2763e-02
 9.500	18.750	7.9648e-02
 9.500	19.000	6.8712e-02
 9.500	19.250	4.7731e-02
 9.500	19.500	3.0048e-02
 9.500	19.750	1.9132e-02
 9.500	20.000	1.2085e-02
 9.500	20.250	8.5063e-03
 9.500	20.500	6.8032e-03
 9.500	20.750	5.8872e-03
 9.500	21.000	5.3635e-03
 9.500	21.250	5.1404e-03
 9.500	21.500	5.0268e-03
 9.500	21.750	4.9638e-03
 9.500	22.000	4.9393e-03
 9.500	22.250	4.9296e-03
 9.500	22.500	4.9256e-03
 9.500	22.750	4.9237e-03
 9.500	23.000	4.9228e-03
 9.500	23.250	4.9223e-03
 9.500	23.500	4.9221e-03
 9.500	23.750	4.9221e-03
 9.500	24.000	4.9220e-03
 9.750	17.000	6.2732e-02
 9.750	17.250	6.3949e-02
 9.750	17.500	6.6629e-02
 9.750	17.750	7.1610e-02
 9.750	18.000	7.9719e-02
 9.750	18.250	8.9281e-02
 9.750	18.500	9.6606e-02
 9.750	18.750	9.8219e-02
 9.750	19.000	9.1161e-02
 9.750	19.250	7.6318e-02
 9.750	19.500	4.7796e-02
 9.750	19.750	3.0016e-02
 9.750	20.000	1.9141e-02
 9.750	20.250	1.2082e-02
 9.750	20.500	8.5000e-03
 9.750	20.750	6.8015e-03
 9.750	21.000	5.8869e-03
 9.750	21.250	5.3635e-03
 9.750	21.500	5.1404e-03
 9.750	21.750	5.0269e-03
 9.750	22.000	4.9640e-03
 9.750	22.250	4.9393e-03
 9.750	22.500	4.9297e-03
 9.750	22.750	4.9256e-03
 9.750	23.000	4.9236e-03
 9.750	23.250	4.9227e-03
 9.750	23.500	4.9223e-03
 9.750	23.750	4.9220e-03
 9.750	24.000	4.9219e-03
10.000	17.000	6.3805e-02
10.000	17.250	6.5549e-02
10.000	17.500	6.9170e-02
10.000	17.750	7.6207e-02
10.000	18.000	8.7998e-02
10.000	18.250	1.0114e-01
10.000	18.500	1.1146e-01
10.000	18.750	1.1672e-01
10.000	19.000	1.1507e-01
10.000	19.250	1.0371e-01
10.000	19.500	7.9773e-02
10.000	19.750	4.7765e-02
10.000	20.000	2.9993e-02
10.000	20.250	1.9149e-02
10.000	20.500	1.2081e-02
10.000	20.750	8.4951e-03
10.000	21.000	6.8002e-03
10.000	21.250	5.8867e-03
10.000	21.500	5.3637e-03
10.000	21.750	5.1406e-03
10.000	22.000	5.0269e-03
10.000	22.250	4.9641e-03
10.000	22.500	4.9395e-03
10.000	22.750	4.9296e-03
10.000	23.000	4.9256e-03
10.000	23.250	4.9237e-03
10.000	23.500	4.9228e-03
10.000	23.750	4.9223e-03
10.000	24.000	4.9220e-03
10.250	17.000	6.5834e-02
10.250	17.250	6.7539e-02
10.250	17.500	7.2584e-02
10.250	17.750	8.2214e-02
10.250	18.000	9.7644e-02
10.250	18.250	1.1400e-01
10.250	18.500	1.2681e-01
10.250	18.750	1.3477e-01
10.250	19.000	1.3688e-01
10.250	19.250	1.3206e-01
10.250	19.500	1.1742e-01
10.250	19.750	7.9467e-02
10.250	20.000	4.7616e-02
10.250	20.250	2.9914e-02
10.250	20.500	1.9152e-02
10.250	20.750	1.2083e-02
10.250	21.000	8.4920e-03
10.250	21.250	6.7995e-03
10.250	21.500	5.8865e-03
10.250	21.750	5.3637e-03
10.250	22.000	5.1410e-03
10.250	22.250	5.0270e-03
10.250	22.500	4.9642e-03
10.250	22.750	4.9398e-03
10.250	23.000	4.9298e-03
10.250	23.250	4.9255e-03
10.250	23.500	4.9237e-03
10.250	23.750	4.9228e-03
10.250	24.000	4.9223e-03
10.500	17.000	6.9272e-02
10.500	17.250	7.0972e-02
10.500	17.500	7.7359e-02
10.500	17.750	9.0471e-02
10.500	18.000	1.0906e-01
10.500	18.250	1.2813e-01
10.500	18.500	1.4229e-01
10.500	18.750	1.5160e-01
10.500	19.000	1.5639e-01
10.500	19.250	1.5506e-01
10.500	19.500	1.4667e-01
10.500	19.750	1.2619e-01
10.500	20.000	7.9281e-02
10.500	20.250	4.7396e-02
10.500	20.500	2.9815e-02
10.500	20.750	1.9134e-02
10.500	21.000	1.2085e-02
10.500	21.250	8.4905e-03
10.500	21.500	6.7998e-03
10.500	21.750	5.8863e-03
10.500	22.000	5.3635e-03
10.500	22.250	5.1412e-03
10.500	22.500	5.0273e-03
10.500	22.750	4.9642e-03
10.500	23.000	4.9398e-03
10.500	23.250	4.9300e-03
10.500	23.500	4.9257e-03
10.500	23.750	4.9237e-03
10.500	24.000	4.9227e-03
10.750	17.000	7.4559e-02
10.750	17.250	7.6250e-02
10.750	17.500	8.4697e-02
10.750	17.750	1.0100e-01
10.750	18.000	1.2216e-01
10.750	18.250	1.4196e-01
10.750	18.500	1.5706e-01
10.750	18.750	1.6879e-01
10.750	19.000	1.7467e-01
10.750	19.250	1.7612e-01
10.750	19.500	1.7251e-01
10.750	19.750	1.6144e-01
10.750	20.000	1.3550e-01
10.750	20.250	7.9014e-02
10.750	20.500	4.7099e-02
10.750	20.750	2.9676e-02
10.750	21.000	1.9087e-02
10.750	21.250	1.2085e-02
10.750	21.500	8.4907e-03
10.750	21.750	6.8004e-03
10.750	22.000	5.8863e-03
10.750	22.250	5.3634e-03
10.750	22.500	5.1412e-03
10.750	22.750	5.0277e-03
10.750	23.000	4.9643e-03
10.750	23.250	4.9399e-03
10.750	23.500	4.9301e-03
10.750	23.750	4.9259e-03
10.750	24.000	4.9240e-03
11.000	17.000	8.2107e-02
11.000	17.250	8.3544e-02
11.000	17.500	9.4093e-02
11.000	17.750	1.1340e-01
11.000	18.000	1.3583e-01
11.000	18.250	1.5581e-01
11.000	18.500	1.7233e-01
11.000	18.750	1.8415e-01
11.000	19.000	1.9180e-01
11.000	19.250	1.9483e-01
11.000	19.500	1.9452e-01
11.000	19.750	1.8904e-01
11.000	20.000	1.7722e-01
11.000	20.250	1.3759e-01
11.000	20.500	7.8452e-02
11.000	20.750	4.6769e-02
11.000	21.000	2.9560e-02
11.000	21.250	1.8998e-02
11.000	21.500	1.2078e-02
11.000	21.750	8.4918e-03
11.000	22.000	6.8016e-03
11.000	22.250	5.8864e-03
11.000	22.500	5.3631e-03
11.000	22.750	5.1412e-03
11.000	23.000	5.0277e-03
11.000	23.250	4.9644e-03
11.000	23.500	4.9400e-03
11.000	23.750	4.9302e-03
11.000	24.000	4.9261e-03
11.250	17.000	9.2365e-02
11.250	17.250	9.2827e-02
11.250	17.500	1.0491e-01
11.250	17.750	1.2643e-01
11.250	18.000	1.4974e-01
11.250	18.250	1.6964e-01
11.250	18.500	1.8559e-01
11.250	18.750	1.9893e-01
11.250	19.000	2.0741e-01
11.250	19.250	2.1217e-01
11.250	19.500	2.1359e-01
11.250	19.750	2.1149e-01
11.250	20.000	2.0501e-01
11.250	20.250	1.9191e-01
11.250	20.500	1.3857e-01
11.250	20.750	7.8218e-02
11.250	21.000	4.6502e-02
11.250	21.250	2.9595e-02
11.250	21.500	1.8852e-02
11.250	21.750	1.2057e-02
11.250	22.000	8.4933e-03
11.250	22.250	6.8030e-03
11.250	22.500	5.8865e-03
11.250	22.750	5.3627e-03
11.250	23.000	5.1411e-03
11.250	23.250	5.0277e-03
11.250	23.500	4.9648e-03
11.250	23.750	4.9400e-03
11.250	24.000	4.9303e-03
11.500	17.000	1.0650e-01
11.500	17.250	1.0499e-01
11.500	17.500	1.1711e-01
11.500	17.750	1.3955e-01
11.500	18.000	1.6334e-01
11.500	18.250	1.8309e-01
11.500	18.500	1.9886e-01
11.500	18.750	2.1237e-01
11.500	19.000	2.2187e-01
11.500	19.250	2.2832e-01
11.500	19.500	2.3069e-01
11.500	19.750	2.3062e-01
11.500	20.000	2.2764e-01
11.500	20.250	2.2050e-01
11.500	20.500	2.0608e-01
11.500	20.750	1.3805e-01
11.500	21.000	7.7850e-02
11.500	21.250	4.6486e-02
11.500	21.500	2.9909e-02
11.500	21.750	1.8677e-02
11.500	22.000	1.2017e-02
11.500	22.250	8.4943e-03
11.500	22.500	6.8045e-03
11.500	22.750	5.8869e-03
11.500	23.000	5.3622e-03
11.500	23.250	5.1408e-03
11.500	23.500	5.0277e-03
11.500	23.750	4.9649e-03
11.500	24.000	4.9401e-03
11.750	17.000	1.2621e-01
11.750	17.250	1.2089e-01
11.750	17.500	1.3123e-01
11.750	17.750	1.5297e-01
11.750	18.000	1.7638e-01
11.750	18.250	1.9564e-01
11.750	18.500	2.1193e-01
11.750	18.750	2.2514e-01
11.750	19.000	2.3597e-01
11.750	19.250	2.4294e-01
11.750	19.500	2.4673e-01
11.750	19.750	2.4726e-01
11.750	20.000	2.4618e-01
11.750	20.250	2.4264e-01
11.750	20.500	2.3535e-01
11.750	20.750	2.1794e-01
11.750	21.000	1.3761e-01
11.750	21.250	7.7694e-02
11.750	21.500	4.6950e-02
11.750	21.750	3.0445e-02
11.750	22.000	1.8480e-02
11.750	22.250	1.1958e-02
11.750	22.500	8.4926e-03
11.750	22.750	6.8055e-03
11.750	23.000	5.8867e-03
11.750	23.250	5.3615e-03
11.750	23.500	5.1427e-03
11.750	23.750	5.0277e-03
11.750	24.000	4.9649e-03
12.000	17.000	1.5370e-01
12.000	17.250	1.4213e-01
12.000	17.500	1.4808e-01
12.000	17.750	1.6677e-01
12.000	18.000	1.8828e-01
12.000	18.250	2.0767e-01
12.000	18.500	2.2492e-01
12.000	18.750	2.3899e-01
12.000	19.000	2.5005e-01
12.000	19.250	2.5747e-01
12.000	19.500	2.6148e-01
12.000	19.750	2.6271e-01
12.000	20.000	2.6186e-01
12.000	20.250	2.6003e-01
12.000	20.500	2.5645e-01
12.000	20.750	2.4950e-01
12.000	21.000	2.2986e-01
12.000	21.250	1.3710e-01
12.000	21.500	7.7997e-02
12.000	21.750	4.7859e-02
12.000	22.000	3.0418e-02
12.000	22.250	1.8293e-02
12.000	22.500	1.1881e-02
12.000	22.750	8.4863e-03
12.000	23.000	6.8052e-03
12.000	23.250	5.8860e-03
12.000	23.500	5.3604e-03
12.000	23.750	5.1400e-03
12.000	24.000	5.0274e-03
12.250	17.000	1.8877e-01
12.250	17.250	1.7030e-01
12.250	17.500	1.6852e-01
12.250	17.750	1.8113e-01
12.250	18.000	1.9983e-01
12.250	18.250	2.1997e-01
12.250	18.500	2.3858e-01
12.250	18.750	2.5382e-01
12.250	19.000	2.6491e-01
12.250	19.250	2.7186e-01
12.250	19.500	2.7567e-01
12.250	19.750	2.7682e-01
12.250	20.000	2.7597e-01
12.250	20.250	2.7418e-01
12.250	20.500	2.7237e-01
12.250	20.750	2.6974e-01
12.250	21.000	2.6389e-01
12.250	21.250	2.3218e-01
12.250	21.500	1.3719e-01
12.250	21.750	7.8682e-02
12.250	22.000	4.8964e-02
12.250	22.250	2.9893e-02
12.250	22.500	1.8084e-02
12.250	22.750	1.1787e-02
12.250	23.000	8.4725e-03
12.250	23.250	6.8023e-03
12.250	23.500	5.8841e-03
12.250	23.750	5.3587e-03
12.250	24.000	5.1392e-03
12.500	17.000	2.2674e-01
12.500	17.250	2.0168e-01
12.500	17.500	1.9232e-01
12.500	17.750	1.9715e-01
12.500	18.000	2.1246e-01
12.500	18.250	2.3239e-01
12.500	18.500	2.5220e-01
12.500	18.750	2.6858e-01
12.500	19.000	2.8004e-01
12.500	19.250	2.8646e-01
12.500	19.500	2.8929e-01
12.500	19.750	2.9000e-01
12.500	20.000	2.8915e-01
12.500	20.250	2.8725e-01
12.500	20.500	2.8493e-01
12.500	20.750	2.8382e-01
12.500	21.000	2.8379e-01
12.500	21.250	2.7802e-01
12.500	21.500	2.3405e-01
12.500	21.750	1.3630e-01
12.500	22.000	7.9375e-02
12.500	22.250	4.9706e-02
12.500	22.500	2.9338e-02
12.500	22.750	1.7844e-02
12.500	23.000	1.1673e-02
12.500	23.250	8.4487e-03
12.500	23.500	6.7952e-03
12.500	23.750	5.8800e-03
12.500	24.000	5.3561e-03
12.750	17.000	2.3453e-01
12.750	17.250	2.3250e-01
12.750	17.500	2.1567e-01
12.750	17.750	2.1553e-01
12.750	18.000	2.2855e-01
12.750	18.250	2.4662e-01
12.750	18.500	2.6584e-01
12.750	18.750	2.8309e-01
12.750	19.000	2.9487e-01
12.750	19.250	3.0197e-01
12.750	19.500	3.0325e-01
12.750	19.750	3.0275e-01
12.750	20.000	3.0096e-01
12.750	20.250	2.9888e-01
12.750	20.500	2.9679e-01
12.750	20.750	2.9490e-01
12.750	21.000	2.9631e-01
12.750	21.250	2.9863e-01
12.750	21.500	2.8843e-01
12.750	21.750	2.3022e-01
12.750	22.000	1.3504e-01
12.750	22.250	8.0320e-02
12.750	22.500	4.9817e-02
12.750	22.750	2.8796e-02
12.750	23.000	1.7564e-02
12.750	23.250	1.1548e-02
12.750	23.500	8.4166e-03
12.750	23.750	6.7802e-03
12.750	24.000	5.8721e-03
13.000	17.000	1.3367e-01
13.000	17.250	1.7217e-01
13.000	17.500	2.3508e-01
13.000	17.750	2.3971e-01
13.000	18.000	2.4842e-01
13.000	18.250	2.6365e-01
13.000	18.500	2.8119e-01
13.000	18.750	2.9717e-01
13.000	19.000	3.0887e-01
13.000	19.250	3.1541e-01
13.000	19.500	3.1698e-01
13.000	19.750	3.1517e-01
13.000	20.000	3.1226e-01
13.000	20.250	3.0939e-01
13.000	20.500	3.0763e-01
13.000	20.750	3.0599e-01
13.000	21.000	3.0784e-01
13.000	21.250	3.1185e-01
13.000	21.500	3.0998e-01
13.000	21.750	3.0076e-01
13.000	22.000	2.2592e-01
13.000	22.250	1.3280e-01
13.000	22.500	8.0274e-02
13.000	22.750	4.8928e-02
13.000	23.000	2.8152e-02
13.000	23.250	1.7257e-02
13.000	23.500	1.1402e-02
13.000	23.750	8.3638e-03
13.000	24.000	6.7528e-03
13.250	17.000	1.3383e-01
13.250	17.250	1.5406e-01
13.250	17.500	1.9811e-01
13.250	17.750	2.4154e-01
13.250	18.000	2.7564e-01
13.250	18.250	2.8622e-01
13.250	18.500	2.9939e-01
13.250	18.750	3.1287e-01
13.250	19.000	3.2302e-01
13.250	19.250	3.2853e-01
13.250	19.500	3.2982e-01
13.250	19.750	3.2769e-01
13.250	20.000	3.2410e-01
13.250	20.250	3.2031e-01
13.250	20.500	3.1714e-01
13.250	20.750	3.1608e-01
13.250	21.000	3.1646e-01
13.250	21.250	3.2064e-01
13.250	21.500	3.2176e-01
13.250	21.750	3.2723e-01
13.250	22.000	3.0519e-01
13.250	22.250	2.1616e-01
13.250	22.500	1.2891e-01
13.250	22.750	7.8333e-02
13.250	23.000	4.7458e-02
13.250	23.250	2.7488e-02
13.250	23.500	1.6922e-02
13.250	23.750	1.1237e-02
13.250	24.000	8.2836e-03
13.500	17.000	1.3429e-01
13.500	17.250	1.5076e-01
13.500	17.500	1.9182e-01
13.500	17.750	2.4616e-01
13.500	18.000	2.8889e-01
13.500	18.250	3.1653e-01
13.500	18.500	3.2418e-01
13.500	18.750	3.3285e-01
13.500	19.000	3.3967e-01
13.500	19.250	3.4411e-01
13.500	19.500	3.4323e-01
13.500	19.750	3.4003e-01
13.500	20.000	3.3597e-01
13.500	20.250	3.3149e-01
13.500	20.500	3.2736e-01
13.500	20.750	3.2425e-01
13.500	21.000	3.2281e-01
13.500	21.250	3.2702e-01
13.500	21.500	3.2740e-01
13.500	21.750	3.3248e-01
13.500	22.000	3.3304e-01
13.500	22.250	2.9946e-01
13.500	22.500	2.0274e-01
13.500	22.750	1.2211e-01
13.500	23.000	7.4125e-02
13.500	23.250	4.5537e-02
13.500	23.500	2.6679e-02
13.500	23.750	1.6451e-02
13.500	24.000	1.1033e-02
13.750	17.000	1.3352e-01
13.750	17.250	1.5455e-01
13.750	17.500	1.9057e-01
13.750	17.750	2.3160e-01
13.750	18.000	3.0105e-01
13.750	18.250	3.3487e-01
13.750	18.500	3.5500e-01
13.750	18.750	3.5961e-01
13.750	19.000	3.6198e-01
13.750	19.250	3.6247e-01
13.750	19.500	3.6031e-01
13.750	19.750	3.5592e-01
13.750	20.000	3.5022e-01
13.750	20.250	3.4473e-01
13.750	20.500	3.3974e-01
13.750	20.750	3.3549e-01
13.750	21.000	3.3226e-01
13.750	21.250	3.3167e-01
13.750	21.500	3.3094e-01
13.750	21.750	3.3775e-01
13.750	22.000	3.4667e-01
13.750	22.250	3.3942e-01
13.750	22.500	2.8372e-01
13.750	22.750	1.8631e-01
13.750	23.000	1.1265e-01
13.750	23.250	6.9892e-02
13.750	23.500	4.3295e-02
13.750	23.750	2.5659e-02
13.750	24.000	1.5952e-02
14.000	17.000	1.3404e-01
14.000	17.250	1.5204e-01
14.000	17.500	1.9017e-01
14.000	17.750	2.2916e-01
14.000	18.000	2.8661e-01
14.000	18.250	3.5752e-01
14.000	18.500	3.8286e-01
14.000	18.750	3.9343e-01
14.000	19.000	3.8956e-01
14.000	19.250	3.8576e-01
14.000	19.500	3.8183e-01
14.000	19.750	3.7547e-01
14.000	20.000	3.6834e-01
14.000	20.250	3.6086e-01
14.000	20.500	3.5464e-01
14.000	20.750	3.4927e-01
14.000	21.000	3.4520e-01
14.000	21.250	3.4339e-01
14.000	21.500	3.4053e-01
14.000	21.750	3.4717e-01
14.000	22.000	3.5918e-01
14.000	22.250	3.6323e-01
14.000	22.500	3.3118e-01
14.000	22.750	2.6004e-01
14.000	23.000	1.6786e-01
14.000	23.250	1.0349e-01
14.000	23.500	6.5241e-02
14.000	23.750	4.0883e-02
14.000	24.000	2.4445e-02
