InwT 1113.22A  relative to Inci 1215.00A scaled to 1215A.
Hden   Phi(H)  Eq_Width (A)
 7.000	17.000	4.0031e-02
 7.000	17.250	3.9644e-02
 7.000	17.500	3.5778e-02
 7.000	17.750	3.2066e-02
 7.000	18.000	2.9175e-02
 7.000	18.250	2.7367e-02
 7.000	18.500	2.6236e-02
 7.000	18.750	2.5688e-02
 7.000	19.000	2.5401e-02
 7.000	19.250	2.5238e-02
 7.000	19.500	2.5169e-02
 7.000	19.750	2.5140e-02
 7.000	20.000	2.5127e-02
 7.000	20.250	2.5121e-02
 7.000	20.500	2.5118e-02
 7.000	20.750	2.5117e-02
 7.000	21.000	2.5116e-02
 7.000	21.250	2.5116e-02
 7.000	21.500	2.5116e-02
 7.000	21.750	2.5116e-02
 7.000	22.000	2.5116e-02
 7.000	22.250	2.5116e-02
 7.000	22.500	2.5116e-02
 7.000	22.750	2.5115e-02
 7.000	23.000	2.5116e-02
 7.000	23.250	2.5115e-02
 7.000	23.500	2.5116e-02
 7.000	23.750	2.5115e-02
 7.000	24.000	2.5115e-02
 7.250	17.000	4.2248e-02
 7.250	17.250	3.9455e-02
 7.250	17.500	3.9470e-02
 7.250	17.750	3.5692e-02
 7.250	18.000	3.2022e-02
 7.250	18.250	2.9151e-02
 7.250	18.500	2.7355e-02
 7.250	18.750	2.6232e-02
 7.250	19.000	2.5687e-02
 7.250	19.250	2.5400e-02
 7.250	19.500	2.5238e-02
 7.250	19.750	2.5169e-02
 7.250	20.000	2.5140e-02
 7.250	20.250	2.5127e-02
 7.250	20.500	2.5121e-02
 7.250	20.750	2.5118e-02
 7.250	21.000	2.5117e-02
 7.250	21.250	2.5116e-02
 7.250	21.500	2.5115e-02
 7.250	21.750	2.5115e-02
 7.250	22.000	2.5118e-02
 7.250	22.250	2.5115e-02
 7.250	22.500	2.5115e-02
 7.250	22.750	2.5116e-02
 7.250	23.000	2.5116e-02
 7.250	23.250	2.5117e-02
 7.250	23.500	2.5116e-02
 7.250	23.750	2.5117e-02
 7.250	24.000	2.5116e-02
 7.500	17.000	5.8416e-02
 7.500	17.250	4.0704e-02
 7.500	17.500	3.8971e-02
 7.500	17.750	3.9374e-02
 7.500	18.000	3.5649e-02
 7.500	18.250	3.1998e-02
 7.500	18.500	2.9136e-02
 7.500	18.750	2.7348e-02
 7.500	19.000	2.6229e-02
 7.500	19.250	2.5685e-02
 7.500	19.500	2.5400e-02
 7.500	19.750	2.5238e-02
 7.500	20.000	2.5169e-02
 7.500	20.250	2.5140e-02
 7.500	20.500	2.5127e-02
 7.500	20.750	2.5121e-02
 7.500	21.000	2.5118e-02
 7.500	21.250	2.5117e-02
 7.500	21.500	2.5116e-02
 7.500	21.750	2.5115e-02
 7.500	22.000	2.5115e-02
 7.500	22.250	2.5115e-02
 7.500	22.500	2.5115e-02
 7.500	22.750	2.5115e-02
 7.500	23.000	2.5115e-02
 7.500	23.250	2.5115e-02
 7.500	23.500	2.5115e-02
 7.500	23.750	2.5115e-02
 7.500	24.000	2.5115e-02
 7.750	17.000	7.1770e-02
 7.750	17.250	5.6304e-02
 7.750	17.500	3.9367e-02
 7.750	17.750	3.8584e-02
 7.750	18.000	3.9325e-02
 7.750	18.250	3.5632e-02
 7.750	18.500	3.1988e-02
 7.750	18.750	2.9127e-02
 7.750	19.000	2.7343e-02
 7.750	19.250	2.6227e-02
 7.750	19.500	2.5685e-02
 7.750	19.750	2.5400e-02
 7.750	20.000	2.5238e-02
 7.750	20.250	2.5169e-02
 7.750	20.500	2.5140e-02
 7.750	20.750	2.5127e-02
 7.750	21.000	2.5121e-02
 7.750	21.250	2.5118e-02
 7.750	21.500	2.5117e-02
 7.750	21.750	2.5116e-02
 7.750	22.000	2.5115e-02
 7.750	22.250	2.5115e-02
 7.750	22.500	2.5115e-02
 7.750	22.750	2.5115e-02
 7.750	23.000	2.5115e-02
 7.750	23.250	2.5115e-02
 7.750	23.500	2.5115e-02
 7.750	23.750	2.5115e-02
 7.750	24.000	2.5115e-02
 8.000	17.000	8.2142e-02
 8.000	17.250	6.9607e-02
 8.000	17.500	5.4793e-02
 8.000	17.750	3.8591e-02
 8.000	18.000	3.8261e-02
 8.000	18.250	3.9301e-02
 8.000	18.500	3.5634e-02
 8.000	18.750	3.1987e-02
 8.000	19.000	2.9122e-02
 8.000	19.250	2.7341e-02
 8.000	19.500	2.6226e-02
 8.000	19.750	2.5684e-02
 8.000	20.000	2.5400e-02
 8.000	20.250	2.5238e-02
 8.000	20.500	2.5169e-02
 8.000	20.750	2.5140e-02
 8.000	21.000	2.5127e-02
 8.000	21.250	2.5121e-02
 8.000	21.500	2.5118e-02
 8.000	21.750	2.5117e-02
 8.000	22.000	2.5116e-02
 8.000	22.250	2.5115e-02
 8.000	22.500	2.5115e-02
 8.000	22.750	2.5115e-02
 8.000	23.000	2.5115e-02
 8.000	23.250	2.5115e-02
 8.000	23.500	2.5115e-02
 8.000	23.750	2.5115e-02
 8.000	24.000	2.5117e-02
 8.250	17.000	8.9206e-02
 8.250	17.250	8.0141e-02
 8.250	17.500	6.7708e-02
 8.250	17.750	5.3381e-02
 8.250	18.000	3.7840e-02
 8.250	18.250	3.8066e-02
 8.250	18.500	3.9288e-02
 8.250	18.750	3.5646e-02
 8.250	19.000	3.1992e-02
 8.250	19.250	2.9120e-02
 8.250	19.500	2.7339e-02
 8.250	19.750	2.6226e-02
 8.250	20.000	2.5684e-02
 8.250	20.250	2.5400e-02
 8.250	20.500	2.5238e-02
 8.250	20.750	2.5169e-02
 8.250	21.000	2.5140e-02
 8.250	21.250	2.5127e-02
 8.250	21.500	2.5121e-02
 8.250	21.750	2.5118e-02
 8.250	22.000	2.5117e-02
 8.250	22.250	2.5116e-02
 8.250	22.500	2.5115e-02
 8.250	22.750	2.5115e-02
 8.250	23.000	2.5116e-02
 8.250	23.250	2.5115e-02
 8.250	23.500	2.5115e-02
 8.250	23.750	2.5115e-02
 8.250	24.000	2.5115e-02
 8.500	17.000	9.3865e-02
 8.500	17.250	8.7589e-02
 8.500	17.500	7.8440e-02
 8.500	17.750	6.5846e-02
 8.500	18.000	5.1925e-02
 8.500	18.250	3.7181e-02
 8.500	18.500	3.7932e-02
 8.500	18.750	3.9283e-02
 8.500	19.000	3.5667e-02
 8.500	19.250	3.2000e-02
 8.500	19.500	2.9118e-02
 8.500	19.750	2.7338e-02
 8.500	20.000	2.6225e-02
 8.500	20.250	2.5684e-02
 8.500	20.500	2.5399e-02
 8.500	20.750	2.5238e-02
 8.500	21.000	2.5169e-02
 8.500	21.250	2.5140e-02
 8.500	21.500	2.5127e-02
 8.500	21.750	2.5121e-02
 8.500	22.000	2.5118e-02
 8.500	22.250	2.5117e-02
 8.500	22.500	2.5116e-02
 8.500	22.750	2.5116e-02
 8.500	23.000	2.5115e-02
 8.500	23.250	2.5115e-02
 8.500	23.500	2.5115e-02
 8.500	23.750	2.5115e-02
 8.500	24.000	2.5115e-02
 8.750	17.000	9.6954e-02
 8.750	17.250	9.2613e-02
 8.750	17.500	8.6162e-02
 8.750	17.750	7.6579e-02
 8.750	18.000	6.3807e-02
 8.750	18.250	5.0099e-02
 8.750	18.500	3.6525e-02
 8.750	18.750	3.7845e-02
 8.750	19.000	3.9277e-02
 8.750	19.250	3.5693e-02
 8.750	19.500	3.2011e-02
 8.750	19.750	2.9118e-02
 8.750	20.000	2.7337e-02
 8.750	20.250	2.6225e-02
 8.750	20.500	2.5684e-02
 8.750	20.750	2.5399e-02
 8.750	21.000	2.5238e-02
 8.750	21.250	2.5169e-02
 8.750	21.500	2.5140e-02
 8.750	21.750	2.5127e-02
 8.750	22.000	2.5121e-02
 8.750	22.250	2.5118e-02
 8.750	22.500	2.5117e-02
 8.750	22.750	2.5116e-02
 8.750	23.000	2.5115e-02
 8.750	23.250	2.5115e-02
 8.750	23.500	2.5115e-02
 8.750	23.750	2.5115e-02
 8.750	24.000	2.5115e-02
 9.000	17.000	9.8973e-02
 9.000	17.250	9.6004e-02
 9.000	17.500	9.1456e-02
 9.000	17.750	8.4500e-02
 9.000	18.000	7.4128e-02
 9.000	18.250	6.0604e-02
 9.000	18.500	4.7324e-02
 9.000	18.750	3.5387e-02
 9.000	19.000	3.7772e-02
 9.000	19.250	3.9266e-02
 9.000	19.500	3.5719e-02
 9.000	19.750	3.2023e-02
 9.000	20.000	2.9118e-02
 9.000	20.250	2.7336e-02
 9.000	20.500	2.6225e-02
 9.000	20.750	2.5684e-02
 9.000	21.000	2.5399e-02
 9.000	21.250	2.5238e-02
 9.000	21.500	2.5169e-02
 9.000	21.750	2.5140e-02
 9.000	22.000	2.5127e-02
 9.000	22.250	2.5121e-02
 9.000	22.500	2.5118e-02
 9.000	22.750	2.5117e-02
 9.000	23.000	2.5116e-02
 9.000	23.250	2.5115e-02
 9.000	23.500	2.5115e-02
 9.000	23.750	2.5115e-02
 9.000	24.000	2.5115e-02
 9.250	17.000	1.0023e-01
 9.250	17.250	9.8246e-02
 9.250	17.500	9.5071e-02
 9.250	17.750	8.9985e-02
 9.250	18.000	8.1977e-02
 9.250	18.250	7.0326e-02
 9.250	18.500	5.6159e-02
 9.250	18.750	4.2897e-02
 9.250	19.000	3.5188e-02
 9.250	19.250	3.7696e-02
 9.250	19.500	3.9246e-02
 9.250	19.750	3.5741e-02
 9.250	20.000	3.2034e-02
 9.250	20.250	2.9118e-02
 9.250	20.500	2.7336e-02
 9.250	20.750	2.6224e-02
 9.250	21.000	2.5684e-02
 9.250	21.250	2.5399e-02
 9.250	21.500	2.5234e-02
 9.250	21.750	2.5165e-02
 9.250	22.000	2.5135e-02
 9.250	22.250	2.5123e-02
 9.250	22.500	2.5120e-02
 9.250	22.750	2.5118e-02
 9.250	23.000	2.5116e-02
 9.250	23.250	2.5116e-02
 9.250	23.500	2.5115e-02
 9.250	23.750	2.5115e-02
 9.250	24.000	2.5115e-02
 9.500	17.000	1.0091e-01
 9.500	17.250	9.9636e-02
 9.500	17.500	9.7473e-02
 9.500	17.750	9.3800e-02
 9.500	18.000	8.7667e-02
 9.500	18.250	7.8164e-02
 9.500	18.500	6.5321e-02
 9.500	18.750	5.1082e-02
 9.500	19.000	3.8817e-02
 9.500	19.250	3.4972e-02
 9.500	19.500	3.7601e-02
 9.500	19.750	3.9217e-02
 9.500	20.000	3.5756e-02
 9.500	20.250	3.2044e-02
 9.500	20.500	2.9118e-02
 9.500	20.750	2.7334e-02
 9.500	21.000	2.6220e-02
 9.500	21.250	2.5679e-02
 9.500	21.500	2.5395e-02
 9.500	21.750	2.5231e-02
 9.500	22.000	2.5161e-02
 9.500	22.250	2.5132e-02
 9.500	22.500	2.5120e-02
 9.500	22.750	2.5114e-02
 9.500	23.000	2.5111e-02
 9.500	23.250	2.5109e-02
 9.500	23.500	2.5109e-02
 9.500	23.750	2.5108e-02
 9.500	24.000	2.5108e-02
 9.750	17.000	1.0121e-01
 9.750	17.250	1.0039e-01
 9.750	17.500	9.8980e-02
 9.750	17.750	9.6368e-02
 9.750	18.000	9.1706e-02
 9.750	18.250	8.4121e-02
 9.750	18.500	7.3406e-02
 9.750	18.750	6.0087e-02
 9.750	19.000	4.6348e-02
 9.750	19.250	3.4857e-02
 9.750	19.500	3.4774e-02
 9.750	19.750	3.7487e-02
 9.750	20.000	3.9179e-02
 9.750	20.250	3.5760e-02
 9.750	20.500	3.2052e-02
 9.750	20.750	2.9118e-02
 9.750	21.000	2.7335e-02
 9.750	21.250	2.6221e-02
 9.750	21.500	2.5679e-02
 9.750	21.750	2.5395e-02
 9.750	22.000	2.5232e-02
 9.750	22.250	2.5161e-02
 9.750	22.500	2.5132e-02
 9.750	22.750	2.5120e-02
 9.750	23.000	2.5113e-02
 9.750	23.250	2.5110e-02
 9.750	23.500	2.5109e-02
 9.750	23.750	2.5108e-02
 9.750	24.000	2.5108e-02
10.000	17.000	1.0126e-01
10.000	17.250	1.0072e-01
10.000	17.500	9.9797e-02
10.000	17.750	9.7963e-02
10.000	18.000	9.4435e-02
10.000	18.250	8.8523e-02
10.000	18.500	7.9923e-02
10.000	18.750	6.8632e-02
10.000	19.000	5.5215e-02
10.000	19.250	4.1898e-02
10.000	19.500	3.3232e-02
10.000	19.750	3.4680e-02
10.000	20.000	3.7354e-02
10.000	20.250	3.9140e-02
10.000	20.500	3.5757e-02
10.000	20.750	3.2058e-02
10.000	21.000	2.9119e-02
10.000	21.250	2.7335e-02
10.000	21.500	2.6222e-02
10.000	21.750	2.5680e-02
10.000	22.000	2.5395e-02
10.000	22.250	2.5233e-02
10.000	22.500	2.5162e-02
10.000	22.750	2.5132e-02
10.000	23.000	2.5120e-02
10.000	23.250	2.5114e-02
10.000	23.500	2.5111e-02
10.000	23.750	2.5109e-02
10.000	24.000	2.5108e-02
10.250	17.000	1.0124e-01
10.250	17.250	1.0079e-01
10.250	17.500	1.0013e-01
10.250	17.750	9.8812e-02
10.250	18.000	9.6155e-02
10.250	18.250	9.1665e-02
10.250	18.500	8.4997e-02
10.250	18.750	7.5898e-02
10.250	19.000	6.4346e-02
10.250	19.250	5.0838e-02
10.250	19.500	3.7247e-02
10.250	19.750	3.3435e-02
10.250	20.000	3.4726e-02
10.250	20.250	3.7327e-02
10.250	20.500	3.9113e-02
10.250	20.750	3.5749e-02
10.250	21.000	3.2061e-02
10.250	21.250	2.9119e-02
10.250	21.500	2.7335e-02
10.250	21.750	2.6223e-02
10.250	22.000	2.5682e-02
10.250	22.250	2.5396e-02
10.250	22.500	2.5233e-02
10.250	22.750	2.5163e-02
10.250	23.000	2.5133e-02
10.250	23.250	2.5119e-02
10.250	23.500	2.5114e-02
10.250	23.750	2.5111e-02
10.250	24.000	2.5109e-02
10.500	17.000	1.0117e-01
10.500	17.250	1.0077e-01
10.500	17.500	1.0019e-01
10.500	17.750	9.9142e-02
10.500	18.000	9.7067e-02
10.500	18.250	9.3607e-02
10.500	18.500	8.8652e-02
10.500	18.750	8.1814e-02
10.500	19.000	7.2851e-02
10.500	19.250	6.1568e-02
10.500	19.500	4.7995e-02
10.500	19.750	3.4962e-02
10.500	20.000	3.3587e-02
10.500	20.250	3.4946e-02
10.500	20.500	3.7455e-02
10.500	20.750	3.9154e-02
10.500	21.000	3.5738e-02
10.500	21.250	3.2063e-02
10.500	21.500	2.9119e-02
10.500	21.750	2.7334e-02
10.500	22.000	2.6223e-02
10.500	22.250	2.5683e-02
10.500	22.500	2.5397e-02
10.500	22.750	2.5233e-02
10.500	23.000	2.5164e-02
10.500	23.250	2.5134e-02
10.500	23.500	2.5120e-02
10.500	23.750	2.5114e-02
10.500	24.000	2.5110e-02
10.750	17.000	1.0103e-01
10.750	17.250	1.0069e-01
10.750	17.500	1.0013e-01
10.750	17.750	9.9134e-02
10.750	18.000	9.7407e-02
10.750	18.250	9.4799e-02
10.750	18.500	9.1206e-02
10.750	18.750	8.6196e-02
10.750	19.000	7.9675e-02
10.750	19.250	7.0821e-02
10.750	19.500	5.9203e-02
10.750	19.750	4.5241e-02
10.750	20.000	3.2512e-02
10.750	20.250	3.3957e-02
10.750	20.500	3.5437e-02
10.750	20.750	3.7895e-02
10.750	21.000	3.9280e-02
10.750	21.250	3.5733e-02
10.750	21.500	3.2062e-02
10.750	21.750	2.9119e-02
10.750	22.000	2.7335e-02
10.750	22.250	2.6223e-02
10.750	22.500	2.5684e-02
10.750	22.750	2.5399e-02
10.750	23.000	2.5233e-02
10.750	23.250	2.5164e-02
10.750	23.500	2.5135e-02
10.750	23.750	2.5121e-02
10.750	24.000	2.5115e-02
11.000	17.000	1.0073e-01
11.000	17.250	1.0050e-01
11.000	17.500	9.9954e-02
11.000	17.750	9.8948e-02
11.000	18.000	9.7391e-02
11.000	18.250	9.5308e-02
11.000	18.500	9.2633e-02
11.000	18.750	8.9349e-02
11.000	19.000	8.4698e-02
11.000	19.250	7.8223e-02
11.000	19.500	6.9125e-02
11.000	19.750	5.7126e-02
11.000	20.000	4.2233e-02
11.000	20.250	3.2525e-02
11.000	20.500	3.4808e-02
11.000	20.750	3.6279e-02
11.000	21.000	3.8751e-02
11.000	21.250	3.9546e-02
11.000	21.500	3.5746e-02
11.000	21.750	3.2060e-02
11.000	22.000	2.9119e-02
11.000	22.250	2.7335e-02
11.000	22.500	2.6223e-02
11.000	22.750	2.5684e-02
11.000	23.000	2.5399e-02
11.000	23.250	2.5234e-02
11.000	23.500	2.5165e-02
11.000	23.750	2.5135e-02
11.000	24.000	2.5122e-02
11.250	17.000	1.0019e-01
11.250	17.250	1.0011e-01
11.250	17.500	9.9595e-02
11.250	17.750	9.8577e-02
11.250	18.000	9.7081e-02
11.250	18.250	9.5276e-02
11.250	18.500	9.3363e-02
11.250	18.750	9.1075e-02
11.250	19.000	8.8016e-02
11.250	19.250	8.3467e-02
11.250	19.500	7.6868e-02
11.250	19.750	6.7598e-02
11.250	20.000	5.5170e-02
11.250	20.250	3.9695e-02
11.250	20.500	3.3133e-02
11.250	20.750	3.5661e-02
11.250	21.000	3.7632e-02
11.250	21.250	4.0216e-02
11.250	21.500	4.0013e-02
11.250	21.750	3.5795e-02
11.250	22.000	3.2055e-02
11.250	22.250	2.9119e-02
11.250	22.500	2.7335e-02
11.250	22.750	2.6222e-02
11.250	23.000	2.5684e-02
11.250	23.250	2.5400e-02
11.250	23.500	2.5236e-02
11.250	23.750	2.5165e-02
11.250	24.000	2.5136e-02
11.500	17.000	9.9329e-02
11.500	17.250	9.9385e-02
11.500	17.500	9.8939e-02
11.500	17.750	9.7903e-02
11.500	18.000	9.6415e-02
11.500	18.250	9.4803e-02
11.500	18.500	9.3323e-02
11.500	18.750	9.1727e-02
11.500	19.000	8.9747e-02
11.500	19.250	8.6748e-02
11.500	19.500	8.2252e-02
11.500	19.750	7.5632e-02
11.500	20.000	6.6248e-02
11.500	20.250	5.3375e-02
11.500	20.500	3.7514e-02
11.500	20.750	3.4230e-02
11.500	21.000	3.7227e-02
11.500	21.250	3.9784e-02
11.500	21.500	4.2605e-02
11.500	21.750	4.0541e-02
11.500	22.000	3.5892e-02
11.500	22.250	3.2051e-02
11.500	22.500	2.9118e-02
11.500	22.750	2.7336e-02
11.500	23.000	2.6222e-02
11.500	23.250	2.5684e-02
11.500	23.500	2.5400e-02
11.500	23.750	2.5237e-02
11.500	24.000	2.5165e-02
11.750	17.000	9.8180e-02
11.750	17.250	9.8227e-02
11.750	17.500	9.7814e-02
11.750	17.750	9.6727e-02
11.750	18.000	9.5220e-02
11.750	18.250	9.3859e-02
11.750	18.500	9.2656e-02
11.750	18.750	9.1502e-02
11.750	19.000	9.0153e-02
11.750	19.250	8.8319e-02
11.750	19.500	8.5483e-02
11.750	19.750	8.1118e-02
11.750	20.000	7.4595e-02
11.750	20.250	6.5063e-02
11.750	20.500	5.1797e-02
11.750	20.750	3.6075e-02
11.750	21.000	3.5743e-02
11.750	21.250	3.9708e-02
11.750	21.500	4.2980e-02
11.750	21.750	4.5603e-02
11.750	22.000	4.1122e-02
11.750	22.250	3.6031e-02
11.750	22.500	3.2048e-02
11.750	22.750	2.9117e-02
11.750	23.000	2.7336e-02
11.750	23.250	2.6221e-02
11.750	23.500	2.5694e-02
11.750	23.750	2.5400e-02
11.750	24.000	2.5238e-02
12.000	17.000	9.6839e-02
12.000	17.250	9.6569e-02
12.000	17.500	9.6004e-02
12.000	17.750	9.4814e-02
12.000	18.000	9.3412e-02
12.000	18.250	9.2320e-02
12.000	18.500	9.1398e-02
12.000	18.750	9.0524e-02
12.000	19.000	8.9572e-02
12.000	19.250	8.8477e-02
12.000	19.500	8.6909e-02
12.000	19.750	8.4347e-02
12.000	20.000	8.0197e-02
12.000	20.250	7.3778e-02
12.000	20.500	6.4116e-02
12.000	20.750	5.0487e-02
12.000	21.000	3.5154e-02
12.000	21.250	3.8376e-02
12.000	21.500	4.3363e-02
12.000	21.750	4.7172e-02
12.000	22.000	4.8060e-02
12.000	22.250	4.1643e-02
12.000	22.500	3.6199e-02
12.000	22.750	3.2048e-02
12.000	23.000	2.9116e-02
12.000	23.250	2.7337e-02
12.000	23.500	2.6221e-02
12.000	23.750	2.5683e-02
12.000	24.000	2.5400e-02
12.250	17.000	9.5242e-02
12.250	17.250	9.4419e-02
12.250	17.500	9.3319e-02
12.250	17.750	9.1991e-02
12.250	18.000	9.0910e-02
12.250	18.250	9.0146e-02
12.250	18.500	8.9553e-02
12.250	18.750	8.8986e-02
12.250	19.000	8.8375e-02
12.250	19.250	8.7752e-02
12.250	19.500	8.6999e-02
12.250	19.750	8.5758e-02
12.250	20.000	8.3444e-02
12.250	20.250	7.9521e-02
12.250	20.500	7.3167e-02
12.250	20.750	6.3426e-02
12.250	21.000	4.9778e-02
12.250	21.250	3.7253e-02
12.250	21.500	4.1905e-02
12.250	21.750	4.7709e-02
12.250	22.000	5.1883e-02
12.250	22.250	4.9616e-02
12.250	22.500	4.2188e-02
12.250	22.750	3.6384e-02
12.250	23.000	3.2052e-02
12.250	23.250	2.9114e-02
12.250	23.500	2.7338e-02
12.250	23.750	2.6220e-02
12.250	24.000	2.5683e-02
12.500	17.000	9.1443e-02
12.500	17.250	9.1380e-02
12.500	17.500	8.9975e-02
12.500	17.750	8.8528e-02
12.500	18.000	8.7728e-02
12.500	18.250	8.7393e-02
12.500	18.500	8.7184e-02
12.500	18.750	8.7025e-02
12.500	19.000	8.6828e-02
12.500	19.250	8.6587e-02
12.500	19.500	8.6303e-02
12.500	19.750	8.5850e-02
12.500	20.000	8.4843e-02
12.500	20.250	8.2709e-02
12.500	20.500	7.9007e-02
12.500	20.750	7.2913e-02
12.500	21.000	6.3257e-02
12.500	21.250	4.9929e-02
12.500	21.500	4.0344e-02
12.500	21.750	4.6548e-02
12.500	22.000	5.3391e-02
12.500	22.250	5.6324e-02
12.500	22.500	5.1148e-02
12.500	22.750	4.2781e-02
12.500	23.000	3.6578e-02
12.500	23.250	3.2061e-02
12.500	23.500	2.9112e-02
12.500	23.750	2.7338e-02
12.500	24.000	2.6218e-02
12.750	17.000	6.9230e-02
12.750	17.250	8.6260e-02
12.750	17.500	8.5790e-02
12.750	17.750	8.4776e-02
12.750	18.000	8.4146e-02
12.750	18.250	8.4026e-02
12.750	18.500	8.4245e-02
12.750	18.750	8.4554e-02
12.750	19.000	8.4864e-02
12.750	19.250	8.5083e-02
12.750	19.500	8.5181e-02
12.750	19.750	8.5147e-02
12.750	20.000	8.4865e-02
12.750	20.250	8.4032e-02
12.750	20.500	8.2132e-02
12.750	20.750	7.8754e-02
12.750	21.000	7.2839e-02
12.750	21.250	6.3666e-02
12.750	21.500	5.1574e-02
12.750	21.750	4.5405e-02
12.750	22.000	5.2536e-02
12.750	22.250	5.9631e-02
12.750	22.500	6.0357e-02
12.750	22.750	5.2483e-02
12.750	23.000	4.3402e-02
12.750	23.250	3.6747e-02
12.750	23.500	3.2067e-02
12.750	23.750	2.9109e-02
12.750	24.000	2.7338e-02
13.000	17.000	1.7647e-02
13.000	17.250	3.3968e-02
13.000	17.500	7.4837e-02
13.000	17.750	7.9782e-02
13.000	18.000	7.9785e-02
13.000	18.250	7.9890e-02
13.000	18.500	8.0505e-02
13.000	18.750	8.1396e-02
13.000	19.000	8.2314e-02
13.000	19.250	8.3099e-02
13.000	19.500	8.3665e-02
13.000	19.750	8.3993e-02
13.000	20.000	8.4106e-02
13.000	20.250	8.3950e-02
13.000	20.500	8.3346e-02
13.000	20.750	8.1677e-02
13.000	21.000	7.8630e-02
13.000	21.250	7.3243e-02
13.000	21.500	6.4814e-02
13.000	21.750	5.3600e-02
13.000	22.000	5.1792e-02
13.000	22.250	5.8263e-02
13.000	22.500	6.4888e-02
13.000	22.750	6.3797e-02
13.000	23.000	5.3962e-02
13.000	23.250	4.3985e-02
13.000	23.500	3.6911e-02
13.000	23.750	3.2081e-02
13.000	24.000	2.9107e-02
13.250	17.000	1.3383e-02
13.250	17.250	2.0063e-02
13.250	17.500	3.7583e-02
13.250	17.750	5.7684e-02
13.250	18.000	7.3873e-02
13.250	18.250	7.4457e-02
13.250	18.500	7.5585e-02
13.250	18.750	7.7164e-02
13.250	19.000	7.8873e-02
13.250	19.250	8.0360e-02
13.250	19.500	8.1549e-02
13.250	19.750	8.2391e-02
13.250	20.000	8.2884e-02
13.250	20.250	8.3082e-02
13.250	20.500	8.3006e-02
13.250	20.750	8.2484e-02
13.250	21.000	8.1045e-02
13.250	21.250	7.8252e-02
13.250	21.500	7.3361e-02
13.250	21.750	6.5358e-02
13.250	22.000	5.4879e-02
13.250	22.250	5.5899e-02
13.250	22.500	6.3787e-02
13.250	22.750	6.9201e-02
13.250	23.000	6.7059e-02
13.250	23.250	5.5157e-02
13.250	23.500	4.4456e-02
13.250	23.750	3.7050e-02
13.250	24.000	3.2102e-02
13.500	17.000	1.0793e-02
13.500	17.250	1.4761e-02
13.500	17.500	2.5599e-02
13.500	17.750	4.2839e-02
13.500	18.000	5.7459e-02
13.500	18.250	6.7769e-02
13.500	18.500	6.9402e-02
13.500	18.750	7.1526e-02
13.500	19.000	7.4122e-02
13.500	19.250	7.6553e-02
13.500	19.500	7.8538e-02
13.500	19.750	8.0069e-02
13.500	20.000	8.1136e-02
13.500	20.250	8.1780e-02
13.500	20.500	8.2033e-02
13.500	20.750	8.1917e-02
13.500	21.000	8.1231e-02
13.500	21.250	7.9832e-02
13.500	21.500	7.6860e-02
13.500	21.750	7.0736e-02
13.500	22.000	6.1807e-02
13.500	22.250	5.5104e-02
13.500	22.500	6.0909e-02
13.500	22.750	6.8695e-02
13.500	23.000	7.2941e-02
13.500	23.250	7.0213e-02
13.500	23.500	5.6366e-02
13.500	23.750	4.5137e-02
13.500	24.000	3.7165e-02
13.750	17.000	9.0752e-03
13.750	17.250	1.2390e-02
13.750	17.500	1.9190e-02
13.750	17.750	2.8547e-02
13.750	18.000	4.4578e-02
13.750	18.250	5.4073e-02
13.750	18.500	6.2368e-02
13.750	18.750	6.4881e-02
13.750	19.000	6.7944e-02
13.750	19.250	7.1290e-02
13.750	19.500	7.4365e-02
13.750	19.750	7.6791e-02
13.750	20.000	7.8584e-02
13.750	20.250	7.9887e-02
13.750	20.500	8.0693e-02
13.750	20.750	8.0983e-02
13.750	21.000	8.0715e-02
13.750	21.250	7.9726e-02
13.750	21.500	7.7861e-02
13.750	21.750	7.3579e-02
13.750	22.000	6.6582e-02
13.750	22.250	5.8415e-02
13.750	22.500	5.7704e-02
13.750	22.750	6.8042e-02
13.750	23.000	7.4694e-02
13.750	23.250	7.8049e-02
13.750	23.500	7.3345e-02
13.750	23.750	5.7679e-02
13.750	24.000	4.5518e-02
14.000	17.000	8.0912e-03
14.000	17.250	1.0256e-02
14.000	17.500	1.5361e-02
14.000	17.750	2.1797e-02
14.000	18.000	3.1147e-02
14.000	18.250	4.3866e-02
14.000	18.500	5.1229e-02
14.000	18.750	5.7580e-02
14.000	19.000	6.0993e-02
14.000	19.250	6.4754e-02
14.000	19.500	6.8647e-02
14.000	19.750	7.2193e-02
14.000	20.000	7.5015e-02
14.000	20.250	7.7120e-02
14.000	20.500	7.8633e-02
14.000	20.750	7.9584e-02
14.000	21.000	7.9918e-02
14.000	21.250	7.9537e-02
14.000	21.500	7.8415e-02
14.000	21.750	7.5416e-02
14.000	22.000	7.0037e-02
14.000	22.250	6.2570e-02
14.000	22.500	5.7584e-02
14.000	22.750	6.5900e-02
14.000	23.000	7.7312e-02
14.000	23.250	8.3080e-02
14.000	23.500	8.4159e-02
14.000	23.750	7.6689e-02
14.000	24.000	5.8754e-02
