nFnu 1064.34A  relative to Inci 1215.00A scaled to 1215A.
Hden   Phi(H)  Eq_Width (A)
 7.000	17.000	5.2912e-02
 7.000	17.250	5.1643e-02
 7.000	17.500	4.5400e-02
 7.000	17.750	3.8784e-02
 7.000	18.000	3.3233e-02
 7.000	18.250	2.9670e-02
 7.000	18.500	2.7401e-02
 7.000	18.750	2.6281e-02
 7.000	19.000	2.5690e-02
 7.000	19.250	2.5354e-02
 7.000	19.500	2.5211e-02
 7.000	19.750	2.5151e-02
 7.000	20.000	2.5124e-02
 7.000	20.250	2.5112e-02
 7.000	20.500	2.5106e-02
 7.000	20.750	2.5102e-02
 7.000	21.000	2.5101e-02
 7.000	21.250	2.5100e-02
 7.000	21.500	2.5100e-02
 7.000	21.750	2.5099e-02
 7.000	22.000	2.5099e-02
 7.000	22.250	2.5099e-02
 7.000	22.500	2.5099e-02
 7.000	22.750	2.5099e-02
 7.000	23.000	2.5099e-02
 7.000	23.250	2.5099e-02
 7.000	23.500	2.5099e-02
 7.000	23.750	2.5099e-02
 7.000	24.000	2.5099e-02
 7.250	17.000	5.4374e-02
 7.250	17.250	5.1608e-02
 7.250	17.500	5.1252e-02
 7.250	17.750	4.5212e-02
 7.250	18.000	3.8689e-02
 7.250	18.250	3.3180e-02
 7.250	18.500	2.9644e-02
 7.250	18.750	2.7392e-02
 7.250	19.000	2.6277e-02
 7.250	19.250	2.5689e-02
 7.250	19.500	2.5353e-02
 7.250	19.750	2.5211e-02
 7.250	20.000	2.5151e-02
 7.250	20.250	2.5124e-02
 7.250	20.500	2.5112e-02
 7.250	20.750	2.5105e-02
 7.250	21.000	2.5102e-02
 7.250	21.250	2.5100e-02
 7.250	21.500	2.5100e-02
 7.250	21.750	2.5099e-02
 7.250	22.000	2.5102e-02
 7.250	22.250	2.5099e-02
 7.250	22.500	2.5099e-02
 7.250	22.750	2.5099e-02
 7.250	23.000	2.5099e-02
 7.250	23.250	2.5100e-02
 7.250	23.500	2.5099e-02
 7.250	23.750	2.5100e-02
 7.250	24.000	2.5099e-02
 7.500	17.000	4.3839e-02
 7.500	17.250	5.1486e-02
 7.500	17.500	5.0514e-02
 7.500	17.750	5.1037e-02
 7.500	18.000	4.5118e-02
 7.500	18.250	3.8640e-02
 7.500	18.500	3.3148e-02
 7.500	18.750	2.9628e-02
 7.500	19.000	2.7386e-02
 7.500	19.250	2.6275e-02
 7.500	19.500	2.5688e-02
 7.500	19.750	2.5353e-02
 7.500	20.000	2.5211e-02
 7.500	20.250	2.5151e-02
 7.500	20.500	2.5124e-02
 7.500	20.750	2.5112e-02
 7.500	21.000	2.5105e-02
 7.500	21.250	2.5102e-02
 7.500	21.500	2.5100e-02
 7.500	21.750	2.5099e-02
 7.500	22.000	2.5099e-02
 7.500	22.250	2.5099e-02
 7.500	22.500	2.5099e-02
 7.500	22.750	2.5099e-02
 7.500	23.000	2.5099e-02
 7.500	23.250	2.5099e-02
 7.500	23.500	2.5099e-02
 7.500	23.750	2.5099e-02
 7.500	24.000	2.5099e-02
 7.750	17.000	3.1984e-02
 7.750	17.250	4.0820e-02
 7.750	17.500	4.8912e-02
 7.750	17.750	4.9639e-02
 7.750	18.000	5.0925e-02
 7.750	18.250	4.5084e-02
 7.750	18.500	3.8621e-02
 7.750	18.750	3.3130e-02
 7.750	19.000	2.9618e-02
 7.750	19.250	2.7382e-02
 7.750	19.500	2.6273e-02
 7.750	19.750	2.5687e-02
 7.750	20.000	2.5353e-02
 7.750	20.250	2.5211e-02
 7.750	20.500	2.5151e-02
 7.750	20.750	2.5124e-02
 7.750	21.000	2.5112e-02
 7.750	21.250	2.5105e-02
 7.750	21.500	2.5102e-02
 7.750	21.750	2.5100e-02
 7.750	22.000	2.5099e-02
 7.750	22.250	2.5099e-02
 7.750	22.500	2.5099e-02
 7.750	22.750	2.5098e-02
 7.750	23.000	2.5099e-02
 7.750	23.250	2.5098e-02
 7.750	23.500	2.5098e-02
 7.750	23.750	2.5098e-02
 7.750	24.000	2.5098e-02
 8.000	17.000	2.3147e-02
 8.000	17.250	2.8816e-02
 8.000	17.500	3.8113e-02
 8.000	17.750	4.6691e-02
 8.000	18.000	4.8938e-02
 8.000	18.250	5.0869e-02
 8.000	18.500	4.5089e-02
 8.000	18.750	3.8623e-02
 8.000	19.000	3.3120e-02
 8.000	19.250	2.9612e-02
 8.000	19.500	2.7380e-02
 8.000	19.750	2.6272e-02
 8.000	20.000	2.5687e-02
 8.000	20.250	2.5353e-02
 8.000	20.500	2.5211e-02
 8.000	20.750	2.5151e-02
 8.000	21.000	2.5124e-02
 8.000	21.250	2.5112e-02
 8.000	21.500	2.5105e-02
 8.000	21.750	2.5102e-02
 8.000	22.000	2.5100e-02
 8.000	22.250	2.5099e-02
 8.000	22.500	2.5099e-02
 8.000	22.750	2.5099e-02
 8.000	23.000	2.5098e-02
 8.000	23.250	2.5098e-02
 8.000	23.500	2.5098e-02
 8.000	23.750	2.5098e-02
 8.000	24.000	2.5101e-02
 8.250	17.000	1.7951e-02
 8.250	17.250	2.0835e-02
 8.250	17.500	2.6781e-02
 8.250	17.750	3.6447e-02
 8.250	18.000	4.5315e-02
 8.250	18.250	4.8497e-02
 8.250	18.500	5.0840e-02
 8.250	18.750	4.5119e-02
 8.250	19.000	3.8637e-02
 8.250	19.250	3.3115e-02
 8.250	19.500	2.9609e-02
 8.250	19.750	2.7378e-02
 8.250	20.000	2.6272e-02
 8.250	20.250	2.5687e-02
 8.250	20.500	2.5353e-02
 8.250	20.750	2.5211e-02
 8.250	21.000	2.5150e-02
 8.250	21.250	2.5124e-02
 8.250	21.500	2.5112e-02
 8.250	21.750	2.5105e-02
 8.250	22.000	2.5102e-02
 8.250	22.250	2.5100e-02
 8.250	22.500	2.5099e-02
 8.250	22.750	2.5099e-02
 8.250	23.000	2.5099e-02
 8.250	23.250	2.5099e-02
 8.250	23.500	2.5098e-02
 8.250	23.750	2.5098e-02
 8.250	24.000	2.5098e-02
 8.500	17.000	1.4905e-02
 8.500	17.250	1.6184e-02
 8.500	17.500	1.9288e-02
 8.500	17.750	2.5370e-02
 8.500	18.000	3.5358e-02
 8.500	18.250	4.4427e-02
 8.500	18.500	4.8190e-02
 8.500	18.750	5.0828e-02
 8.500	19.000	4.5168e-02
 8.500	19.250	3.8661e-02
 8.500	19.500	3.3114e-02
 8.500	19.750	2.9606e-02
 8.500	20.000	2.7377e-02
 8.500	20.250	2.6271e-02
 8.500	20.500	2.5687e-02
 8.500	20.750	2.5353e-02
 8.500	21.000	2.5211e-02
 8.500	21.250	2.5151e-02
 8.500	21.500	2.5124e-02
 8.500	21.750	2.5112e-02
 8.500	22.000	2.5105e-02
 8.500	22.250	2.5102e-02
 8.500	22.500	2.5100e-02
 8.500	22.750	2.5100e-02
 8.500	23.000	2.5099e-02
 8.500	23.250	2.5098e-02
 8.500	23.500	2.5098e-02
 8.500	23.750	2.5098e-02
 8.500	24.000	2.5098e-02
 8.750	17.000	1.3237e-02
 8.750	17.250	1.3582e-02
 8.750	17.500	1.5055e-02
 8.750	17.750	1.8294e-02
 8.750	18.000	2.4595e-02
 8.750	18.250	3.4811e-02
 8.750	18.500	4.3874e-02
 8.750	18.750	4.7995e-02
 8.750	19.000	5.0816e-02
 8.750	19.250	4.5229e-02
 8.750	19.500	3.8690e-02
 8.750	19.750	3.3115e-02
 8.750	20.000	2.9605e-02
 8.750	20.250	2.7376e-02
 8.750	20.500	2.6271e-02
 8.750	20.750	2.5687e-02
 8.750	21.000	2.5353e-02
 8.750	21.250	2.5211e-02
 8.750	21.500	2.5150e-02
 8.750	21.750	2.5124e-02
 8.750	22.000	2.5112e-02
 8.750	22.250	2.5105e-02
 8.750	22.500	2.5102e-02
 8.750	22.750	2.5100e-02
 8.750	23.000	2.5099e-02
 8.750	23.250	2.5099e-02
 8.750	23.500	2.5099e-02
 8.750	23.750	2.5098e-02
 8.750	24.000	2.5098e-02
 9.000	17.000	1.2491e-02
 9.000	17.250	1.2250e-02
 9.000	17.500	1.2775e-02
 9.000	17.750	1.4388e-02
 9.000	18.000	1.7835e-02
 9.000	18.250	2.4471e-02
 9.000	18.500	3.4965e-02
 9.000	18.750	4.3523e-02
 9.000	19.000	4.7839e-02
 9.000	19.250	5.0794e-02
 9.000	19.500	4.5289e-02
 9.000	19.750	3.8722e-02
 9.000	20.000	3.3116e-02
 9.000	20.250	2.9604e-02
 9.000	20.500	2.7376e-02
 9.000	20.750	2.6271e-02
 9.000	21.000	2.5687e-02
 9.000	21.250	2.5353e-02
 9.000	21.500	2.5211e-02
 9.000	21.750	2.5150e-02
 9.000	22.000	2.5124e-02
 9.000	22.250	2.5112e-02
 9.000	22.500	2.5105e-02
 9.000	22.750	2.5102e-02
 9.000	23.000	2.5100e-02
 9.000	23.250	2.5099e-02
 9.000	23.500	2.5099e-02
 9.000	23.750	2.5098e-02
 9.000	24.000	2.5099e-02
 9.250	17.000	1.2412e-02
 9.250	17.250	1.1724e-02
 9.250	17.500	1.1671e-02
 9.250	17.750	1.2381e-02
 9.250	18.000	1.4289e-02
 9.250	18.250	1.8166e-02
 9.250	18.500	2.5410e-02
 9.250	18.750	3.6054e-02
 9.250	19.000	4.3210e-02
 9.250	19.250	4.7688e-02
 9.250	19.500	5.0755e-02
 9.250	19.750	4.5341e-02
 9.250	20.000	3.8752e-02
 9.250	20.250	3.3118e-02
 9.250	20.500	2.9603e-02
 9.250	20.750	2.7375e-02
 9.250	21.000	2.6271e-02
 9.250	21.250	2.5687e-02
 9.250	21.500	2.5349e-02
 9.250	21.750	2.5206e-02
 9.250	22.000	2.5146e-02
 9.250	22.250	2.5120e-02
 9.250	22.500	2.5111e-02
 9.250	22.750	2.5105e-02
 9.250	23.000	2.5102e-02
 9.250	23.250	2.5100e-02
 9.250	23.500	2.5099e-02
 9.250	23.750	2.5099e-02
 9.250	24.000	2.5098e-02
 9.500	17.000	1.2865e-02
 9.500	17.250	1.1774e-02
 9.500	17.500	1.1311e-02
 9.500	17.750	1.1521e-02
 9.500	18.000	1.2567e-02
 9.500	18.250	1.4882e-02
 9.500	18.500	1.9407e-02
 9.500	18.750	2.7587e-02
 9.500	19.000	3.7883e-02
 9.500	19.250	4.2844e-02
 9.500	19.500	4.7512e-02
 9.500	19.750	5.0697e-02
 9.500	20.000	4.5375e-02
 9.500	20.250	3.8779e-02
 9.500	20.500	3.3120e-02
 9.500	20.750	2.9601e-02
 9.500	21.000	2.7371e-02
 9.500	21.250	2.6266e-02
 9.500	21.500	2.5682e-02
 9.500	21.750	2.5346e-02
 9.500	22.000	2.5203e-02
 9.500	22.250	2.5143e-02
 9.500	22.500	2.5116e-02
 9.500	22.750	2.5104e-02
 9.500	23.000	2.5098e-02
 9.500	23.250	2.5095e-02
 9.500	23.500	2.5093e-02
 9.500	23.750	2.5093e-02
 9.500	24.000	2.5092e-02
 9.750	17.000	1.3824e-02
 9.750	17.250	1.2274e-02
 9.750	17.500	1.1444e-02
 9.750	17.750	1.1320e-02
 9.750	18.000	1.1944e-02
 9.750	18.250	1.3428e-02
 9.750	18.500	1.6307e-02
 9.750	18.750	2.1634e-02
 9.750	19.000	3.0640e-02
 9.750	19.250	3.9227e-02
 9.750	19.500	4.2514e-02
 9.750	19.750	4.7309e-02
 9.750	20.000	5.0622e-02
 9.750	20.250	4.5385e-02
 9.750	20.500	3.8799e-02
 9.750	20.750	3.3121e-02
 9.750	21.000	2.9601e-02
 9.750	21.250	2.7371e-02
 9.750	21.500	2.6266e-02
 9.750	21.750	2.5682e-02
 9.750	22.000	2.5347e-02
 9.750	22.250	2.5203e-02
 9.750	22.500	2.5143e-02
 9.750	22.750	2.5116e-02
 9.750	23.000	2.5104e-02
 9.750	23.250	2.5098e-02
 9.750	23.500	2.5094e-02
 9.750	23.750	2.5093e-02
 9.750	24.000	2.5092e-02
10.000	17.000	1.5324e-02
10.000	17.250	1.3230e-02
10.000	17.500	1.1958e-02
10.000	17.750	1.1548e-02
10.000	18.000	1.1995e-02
10.000	18.250	1.3079e-02
10.000	18.500	1.5044e-02
10.000	18.750	1.8588e-02
10.000	19.000	2.4942e-02
10.000	19.250	3.4102e-02
10.000	19.500	3.9612e-02
10.000	19.750	4.2350e-02
10.000	20.000	4.7080e-02
10.000	20.250	5.0547e-02
10.000	20.500	4.5382e-02
10.000	20.750	3.8816e-02
10.000	21.000	3.3123e-02
10.000	21.250	2.9601e-02
10.000	21.500	2.7373e-02
10.000	21.750	2.6267e-02
10.000	22.000	2.5682e-02
10.000	22.250	2.5348e-02
10.000	22.500	2.5204e-02
10.000	22.750	2.5143e-02
10.000	23.000	2.5117e-02
10.000	23.250	2.5104e-02
10.000	23.500	2.5098e-02
10.000	23.750	2.5094e-02
10.000	24.000	2.5093e-02
10.250	17.000	1.7454e-02
10.250	17.250	1.4721e-02
10.250	17.500	1.2954e-02
10.250	17.750	1.2234e-02
10.250	18.000	1.2546e-02
10.250	18.250	1.3438e-02
10.250	18.500	1.4944e-02
10.250	18.750	1.7540e-02
10.250	19.000	2.2156e-02
10.250	19.250	2.9007e-02
10.250	19.500	3.6337e-02
10.250	19.750	3.9920e-02
10.250	20.000	4.2413e-02
10.250	20.250	4.7039e-02
10.250	20.500	5.0496e-02
10.250	20.750	4.5365e-02
10.250	21.000	3.8825e-02
10.250	21.250	3.3124e-02
10.250	21.500	2.9601e-02
10.250	21.750	2.7373e-02
10.250	22.000	2.6269e-02
10.250	22.250	2.5683e-02
10.250	22.500	2.5348e-02
10.250	22.750	2.5205e-02
10.250	23.000	2.5143e-02
10.250	23.250	2.5116e-02
10.250	23.500	2.5104e-02
10.250	23.750	2.5098e-02
10.250	24.000	2.5095e-02
10.500	17.000	2.0240e-02
10.500	17.250	1.6862e-02
10.500	17.500	1.4536e-02
10.500	17.750	1.3495e-02
10.500	18.000	1.3609e-02
10.500	18.250	1.4415e-02
10.500	18.500	1.5551e-02
10.500	18.750	1.7334e-02
10.500	19.000	2.0058e-02
10.500	19.250	2.4387e-02
10.500	19.500	3.1178e-02
10.500	19.750	3.6712e-02
10.500	20.000	4.0175e-02
10.500	20.250	4.2778e-02
10.500	20.500	4.7275e-02
10.500	20.750	5.0588e-02
10.500	21.000	4.5344e-02
10.500	21.250	3.8830e-02
10.500	21.500	3.3124e-02
10.500	21.750	2.9600e-02
10.500	22.000	2.7373e-02
10.500	22.250	2.6270e-02
10.500	22.500	2.5684e-02
10.500	22.750	2.5349e-02
10.500	23.000	2.5206e-02
10.500	23.250	2.5145e-02
10.500	23.500	2.5117e-02
10.500	23.750	2.5104e-02
10.500	24.000	2.5098e-02
10.750	17.000	2.3690e-02
10.750	17.250	1.9681e-02
10.750	17.500	1.6852e-02
10.750	17.750	1.5470e-02
10.750	18.000	1.5287e-02
10.750	18.250	1.5712e-02
10.750	18.500	1.6442e-02
10.750	18.750	1.7537e-02
10.750	19.000	1.8813e-02
10.750	19.250	2.1381e-02
10.750	19.500	2.6141e-02
10.750	19.750	3.2968e-02
10.750	20.000	3.7505e-02
10.750	20.250	4.0804e-02
10.750	20.500	4.3615e-02
10.750	20.750	4.8067e-02
10.750	21.000	5.0858e-02
10.750	21.250	4.5335e-02
10.750	21.500	3.8829e-02
10.750	21.750	3.3123e-02
10.750	22.000	2.9601e-02
10.750	22.250	2.7372e-02
10.750	22.500	2.6271e-02
10.750	22.750	2.5686e-02
10.750	23.000	2.5349e-02
10.750	23.250	2.5206e-02
10.750	23.500	2.5145e-02
10.750	23.750	2.5118e-02
10.750	24.000	2.5105e-02
11.000	17.000	2.7783e-02
11.000	17.250	2.3159e-02
11.000	17.500	1.9898e-02
11.000	17.750	1.8215e-02
11.000	18.000	1.7657e-02
11.000	18.250	1.7512e-02
11.000	18.500	1.7719e-02
11.000	18.750	1.7884e-02
11.000	19.000	1.8350e-02
11.000	19.250	1.9583e-02
11.000	19.500	2.2532e-02
11.000	19.750	2.7748e-02
11.000	20.000	3.4745e-02
11.000	20.250	3.8391e-02
11.000	20.500	4.2232e-02
11.000	20.750	4.5079e-02
11.000	21.000	4.9611e-02
11.000	21.250	5.1422e-02
11.000	21.500	4.5369e-02
11.000	21.750	3.8823e-02
11.000	22.000	3.3123e-02
11.000	22.250	2.9601e-02
11.000	22.500	2.7372e-02
11.000	22.750	2.6271e-02
11.000	23.000	2.5687e-02
11.000	23.250	2.5349e-02
11.000	23.500	2.5206e-02
11.000	23.750	2.5146e-02
11.000	24.000	2.5119e-02
11.250	17.000	3.2340e-02
11.250	17.250	2.7180e-02
11.250	17.500	2.3561e-02
11.250	17.750	2.1662e-02
11.250	18.000	2.0728e-02
11.250	18.250	1.9944e-02
11.250	18.500	1.9107e-02
11.250	18.750	1.8770e-02
11.250	19.000	1.8554e-02
11.250	19.250	1.8881e-02
11.250	19.500	2.0372e-02
11.250	19.750	2.3648e-02
11.250	20.000	2.9316e-02
11.250	20.250	3.6392e-02
11.250	20.500	3.9478e-02
11.250	20.750	4.3744e-02
11.250	21.000	4.7453e-02
11.250	21.250	5.2243e-02
11.250	21.500	5.2411e-02
11.250	21.750	4.5482e-02
11.250	22.000	3.8814e-02
11.250	22.250	3.3121e-02
11.250	22.500	2.9601e-02
11.250	22.750	2.7371e-02
11.250	23.000	2.6271e-02
11.250	23.250	2.5687e-02
11.250	23.500	2.5352e-02
11.250	23.750	2.5207e-02
11.250	24.000	2.5146e-02
11.500	17.000	3.6957e-02
11.500	17.250	3.1595e-02
11.500	17.500	2.7728e-02
11.500	17.750	2.5624e-02
11.500	18.000	2.4354e-02
11.500	18.250	2.2941e-02
11.500	18.500	2.1304e-02
11.500	18.750	2.0182e-02
11.500	19.000	1.9303e-02
11.500	19.250	1.9039e-02
11.500	19.500	1.9383e-02
11.500	19.750	2.1106e-02
11.500	20.000	2.4755e-02
11.500	20.250	3.0981e-02
11.500	20.500	3.8166e-02
11.500	20.750	4.1393e-02
11.500	21.000	4.6468e-02
11.500	21.250	5.1227e-02
11.500	21.500	5.6495e-02
11.500	21.750	5.3542e-02
11.500	22.000	4.5708e-02
11.500	22.250	3.8804e-02
11.500	22.500	3.3119e-02
11.500	22.750	2.9603e-02
11.500	23.000	2.7370e-02
11.500	23.250	2.6271e-02
11.500	23.500	2.5687e-02
11.500	23.750	2.5353e-02
11.500	24.000	2.5207e-02
11.750	17.000	4.0446e-02
11.750	17.250	3.5722e-02
11.750	17.500	3.1969e-02
11.750	17.750	2.9789e-02
11.750	18.000	2.8262e-02
11.750	18.250	2.6341e-02
11.750	18.500	2.4226e-02
11.750	18.750	2.2150e-02
11.750	19.000	2.0743e-02
11.750	19.250	1.9675e-02
11.750	19.500	1.9325e-02
11.750	19.750	1.9804e-02
11.750	20.000	2.1781e-02
11.750	20.250	2.5884e-02
11.750	20.500	3.2746e-02
11.750	20.750	3.9532e-02
11.750	21.000	4.4053e-02
11.750	21.250	5.0765e-02
11.750	21.500	5.6837e-02
11.750	21.750	6.1861e-02
11.750	22.000	5.4802e-02
11.750	22.250	4.6034e-02
11.750	22.500	3.8798e-02
11.750	22.750	3.3115e-02
11.750	23.000	2.9604e-02
11.750	23.250	2.7370e-02
11.750	23.500	2.6282e-02
11.750	23.750	2.5687e-02
11.750	24.000	2.5353e-02
12.000	17.000	3.8381e-02
12.000	17.250	3.7602e-02
12.000	17.500	3.5076e-02
12.000	17.750	3.3340e-02
12.000	18.000	3.1881e-02
12.000	18.250	2.9917e-02
12.000	18.500	2.7515e-02
12.000	18.750	2.4849e-02
12.000	19.000	2.2750e-02
12.000	19.250	2.0838e-02
12.000	19.500	1.9809e-02
12.000	19.750	1.9473e-02
12.000	20.000	2.0151e-02
12.000	20.250	2.2440e-02
12.000	20.500	2.7057e-02
12.000	20.750	3.4731e-02
12.000	21.000	4.3002e-02
12.000	21.250	4.8573e-02
12.000	21.500	5.7105e-02
12.000	21.750	6.4215e-02
12.000	22.000	6.6506e-02
12.000	22.250	5.5956e-02
12.000	22.500	4.6432e-02
12.000	22.750	3.8802e-02
12.000	23.000	3.3112e-02
12.000	23.250	2.9605e-02
12.000	23.500	2.7368e-02
12.000	23.750	2.6270e-02
12.000	24.000	2.5688e-02
12.250	17.000	2.2332e-02
12.250	17.250	2.9861e-02
12.250	17.500	3.3873e-02
12.250	17.750	3.4568e-02
12.250	18.000	3.4295e-02
12.250	18.250	3.2979e-02
12.250	18.500	3.0663e-02
12.250	18.750	2.7842e-02
12.250	19.000	2.5236e-02
12.250	19.250	2.2627e-02
12.250	19.500	2.0807e-02
12.250	19.750	1.9786e-02
12.250	20.000	1.9530e-02
12.250	20.250	2.0462e-02
12.250	20.500	2.3124e-02
12.250	20.750	2.8384e-02
12.250	21.000	3.7606e-02
12.250	21.250	4.7376e-02
12.250	21.500	5.4647e-02
12.250	21.750	6.4723e-02
12.250	22.000	7.2581e-02
12.250	22.250	6.9737e-02
12.250	22.500	5.7175e-02
12.250	22.750	4.6876e-02
12.250	23.000	3.8818e-02
12.250	23.250	3.3108e-02
12.250	23.500	2.9607e-02
12.250	23.750	2.7367e-02
12.250	24.000	2.6269e-02
12.500	17.000	2.1219e-02
12.500	17.250	2.1232e-02
12.500	17.500	2.1516e-02
12.500	17.750	2.9865e-02
12.500	18.000	3.3461e-02
12.500	18.250	3.3803e-02
12.500	18.500	3.2422e-02
12.500	18.750	3.0178e-02
12.500	19.000	2.7459e-02
12.500	19.250	2.4813e-02
12.500	19.500	2.2349e-02
12.500	19.750	2.0582e-02
12.500	20.000	1.9637e-02
12.500	20.250	1.9533e-02
12.500	20.500	2.0778e-02
12.500	20.750	2.4020e-02
12.500	21.000	3.0436e-02
12.500	21.250	4.1756e-02
12.500	21.500	5.3281e-02
12.500	21.750	6.2633e-02
12.500	22.000	7.4663e-02
12.500	22.250	8.0651e-02
12.500	22.500	7.2964e-02
12.500	22.750	5.8498e-02
12.500	23.000	4.7347e-02
12.500	23.250	3.8850e-02
12.500	23.500	3.3104e-02
12.500	23.750	2.9608e-02
12.500	24.000	2.7365e-02
12.750	17.000	2.0603e-02
12.750	17.250	2.0846e-02
12.750	17.500	2.1112e-02
12.750	17.750	2.1305e-02
12.750	18.000	2.1891e-02
12.750	18.250	2.8417e-02
12.750	18.500	3.0460e-02
12.750	18.750	3.0365e-02
12.750	19.000	2.8901e-02
12.750	19.250	2.6753e-02
12.750	19.500	2.4131e-02
12.750	19.750	2.1822e-02
12.750	20.000	2.0040e-02
12.750	20.250	1.9371e-02
12.750	20.500	1.9551e-02
12.750	20.750	2.1258e-02
12.750	21.000	2.5248e-02
12.750	21.250	3.3385e-02
12.750	21.500	4.7085e-02
12.750	21.750	6.1386e-02
12.750	22.000	7.2901e-02
12.750	22.250	8.5629e-02
12.750	22.500	8.8203e-02
12.750	22.750	7.5834e-02
12.750	23.000	5.9911e-02
12.750	23.250	4.7766e-02
12.750	23.500	3.8874e-02
12.750	23.750	3.3101e-02
12.750	24.000	2.9608e-02
13.000	17.000	3.9781e-02
13.000	17.250	2.3232e-02
13.000	17.500	1.9933e-02
13.000	17.750	2.0174e-02
13.000	18.000	2.0357e-02
13.000	18.250	2.0344e-02
13.000	18.500	2.0040e-02
13.000	18.750	2.3682e-02
13.000	19.000	2.6972e-02
13.000	19.250	2.6991e-02
13.000	19.500	2.5448e-02
13.000	19.750	2.3228e-02
13.000	20.000	2.1127e-02
13.000	20.250	1.9502e-02
13.000	20.500	1.9073e-02
13.000	20.750	1.9655e-02
13.000	21.000	2.2108e-02
13.000	21.250	2.7342e-02
13.000	21.500	3.6675e-02
13.000	21.750	5.4802e-02
13.000	22.000	7.1682e-02
13.000	22.250	8.2827e-02
13.000	22.500	9.5151e-02
13.000	22.750	9.4967e-02
13.000	23.000	7.9017e-02
13.000	23.250	6.1246e-02
13.000	23.500	4.8176e-02
13.000	23.750	3.8922e-02
13.000	24.000	3.3099e-02
13.250	17.000	3.8070e-02
13.250	17.250	3.3356e-02
13.250	17.500	1.8765e-02
13.250	17.750	1.8941e-02
13.250	18.000	1.9193e-02
13.250	18.250	1.9390e-02
13.250	18.500	1.9369e-02
13.250	18.750	1.9080e-02
13.250	19.000	1.8540e-02
13.250	19.250	2.1998e-02
13.250	19.500	2.4416e-02
13.250	19.750	2.3841e-02
13.250	20.000	2.2119e-02
13.250	20.250	2.0292e-02
13.250	20.500	1.8978e-02
13.250	20.750	1.8716e-02
13.250	21.000	1.9755e-02
13.250	21.250	2.2886e-02
13.250	21.500	2.8756e-02
13.250	21.750	4.1123e-02
13.250	22.000	6.1595e-02
13.250	22.250	7.8511e-02
13.250	22.500	9.2586e-02
13.250	22.750	1.0339e-01
13.250	23.000	1.0161e-01
13.250	23.250	8.1653e-02
13.250	23.500	6.2353e-02
13.250	23.750	4.8531e-02
13.250	24.000	3.8988e-02
13.500	17.000	3.6365e-02
13.500	17.250	3.3359e-02
13.500	17.500	1.7687e-02
13.500	17.750	1.7720e-02
13.500	18.000	1.7980e-02
13.500	18.250	1.8273e-02
13.500	18.500	1.8440e-02
13.500	18.750	1.8384e-02
13.500	19.000	1.8095e-02
13.500	19.250	1.7582e-02
13.500	19.500	1.6865e-02
13.500	19.750	2.1021e-02
13.500	20.000	2.1849e-02
13.500	20.250	2.0831e-02
13.500	20.500	1.9358e-02
13.500	20.750	1.8253e-02
13.500	21.000	1.8055e-02
13.500	21.250	1.9646e-02
13.500	21.500	2.2751e-02
13.500	21.750	2.8779e-02
13.500	22.000	4.1506e-02
13.500	22.250	6.7057e-02
13.500	22.500	8.7151e-02
13.500	22.750	1.0166e-01
13.500	23.000	1.1104e-01
13.500	23.250	1.0823e-01
13.500	23.500	8.4346e-02
13.500	23.750	6.3923e-02
13.500	24.000	4.8840e-02
13.750	17.000	3.4395e-02
13.750	17.250	3.1473e-02
13.750	17.500	1.7512e-02
13.750	17.750	1.6559e-02
13.750	18.000	1.6769e-02
13.750	18.250	1.7107e-02
13.750	18.500	1.7373e-02
13.750	18.750	1.7468e-02
13.750	19.000	1.7368e-02
13.750	19.250	1.7079e-02
13.750	19.500	1.6602e-02
13.750	19.750	1.5956e-02
13.750	20.000	1.6131e-02
13.750	20.250	1.9429e-02
13.750	20.500	1.9319e-02
13.750	20.750	1.8380e-02
13.750	21.000	1.7599e-02
13.750	21.250	1.7655e-02
13.750	21.500	1.8970e-02
13.750	21.750	2.2207e-02
13.750	22.000	2.9148e-02
13.750	22.250	4.4756e-02
13.750	22.500	7.6019e-02
13.750	22.750	9.9571e-02
13.750	23.000	1.1302e-01
13.750	23.250	1.2120e-01
13.750	23.500	1.1497e-01
13.750	23.750	8.7294e-02
13.750	24.000	6.4862e-02
14.000	17.000	3.1414e-02
14.000	17.250	3.1420e-02
14.000	17.500	1.9386e-02
14.000	17.750	1.5437e-02
14.000	18.000	1.5603e-02
14.000	18.250	1.5926e-02
14.000	18.500	1.6248e-02
14.000	18.750	1.6438e-02
14.000	19.000	1.6466e-02
14.000	19.250	1.6340e-02
14.000	19.500	1.6070e-02
14.000	19.750	1.5655e-02
14.000	20.000	1.5108e-02
14.000	20.250	1.4467e-02
14.000	20.500	1.6344e-02
14.000	20.750	1.7691e-02
14.000	21.000	1.7490e-02
14.000	21.250	1.7275e-02
14.000	21.500	1.7648e-02
14.000	21.750	1.9366e-02
14.000	22.000	2.3428e-02
14.000	22.250	3.2230e-02
14.000	22.500	5.3183e-02
14.000	22.750	9.2974e-02
14.000	23.000	1.1585e-01
14.000	23.250	1.2870e-01
14.000	23.500	1.3336e-01
14.000	23.750	1.2213e-01
14.000	24.000	8.9799e-02
