nFnu 913.000A  relative to Inci 1215.00A scaled to 1215A.
Hden   Phi(H)  Eq_Width (A)
 7.000	17.000	4.6367e-02
 7.000	17.250	4.4575e-02
 7.000	17.500	4.2068e-02
 7.000	17.750	3.7870e-02
 7.000	18.000	3.3102e-02
 7.000	18.250	2.9749e-02
 7.000	18.500	2.7460e-02
 7.000	18.750	2.6243e-02
 7.000	19.000	2.5593e-02
 7.000	19.250	2.5220e-02
 7.000	19.500	2.5060e-02
 7.000	19.750	2.4992e-02
 7.000	20.000	2.4962e-02
 7.000	20.250	2.4948e-02
 7.000	20.500	2.4941e-02
 7.000	20.750	2.4937e-02
 7.000	21.000	2.4936e-02
 7.000	21.250	2.4935e-02
 7.000	21.500	2.4934e-02
 7.000	21.750	2.4934e-02
 7.000	22.000	2.4934e-02
 7.000	22.250	2.4934e-02
 7.000	22.500	2.4934e-02
 7.000	22.750	2.4934e-02
 7.000	23.000	2.4934e-02
 7.000	23.250	2.4933e-02
 7.000	23.500	2.4933e-02
 7.000	23.750	2.4933e-02
 7.000	24.000	2.4933e-02
 7.250	17.000	4.9502e-02
 7.250	17.250	4.4504e-02
 7.250	17.500	4.3986e-02
 7.250	17.750	4.1799e-02
 7.250	18.000	3.7742e-02
 7.250	18.250	3.3029e-02
 7.250	18.500	2.9713e-02
 7.250	18.750	2.7447e-02
 7.250	19.000	2.6238e-02
 7.250	19.250	2.5591e-02
 7.250	19.500	2.5220e-02
 7.250	19.750	2.5060e-02
 7.250	20.000	2.4992e-02
 7.250	20.250	2.4962e-02
 7.250	20.500	2.4948e-02
 7.250	20.750	2.4941e-02
 7.250	21.000	2.4937e-02
 7.250	21.250	2.4935e-02
 7.250	21.500	2.4934e-02
 7.250	21.750	2.4934e-02
 7.250	22.000	2.4936e-02
 7.250	22.250	2.4933e-02
 7.250	22.500	2.4933e-02
 7.250	22.750	2.4934e-02
 7.250	23.000	2.4934e-02
 7.250	23.250	2.4935e-02
 7.250	23.500	2.4933e-02
 7.250	23.750	2.4935e-02
 7.250	24.000	2.4933e-02
 7.500	17.000	3.8332e-02
 7.500	17.250	4.5621e-02
 7.500	17.500	4.2962e-02
 7.500	17.750	4.3651e-02
 7.500	18.000	4.1664e-02
 7.500	18.250	3.7678e-02
 7.500	18.500	3.2987e-02
 7.500	18.750	2.9690e-02
 7.500	19.000	2.7438e-02
 7.500	19.250	2.6235e-02
 7.500	19.500	2.5590e-02
 7.500	19.750	2.5220e-02
 7.500	20.000	2.5060e-02
 7.500	20.250	2.4992e-02
 7.500	20.500	2.4962e-02
 7.500	20.750	2.4948e-02
 7.500	21.000	2.4941e-02
 7.500	21.250	2.4937e-02
 7.500	21.500	2.4935e-02
 7.500	21.750	2.4934e-02
 7.500	22.000	2.4934e-02
 7.500	22.250	2.4933e-02
 7.500	22.500	2.4933e-02
 7.500	22.750	2.4933e-02
 7.500	23.000	2.4933e-02
 7.500	23.250	2.4933e-02
 7.500	23.500	2.4933e-02
 7.500	23.750	2.4933e-02
 7.500	24.000	2.4933e-02
 7.750	17.000	2.7070e-02
 7.750	17.250	3.4450e-02
 7.750	17.500	4.2184e-02
 7.750	17.750	4.1738e-02
 7.750	18.000	4.3469e-02
 7.750	18.250	4.1612e-02
 7.750	18.500	3.7660e-02
 7.750	18.750	3.2964e-02
 7.750	19.000	2.9677e-02
 7.750	19.250	2.7433e-02
 7.750	19.500	2.6233e-02
 7.750	19.750	2.5589e-02
 7.750	20.000	2.5220e-02
 7.750	20.250	2.5060e-02
 7.750	20.500	2.4992e-02
 7.750	20.750	2.4962e-02
 7.750	21.000	2.4948e-02
 7.750	21.250	2.4941e-02
 7.750	21.500	2.4937e-02
 7.750	21.750	2.4935e-02
 7.750	22.000	2.4934e-02
 7.750	22.250	2.4933e-02
 7.750	22.500	2.4933e-02
 7.750	22.750	2.4933e-02
 7.750	23.000	2.4933e-02
 7.750	23.250	2.4933e-02
 7.750	23.500	2.4933e-02
 7.750	23.750	2.4933e-02
 7.750	24.000	2.4933e-02
 8.000	17.000	1.8694e-02
 8.000	17.250	2.3277e-02
 8.000	17.500	3.1125e-02
 8.000	17.750	3.9301e-02
 8.000	18.000	4.0815e-02
 8.000	18.250	4.3373e-02
 8.000	18.500	4.1617e-02
 8.000	18.750	3.7672e-02
 8.000	19.000	3.2954e-02
 8.000	19.250	2.9669e-02
 8.000	19.500	2.7430e-02
 8.000	19.750	2.6231e-02
 8.000	20.000	2.5589e-02
 8.000	20.250	2.5219e-02
 8.000	20.500	2.5060e-02
 8.000	20.750	2.4992e-02
 8.000	21.000	2.4962e-02
 8.000	21.250	2.4948e-02
 8.000	21.500	2.4941e-02
 8.000	21.750	2.4937e-02
 8.000	22.000	2.4935e-02
 8.000	22.250	2.4934e-02
 8.000	22.500	2.4933e-02
 8.000	22.750	2.4933e-02
 8.000	23.000	2.4933e-02
 8.000	23.250	2.4933e-02
 8.000	23.500	2.4933e-02
 8.000	23.750	2.4933e-02
 8.000	24.000	2.4935e-02
 8.250	17.000	1.3589e-02
 8.250	17.250	1.5907e-02
 8.250	17.500	2.0799e-02
 8.250	17.750	2.9016e-02
 8.250	18.000	3.7473e-02
 8.250	18.250	4.0201e-02
 8.250	18.500	4.3322e-02
 8.250	18.750	4.1656e-02
 8.250	19.000	3.7702e-02
 8.250	19.250	3.2952e-02
 8.250	19.500	2.9664e-02
 8.250	19.750	2.7428e-02
 8.250	20.000	2.6231e-02
 8.250	20.250	2.5589e-02
 8.250	20.500	2.5219e-02
 8.250	20.750	2.5060e-02
 8.250	21.000	2.4992e-02
 8.250	21.250	2.4962e-02
 8.250	21.500	2.4948e-02
 8.250	21.750	2.4941e-02
 8.250	22.000	2.4937e-02
 8.250	22.250	2.4935e-02
 8.250	22.500	2.4934e-02
 8.250	22.750	2.4934e-02
 8.250	23.000	2.4934e-02
 8.250	23.250	2.4933e-02
 8.250	23.500	2.4933e-02
 8.250	23.750	2.4933e-02
 8.250	24.000	2.4933e-02
 8.500	17.000	1.0374e-02
 8.500	17.250	1.1503e-02
 8.500	17.500	1.4077e-02
 8.500	17.750	1.9127e-02
 8.500	18.000	2.7674e-02
 8.500	18.250	3.6311e-02
 8.500	18.500	3.9779e-02
 8.500	18.750	4.3299e-02
 8.500	19.000	4.1724e-02
 8.500	19.250	3.7747e-02
 8.500	19.500	3.2956e-02
 8.500	19.750	2.9662e-02
 8.500	20.000	2.7426e-02
 8.500	20.250	2.6230e-02
 8.500	20.500	2.5589e-02
 8.500	20.750	2.5219e-02
 8.500	21.000	2.5060e-02
 8.500	21.250	2.4992e-02
 8.500	21.500	2.4962e-02
 8.500	21.750	2.4948e-02
 8.500	22.000	2.4941e-02
 8.500	22.250	2.4937e-02
 8.500	22.500	2.4935e-02
 8.500	22.750	2.4935e-02
 8.500	23.000	2.4933e-02
 8.500	23.250	2.4933e-02
 8.500	23.500	2.4933e-02
 8.500	23.750	2.4933e-02
 8.500	24.000	2.4933e-02
 8.750	17.000	8.3355e-03
 8.750	17.250	8.8648e-03
 8.750	17.500	1.0202e-02
 8.750	17.750	1.2929e-02
 8.750	18.000	1.8225e-02
 8.750	18.250	2.7007e-02
 8.750	18.500	3.5611e-02
 8.750	18.750	3.9518e-02
 8.750	19.000	4.3284e-02
 8.750	19.250	4.1806e-02
 8.750	19.500	3.7802e-02
 8.750	19.750	3.2962e-02
 8.750	20.000	2.9660e-02
 8.750	20.250	2.7425e-02
 8.750	20.500	2.6230e-02
 8.750	20.750	2.5589e-02
 8.750	21.000	2.5219e-02
 8.750	21.250	2.5060e-02
 8.750	21.500	2.4992e-02
 8.750	21.750	2.4962e-02
 8.750	22.000	2.4948e-02
 8.750	22.250	2.4941e-02
 8.750	22.500	2.4937e-02
 8.750	22.750	2.4935e-02
 8.750	23.000	2.4934e-02
 8.750	23.250	2.4933e-02
 8.750	23.500	2.4933e-02
 8.750	23.750	2.4933e-02
 8.750	24.000	2.4933e-02
 9.000	17.000	7.0235e-03
 9.000	17.250	7.2580e-03
 9.000	17.500	7.9591e-03
 9.000	17.750	9.4432e-03
 9.000	18.000	1.2381e-02
 9.000	18.250	1.7994e-02
 9.000	18.500	2.7084e-02
 9.000	18.750	3.5261e-02
 9.000	19.000	3.9330e-02
 9.000	19.250	4.3262e-02
 9.000	19.500	4.1889e-02
 9.000	19.750	3.7861e-02
 9.000	20.000	3.2969e-02
 9.000	20.250	2.9660e-02
 9.000	20.500	2.7425e-02
 9.000	20.750	2.6230e-02
 9.000	21.000	2.5588e-02
 9.000	21.250	2.5219e-02
 9.000	21.500	2.5060e-02
 9.000	21.750	2.4992e-02
 9.000	22.000	2.4962e-02
 9.000	22.250	2.4948e-02
 9.000	22.500	2.4941e-02
 9.000	22.750	2.4937e-02
 9.000	23.000	2.4935e-02
 9.000	23.250	2.4934e-02
 9.000	23.500	2.4933e-02
 9.000	23.750	2.4933e-02
 9.000	24.000	2.4934e-02
 9.250	17.000	6.1559e-03
 9.250	17.250	6.2351e-03
 9.250	17.500	6.6257e-03
 9.250	17.750	7.4838e-03
 9.250	18.000	9.2133e-03
 9.250	18.250	1.2524e-02
 9.250	18.500	1.8703e-02
 9.250	18.750	2.8115e-02
 9.250	19.000	3.4918e-02
 9.250	19.250	3.9176e-02
 9.250	19.500	4.3223e-02
 9.250	19.750	4.1962e-02
 9.250	20.000	3.7918e-02
 9.250	20.250	3.2977e-02
 9.250	20.500	2.9659e-02
 9.250	20.750	2.7424e-02
 9.250	21.000	2.6229e-02
 9.250	21.250	2.5588e-02
 9.250	21.500	2.5215e-02
 9.250	21.750	2.5056e-02
 9.250	22.000	2.4987e-02
 9.250	22.250	2.4958e-02
 9.250	22.500	2.4947e-02
 9.250	22.750	2.4940e-02
 9.250	23.000	2.4937e-02
 9.250	23.250	2.4935e-02
 9.250	23.500	2.4934e-02
 9.250	23.750	2.4933e-02
 9.250	24.000	2.4933e-02
 9.500	17.000	5.5670e-03
 9.500	17.250	5.5491e-03
 9.500	17.500	5.7929e-03
 9.500	17.750	6.3675e-03
 9.500	18.000	7.4694e-03
 9.500	18.250	9.5251e-03
 9.500	18.500	1.3408e-02
 9.500	18.750	2.0488e-02
 9.500	19.000	2.9864e-02
 9.500	19.250	3.4678e-02
 9.500	19.500	3.9022e-02
 9.500	19.750	4.3167e-02
 9.500	20.000	4.2012e-02
 9.500	20.250	3.7968e-02
 9.500	20.500	3.2985e-02
 9.500	20.750	2.9658e-02
 9.500	21.000	2.7420e-02
 9.500	21.250	2.6225e-02
 9.500	21.500	2.5584e-02
 9.500	21.750	2.5213e-02
 9.500	22.000	2.5052e-02
 9.500	22.250	2.4985e-02
 9.500	22.500	2.4955e-02
 9.500	22.750	2.4941e-02
 9.500	23.000	2.4933e-02
 9.500	23.250	2.4930e-02
 9.500	23.500	2.4928e-02
 9.500	23.750	2.4927e-02
 9.500	24.000	2.4927e-02
 9.750	17.000	5.2020e-03
 9.750	17.250	5.0636e-03
 9.750	17.500	5.2132e-03
 9.750	17.750	5.6550e-03
 9.750	18.000	6.4807e-03
 9.750	18.250	7.9084e-03
 9.750	18.500	1.0447e-02
 9.750	18.750	1.5075e-02
 9.750	19.000	2.3051e-02
 9.750	19.250	3.1268e-02
 9.750	19.500	3.4494e-02
 9.750	19.750	3.8854e-02
 9.750	20.000	4.3093e-02
 9.750	20.250	4.2029e-02
 9.750	20.500	3.8006e-02
 9.750	20.750	3.2990e-02
 9.750	21.000	2.9659e-02
 9.750	21.250	2.7420e-02
 9.750	21.500	2.6225e-02
 9.750	21.750	2.5584e-02
 9.750	22.000	2.5214e-02
 9.750	22.250	2.5053e-02
 9.750	22.500	2.4985e-02
 9.750	22.750	2.4955e-02
 9.750	23.000	2.4940e-02
 9.750	23.250	2.4933e-02
 9.750	23.500	2.4930e-02
 9.750	23.750	2.4928e-02
 9.750	24.000	2.4927e-02
10.000	17.000	5.0357e-03
10.000	17.250	4.7452e-03
10.000	17.500	4.7648e-03
10.000	17.750	5.1190e-03
10.000	18.000	5.8566e-03
10.000	18.250	6.9988e-03
10.000	18.500	8.8216e-03
10.000	18.750	1.1958e-02
10.000	19.000	1.7553e-02
10.000	19.250	2.5972e-02
10.000	19.500	3.1600e-02
10.000	19.750	3.4390e-02
10.000	20.000	3.8689e-02
10.000	20.250	4.3017e-02
10.000	20.500	4.2029e-02
10.000	20.750	3.8037e-02
10.000	21.000	3.2995e-02
10.000	21.250	2.9659e-02
10.000	21.500	2.7422e-02
10.000	21.750	2.6226e-02
10.000	22.000	2.5584e-02
10.000	22.250	2.5214e-02
10.000	22.500	2.5053e-02
10.000	22.750	2.4984e-02
10.000	23.000	2.4955e-02
10.000	23.250	2.4941e-02
10.000	23.500	2.4933e-02
10.000	23.750	2.4930e-02
10.000	24.000	2.4928e-02
10.250	17.000	5.0567e-03
10.250	17.250	4.6048e-03
10.250	17.500	4.4768e-03
10.250	17.750	4.7244e-03
10.250	18.000	5.3978e-03
10.250	18.250	6.4134e-03
10.250	18.500	7.8860e-03
10.250	18.750	1.0239e-02
10.250	19.000	1.4287e-02
10.250	19.250	2.0566e-02
10.250	19.500	2.8051e-02
10.250	19.750	3.1698e-02
10.250	20.000	3.4380e-02
10.250	20.250	3.8635e-02
10.250	20.500	4.2966e-02
10.250	20.750	4.2009e-02
10.250	21.000	3.8055e-02
10.250	21.250	3.2997e-02
10.250	21.500	2.9659e-02
10.250	21.750	2.7422e-02
10.250	22.000	2.6228e-02
10.250	22.250	2.5585e-02
10.250	22.500	2.5215e-02
10.250	22.750	2.5054e-02
10.250	23.000	2.4985e-02
10.250	23.250	2.4954e-02
10.250	23.500	2.4940e-02
10.250	23.750	2.4933e-02
10.250	24.000	2.4930e-02
10.500	17.000	5.2107e-03
10.500	17.250	4.6421e-03
10.500	17.500	4.3630e-03
10.500	17.750	4.4872e-03
10.500	18.000	5.0459e-03
10.500	18.250	5.9698e-03
10.500	18.500	7.2250e-03
10.500	18.750	8.9929e-03
10.500	19.000	1.1614e-02
10.500	19.250	1.5820e-02
10.500	19.500	2.2407e-02
10.500	19.750	2.8774e-02
10.500	20.000	3.1828e-02
10.500	20.250	3.4541e-02
10.500	20.500	3.8776e-02
10.500	20.750	4.3054e-02
10.500	21.000	4.1983e-02
10.500	21.250	3.8064e-02
10.500	21.500	3.2997e-02
10.500	21.750	2.9659e-02
10.500	22.000	2.7422e-02
10.500	22.250	2.6229e-02
10.500	22.500	2.5586e-02
10.500	22.750	2.5215e-02
10.500	23.000	2.5055e-02
10.500	23.250	2.4986e-02
10.500	23.500	2.4955e-02
10.500	23.750	2.4941e-02
10.500	24.000	2.4933e-02
10.750	17.000	5.4382e-03
10.750	17.250	4.8063e-03
10.750	17.500	4.4267e-03
10.750	17.750	4.4296e-03
10.750	18.000	4.8227e-03
10.750	18.250	5.5360e-03
10.750	18.500	6.5556e-03
10.750	18.750	7.8530e-03
10.750	19.000	9.6249e-03
10.750	19.250	1.2450e-02
10.750	19.500	1.7143e-02
10.750	19.750	2.4053e-02
10.750	20.000	2.9631e-02
10.750	20.250	3.2156e-02
10.750	20.500	3.4976e-02
10.750	20.750	3.9297e-02
10.750	21.000	4.3324e-02
10.750	21.250	4.1971e-02
10.750	21.500	3.8062e-02
10.750	21.750	3.2994e-02
10.750	22.000	2.9658e-02
10.750	22.250	2.7422e-02
10.750	22.500	2.6229e-02
10.750	22.750	2.5588e-02
10.750	23.000	2.5215e-02
10.750	23.250	2.5056e-02
10.750	23.500	2.4987e-02
10.750	23.750	2.4956e-02
10.750	24.000	2.4942e-02
11.000	17.000	5.6789e-03
11.000	17.250	5.0384e-03
11.000	17.500	4.6128e-03
11.000	17.750	4.5262e-03
11.000	18.000	4.7505e-03
11.000	18.250	5.1964e-03
11.000	18.500	5.8970e-03
11.000	18.750	6.8470e-03
11.000	19.000	8.1341e-03
11.000	19.250	1.0070e-02
11.000	19.500	1.3236e-02
11.000	19.750	1.8403e-02
11.000	20.000	2.5597e-02
11.000	20.250	3.0177e-02
11.000	20.500	3.2885e-02
11.000	20.750	3.5818e-02
11.000	21.000	4.0374e-02
11.000	21.250	4.3900e-02
11.000	21.500	4.2015e-02
11.000	21.750	3.8051e-02
11.000	22.000	3.2990e-02
11.000	22.250	2.9658e-02
11.000	22.500	2.7421e-02
11.000	22.750	2.6229e-02
11.000	23.000	2.5589e-02
11.000	23.250	2.5216e-02
11.000	23.500	2.5056e-02
11.000	23.750	2.4987e-02
11.000	24.000	2.4957e-02
11.250	17.000	5.8545e-03
11.250	17.250	5.2701e-03
11.250	17.500	4.8378e-03
11.250	17.750	4.7044e-03
11.250	18.000	4.8005e-03
11.250	18.250	5.0049e-03
11.250	18.500	5.3595e-03
11.250	18.750	6.0179e-03
11.250	19.000	6.9891e-03
11.250	19.250	8.3631e-03
11.250	19.500	1.0504e-02
11.250	19.750	1.3996e-02
11.250	20.000	1.9604e-02
11.250	20.250	2.6996e-02
11.250	20.500	3.0918e-02
11.250	20.750	3.3810e-02
11.250	21.000	3.7283e-02
11.250	21.250	4.2287e-02
11.250	21.500	4.4922e-02
11.250	21.750	4.2161e-02
11.250	22.000	3.8033e-02
11.250	22.250	3.2983e-02
11.250	22.500	2.9658e-02
11.250	22.750	2.7421e-02
11.250	23.000	2.6229e-02
11.250	23.250	2.5589e-02
11.250	23.500	2.5218e-02
11.250	23.750	2.5056e-02
11.250	24.000	2.4988e-02
11.500	17.000	5.8658e-03
11.500	17.250	5.4256e-03
11.500	17.500	5.0353e-03
11.500	17.750	4.8818e-03
11.500	18.000	4.8939e-03
11.500	18.250	4.9384e-03
11.500	18.500	5.0634e-03
11.500	18.750	5.4212e-03
11.500	19.000	6.0807e-03
11.500	19.250	7.0928e-03
11.500	19.500	8.5695e-03
11.500	19.750	1.0912e-02
11.500	20.000	1.4733e-02
11.500	20.250	2.0814e-02
11.500	20.500	2.8394e-02
11.500	20.750	3.2025e-02
11.500	21.000	3.5426e-02
11.500	21.250	3.9715e-02
11.500	21.500	4.5410e-02
11.500	21.750	4.6140e-02
11.500	22.000	4.2456e-02
11.500	22.250	3.8014e-02
11.500	22.500	3.2973e-02
11.500	22.750	2.9657e-02
11.500	23.000	2.7420e-02
11.500	23.250	2.6229e-02
11.500	23.500	2.5589e-02
11.500	23.750	2.5219e-02
11.500	24.000	2.5057e-02
11.750	17.000	5.5686e-03
11.750	17.250	5.3877e-03
11.750	17.500	5.1196e-03
11.750	17.750	4.9946e-03
11.750	18.000	4.9799e-03
11.750	18.250	4.9581e-03
11.750	18.500	4.9574e-03
11.750	18.750	5.0634e-03
11.750	19.000	5.4209e-03
11.750	19.250	6.1014e-03
11.750	19.500	7.1559e-03
11.750	19.750	8.7424e-03
11.750	20.000	1.1292e-02
11.750	20.250	1.5468e-02
11.750	20.500	2.2061e-02
11.750	20.750	2.9533e-02
11.750	21.000	3.3627e-02
11.750	21.250	3.8028e-02
11.750	21.500	4.3466e-02
11.750	21.750	4.9496e-02
11.750	22.000	4.7546e-02
11.750	22.250	4.2895e-02
11.750	22.500	3.8004e-02
11.750	22.750	3.2962e-02
11.750	23.000	2.9656e-02
11.750	23.250	2.7419e-02
11.750	23.500	2.6240e-02
11.750	23.750	2.5589e-02
11.750	24.000	2.5219e-02
12.000	17.000	4.7337e-03
12.000	17.250	4.9816e-03
12.000	17.500	4.9626e-03
12.000	17.750	4.9679e-03
12.000	18.000	5.0062e-03
12.000	18.250	4.9841e-03
12.000	18.500	4.9179e-03
12.000	18.750	4.8827e-03
12.000	19.000	5.0037e-03
12.000	19.250	5.3585e-03
12.000	19.500	6.0811e-03
12.000	19.750	7.1905e-03
12.000	20.000	8.9030e-03
12.000	20.250	1.1678e-02
12.000	20.500	1.6221e-02
12.000	20.750	2.3428e-02
12.000	21.000	3.1763e-02
12.000	21.250	3.6264e-02
12.000	21.500	4.1961e-02
12.000	21.750	4.8558e-02
12.000	22.000	5.3410e-02
12.000	22.250	4.8907e-02
12.000	22.500	4.3447e-02
12.000	22.750	3.8010e-02
12.000	23.000	3.2950e-02
12.000	23.250	2.9655e-02
12.000	23.500	2.7418e-02
12.000	23.750	2.6229e-02
12.000	24.000	2.5590e-02
12.250	17.000	3.2800e-03
12.250	17.250	3.9542e-03
12.250	17.500	4.4074e-03
12.250	17.750	4.6915e-03
12.250	18.000	4.8597e-03
12.250	18.250	4.8808e-03
12.250	18.500	4.8161e-03
12.250	18.750	4.7495e-03
12.250	19.000	4.7540e-03
12.250	19.250	4.8868e-03
12.250	19.500	5.2868e-03
12.250	19.750	6.0493e-03
12.250	20.000	7.2185e-03
12.250	20.250	9.0725e-03
12.250	20.500	1.2091e-02
12.250	20.750	1.7061e-02
12.250	21.000	2.5274e-02
12.250	21.250	3.4418e-02
12.250	21.500	3.9923e-02
12.250	21.750	4.6954e-02
12.250	22.000	5.4526e-02
12.250	22.250	5.6625e-02
12.250	22.500	5.0396e-02
12.250	22.750	4.4082e-02
12.250	23.000	3.8043e-02
12.250	23.250	3.2939e-02
12.250	23.500	2.9654e-02
12.250	23.750	2.7417e-02
12.250	24.000	2.6228e-02
12.500	17.000	2.4956e-03
12.500	17.250	2.9376e-03
12.500	17.500	3.3373e-03
12.500	17.750	3.9828e-03
12.500	18.000	4.3440e-03
12.500	18.250	4.5000e-03
12.500	18.500	4.5426e-03
12.500	18.750	4.5494e-03
12.500	19.000	4.5499e-03
12.500	19.250	4.5988e-03
12.500	19.500	4.7727e-03
12.500	19.750	5.2080e-03
12.500	20.000	6.0144e-03
12.500	20.250	7.2565e-03
12.500	20.500	9.2780e-03
12.500	20.750	1.2619e-02
12.500	21.000	1.8275e-02
12.500	21.250	2.7844e-02
12.500	21.500	3.7989e-02
12.500	21.750	4.4787e-02
12.500	22.000	5.3441e-02
12.500	22.250	6.0646e-02
12.500	22.500	5.9990e-02
12.500	22.750	5.2034e-02
12.500	23.000	4.4776e-02
12.500	23.250	3.8104e-02
12.500	23.500	3.2928e-02
12.500	23.750	2.9653e-02
12.500	24.000	2.7415e-02
12.750	17.000	1.9470e-03
12.750	17.250	2.3388e-03
12.750	17.500	2.6932e-03
12.750	17.750	2.9718e-03
12.750	18.000	3.2321e-03
12.750	18.250	3.7092e-03
12.750	18.500	3.9991e-03
12.750	18.750	4.1821e-03
12.750	19.000	4.2928e-03
12.750	19.250	4.3697e-03
12.750	19.500	4.4517e-03
12.750	19.750	4.6561e-03
12.750	20.000	5.1133e-03
12.750	20.250	5.9693e-03
12.750	20.500	7.3234e-03
12.750	20.750	9.5674e-03
12.750	21.000	1.3336e-02
12.750	21.250	1.9977e-02
12.750	21.500	3.1040e-02
12.750	21.750	4.2839e-02
12.750	22.000	5.1045e-02
12.750	22.250	6.0763e-02
12.750	22.500	6.6806e-02
12.750	22.750	6.3188e-02
12.750	23.000	5.3864e-02
12.750	23.250	4.5426e-02
12.750	23.500	3.8157e-02
12.750	23.750	3.2923e-02
12.750	24.000	2.9651e-02
13.000	17.000	2.1215e-03
13.000	17.250	1.9016e-03
13.000	17.500	2.0556e-03
13.000	17.750	2.2963e-03
13.000	18.000	2.5480e-03
13.000	18.250	2.8046e-03
13.000	18.500	3.0415e-03
13.000	18.750	3.4473e-03
13.000	19.000	3.8312e-03
13.000	19.250	4.0535e-03
13.000	19.500	4.1848e-03
13.000	19.750	4.3037e-03
13.000	20.000	4.5280e-03
13.000	20.250	5.0090e-03
13.000	20.500	5.9440e-03
13.000	20.750	7.4296e-03
13.000	21.000	1.0025e-02
13.000	21.250	1.4425e-02
13.000	21.500	2.1827e-02
13.000	21.750	3.5682e-02
13.000	22.000	4.8976e-02
13.000	22.250	5.7371e-02
13.000	22.500	6.7714e-02
13.000	22.750	7.2861e-02
13.000	23.000	6.6770e-02
13.000	23.250	5.5644e-02
13.000	23.500	4.6077e-02
13.000	23.750	3.8256e-02
13.000	24.000	3.2926e-02
13.250	17.000	1.8401e-03
13.250	17.250	1.8818e-03
13.250	17.500	1.6421e-03
13.250	17.750	1.8137e-03
13.250	18.000	2.0262e-03
13.250	18.250	2.2809e-03
13.250	18.500	2.5426e-03
13.250	18.750	2.7925e-03
13.250	19.000	3.0244e-03
13.250	19.250	3.4513e-03
13.250	19.500	3.8093e-03
13.250	19.750	4.0076e-03
13.250	20.000	4.1611e-03
13.250	20.250	4.4004e-03
13.250	20.500	4.9011e-03
13.250	20.750	5.8728e-03
13.250	21.000	7.5263e-03
13.250	21.250	1.0411e-02
13.250	21.500	1.5155e-02
13.250	21.750	2.4266e-02
13.250	22.000	3.9995e-02
13.250	22.250	5.3501e-02
13.250	22.500	6.3928e-02
13.250	22.750	7.4481e-02
13.250	23.000	7.9231e-02
13.250	23.250	6.9957e-02
13.250	23.500	5.7217e-02
13.250	23.750	4.6666e-02
13.250	24.000	3.8393e-02
13.500	17.000	1.6706e-03
13.500	17.250	1.7013e-03
13.500	17.500	1.3727e-03
13.500	17.750	1.4990e-03
13.500	18.000	1.6693e-03
13.500	18.250	1.8834e-03
13.500	18.500	2.1220e-03
13.500	18.750	2.3651e-03
13.500	19.000	2.6079e-03
13.500	19.250	2.8433e-03
13.500	19.500	3.0602e-03
13.500	19.750	3.5335e-03
13.500	20.000	3.8072e-03
13.500	20.250	3.9998e-03
13.500	20.500	4.2558e-03
13.500	20.750	4.7594e-03
13.500	21.000	5.7056e-03
13.500	21.250	7.5182e-03
13.500	21.500	1.0403e-02
13.500	21.750	1.5314e-02
13.500	22.000	2.4893e-02
13.500	22.250	4.3761e-02
13.500	22.500	5.9044e-02
13.500	22.750	7.0667e-02
13.500	23.000	8.1550e-02
13.500	23.250	8.6043e-02
13.500	23.500	7.3270e-02
13.500	23.750	5.9326e-02
13.500	24.000	4.7204e-02
13.750	17.000	1.5779e-03
13.750	17.250	1.5466e-03
13.750	17.500	1.2320e-03
13.750	17.750	1.3033e-03
13.750	18.000	1.4360e-03
13.750	18.250	1.6113e-03
13.750	18.500	1.8087e-03
13.750	18.750	2.0166e-03
13.750	19.000	2.2349e-03
13.750	19.250	2.4634e-03
13.750	19.500	2.6934e-03
13.750	19.750	2.9114e-03
13.750	20.000	3.1731e-03
13.750	20.250	3.6008e-03
13.750	20.500	3.8524e-03
13.750	20.750	4.1433e-03
13.750	21.000	4.6516e-03
13.750	21.250	5.5988e-03
13.750	21.500	7.2933e-03
13.750	21.750	1.0199e-02
13.750	22.000	1.5537e-02
13.750	22.250	2.6780e-02
13.750	22.500	4.9252e-02
13.750	22.750	6.6769e-02
13.750	23.000	7.9262e-02
13.750	23.250	9.0551e-02
13.750	23.500	9.3388e-02
13.750	23.750	7.6949e-02
13.750	24.000	6.0765e-02
14.000	17.000	1.5176e-03
14.000	17.250	1.5314e-03
14.000	17.500	1.2215e-03
14.000	17.750	1.1770e-03
14.000	18.000	1.2864e-03
14.000	18.250	1.4276e-03
14.000	18.500	1.5900e-03
14.000	18.750	1.7598e-03
14.000	19.000	1.9402e-03
14.000	19.250	2.1370e-03
14.000	19.500	2.3514e-03
14.000	19.750	2.5746e-03
14.000	20.000	2.7941e-03
14.000	20.250	3.0040e-03
14.000	20.500	3.3794e-03
14.000	20.750	3.7386e-03
14.000	21.000	4.0994e-03
14.000	21.250	4.6784e-03
14.000	21.500	5.6673e-03
14.000	21.750	7.4442e-03
14.000	22.000	1.0646e-02
14.000	22.250	1.6895e-02
14.000	22.500	3.1255e-02
14.000	22.750	5.8438e-02
14.000	23.000	7.6649e-02
14.000	23.250	9.0849e-02
14.000	23.500	1.0147e-01
14.000	23.750	1.0128e-01
14.000	24.000	8.0304e-02
