InwT 2.32440m  relative to Inci 1215.00A scaled to 1215A.
Hden   Phi(H)  Eq_Width (A)
 7.000	17.000	6.4044e-03
 7.000	17.250	3.6553e-03
 7.000	17.500	1.9646e-03
 7.000	17.750	1.0849e-03
 7.000	18.000	6.4922e-04
 7.000	18.250	4.1588e-04
 7.000	18.500	2.8370e-04
 7.000	18.750	2.2840e-04
 7.000	19.000	2.0058e-04
 7.000	19.250	1.8535e-04
 7.000	19.500	1.7967e-04
 7.000	19.750	1.7745e-04
 7.000	20.000	1.7646e-04
 7.000	20.250	1.7605e-04
 7.000	20.500	1.7580e-04
 7.000	20.750	1.7572e-04
 7.000	21.000	1.7564e-04
 7.000	21.250	1.7564e-04
 7.000	21.500	1.7564e-04
 7.000	21.750	1.7564e-04
 7.000	22.000	1.7564e-04
 7.000	22.250	1.7556e-04
 7.000	22.500	1.7556e-04
 7.000	22.750	1.7556e-04
 7.000	23.000	1.7556e-04
 7.000	23.250	1.7556e-04
 7.000	23.500	1.7556e-04
 7.000	23.750	1.7556e-04
 7.000	24.000	1.7556e-04
 7.250	17.000	1.0436e-02
 7.250	17.250	6.3960e-03
 7.250	17.500	3.6520e-03
 7.250	17.750	1.9628e-03
 7.250	18.000	1.0840e-03
 7.250	18.250	6.4905e-04
 7.250	18.500	4.1588e-04
 7.250	18.750	2.8370e-04
 7.250	19.000	2.2840e-04
 7.250	19.250	2.0058e-04
 7.250	19.500	1.8535e-04
 7.250	19.750	1.7967e-04
 7.250	20.000	1.7745e-04
 7.250	20.250	1.7646e-04
 7.250	20.500	1.7605e-04
 7.250	20.750	1.7580e-04
 7.250	21.000	1.7572e-04
 7.250	21.250	1.7564e-04
 7.250	21.500	1.7564e-04
 7.250	21.750	1.7564e-04
 7.250	22.000	1.7564e-04
 7.250	22.250	1.7556e-04
 7.250	22.500	1.7556e-04
 7.250	22.750	1.7556e-04
 7.250	23.000	1.7556e-04
 7.250	23.250	1.7564e-04
 7.250	23.500	1.7556e-04
 7.250	23.750	1.7564e-04
 7.250	24.000	1.7556e-04
 7.500	17.000	1.1774e-02
 7.500	17.250	1.0463e-02
 7.500	17.500	6.3891e-03
 7.500	17.750	3.6493e-03
 7.500	18.000	1.9610e-03
 7.500	18.250	1.0830e-03
 7.500	18.500	6.4872e-04
 7.500	18.750	4.1588e-04
 7.500	19.000	2.8370e-04
 7.500	19.250	2.2840e-04
 7.500	19.500	2.0058e-04
 7.500	19.750	1.8535e-04
 7.500	20.000	1.7967e-04
 7.500	20.250	1.7745e-04
 7.500	20.500	1.7646e-04
 7.500	20.750	1.7605e-04
 7.500	21.000	1.7580e-04
 7.500	21.250	1.7572e-04
 7.500	21.500	1.7564e-04
 7.500	21.750	1.7564e-04
 7.500	22.000	1.7564e-04
 7.500	22.250	1.7564e-04
 7.500	22.500	1.7556e-04
 7.500	22.750	1.7556e-04
 7.500	23.000	1.7556e-04
 7.500	23.250	1.7556e-04
 7.500	23.500	1.7556e-04
 7.500	23.750	1.7556e-04
 7.500	24.000	1.7556e-04
 7.750	17.000	1.2782e-02
 7.750	17.250	1.1890e-02
 7.750	17.500	1.0481e-02
 7.750	17.750	6.3840e-03
 7.750	18.000	3.6472e-03
 7.750	18.250	1.9591e-03
 7.750	18.500	1.0816e-03
 7.750	18.750	6.4840e-04
 7.750	19.000	4.1580e-04
 7.750	19.250	2.8370e-04
 7.750	19.500	2.2840e-04
 7.750	19.750	2.0058e-04
 7.750	20.000	1.8535e-04
 7.750	20.250	1.7967e-04
 7.750	20.500	1.7745e-04
 7.750	20.750	1.7646e-04
 7.750	21.000	1.7605e-04
 7.750	21.250	1.7580e-04
 7.750	21.500	1.7572e-04
 7.750	21.750	1.7564e-04
 7.750	22.000	1.7564e-04
 7.750	22.250	1.7564e-04
 7.750	22.500	1.7564e-04
 7.750	22.750	1.7556e-04
 7.750	23.000	1.7556e-04
 7.750	23.250	1.7556e-04
 7.750	23.500	1.7556e-04
 7.750	23.750	1.7556e-04
 7.750	24.000	1.7556e-04
 8.000	17.000	1.3186e-02
 8.000	17.250	1.2842e-02
 8.000	17.500	1.1874e-02
 8.000	17.750	1.0406e-02
 8.000	18.000	6.3761e-03
 8.000	18.250	3.6457e-03
 8.000	18.500	1.9570e-03
 8.000	18.750	1.0800e-03
 8.000	19.000	6.4798e-04
 8.000	19.250	4.1572e-04
 8.000	19.500	2.8362e-04
 8.000	19.750	2.2840e-04
 8.000	20.000	2.0058e-04
 8.000	20.250	1.8535e-04
 8.000	20.500	1.7967e-04
 8.000	20.750	1.7745e-04
 8.000	21.000	1.7646e-04
 8.000	21.250	1.7605e-04
 8.000	21.500	1.7580e-04
 8.000	21.750	1.7572e-04
 8.000	22.000	1.7564e-04
 8.000	22.250	1.7564e-04
 8.000	22.500	1.7564e-04
 8.000	22.750	1.7564e-04
 8.000	23.000	1.7556e-04
 8.000	23.250	1.7556e-04
 8.000	23.500	1.7556e-04
 8.000	23.750	1.7556e-04
 8.000	24.000	1.7564e-04
 8.250	17.000	1.3552e-02
 8.250	17.250	1.3418e-02
 8.250	17.500	1.3059e-02
 8.250	17.750	1.1989e-02
 8.250	18.000	1.0423e-02
 8.250	18.250	6.3742e-03
 8.250	18.500	3.6447e-03
 8.250	18.750	1.9548e-03
 8.250	19.000	1.0783e-03
 8.250	19.250	6.4741e-04
 8.250	19.500	4.1564e-04
 8.250	19.750	2.8362e-04
 8.250	20.000	2.2840e-04
 8.250	20.250	2.0058e-04
 8.250	20.500	1.8535e-04
 8.250	20.750	1.7967e-04
 8.250	21.000	1.7745e-04
 8.250	21.250	1.7646e-04
 8.250	21.500	1.7605e-04
 8.250	21.750	1.7580e-04
 8.250	22.000	1.7572e-04
 8.250	22.250	1.7564e-04
 8.250	22.500	1.7564e-04
 8.250	22.750	1.7564e-04
 8.250	23.000	1.7564e-04
 8.250	23.250	1.7556e-04
 8.250	23.500	1.7556e-04
 8.250	23.750	1.7556e-04
 8.250	24.000	1.7556e-04
 8.500	17.000	1.3860e-02
 8.500	17.250	1.3813e-02
 8.500	17.500	1.3723e-02
 8.500	17.750	1.3380e-02
 8.500	18.000	1.2186e-02
 8.500	18.250	1.0469e-02
 8.500	18.500	6.3733e-03
 8.500	18.750	3.6439e-03
 8.500	19.000	1.9523e-03
 8.500	19.250	1.0762e-03
 8.500	19.500	6.4683e-04
 8.500	19.750	4.1556e-04
 8.500	20.000	2.8362e-04
 8.500	20.250	2.2840e-04
 8.500	20.500	2.0058e-04
 8.500	20.750	1.8535e-04
 8.500	21.000	1.7967e-04
 8.500	21.250	1.7745e-04
 8.500	21.500	1.7646e-04
 8.500	21.750	1.7605e-04
 8.500	22.000	1.7580e-04
 8.500	22.250	1.7572e-04
 8.500	22.500	1.7564e-04
 8.500	22.750	1.7564e-04
 8.500	23.000	1.7564e-04
 8.500	23.250	1.7564e-04
 8.500	23.500	1.7556e-04
 8.500	23.750	1.7556e-04
 8.500	24.000	1.7556e-04
 8.750	17.000	1.4096e-02
 8.750	17.250	1.4158e-02
 8.750	17.500	1.4207e-02
 8.750	17.750	1.4240e-02
 8.750	18.000	1.3907e-02
 8.750	18.250	1.2552e-02
 8.750	18.500	1.0553e-02
 8.750	18.750	6.3728e-03
 8.750	19.000	3.6435e-03
 8.750	19.250	1.9496e-03
 8.750	19.500	1.0740e-03
 8.750	19.750	6.4626e-04
 8.750	20.000	4.1547e-04
 8.750	20.250	2.8354e-04
 8.750	20.500	2.2840e-04
 8.750	20.750	2.0058e-04
 8.750	21.000	1.8535e-04
 8.750	21.250	1.7967e-04
 8.750	21.500	1.7745e-04
 8.750	21.750	1.7646e-04
 8.750	22.000	1.7605e-04
 8.750	22.250	1.7580e-04
 8.750	22.500	1.7572e-04
 8.750	22.750	1.7564e-04
 8.750	23.000	1.7564e-04
 8.750	23.250	1.7564e-04
 8.750	23.500	1.7564e-04
 8.750	23.750	1.7556e-04
 8.750	24.000	1.7556e-04
 9.000	17.000	1.4232e-02
 9.000	17.250	1.4435e-02
 9.000	17.500	1.4654e-02
 9.000	17.750	1.4933e-02
 9.000	18.000	1.5226e-02
 9.000	18.250	1.4973e-02
 9.000	18.500	1.3271e-02
 9.000	18.750	1.0781e-02
 9.000	19.000	6.3720e-03
 9.000	19.250	3.6436e-03
 9.000	19.500	1.9471e-03
 9.000	19.750	1.0717e-03
 9.000	20.000	6.4560e-04
 9.000	20.250	4.1539e-04
 9.000	20.500	2.8354e-04
 9.000	20.750	2.2840e-04
 9.000	21.000	2.0058e-04
 9.000	21.250	1.8535e-04
 9.000	21.500	1.7967e-04
 9.000	21.750	1.7745e-04
 9.000	22.000	1.7646e-04
 9.000	22.250	1.7605e-04
 9.000	22.500	1.7580e-04
 9.000	22.750	1.7572e-04
 9.000	23.000	1.7564e-04
 9.000	23.250	1.7564e-04
 9.000	23.500	1.7564e-04
 9.000	23.750	1.7564e-04
 9.000	24.000	1.7564e-04
 9.250	17.000	1.4253e-02
 9.250	17.250	1.4619e-02
 9.250	17.500	1.5071e-02
 9.250	17.750	1.5673e-02
 9.250	18.000	1.6472e-02
 9.250	18.250	1.7186e-02
 9.250	18.500	1.6814e-02
 9.250	18.750	1.4645e-02
 9.250	19.000	1.0790e-02
 9.250	19.250	6.3695e-03
 9.250	19.500	3.6444e-03
 9.250	19.750	1.9448e-03
 9.250	20.000	1.0695e-03
 9.250	20.250	6.4494e-04
 9.250	20.500	4.1523e-04
 9.250	20.750	2.8354e-04
 9.250	21.000	2.2840e-04
 9.250	21.250	2.0058e-04
 9.250	21.500	1.8535e-04
 9.250	21.750	1.7967e-04
 9.250	22.000	1.7737e-04
 9.250	22.250	1.7646e-04
 9.250	22.500	1.7605e-04
 9.250	22.750	1.7580e-04
 9.250	23.000	1.7572e-04
 9.250	23.250	1.7564e-04
 9.250	23.500	1.7564e-04
 9.250	23.750	1.7564e-04
 9.250	24.000	1.7564e-04
 9.500	17.000	1.4194e-02
 9.500	17.250	1.4735e-02
 9.500	17.500	1.5439e-02
 9.500	17.750	1.6449e-02
 9.500	18.000	1.7857e-02
 9.500	18.250	1.9477e-02
 9.500	18.500	2.0380e-02
 9.500	18.750	1.9403e-02
 9.500	19.000	1.6296e-02
 9.500	19.250	1.0818e-02
 9.500	19.500	6.3654e-03
 9.500	19.750	3.6456e-03
 9.500	20.000	1.9432e-03
 9.500	20.250	1.0675e-03
 9.500	20.500	6.4436e-04
 9.500	20.750	4.1523e-04
 9.500	21.000	2.8346e-04
 9.500	21.250	2.2840e-04
 9.500	21.500	2.0058e-04
 9.500	21.750	1.8535e-04
 9.500	22.000	1.7959e-04
 9.500	22.250	1.7737e-04
 9.500	22.500	1.7638e-04
 9.500	22.750	1.7597e-04
 9.500	23.000	1.7580e-04
 9.500	23.250	1.7564e-04
 9.500	23.500	1.7564e-04
 9.500	23.750	1.7556e-04
 9.500	24.000	1.7556e-04
 9.750	17.000	1.4029e-02
 9.750	17.250	1.4752e-02
 9.750	17.500	1.5742e-02
 9.750	17.750	1.7241e-02
 9.750	18.000	1.9499e-02
 9.750	18.250	2.2093e-02
 9.750	18.500	2.4042e-02
 9.750	18.750	2.4392e-02
 9.750	19.000	2.2335e-02
 9.750	19.250	1.8122e-02
 9.750	19.500	1.0840e-02
 9.750	19.750	6.3567e-03
 9.750	20.000	3.6471e-03
 9.750	20.250	1.9425e-03
 9.750	20.500	1.0660e-03
 9.750	20.750	6.4395e-04
 9.750	21.000	4.1506e-04
 9.750	21.250	2.8337e-04
 9.750	21.500	2.2840e-04
 9.750	21.750	2.0058e-04
 9.750	22.000	1.8535e-04
 9.750	22.250	1.7959e-04
 9.750	22.500	1.7737e-04
 9.750	22.750	1.7646e-04
 9.750	23.000	1.7597e-04
 9.750	23.250	1.7580e-04
 9.750	23.500	1.7564e-04
 9.750	23.750	1.7564e-04
 9.750	24.000	1.7556e-04
10.000	17.000	1.3738e-02
10.000	17.250	1.4720e-02
10.000	17.500	1.6048e-02
10.000	17.750	1.8155e-02
10.000	18.000	2.1438e-02
10.000	18.250	2.5056e-02
10.000	18.500	2.7909e-02
10.000	18.750	2.9343e-02
10.000	19.000	2.8819e-02
10.000	19.250	2.5541e-02
10.000	19.500	1.8906e-02
10.000	19.750	1.0832e-02
10.000	20.000	6.3505e-03
10.000	20.250	3.6481e-03
10.000	20.500	1.9421e-03
10.000	20.750	1.0647e-03
10.000	21.000	6.4362e-04
10.000	21.250	4.1498e-04
10.000	21.500	2.8337e-04
10.000	21.750	2.2840e-04
10.000	22.000	2.0058e-04
10.000	22.250	1.8535e-04
10.000	22.500	1.7959e-04
10.000	22.750	1.7737e-04
10.000	23.000	1.7646e-04
10.000	23.250	1.7597e-04
10.000	23.500	1.7580e-04
10.000	23.750	1.7564e-04
10.000	24.000	1.7564e-04
10.250	17.000	1.3524e-02
10.250	17.250	1.4653e-02
10.250	17.500	1.6466e-02
10.250	17.750	1.9329e-02
10.250	18.000	2.3634e-02
10.250	18.250	2.8193e-02
10.250	18.500	3.1827e-02
10.250	18.750	3.4131e-02
10.250	19.000	3.4777e-02
10.250	19.250	3.3355e-02
10.250	19.500	2.8998e-02
10.250	19.750	1.8801e-02
10.250	20.000	1.0784e-02
10.250	20.250	6.3271e-03
10.250	20.500	3.6476e-03
10.250	20.750	1.9420e-03
10.250	21.000	1.0639e-03
10.250	21.250	6.4337e-04
10.250	21.500	4.1490e-04
10.250	21.750	2.8337e-04
10.250	22.000	2.2840e-04
10.250	22.250	2.0058e-04
10.250	22.500	1.8535e-04
10.250	22.750	1.7959e-04
10.250	23.000	1.7737e-04
10.250	23.250	1.7638e-04
10.250	23.500	1.7597e-04
10.250	23.750	1.7580e-04
10.250	24.000	1.7564e-04
10.500	17.000	1.3458e-02
10.500	17.250	1.4783e-02
10.500	17.500	1.7089e-02
10.500	17.750	2.0951e-02
10.500	18.000	2.6166e-02
10.500	18.250	3.1554e-02
10.500	18.500	3.5683e-02
10.500	18.750	3.8487e-02
10.500	19.000	3.9953e-02
10.500	19.250	3.9563e-02
10.500	19.500	3.7054e-02
10.500	19.750	3.0936e-02
10.500	20.000	1.8726e-02
10.500	20.250	1.0711e-02
10.500	20.500	6.2966e-03
10.500	20.750	3.6413e-03
10.500	21.000	1.9418e-03
10.500	21.250	1.0633e-03
10.500	21.500	6.4346e-04
10.500	21.750	4.1490e-04
10.500	22.000	2.8329e-04
10.500	22.250	2.2840e-04
10.500	22.500	2.0058e-04
10.500	22.750	1.8535e-04
10.500	23.000	1.7959e-04
10.500	23.250	1.7737e-04
10.500	23.500	1.7646e-04
10.500	23.750	1.7597e-04
10.500	24.000	1.7580e-04
10.750	17.000	1.3593e-02
10.750	17.250	1.5159e-02
10.750	17.500	1.8180e-02
10.750	17.750	2.2992e-02
10.750	18.000	2.8979e-02
10.750	18.250	3.4690e-02
10.750	18.500	3.9219e-02
10.750	18.750	4.2797e-02
10.750	19.000	4.4662e-02
10.750	19.250	4.5158e-02
10.750	19.500	4.4096e-02
10.750	19.750	4.0758e-02
10.750	20.000	3.3127e-02
10.750	20.250	1.8609e-02
10.750	20.500	1.0607e-02
10.750	20.750	6.2493e-03
10.750	21.000	3.6278e-03
10.750	21.250	1.9407e-03
10.750	21.500	1.0633e-03
10.750	21.750	6.4354e-04
10.750	22.000	4.1490e-04
10.750	22.250	2.8321e-04
10.750	22.500	2.2840e-04
10.750	22.750	2.0058e-04
10.750	23.000	1.8535e-04
10.750	23.250	1.7959e-04
10.750	23.500	1.7737e-04
10.750	23.750	1.7646e-04
10.750	24.000	1.7597e-04
11.000	17.000	1.3959e-02
11.000	17.250	1.5768e-02
11.000	17.500	1.9555e-02
11.000	17.750	2.5292e-02
11.000	18.000	3.1736e-02
11.000	18.250	3.7661e-02
11.000	18.500	4.2721e-02
11.000	18.750	4.6476e-02
11.000	19.000	4.8959e-02
11.000	19.250	5.0018e-02
11.000	19.500	4.9991e-02
11.000	19.750	4.8356e-02
11.000	20.000	4.4753e-02
11.000	20.250	3.3453e-02
11.000	20.500	1.8380e-02
11.000	20.750	1.0484e-02
11.000	21.000	6.2022e-03
11.000	21.250	3.6025e-03
11.000	21.500	1.9388e-03
11.000	21.750	1.0632e-03
11.000	22.000	6.4370e-04
11.000	22.250	4.1490e-04
11.000	22.500	2.8321e-04
11.000	22.750	2.2840e-04
11.000	23.000	2.0058e-04
11.000	23.250	1.8535e-04
11.000	23.500	1.7959e-04
11.000	23.750	1.7737e-04
11.000	24.000	1.7646e-04
11.250	17.000	1.4559e-02
11.250	17.250	1.6540e-02
11.250	17.500	2.0985e-02
11.250	17.750	2.7467e-02
11.250	18.000	3.4310e-02
11.250	18.250	4.0406e-02
11.250	18.500	4.5524e-02
11.250	18.750	4.9842e-02
11.250	19.000	5.2733e-02
11.250	19.250	5.4419e-02
11.250	19.500	5.4990e-02
11.250	19.750	5.4403e-02
11.250	20.000	5.2387e-02
11.250	20.250	4.8304e-02
11.250	20.500	3.3522e-02
11.250	20.750	1.8220e-02
11.250	21.000	1.0359e-02
11.250	21.250	6.1808e-03
11.250	21.500	3.5687e-03
11.250	21.750	1.9322e-03
11.250	22.000	1.0630e-03
11.250	22.250	6.4387e-04
11.250	22.500	4.1490e-04
11.250	22.750	2.8313e-04
11.250	23.000	2.2831e-04
11.250	23.250	2.0058e-04
11.250	23.500	1.8535e-04
11.250	23.750	1.7959e-04
11.250	24.000	1.7737e-04
11.500	17.000	1.5471e-02
11.500	17.250	1.7530e-02
11.500	17.500	2.2338e-02
11.500	17.750	2.9294e-02
11.500	18.000	3.6488e-02
11.500	18.250	4.2771e-02
11.500	18.500	4.8066e-02
11.500	18.750	5.2648e-02
11.500	19.000	5.6028e-02
11.500	19.250	5.8349e-02
11.500	19.500	5.9334e-02
11.500	19.750	5.9401e-02
11.500	20.000	5.8409e-02
11.500	20.250	5.6004e-02
11.500	20.500	5.1331e-02
11.500	20.750	3.2994e-02
11.500	21.000	1.7956e-02
11.500	21.250	1.0268e-02
11.500	21.500	6.2348e-03
11.500	21.750	3.5205e-03
11.500	22.000	1.9200e-03
11.500	22.250	1.0623e-03
11.500	22.500	6.4395e-04
11.500	22.750	4.1490e-04
11.500	23.000	2.8296e-04
11.500	23.250	2.2831e-04
11.500	23.500	2.0058e-04
11.500	23.750	1.8535e-04
11.500	24.000	1.7967e-04
11.750	17.000	1.6786e-02
11.750	17.250	1.8736e-02
11.750	17.500	2.3593e-02
11.750	17.750	3.0703e-02
11.750	18.000	3.8112e-02
11.750	18.250	4.4578e-02
11.750	18.500	5.0248e-02
11.750	18.750	5.5023e-02
11.750	19.000	5.8963e-02
11.750	19.250	6.1656e-02
11.750	19.500	6.3199e-02
11.750	19.750	6.3558e-02
11.750	20.000	6.3136e-02
11.750	20.250	6.1695e-02
11.750	20.500	5.8864e-02
11.750	20.750	5.2950e-02
11.750	21.000	3.2295e-02
11.750	21.250	1.7661e-02
11.750	21.500	1.0340e-02
11.750	21.750	6.3067e-03
11.750	22.000	3.4629e-03
11.750	22.250	1.9015e-03
11.750	22.500	1.0603e-03
11.750	22.750	6.4362e-04
11.750	23.000	4.1481e-04
11.750	23.250	2.8280e-04
11.750	23.500	2.2831e-04
11.750	23.750	2.0058e-04
11.750	24.000	1.8535e-04
12.000	17.000	1.8606e-02
12.000	17.250	2.0219e-02
12.000	17.500	2.4739e-02
12.000	17.750	3.1596e-02
12.000	18.000	3.8983e-02
12.000	18.250	4.5826e-02
12.000	18.500	5.2026e-02
12.000	18.750	5.7310e-02
12.000	19.000	6.1574e-02
12.000	19.250	6.4635e-02
12.000	19.500	6.6453e-02
12.000	19.750	6.7153e-02
12.000	20.000	6.6896e-02
12.000	20.250	6.5916e-02
12.000	20.500	6.3975e-02
12.000	20.750	6.0602e-02
12.000	21.000	5.3719e-02
12.000	21.250	3.1275e-02
12.000	21.500	1.7648e-02
12.000	21.750	1.0413e-02
12.000	22.000	6.2430e-03
12.000	22.250	3.4003e-03
12.000	22.500	1.8764e-03
12.000	22.750	1.0561e-03
12.000	23.000	6.4255e-04
12.000	23.250	4.1440e-04
12.000	23.500	2.8247e-04
12.000	23.750	2.2815e-04
12.000	24.000	2.0058e-04
12.250	17.000	2.0811e-02
12.250	17.250	2.2001e-02
12.250	17.500	2.5758e-02
12.250	17.750	3.1934e-02
12.250	18.000	3.9189e-02
12.250	18.250	4.6567e-02
12.250	18.500	5.3450e-02
12.250	18.750	5.9359e-02
12.250	19.000	6.3961e-02
12.250	19.250	6.7197e-02
12.250	19.500	6.9220e-02
12.250	19.750	7.0101e-02
12.250	20.000	6.9979e-02
12.250	20.250	6.9084e-02
12.250	20.500	6.7555e-02
12.250	20.750	6.5086e-02
12.250	21.000	6.1033e-02
12.250	21.250	5.1125e-02
12.250	21.500	3.1037e-02
12.250	21.750	1.7435e-02
12.250	22.000	1.0468e-02
12.250	22.250	6.0562e-03
12.250	22.500	3.3240e-03
12.250	22.750	1.8434e-03
12.250	23.000	1.0485e-03
12.250	23.250	6.4025e-04
12.250	23.500	4.1350e-04
12.250	23.750	2.8206e-04
12.250	24.000	2.2798e-04
12.500	17.000	2.2867e-02
12.500	17.250	2.3641e-02
12.500	17.500	2.6606e-02
12.500	17.750	3.1878e-02
12.500	18.000	3.8928e-02
12.500	18.250	4.6689e-02
12.500	18.500	5.4239e-02
12.500	18.750	6.0808e-02
12.500	19.000	6.5894e-02
12.500	19.250	6.9339e-02
12.500	19.500	7.1422e-02
12.500	19.750	7.2454e-02
12.500	20.000	7.2521e-02
12.500	20.250	7.1715e-02
12.500	20.500	7.0110e-02
12.500	20.750	6.7942e-02
12.500	21.000	6.4961e-02
12.500	21.250	5.9694e-02
12.500	21.500	5.0452e-02
12.500	21.750	2.9544e-02
12.500	22.000	1.7057e-02
12.500	22.250	1.0368e-02
12.500	22.500	5.8349e-03
12.500	22.750	3.2283e-03
12.500	23.000	1.8008e-03
12.500	23.250	1.0360e-03
12.500	23.500	6.3580e-04
12.500	23.750	4.1185e-04
12.500	24.000	2.8132e-04
12.750	17.000	2.2222e-02
12.750	17.250	2.4519e-02
12.750	17.500	2.6881e-02
12.750	17.750	3.1704e-02
12.750	18.000	3.8595e-02
12.750	18.250	4.6408e-02
12.750	18.500	5.4286e-02
12.750	18.750	6.1488e-02
12.750	19.000	6.7113e-02
12.750	19.250	7.1139e-02
12.750	19.500	7.3220e-02
12.750	19.750	7.4274e-02
12.750	20.000	7.4378e-02
12.750	20.250	7.3716e-02
12.750	20.500	7.2271e-02
12.750	20.750	6.9954e-02
12.750	21.000	6.7203e-02
12.750	21.250	6.3219e-02
12.750	21.500	6.0116e-02
12.750	21.750	4.5880e-02
12.750	22.000	2.7651e-02
12.750	22.250	1.6515e-02
12.750	22.500	1.0038e-02
12.750	22.750	5.5784e-03
12.750	23.000	3.1079e-03
12.750	23.250	1.7480e-03
12.750	23.500	1.0181e-03
12.750	23.750	6.2807e-04
12.750	24.000	4.0872e-04
13.000	17.000	1.4490e-02
13.000	17.250	1.9200e-02
13.000	17.500	2.6838e-02
13.000	17.750	3.1901e-02
13.000	18.000	3.8333e-02
13.000	18.250	4.5940e-02
13.000	18.500	5.3894e-02
13.000	18.750	6.1313e-02
13.000	19.000	6.7417e-02
13.000	19.250	7.1830e-02
13.000	19.500	7.4422e-02
13.000	19.750	7.5554e-02
13.000	20.000	7.5721e-02
13.000	20.250	7.5140e-02
13.000	20.500	7.3953e-02
13.000	20.750	7.1792e-02
13.000	21.000	6.9143e-02
13.000	21.250	6.5348e-02
13.000	21.500	6.3706e-02
13.000	21.750	5.6131e-02
13.000	22.000	4.0798e-02
13.000	22.250	2.5244e-02
13.000	22.500	1.5523e-02
13.000	22.750	9.4056e-03
13.000	23.000	5.2541e-03
13.000	23.250	2.9598e-03
13.000	23.500	1.6807e-03
13.000	23.750	9.9053e-04
13.000	24.000	6.1523e-04
13.250	17.000	1.4052e-02
13.250	17.250	1.7209e-02
13.250	17.500	2.3167e-02
13.250	17.750	3.0518e-02
13.250	18.000	3.8491e-02
13.250	18.250	4.5637e-02
13.250	18.500	5.3280e-02
13.250	18.750	6.0698e-02
13.250	19.000	6.7051e-02
13.250	19.250	7.1775e-02
13.250	19.500	7.4827e-02
13.250	19.750	7.6379e-02
13.250	20.000	7.6778e-02
13.250	20.250	7.6307e-02
13.250	20.500	7.5064e-02
13.250	20.750	7.3215e-02
13.250	21.000	7.0365e-02
13.250	21.250	6.6621e-02
13.250	21.500	6.5573e-02
13.250	21.750	5.9725e-02
13.250	22.000	4.9340e-02
13.250	22.250	3.4526e-02
13.250	22.500	2.2218e-02
13.250	22.750	1.3977e-02
13.250	23.000	8.5542e-03
13.250	23.250	4.8661e-03
13.250	23.500	2.7781e-03
13.250	23.750	1.5956e-03
13.250	24.000	9.5037e-04
13.500	17.000	1.3680e-02
13.500	17.250	1.6341e-02
13.500	17.500	2.1748e-02
13.500	17.750	2.9447e-02
13.500	18.000	3.7592e-02
13.500	18.250	4.5741e-02
13.500	18.500	5.2906e-02
13.500	18.750	6.0061e-02
13.500	19.000	6.6428e-02
13.500	19.250	7.1547e-02
13.500	19.500	7.4798e-02
13.500	19.750	7.6627e-02
13.500	20.000	7.7425e-02
13.500	20.250	7.7208e-02
13.500	20.500	7.6068e-02
13.500	20.750	7.4027e-02
13.500	21.000	7.0994e-02
13.500	21.250	6.7373e-02
13.500	21.500	6.6288e-02
13.500	21.750	6.0110e-02
13.500	22.000	5.1583e-02
13.500	22.250	3.9933e-02
13.500	22.500	2.7992e-02
13.500	22.750	1.8573e-02
13.500	23.000	1.1971e-02
13.500	23.250	7.5205e-03
13.500	23.500	4.3862e-03
13.500	23.750	2.5397e-03
13.500	24.000	1.4861e-03
13.750	17.000	1.3283e-02
13.750	17.250	1.6031e-02
13.750	17.500	2.0781e-02
13.750	17.750	2.7077e-02
13.750	18.000	3.6701e-02
13.750	18.250	4.4882e-02
13.750	18.500	5.2771e-02
13.750	18.750	5.9695e-02
13.750	19.000	6.5978e-02
13.750	19.250	7.1203e-02
13.750	19.500	7.4936e-02
13.750	19.750	7.7176e-02
13.750	20.000	7.8155e-02
13.750	20.250	7.8190e-02
13.750	20.500	7.7246e-02
13.750	20.750	7.5241e-02
13.750	21.000	7.2049e-02
13.750	21.250	6.7680e-02
13.750	21.500	6.6564e-02
13.750	21.750	6.0624e-02
13.750	22.000	5.2506e-02
13.750	22.250	4.0508e-02
13.750	22.500	2.9132e-02
13.750	22.750	2.0795e-02
13.750	23.000	1.4863e-02
13.750	23.250	9.8807e-03
13.750	23.500	6.3523e-03
13.750	23.750	3.8096e-03
13.750	24.000	2.2608e-03
14.000	17.000	1.3034e-02
14.000	17.250	1.5389e-02
14.000	17.500	1.9923e-02
14.000	17.750	2.5724e-02
14.000	18.000	3.4043e-02
14.000	18.250	4.4445e-02
14.000	18.500	5.2438e-02
14.000	18.750	5.9714e-02
14.000	19.000	6.5654e-02
14.000	19.250	7.0969e-02
14.000	19.500	7.5225e-02
14.000	19.750	7.7938e-02
14.000	20.000	7.9252e-02
14.000	20.250	7.9379e-02
14.000	20.500	7.8594e-02
14.000	20.750	7.6683e-02
14.000	21.000	7.3539e-02
14.000	21.250	6.9065e-02
14.000	21.500	6.7759e-02
14.000	21.750	6.1744e-02
14.000	22.000	5.3551e-02
14.000	22.250	4.0783e-02
14.000	22.500	2.9610e-02
14.000	22.750	2.0926e-02
14.000	23.000	1.5215e-02
14.000	23.250	1.0862e-02
14.000	23.500	7.6984e-03
14.000	23.750	5.1055e-03
14.000	24.000	3.1626e-03
