nFnu 925.144A  relative to Inci 1215.00A scaled to 1215A.
Hden   Phi(H)  Eq_Width (A)
 7.000	17.000	4.6417e-02
 7.000	17.250	4.4809e-02
 7.000	17.500	4.2228e-02
 7.000	17.750	3.7937e-02
 7.000	18.000	3.3121e-02
 7.000	18.250	2.9750e-02
 7.000	18.500	2.7461e-02
 7.000	18.750	2.6251e-02
 7.000	19.000	2.5605e-02
 7.000	19.250	2.5235e-02
 7.000	19.500	2.5076e-02
 7.000	19.750	2.5009e-02
 7.000	20.000	2.4979e-02
 7.000	20.250	2.4965e-02
 7.000	20.500	2.4958e-02
 7.000	20.750	2.4954e-02
 7.000	21.000	2.4953e-02
 7.000	21.250	2.4952e-02
 7.000	21.500	2.4951e-02
 7.000	21.750	2.4951e-02
 7.000	22.000	2.4951e-02
 7.000	22.250	2.4951e-02
 7.000	22.500	2.4951e-02
 7.000	22.750	2.4951e-02
 7.000	23.000	2.4951e-02
 7.000	23.250	2.4951e-02
 7.000	23.500	2.4951e-02
 7.000	23.750	2.4951e-02
 7.000	24.000	2.4951e-02
 7.250	17.000	4.9391e-02
 7.250	17.250	4.4597e-02
 7.250	17.500	4.4238e-02
 7.250	17.750	4.1967e-02
 7.250	18.000	3.7812e-02
 7.250	18.250	3.3049e-02
 7.250	18.500	2.9715e-02
 7.250	18.750	2.7448e-02
 7.250	19.000	2.6246e-02
 7.250	19.250	2.5603e-02
 7.250	19.500	2.5235e-02
 7.250	19.750	2.5076e-02
 7.250	20.000	2.5009e-02
 7.250	20.250	2.4979e-02
 7.250	20.500	2.4965e-02
 7.250	20.750	2.4958e-02
 7.250	21.000	2.4954e-02
 7.250	21.250	2.4952e-02
 7.250	21.500	2.4951e-02
 7.250	21.750	2.4951e-02
 7.250	22.000	2.4953e-02
 7.250	22.250	2.4951e-02
 7.250	22.500	2.4951e-02
 7.250	22.750	2.4951e-02
 7.250	23.000	2.4951e-02
 7.250	23.250	2.4952e-02
 7.250	23.500	2.4951e-02
 7.250	23.750	2.4952e-02
 7.250	24.000	2.4951e-02
 7.500	17.000	3.8254e-02
 7.500	17.250	4.5583e-02
 7.500	17.500	4.3089e-02
 7.500	17.750	4.3914e-02
 7.500	18.000	4.1836e-02
 7.500	18.250	3.7750e-02
 7.500	18.500	3.3008e-02
 7.500	18.750	2.9693e-02
 7.500	19.000	2.7440e-02
 7.500	19.250	2.6243e-02
 7.500	19.500	2.5602e-02
 7.500	19.750	2.5234e-02
 7.500	20.000	2.5076e-02
 7.500	20.250	2.5009e-02
 7.500	20.500	2.4979e-02
 7.500	20.750	2.4965e-02
 7.500	21.000	2.4958e-02
 7.500	21.250	2.4954e-02
 7.500	21.500	2.4952e-02
 7.500	21.750	2.4951e-02
 7.500	22.000	2.4951e-02
 7.500	22.250	2.4950e-02
 7.500	22.500	2.4950e-02
 7.500	22.750	2.4950e-02
 7.500	23.000	2.4950e-02
 7.500	23.250	2.4950e-02
 7.500	23.500	2.4950e-02
 7.500	23.750	2.4950e-02
 7.500	24.000	2.4950e-02
 7.750	17.000	2.7044e-02
 7.750	17.250	3.4439e-02
 7.750	17.500	4.2208e-02
 7.750	17.750	4.1891e-02
 7.750	18.000	4.3738e-02
 7.750	18.250	4.1787e-02
 7.750	18.500	3.7732e-02
 7.750	18.750	3.2985e-02
 7.750	19.000	2.9679e-02
 7.750	19.250	2.7434e-02
 7.750	19.500	2.6240e-02
 7.750	19.750	2.5601e-02
 7.750	20.000	2.5234e-02
 7.750	20.250	2.5076e-02
 7.750	20.500	2.5009e-02
 7.750	20.750	2.4979e-02
 7.750	21.000	2.4965e-02
 7.750	21.250	2.4958e-02
 7.750	21.500	2.4954e-02
 7.750	21.750	2.4952e-02
 7.750	22.000	2.4951e-02
 7.750	22.250	2.4951e-02
 7.750	22.500	2.4950e-02
 7.750	22.750	2.4950e-02
 7.750	23.000	2.4950e-02
 7.750	23.250	2.4950e-02
 7.750	23.500	2.4950e-02
 7.750	23.750	2.4950e-02
 7.750	24.000	2.4950e-02
 8.000	17.000	1.8715e-02
 8.000	17.250	2.3307e-02
 8.000	17.500	3.1165e-02
 8.000	17.750	3.9372e-02
 8.000	18.000	4.0985e-02
 8.000	18.250	4.3647e-02
 8.000	18.500	4.1793e-02
 8.000	18.750	3.7743e-02
 8.000	19.000	3.2975e-02
 8.000	19.250	2.9672e-02
 8.000	19.500	2.7431e-02
 8.000	19.750	2.6239e-02
 8.000	20.000	2.5601e-02
 8.000	20.250	2.5234e-02
 8.000	20.500	2.5076e-02
 8.000	20.750	2.5009e-02
 8.000	21.000	2.4979e-02
 8.000	21.250	2.4965e-02
 8.000	21.500	2.4958e-02
 8.000	21.750	2.4954e-02
 8.000	22.000	2.4952e-02
 8.000	22.250	2.4951e-02
 8.000	22.500	2.4951e-02
 8.000	22.750	2.4950e-02
 8.000	23.000	2.4950e-02
 8.000	23.250	2.4950e-02
 8.000	23.500	2.4950e-02
 8.000	23.750	2.4950e-02
 8.000	24.000	2.4952e-02
 8.250	17.000	1.3641e-02
 8.250	17.250	1.5970e-02
 8.250	17.500	2.0867e-02
 8.250	17.750	2.9092e-02
 8.250	18.000	3.7577e-02
 8.250	18.250	4.0383e-02
 8.250	18.500	4.3598e-02
 8.250	18.750	4.1833e-02
 8.250	19.000	3.7773e-02
 8.250	19.250	3.2973e-02
 8.250	19.500	2.9667e-02
 8.250	19.750	2.7429e-02
 8.250	20.000	2.6238e-02
 8.250	20.250	2.5601e-02
 8.250	20.500	2.5234e-02
 8.250	20.750	2.5076e-02
 8.250	21.000	2.5009e-02
 8.250	21.250	2.4979e-02
 8.250	21.500	2.4965e-02
 8.250	21.750	2.4958e-02
 8.250	22.000	2.4954e-02
 8.250	22.250	2.4952e-02
 8.250	22.500	2.4951e-02
 8.250	22.750	2.4951e-02
 8.250	23.000	2.4951e-02
 8.250	23.250	2.4950e-02
 8.250	23.500	2.4950e-02
 8.250	23.750	2.4950e-02
 8.250	24.000	2.4950e-02
 8.500	17.000	1.0442e-02
 8.500	17.250	1.1586e-02
 8.500	17.500	1.4168e-02
 8.500	17.750	1.9221e-02
 8.500	18.000	2.7773e-02
 8.500	18.250	3.6436e-02
 8.500	18.500	3.9969e-02
 8.500	18.750	4.3577e-02
 8.500	19.000	4.1900e-02
 8.500	19.250	3.7817e-02
 8.500	19.500	3.2976e-02
 8.500	19.750	2.9665e-02
 8.500	20.000	2.7428e-02
 8.500	20.250	2.6238e-02
 8.500	20.500	2.5601e-02
 8.500	20.750	2.5234e-02
 8.500	21.000	2.5076e-02
 8.500	21.250	2.5009e-02
 8.500	21.500	2.4979e-02
 8.500	21.750	2.4965e-02
 8.500	22.000	2.4958e-02
 8.500	22.250	2.4954e-02
 8.500	22.500	2.4952e-02
 8.500	22.750	2.4952e-02
 8.500	23.000	2.4951e-02
 8.500	23.250	2.4950e-02
 8.500	23.500	2.4950e-02
 8.500	23.750	2.4950e-02
 8.500	24.000	2.4950e-02
 8.750	17.000	8.4092e-03
 8.750	17.250	8.9551e-03
 8.750	17.500	1.0304e-02
 8.750	17.750	1.3037e-02
 8.750	18.000	1.8335e-02
 8.750	18.250	2.7120e-02
 8.750	18.500	3.5748e-02
 8.750	18.750	3.9713e-02
 8.750	19.000	4.3562e-02
 8.750	19.250	4.1982e-02
 8.750	19.500	3.7870e-02
 8.750	19.750	3.2982e-02
 8.750	20.000	2.9663e-02
 8.750	20.250	2.7427e-02
 8.750	20.500	2.6238e-02
 8.750	20.750	2.5601e-02
 8.750	21.000	2.5234e-02
 8.750	21.250	2.5076e-02
 8.750	21.500	2.5009e-02
 8.750	21.750	2.4979e-02
 8.750	22.000	2.4965e-02
 8.750	22.250	2.4958e-02
 8.750	22.500	2.4954e-02
 8.750	22.750	2.4952e-02
 8.750	23.000	2.4951e-02
 8.750	23.250	2.4951e-02
 8.750	23.500	2.4950e-02
 8.750	23.750	2.4950e-02
 8.750	24.000	2.4950e-02
 9.000	17.000	7.0961e-03
 9.000	17.250	7.3481e-03
 9.000	17.500	8.0633e-03
 9.000	17.750	9.5571e-03
 9.000	18.000	1.2500e-02
 9.000	18.250	1.8116e-02
 9.000	18.500	2.7208e-02
 9.000	18.750	3.5406e-02
 9.000	19.000	3.9527e-02
 9.000	19.250	4.3540e-02
 9.000	19.500	4.2065e-02
 9.000	19.750	3.7928e-02
 9.000	20.000	3.2989e-02
 9.000	20.250	2.9662e-02
 9.000	20.500	2.7426e-02
 9.000	20.750	2.6238e-02
 9.000	21.000	2.5601e-02
 9.000	21.250	2.5234e-02
 9.000	21.500	2.5076e-02
 9.000	21.750	2.5009e-02
 9.000	22.000	2.4979e-02
 9.000	22.250	2.4965e-02
 9.000	22.500	2.4958e-02
 9.000	22.750	2.4954e-02
 9.000	23.000	2.4952e-02
 9.000	23.250	2.4951e-02
 9.000	23.500	2.4951e-02
 9.000	23.750	2.4950e-02
 9.000	24.000	2.4951e-02
 9.250	17.000	6.2246e-03
 9.250	17.250	6.3204e-03
 9.250	17.500	6.7266e-03
 9.250	17.750	7.5978e-03
 9.250	18.000	9.3368e-03
 9.250	18.250	1.2653e-02
 9.250	18.500	1.8837e-02
 9.250	18.750	2.8249e-02
 9.250	19.000	3.5066e-02
 9.250	19.250	3.9373e-02
 9.250	19.500	4.3501e-02
 9.250	19.750	4.2137e-02
 9.250	20.000	3.7983e-02
 9.250	20.250	3.2997e-02
 9.250	20.500	2.9662e-02
 9.250	20.750	2.7426e-02
 9.250	21.000	2.6237e-02
 9.250	21.250	2.5600e-02
 9.250	21.500	2.5230e-02
 9.250	21.750	2.5072e-02
 9.250	22.000	2.5004e-02
 9.250	22.250	2.4975e-02
 9.250	22.500	2.4964e-02
 9.250	22.750	2.4957e-02
 9.250	23.000	2.4954e-02
 9.250	23.250	2.4952e-02
 9.250	23.500	2.4951e-02
 9.250	23.750	2.4950e-02
 9.250	24.000	2.4950e-02
 9.500	17.000	5.6329e-03
 9.500	17.250	5.6285e-03
 9.500	17.500	5.8877e-03
 9.500	17.750	6.4774e-03
 9.500	18.000	7.5928e-03
 9.500	18.250	9.6597e-03
 9.500	18.500	1.3551e-02
 9.500	18.750	2.0636e-02
 9.500	19.000	3.0008e-02
 9.500	19.250	3.4820e-02
 9.500	19.500	3.9217e-02
 9.500	19.750	4.3444e-02
 9.500	20.000	4.2186e-02
 9.500	20.250	3.8031e-02
 9.500	20.500	3.3004e-02
 9.500	20.750	2.9660e-02
 9.500	21.000	2.7421e-02
 9.500	21.250	2.6233e-02
 9.500	21.500	2.5596e-02
 9.500	21.750	2.5228e-02
 9.500	22.000	2.5068e-02
 9.500	22.250	2.5001e-02
 9.500	22.500	2.4971e-02
 9.500	22.750	2.4958e-02
 9.500	23.000	2.4951e-02
 9.500	23.250	2.4947e-02
 9.500	23.500	2.4946e-02
 9.500	23.750	2.4944e-02
 9.500	24.000	2.4944e-02
 9.750	17.000	5.2690e-03
 9.750	17.250	5.1384e-03
 9.750	17.500	5.3011e-03
 9.750	17.750	5.7588e-03
 9.750	18.000	6.6014e-03
 9.750	18.250	8.0444e-03
 9.750	18.500	1.0596e-02
 9.750	18.750	1.5234e-02
 9.750	19.000	2.3214e-02
 9.750	19.250	3.1423e-02
 9.750	19.500	3.4629e-02
 9.750	19.750	3.9047e-02
 9.750	20.000	4.3369e-02
 9.750	20.250	4.2203e-02
 9.750	20.500	3.8069e-02
 9.750	20.750	3.3009e-02
 9.750	21.000	2.9661e-02
 9.750	21.250	2.7422e-02
 9.750	21.500	2.6233e-02
 9.750	21.750	2.5596e-02
 9.750	22.000	2.5228e-02
 9.750	22.250	2.5068e-02
 9.750	22.500	2.5001e-02
 9.750	22.750	2.4971e-02
 9.750	23.000	2.4957e-02
 9.750	23.250	2.4950e-02
 9.750	23.500	2.4947e-02
 9.750	23.750	2.4945e-02
 9.750	24.000	2.4944e-02
10.000	17.000	5.1109e-03
10.000	17.250	4.8197e-03
10.000	17.500	4.8472e-03
10.000	17.750	5.2163e-03
10.000	18.000	5.9728e-03
10.000	18.250	7.1336e-03
10.000	18.500	8.9728e-03
10.000	18.750	1.2124e-02
10.000	19.000	1.7732e-02
10.000	19.250	2.6153e-02
10.000	19.500	3.1768e-02
10.000	19.750	3.4525e-02
10.000	20.000	3.8880e-02
10.000	20.250	4.3292e-02
10.000	20.500	4.2202e-02
10.000	20.750	3.8099e-02
10.000	21.000	3.3013e-02
10.000	21.250	2.9661e-02
10.000	21.500	2.7423e-02
10.000	21.750	2.6234e-02
10.000	22.000	2.5596e-02
10.000	22.250	2.5229e-02
10.000	22.500	2.5070e-02
10.000	22.750	2.5001e-02
10.000	23.000	2.4972e-02
10.000	23.250	2.4958e-02
10.000	23.500	2.4951e-02
10.000	23.750	2.4947e-02
10.000	24.000	2.4945e-02
10.250	17.000	5.1508e-03
10.250	17.250	4.6871e-03
10.250	17.500	4.5591e-03
10.250	17.750	4.8174e-03
10.250	18.000	5.5091e-03
10.250	18.250	6.5448e-03
10.250	18.500	8.0368e-03
10.250	18.750	1.0407e-02
10.250	19.000	1.4474e-02
10.250	19.250	2.0768e-02
10.250	19.500	2.8250e-02
10.250	19.750	3.1882e-02
10.250	20.000	3.4522e-02
10.250	20.250	3.8829e-02
10.250	20.500	4.3242e-02
10.250	20.750	4.2183e-02
10.250	21.000	3.8116e-02
10.250	21.250	3.3016e-02
10.250	21.500	2.9661e-02
10.250	21.750	2.7424e-02
10.250	22.000	2.6236e-02
10.250	22.250	2.5597e-02
10.250	22.500	2.5229e-02
10.250	22.750	2.5070e-02
10.250	23.000	2.5002e-02
10.250	23.250	2.4971e-02
10.250	23.500	2.4957e-02
10.250	23.750	2.4951e-02
10.250	24.000	2.4947e-02
10.500	17.000	5.3353e-03
10.500	17.250	4.7440e-03
10.500	17.500	4.4547e-03
10.500	17.750	4.5828e-03
10.500	18.000	5.1556e-03
10.500	18.250	6.0985e-03
10.500	18.500	7.3733e-03
10.500	18.750	9.1613e-03
10.500	19.000	1.1802e-02
10.500	19.250	1.6024e-02
10.500	19.500	2.2625e-02
10.500	19.750	2.8984e-02
10.500	20.000	3.2024e-02
10.500	20.250	3.4702e-02
10.500	20.500	3.8981e-02
10.500	20.750	4.3332e-02
10.500	21.000	4.2156e-02
10.500	21.250	3.8125e-02
10.500	21.500	3.3015e-02
10.500	21.750	2.9661e-02
10.500	22.000	2.7423e-02
10.500	22.250	2.6237e-02
10.500	22.500	2.5598e-02
10.500	22.750	2.5230e-02
10.500	23.000	2.5071e-02
10.500	23.250	2.5003e-02
10.500	23.500	2.4972e-02
10.500	23.750	2.4958e-02
10.500	24.000	2.4950e-02
10.750	17.000	5.6045e-03
10.750	17.250	4.9399e-03
10.750	17.500	4.5412e-03
10.750	17.750	4.5396e-03
10.750	18.000	4.9390e-03
10.750	18.250	5.6653e-03
10.750	18.500	6.7016e-03
10.750	18.750	8.0205e-03
10.750	19.000	9.8081e-03
10.750	19.250	1.2649e-02
10.750	19.500	1.7362e-02
10.750	19.750	2.4288e-02
10.750	20.000	2.9863e-02
10.750	20.250	3.2378e-02
10.750	20.500	3.5169e-02
10.750	20.750	3.9529e-02
10.750	21.000	4.3607e-02
10.750	21.250	4.2145e-02
10.750	21.500	3.8123e-02
10.750	21.750	3.3013e-02
10.750	22.000	2.9661e-02
10.750	22.250	2.7423e-02
10.750	22.500	2.6237e-02
10.750	22.750	2.5600e-02
10.750	23.000	2.5230e-02
10.750	23.250	2.5072e-02
10.750	23.500	2.5004e-02
10.750	23.750	2.4973e-02
10.750	24.000	2.4959e-02
11.000	17.000	5.8980e-03
11.000	17.250	5.2155e-03
11.000	17.500	4.7635e-03
11.000	17.750	4.6654e-03
11.000	18.000	4.8869e-03
11.000	18.250	5.3358e-03
11.000	18.500	6.0480e-03
11.000	18.750	7.0106e-03
11.000	19.000	8.3110e-03
11.000	19.250	1.0261e-02
11.000	19.500	1.3446e-02
11.000	19.750	1.8639e-02
11.000	20.000	2.5858e-02
11.000	20.250	3.0443e-02
11.000	20.500	3.3157e-02
11.000	20.750	3.6060e-02
11.000	21.000	4.0648e-02
11.000	21.250	4.4192e-02
11.000	21.500	4.2188e-02
11.000	21.750	3.8113e-02
11.000	22.000	3.3009e-02
11.000	22.250	2.9661e-02
11.000	22.500	2.7423e-02
11.000	22.750	2.6237e-02
11.000	23.000	2.5601e-02
11.000	23.250	2.5231e-02
11.000	23.500	2.5072e-02
11.000	23.750	2.5004e-02
11.000	24.000	2.4974e-02
11.250	17.000	6.1359e-03
11.250	17.250	5.5007e-03
11.250	17.500	5.0366e-03
11.250	17.750	4.8871e-03
11.250	18.000	4.9723e-03
11.250	18.250	5.1686e-03
11.250	18.500	5.5197e-03
11.250	18.750	6.1844e-03
11.250	19.000	7.1619e-03
11.250	19.250	8.5459e-03
11.250	19.500	1.0704e-02
11.250	19.750	1.4220e-02
11.250	20.000	1.9862e-02
11.250	20.250	2.7291e-02
11.250	20.500	3.1219e-02
11.250	20.750	3.4129e-02
11.250	21.000	3.7592e-02
11.250	21.250	4.2619e-02
11.250	21.500	4.5227e-02
11.250	21.750	4.2334e-02
11.250	22.000	3.8095e-02
11.250	22.250	3.3002e-02
11.250	22.500	2.9660e-02
11.250	22.750	2.7422e-02
11.250	23.000	2.6237e-02
11.250	23.250	2.5601e-02
11.250	23.500	2.5233e-02
11.250	23.750	2.5072e-02
11.250	24.000	2.5004e-02
11.500	17.000	6.2150e-03
11.500	17.250	5.7191e-03
11.500	17.500	5.2926e-03
11.500	17.750	5.1189e-03
11.500	18.000	5.1143e-03
11.500	18.250	5.1407e-03
11.500	18.500	5.2481e-03
11.500	18.750	5.5985e-03
11.500	19.000	6.2557e-03
11.500	19.250	7.2730e-03
11.500	19.500	8.7594e-03
11.500	19.750	1.1123e-02
11.500	20.000	1.4976e-02
11.500	20.250	2.1103e-02
11.500	20.500	2.8733e-02
11.500	20.750	3.2383e-02
11.500	21.000	3.5820e-02
11.500	21.250	4.0111e-02
11.500	21.500	4.5825e-02
11.500	21.750	4.6458e-02
11.500	22.000	4.2629e-02
11.500	22.250	3.8077e-02
11.500	22.500	3.2993e-02
11.500	22.750	2.9660e-02
11.500	23.000	2.7421e-02
11.500	23.250	2.6237e-02
11.500	23.500	2.5601e-02
11.500	23.750	2.5234e-02
11.500	24.000	2.5073e-02
11.750	17.000	5.9778e-03
11.750	17.250	5.7464e-03
11.750	17.500	5.4412e-03
11.750	17.750	5.2929e-03
11.750	18.000	5.2570e-03
11.750	18.250	5.2091e-03
11.750	18.500	5.1815e-03
11.750	18.750	5.2634e-03
11.750	19.000	5.6092e-03
11.750	19.250	6.2842e-03
11.750	19.500	7.3422e-03
11.750	19.750	8.9412e-03
11.750	20.000	1.1517e-02
11.750	20.250	1.5735e-02
11.750	20.500	2.2388e-02
11.750	20.750	2.9922e-02
11.750	21.000	3.4057e-02
11.750	21.250	3.8523e-02
11.750	21.500	4.3975e-02
11.750	21.750	5.0006e-02
11.750	22.000	4.7872e-02
11.750	22.250	4.3066e-02
11.750	22.500	3.8067e-02
11.750	22.750	3.2983e-02
11.750	23.000	2.9659e-02
11.750	23.250	2.7421e-02
11.750	23.500	2.6248e-02
11.750	23.750	2.5602e-02
11.750	24.000	2.5234e-02
12.000	17.000	5.1443e-03
12.000	17.250	5.3845e-03
12.000	17.500	5.3398e-03
12.000	17.750	5.3234e-03
12.000	18.000	5.3389e-03
12.000	18.250	5.2894e-03
12.000	18.500	5.1919e-03
12.000	18.750	5.1224e-03
12.000	19.000	5.2182e-03
12.000	19.250	5.5534e-03
12.000	19.500	6.2702e-03
12.000	19.750	7.3835e-03
12.000	20.000	9.1131e-03
12.000	20.250	1.1922e-02
12.000	20.500	1.6518e-02
12.000	20.750	2.3804e-02
12.000	21.000	3.2243e-02
12.000	21.250	3.6803e-02
12.000	21.500	4.2591e-02
12.000	21.750	4.9209e-02
12.000	22.000	5.3994e-02
12.000	22.250	4.9236e-02
12.000	22.500	4.3613e-02
12.000	22.750	3.8073e-02
12.000	23.000	3.2972e-02
12.000	23.250	2.9659e-02
12.000	23.500	2.7420e-02
12.000	23.750	2.6237e-02
12.000	24.000	2.5602e-02
12.250	17.000	3.5388e-03
12.250	17.250	4.2921e-03
12.250	17.500	4.7901e-03
12.250	17.750	5.0774e-03
12.250	18.000	5.2365e-03
12.250	18.250	5.2393e-03
12.250	18.500	5.1451e-03
12.250	18.750	5.0409e-03
12.250	19.000	5.0095e-03
12.250	19.250	5.1080e-03
12.250	19.500	5.4881e-03
12.250	19.750	6.2444e-03
12.250	20.000	7.4198e-03
12.250	20.250	9.2973e-03
12.250	20.500	1.2359e-02
12.250	20.750	1.7398e-02
12.250	21.000	2.5725e-02
12.250	21.250	3.5012e-02
12.250	21.500	4.0598e-02
12.250	21.750	4.7736e-02
12.250	22.000	5.5338e-02
12.250	22.250	5.7244e-02
12.250	22.500	5.0725e-02
12.250	22.750	4.4241e-02
12.250	23.000	3.8105e-02
12.250	23.250	3.2961e-02
12.250	23.500	2.9658e-02
12.250	23.750	2.7418e-02
12.250	24.000	2.6236e-02
12.500	17.000	2.7578e-03
12.500	17.250	3.1921e-03
12.500	17.500	3.5867e-03
12.500	17.750	4.3286e-03
12.500	18.000	4.7308e-03
12.500	18.250	4.8914e-03
12.500	18.500	4.9165e-03
12.500	18.750	4.8912e-03
12.500	19.000	4.8509e-03
12.500	19.250	4.8598e-03
12.500	19.500	4.9989e-03
12.500	19.750	5.4141e-03
12.500	20.000	6.2158e-03
12.500	20.250	7.4682e-03
12.500	20.500	9.5211e-03
12.500	20.750	1.2920e-02
12.500	21.000	1.8674e-02
12.500	21.250	2.8405e-02
12.500	21.500	3.8732e-02
12.500	21.750	4.5639e-02
12.500	22.000	5.4432e-02
12.500	22.250	6.1605e-02
12.500	22.500	6.0634e-02
12.500	22.750	5.2358e-02
12.500	23.000	4.4927e-02
12.500	23.250	3.8164e-02
12.500	23.500	3.2950e-02
12.500	23.750	2.9656e-02
12.500	24.000	2.7416e-02
12.750	17.000	2.2010e-03
12.750	17.250	2.5937e-03
12.750	17.500	2.9510e-03
12.750	17.750	3.2347e-03
12.750	18.000	3.5053e-03
12.750	18.250	4.0641e-03
12.750	18.500	4.3781e-03
12.750	18.750	4.5538e-03
12.750	19.000	4.6366e-03
12.750	19.250	4.6756e-03
12.750	19.500	4.7147e-03
12.750	19.750	4.8848e-03
12.750	20.000	5.3212e-03
12.750	20.250	6.1774e-03
12.750	20.500	7.5489e-03
12.750	20.750	9.8360e-03
12.750	21.000	1.3683e-02
12.750	21.250	2.0464e-02
12.750	21.500	3.1742e-02
12.750	21.750	4.3780e-02
12.750	22.000	5.2129e-02
12.750	22.250	6.1984e-02
12.750	22.500	6.7886e-02
12.750	22.750	6.3842e-02
12.750	23.000	5.4179e-02
12.750	23.250	4.5568e-02
12.750	23.500	3.8216e-02
12.750	23.750	3.2945e-02
12.750	24.000	2.9655e-02
13.000	17.000	2.5909e-03
13.000	17.250	2.1960e-03
13.000	17.500	2.3193e-03
13.000	17.750	2.5688e-03
13.000	18.000	2.8285e-03
13.000	18.250	3.0881e-03
13.000	18.500	3.3193e-03
13.000	18.750	3.7664e-03
13.000	19.000	4.1804e-03
13.000	19.250	4.3890e-03
13.000	19.500	4.4867e-03
13.000	19.750	4.5659e-03
13.000	20.000	4.7576e-03
13.000	20.250	5.2200e-03
13.000	20.500	6.1612e-03
13.000	20.750	7.6737e-03
13.000	21.000	1.0332e-02
13.000	21.250	1.4842e-02
13.000	21.500	2.2412e-02
13.000	21.750	3.6581e-02
13.000	22.000	5.0167e-02
13.000	22.250	5.8672e-02
13.000	22.500	6.9117e-02
13.000	22.750	7.4029e-02
13.000	23.000	6.7429e-02
13.000	23.250	5.5945e-02
13.000	23.500	4.6207e-02
13.000	23.750	3.8311e-02
13.000	24.000	3.2948e-02
13.250	17.000	2.3075e-03
13.250	17.250	2.2968e-03
13.250	17.500	1.9062e-03
13.250	17.750	2.0882e-03
13.250	18.000	2.3124e-03
13.250	18.250	2.5755e-03
13.250	18.500	2.8379e-03
13.250	18.750	3.0787e-03
13.250	19.000	3.2928e-03
13.250	19.250	3.7533e-03
13.250	19.500	4.1265e-03
13.250	19.750	4.3014e-03
13.250	20.000	4.4203e-03
13.250	20.250	4.6300e-03
13.250	20.500	5.1169e-03
13.250	20.750	6.0988e-03
13.250	21.000	7.7916e-03
13.250	21.250	1.0757e-02
13.250	21.500	1.5625e-02
13.250	21.750	2.4977e-02
13.250	22.000	4.1060e-02
13.250	22.250	5.4839e-02
13.250	22.500	6.5436e-02
13.250	22.750	7.6019e-02
13.250	23.000	8.0465e-02
13.250	23.250	7.0605e-02
13.250	23.500	5.7499e-02
13.250	23.750	4.6785e-02
13.250	24.000	3.8445e-02
13.500	17.000	2.1396e-03
13.500	17.250	2.1333e-03
13.500	17.500	1.6367e-03
13.500	17.750	1.7716e-03
13.500	18.000	1.9543e-03
13.500	18.250	2.1802e-03
13.500	18.500	2.4250e-03
13.500	18.750	2.6655e-03
13.500	19.000	2.8968e-03
13.500	19.250	3.1128e-03
13.500	19.500	3.3045e-03
13.500	19.750	3.8207e-03
13.500	20.000	4.0889e-03
13.500	20.250	4.2554e-03
13.500	20.500	4.4863e-03
13.500	20.750	4.9787e-03
13.500	21.000	5.9356e-03
13.500	21.250	7.8008e-03
13.500	21.500	1.0763e-02
13.500	21.750	1.5797e-02
13.500	22.000	2.5610e-02
13.500	22.250	4.4941e-02
13.500	22.500	6.0571e-02
13.500	22.750	7.2351e-02
13.500	23.000	8.3184e-02
13.500	23.250	8.7318e-02
13.500	23.500	7.3902e-02
13.500	23.750	5.9589e-02
13.500	24.000	4.7311e-02
13.750	17.000	2.0533e-03
13.750	17.250	1.9763e-03
13.750	17.500	1.5077e-03
13.750	17.750	1.5727e-03
13.750	18.000	1.7166e-03
13.750	18.250	1.9049e-03
13.750	18.500	2.1119e-03
13.750	18.750	2.3224e-03
13.750	19.000	2.5355e-03
13.750	19.250	2.7512e-03
13.750	19.500	2.9618e-03
13.750	19.750	3.1556e-03
13.750	20.000	3.4064e-03
13.750	20.250	3.8660e-03
13.750	20.500	4.1044e-03
13.750	20.750	4.3776e-03
13.750	21.000	4.8793e-03
13.750	21.250	5.8412e-03
13.750	21.500	7.5778e-03
13.750	21.750	1.0560e-02
13.750	22.000	1.6038e-02
13.750	22.250	2.7573e-02
13.750	22.500	5.0635e-02
13.750	22.750	6.8580e-02
13.750	23.000	8.1161e-02
13.750	23.250	9.2317e-02
13.750	23.500	9.4674e-02
13.750	23.750	7.7557e-02
13.750	24.000	6.1004e-02
14.000	17.000	1.9978e-03
14.000	17.250	1.9891e-03
14.000	17.500	1.5351e-03
14.000	17.750	1.4446e-03
14.000	18.000	1.5624e-03
14.000	18.250	1.7153e-03
14.000	18.500	1.8886e-03
14.000	18.750	2.0641e-03
14.000	19.000	2.2444e-03
14.000	19.250	2.4346e-03
14.000	19.500	2.6365e-03
14.000	19.750	2.8416e-03
14.000	20.000	3.0394e-03
14.000	20.250	3.2263e-03
14.000	20.500	3.6196e-03
14.000	20.750	3.9884e-03
14.000	21.000	4.3438e-03
14.000	21.250	4.9265e-03
14.000	21.500	5.9347e-03
14.000	21.750	7.7622e-03
14.000	22.000	1.1058e-02
14.000	22.250	1.7485e-02
14.000	22.500	3.2249e-02
14.000	22.750	6.0249e-02
14.000	23.000	7.8845e-02
14.000	23.250	9.3047e-02
14.000	23.500	1.0337e-01
14.000	23.750	1.0257e-01
14.000	24.000	8.0876e-02
