InwT 1585.12A  relative to Inci 1215.00A scaled to 1215A.
Hden   Phi(H)  Eq_Width (A)
 7.000	17.000	5.4345e-02
 7.000	17.250	4.8269e-02
 7.000	17.500	3.7779e-02
 7.000	17.750	3.1597e-02
 7.000	18.000	2.8302e-02
 7.000	18.250	2.6514e-02
 7.000	18.500	2.5505e-02
 7.000	18.750	2.5066e-02
 7.000	19.000	2.4840e-02
 7.000	19.250	2.4714e-02
 7.000	19.500	2.4662e-02
 7.000	19.750	2.4640e-02
 7.000	20.000	2.4631e-02
 7.000	20.250	2.4626e-02
 7.000	20.500	2.4624e-02
 7.000	20.750	2.4623e-02
 7.000	21.000	2.4623e-02
 7.000	21.250	2.4622e-02
 7.000	21.500	2.4622e-02
 7.000	21.750	2.4622e-02
 7.000	22.000	2.4622e-02
 7.000	22.250	2.4622e-02
 7.000	22.500	2.4622e-02
 7.000	22.750	2.4622e-02
 7.000	23.000	2.4623e-02
 7.000	23.250	2.4622e-02
 7.000	23.500	2.4622e-02
 7.000	23.750	2.4622e-02
 7.000	24.000	2.4622e-02
 7.250	17.000	5.9108e-02
 7.250	17.250	5.4182e-02
 7.250	17.500	4.8176e-02
 7.250	17.750	3.7727e-02
 7.250	18.000	3.1570e-02
 7.250	18.250	2.8290e-02
 7.250	18.500	2.6509e-02
 7.250	18.750	2.5503e-02
 7.250	19.000	2.5065e-02
 7.250	19.250	2.4840e-02
 7.250	19.500	2.4714e-02
 7.250	19.750	2.4662e-02
 7.250	20.000	2.4640e-02
 7.250	20.250	2.4631e-02
 7.250	20.500	2.4626e-02
 7.250	20.750	2.4624e-02
 7.250	21.000	2.4623e-02
 7.250	21.250	2.4622e-02
 7.250	21.500	2.4622e-02
 7.250	21.750	2.4622e-02
 7.250	22.000	2.4625e-02
 7.250	22.250	2.4622e-02
 7.250	22.500	2.4622e-02
 7.250	22.750	2.4622e-02
 7.250	23.000	2.4623e-02
 7.250	23.250	2.4623e-02
 7.250	23.500	2.4622e-02
 7.250	23.750	2.4623e-02
 7.250	24.000	2.4622e-02
 7.500	17.000	5.4791e-02
 7.500	17.250	5.8814e-02
 7.500	17.500	5.4043e-02
 7.500	17.750	4.8120e-02
 7.500	18.000	3.7694e-02
 7.500	18.250	3.1551e-02
 7.500	18.500	2.8282e-02
 7.500	18.750	2.6505e-02
 7.500	19.000	2.5502e-02
 7.500	19.250	2.5065e-02
 7.500	19.500	2.4840e-02
 7.500	19.750	2.4714e-02
 7.500	20.000	2.4662e-02
 7.500	20.250	2.4640e-02
 7.500	20.500	2.4631e-02
 7.500	20.750	2.4626e-02
 7.500	21.000	2.4624e-02
 7.500	21.250	2.4623e-02
 7.500	21.500	2.4622e-02
 7.500	21.750	2.4622e-02
 7.500	22.000	2.4622e-02
 7.500	22.250	2.4622e-02
 7.500	22.500	2.4622e-02
 7.500	22.750	2.4622e-02
 7.500	23.000	2.4622e-02
 7.500	23.250	2.4622e-02
 7.500	23.500	2.4622e-02
 7.500	23.750	2.4622e-02
 7.500	24.000	2.4622e-02
 7.750	17.000	5.1424e-02
 7.750	17.250	5.4447e-02
 7.750	17.500	5.8515e-02
 7.750	17.750	5.3936e-02
 7.750	18.000	4.8087e-02
 7.750	18.250	3.7671e-02
 7.750	18.500	3.1535e-02
 7.750	18.750	2.8275e-02
 7.750	19.000	2.6503e-02
 7.750	19.250	2.5501e-02
 7.750	19.500	2.5064e-02
 7.750	19.750	2.4840e-02
 7.750	20.000	2.4714e-02
 7.750	20.250	2.4662e-02
 7.750	20.500	2.4640e-02
 7.750	20.750	2.4631e-02
 7.750	21.000	2.4626e-02
 7.750	21.250	2.4624e-02
 7.750	21.500	2.4623e-02
 7.750	21.750	2.4622e-02
 7.750	22.000	2.4622e-02
 7.750	22.250	2.4622e-02
 7.750	22.500	2.4622e-02
 7.750	22.750	2.4622e-02
 7.750	23.000	2.4622e-02
 7.750	23.250	2.4622e-02
 7.750	23.500	2.4622e-02
 7.750	23.750	2.4622e-02
 7.750	24.000	2.4622e-02
 8.000	17.000	4.7860e-02
 8.000	17.250	5.0602e-02
 8.000	17.500	5.3727e-02
 8.000	17.750	5.7879e-02
 8.000	18.000	5.3767e-02
 8.000	18.250	4.8068e-02
 8.000	18.500	3.7654e-02
 8.000	18.750	3.1522e-02
 8.000	19.000	2.8270e-02
 8.000	19.250	2.6501e-02
 8.000	19.500	2.5501e-02
 8.000	19.750	2.5064e-02
 8.000	20.000	2.4840e-02
 8.000	20.250	2.4714e-02
 8.000	20.500	2.4662e-02
 8.000	20.750	2.4640e-02
 8.000	21.000	2.4631e-02
 8.000	21.250	2.4626e-02
 8.000	21.500	2.4624e-02
 8.000	21.750	2.4623e-02
 8.000	22.000	2.4622e-02
 8.000	22.250	2.4622e-02
 8.000	22.500	2.4622e-02
 8.000	22.750	2.4622e-02
 8.000	23.000	2.4622e-02
 8.000	23.250	2.4622e-02
 8.000	23.500	2.4622e-02
 8.000	23.750	2.4622e-02
 8.000	24.000	2.4624e-02
 8.250	17.000	4.5184e-02
 8.250	17.250	4.7549e-02
 8.250	17.500	5.0406e-02
 8.250	17.750	5.3577e-02
 8.250	18.000	5.7743e-02
 8.250	18.250	5.3732e-02
 8.250	18.500	4.8056e-02
 8.250	18.750	3.7641e-02
 8.250	19.000	3.1509e-02
 8.250	19.250	2.8265e-02
 8.250	19.500	2.6500e-02
 8.250	19.750	2.5500e-02
 8.250	20.000	2.5064e-02
 8.250	20.250	2.4840e-02
 8.250	20.500	2.4714e-02
 8.250	20.750	2.4662e-02
 8.250	21.000	2.4640e-02
 8.250	21.250	2.4631e-02
 8.250	21.500	2.4626e-02
 8.250	21.750	2.4624e-02
 8.250	22.000	2.4623e-02
 8.250	22.250	2.4622e-02
 8.250	22.500	2.4622e-02
 8.250	22.750	2.4622e-02
 8.250	23.000	2.4622e-02
 8.250	23.250	2.4622e-02
 8.250	23.500	2.4622e-02
 8.250	23.750	2.4621e-02
 8.250	24.000	2.4621e-02
 8.500	17.000	4.2967e-02
 8.500	17.250	4.4974e-02
 8.500	17.500	4.7458e-02
 8.500	17.750	5.0392e-02
 8.500	18.000	5.3607e-02
 8.500	18.250	5.7732e-02
 8.500	18.500	5.3718e-02
 8.500	18.750	4.8048e-02
 8.500	19.000	3.7630e-02
 8.500	19.250	3.1496e-02
 8.500	19.500	2.8261e-02
 8.500	19.750	2.6499e-02
 8.500	20.000	2.5500e-02
 8.500	20.250	2.5064e-02
 8.500	20.500	2.4840e-02
 8.500	20.750	2.4714e-02
 8.500	21.000	2.4662e-02
 8.500	21.250	2.4640e-02
 8.500	21.500	2.4631e-02
 8.500	21.750	2.4626e-02
 8.500	22.000	2.4624e-02
 8.500	22.250	2.4623e-02
 8.500	22.500	2.4622e-02
 8.500	22.750	2.4623e-02
 8.500	23.000	2.4622e-02
 8.500	23.250	2.4622e-02
 8.500	23.500	2.4622e-02
 8.500	23.750	2.4621e-02
 8.500	24.000	2.4621e-02
 8.750	17.000	4.1087e-02
 8.750	17.250	4.2875e-02
 8.750	17.500	4.4999e-02
 8.750	17.750	4.7597e-02
 8.750	18.000	5.0645e-02
 8.750	18.250	5.3882e-02
 8.750	18.500	5.7851e-02
 8.750	18.750	5.3717e-02
 8.750	19.000	4.8041e-02
 8.750	19.250	3.7619e-02
 8.750	19.500	3.1483e-02
 8.750	19.750	2.8256e-02
 8.750	20.000	2.6498e-02
 8.750	20.250	2.5500e-02
 8.750	20.500	2.5064e-02
 8.750	20.750	2.4840e-02
 8.750	21.000	2.4714e-02
 8.750	21.250	2.4662e-02
 8.750	21.500	2.4640e-02
 8.750	21.750	2.4631e-02
 8.750	22.000	2.4626e-02
 8.750	22.250	2.4624e-02
 8.750	22.500	2.4623e-02
 8.750	22.750	2.4622e-02
 8.750	23.000	2.4622e-02
 8.750	23.250	2.4622e-02
 8.750	23.500	2.4622e-02
 8.750	23.750	2.4622e-02
 8.750	24.000	2.4622e-02
 9.000	17.000	3.9348e-02
 9.000	17.250	4.1117e-02
 9.000	17.500	4.3034e-02
 9.000	17.750	4.5319e-02
 9.000	18.000	4.8113e-02
 9.000	18.250	5.1309e-02
 9.000	18.500	5.4612e-02
 9.000	18.750	5.8230e-02
 9.000	19.000	5.3705e-02
 9.000	19.250	4.8034e-02
 9.000	19.500	3.7609e-02
 9.000	19.750	3.1469e-02
 9.000	20.000	2.8252e-02
 9.000	20.250	2.6498e-02
 9.000	20.500	2.5499e-02
 9.000	20.750	2.5064e-02
 9.000	21.000	2.4840e-02
 9.000	21.250	2.4714e-02
 9.000	21.500	2.4662e-02
 9.000	21.750	2.4640e-02
 9.000	22.000	2.4631e-02
 9.000	22.250	2.4626e-02
 9.000	22.500	2.4624e-02
 9.000	22.750	2.4623e-02
 9.000	23.000	2.4622e-02
 9.000	23.250	2.4622e-02
 9.000	23.500	2.4622e-02
 9.000	23.750	2.4622e-02
 9.000	24.000	2.4622e-02
 9.250	17.000	3.7536e-02
 9.250	17.250	3.9454e-02
 9.250	17.500	4.1412e-02
 9.250	17.750	4.3548e-02
 9.250	18.000	4.6081e-02
 9.250	18.250	4.9124e-02
 9.250	18.500	5.2561e-02
 9.250	18.750	5.6301e-02
 9.250	19.000	5.8031e-02
 9.250	19.250	5.3669e-02
 9.250	19.500	4.8026e-02
 9.250	19.750	3.7600e-02
 9.250	20.000	3.1456e-02
 9.250	20.250	2.8247e-02
 9.250	20.500	2.6497e-02
 9.250	20.750	2.5499e-02
 9.250	21.000	2.5064e-02
 9.250	21.250	2.4840e-02
 9.250	21.500	2.4710e-02
 9.250	21.750	2.4658e-02
 9.250	22.000	2.4635e-02
 9.250	22.250	2.4626e-02
 9.250	22.500	2.4626e-02
 9.250	22.750	2.4623e-02
 9.250	23.000	2.4623e-02
 9.250	23.250	2.4622e-02
 9.250	23.500	2.4622e-02
 9.250	23.750	2.4622e-02
 9.250	24.000	2.4621e-02
 9.500	17.000	3.5484e-02
 9.500	17.250	3.7666e-02
 9.500	17.500	3.9860e-02
 9.500	17.750	4.2123e-02
 9.500	18.000	4.4551e-02
 9.500	18.250	4.7410e-02
 9.500	18.500	5.0827e-02
 9.500	18.750	5.4599e-02
 9.500	19.000	5.8789e-02
 9.500	19.250	5.7539e-02
 9.500	19.500	5.3582e-02
 9.500	19.750	4.8016e-02
 9.500	20.000	3.7593e-02
 9.500	20.250	3.1445e-02
 9.500	20.500	2.8244e-02
 9.500	20.750	2.6495e-02
 9.500	21.000	2.5495e-02
 9.500	21.250	2.5060e-02
 9.500	21.500	2.4835e-02
 9.500	21.750	2.4708e-02
 9.500	22.000	2.4654e-02
 9.500	22.250	2.4633e-02
 9.500	22.500	2.4623e-02
 9.500	22.750	2.4619e-02
 9.500	23.000	2.4617e-02
 9.500	23.250	2.4615e-02
 9.500	23.500	2.4616e-02
 9.500	23.750	2.4615e-02
 9.500	24.000	2.4615e-02
 9.750	17.000	3.3053e-02
 9.750	17.250	3.5537e-02
 9.750	17.500	3.8092e-02
 9.750	17.750	4.0704e-02
 9.750	18.000	4.3364e-02
 9.750	18.250	4.6292e-02
 9.750	18.500	4.9551e-02
 9.750	18.750	5.3200e-02
 9.750	19.000	5.7281e-02
 9.750	19.250	6.2147e-02
 9.750	19.500	5.7043e-02
 9.750	19.750	5.3465e-02
 9.750	20.000	4.8003e-02
 9.750	20.250	3.7588e-02
 9.750	20.500	3.1436e-02
 9.750	20.750	2.8241e-02
 9.750	21.000	2.6495e-02
 9.750	21.250	2.5496e-02
 9.750	21.500	2.5060e-02
 9.750	21.750	2.4835e-02
 9.750	22.000	2.4709e-02
 9.750	22.250	2.4654e-02
 9.750	22.500	2.4633e-02
 9.750	22.750	2.4623e-02
 9.750	23.000	2.4619e-02
 9.750	23.250	2.4617e-02
 9.750	23.500	2.4615e-02
 9.750	23.750	2.4615e-02
 9.750	24.000	2.4614e-02
10.000	17.000	3.0183e-02
10.000	17.250	3.2959e-02
10.000	17.500	3.5885e-02
10.000	17.750	3.8993e-02
10.000	18.000	4.2236e-02
10.000	18.250	4.5515e-02
10.000	18.500	4.8666e-02
10.000	18.750	5.1986e-02
10.000	19.000	5.5844e-02
10.000	19.250	6.0608e-02
10.000	19.500	6.4456e-02
10.000	19.750	5.6830e-02
10.000	20.000	5.3262e-02
10.000	20.250	4.7986e-02
10.000	20.500	3.7584e-02
10.000	20.750	3.1428e-02
10.000	21.000	2.8239e-02
10.000	21.250	2.6495e-02
10.000	21.500	2.5497e-02
10.000	21.750	2.5060e-02
10.000	22.000	2.4836e-02
10.000	22.250	2.4709e-02
10.000	22.500	2.4655e-02
10.000	22.750	2.4633e-02
10.000	23.000	2.4623e-02
10.000	23.250	2.4619e-02
10.000	23.500	2.4617e-02
10.000	23.750	2.4615e-02
10.000	24.000	2.4615e-02
10.250	17.000	2.7509e-02
10.250	17.250	2.9971e-02
10.250	17.500	3.3236e-02
10.250	17.750	3.6846e-02
10.250	18.000	4.0769e-02
10.250	18.250	4.4551e-02
10.250	18.500	4.7813e-02
10.250	18.750	5.0857e-02
10.250	19.000	5.4145e-02
10.250	19.250	5.8431e-02
10.250	19.500	6.4353e-02
10.250	19.750	6.5090e-02
10.250	20.000	5.6990e-02
10.250	20.250	5.3240e-02
10.250	20.500	4.7968e-02
10.250	20.750	3.7581e-02
10.250	21.000	3.1423e-02
10.250	21.250	2.8238e-02
10.250	21.500	2.6495e-02
10.250	21.750	2.5498e-02
10.250	22.000	2.5062e-02
10.250	22.250	2.4836e-02
10.250	22.500	2.4710e-02
10.250	22.750	2.4656e-02
10.250	23.000	2.4633e-02
10.250	23.250	2.4623e-02
10.250	23.500	2.4619e-02
10.250	23.750	2.4617e-02
10.250	24.000	2.4616e-02
10.500	17.000	2.5298e-02
10.500	17.250	2.7233e-02
10.500	17.500	3.0235e-02
10.500	17.750	3.4300e-02
10.500	18.000	3.8678e-02
10.500	18.250	4.2812e-02
10.500	18.500	4.6341e-02
10.500	18.750	4.9336e-02
10.500	19.000	5.2348e-02
10.500	19.250	5.6096e-02
10.500	19.500	6.1090e-02
10.500	19.750	6.7570e-02
10.500	20.000	6.5282e-02
10.500	20.250	5.7433e-02
10.500	20.500	5.3382e-02
10.500	20.750	4.7955e-02
10.500	21.000	3.7577e-02
10.500	21.250	3.1420e-02
10.500	21.500	2.8238e-02
10.500	21.750	2.6494e-02
10.500	22.000	2.5498e-02
10.500	22.250	2.5063e-02
10.500	22.500	2.4837e-02
10.500	22.750	2.4710e-02
10.500	23.000	2.4657e-02
10.500	23.250	2.4634e-02
10.500	23.500	2.4624e-02
10.500	23.750	2.4619e-02
10.500	24.000	2.4616e-02
10.750	17.000	2.3708e-02
10.750	17.250	2.5066e-02
10.750	17.500	2.7568e-02
10.750	17.750	3.1409e-02
10.750	18.000	3.5834e-02
10.750	18.250	4.0016e-02
10.750	18.500	4.3675e-02
10.750	18.750	4.6877e-02
10.750	19.000	4.9970e-02
10.750	19.250	5.3421e-02
10.750	19.500	5.7650e-02
10.750	19.750	6.3154e-02
10.750	20.000	6.9769e-02
10.750	20.250	6.5847e-02
10.750	20.500	5.8310e-02
10.750	20.750	5.3944e-02
10.750	21.000	4.7949e-02
10.750	21.250	3.7572e-02
10.750	21.500	3.1419e-02
10.750	21.750	2.8239e-02
10.750	22.000	2.6494e-02
10.750	22.250	2.5498e-02
10.750	22.500	2.5064e-02
10.750	22.750	2.4839e-02
10.750	23.000	2.4710e-02
10.750	23.250	2.4657e-02
10.750	23.500	2.4635e-02
10.750	23.750	2.4625e-02
10.750	24.000	2.4620e-02
11.000	17.000	2.2640e-02
11.000	17.250	2.3599e-02
11.000	17.500	2.5463e-02
11.000	17.750	2.8489e-02
11.000	18.000	3.2288e-02
11.000	18.250	3.6147e-02
11.000	18.500	3.9866e-02
11.000	18.750	4.3411e-02
11.000	19.000	4.6823e-02
11.000	19.250	5.0287e-02
11.000	19.500	5.4066e-02
11.000	19.750	5.8604e-02
11.000	20.000	6.4304e-02
11.000	20.250	7.1427e-02
11.000	20.500	6.7574e-02
11.000	20.750	5.9643e-02
11.000	21.000	5.4967e-02
11.000	21.250	4.7953e-02
11.000	21.500	3.7562e-02
11.000	21.750	3.1419e-02
11.000	22.000	2.8240e-02
11.000	22.250	2.6495e-02
11.000	22.500	2.5497e-02
11.000	22.750	2.5064e-02
11.000	23.000	2.4840e-02
11.000	23.250	2.4711e-02
11.000	23.500	2.4658e-02
11.000	23.750	2.4636e-02
11.000	24.000	2.4626e-02
11.250	17.000	2.1968e-02
11.250	17.250	2.2700e-02
11.250	17.500	2.3923e-02
11.250	17.750	2.5869e-02
11.250	18.000	2.8550e-02
11.250	18.250	3.1697e-02
11.250	18.500	3.5279e-02
11.250	18.750	3.9128e-02
11.250	19.000	4.2946e-02
11.250	19.250	4.6598e-02
11.250	19.500	5.0275e-02
11.250	19.750	5.4310e-02
11.250	20.000	5.9120e-02
11.250	20.250	6.5220e-02
11.250	20.500	7.1012e-02
11.250	20.750	6.8525e-02
11.250	21.000	6.1656e-02
11.250	21.250	5.6712e-02
11.250	21.500	4.7955e-02
11.250	21.750	3.7544e-02
11.250	22.000	3.1421e-02
11.250	22.250	2.8243e-02
11.250	22.500	2.6495e-02
11.250	22.750	2.5497e-02
11.250	23.000	2.5064e-02
11.250	23.250	2.4840e-02
11.250	23.500	2.4713e-02
11.250	23.750	2.4658e-02
11.250	24.000	2.4636e-02
11.500	17.000	2.1612e-02
11.500	17.250	2.2142e-02
11.500	17.500	2.2823e-02
11.500	17.750	2.3782e-02
11.500	18.000	2.5211e-02
11.500	18.250	2.7370e-02
11.500	18.500	3.0491e-02
11.500	18.750	3.4393e-02
11.500	19.000	3.8608e-02
11.500	19.250	4.2530e-02
11.500	19.500	4.6289e-02
11.500	19.750	5.0222e-02
11.500	20.000	5.4648e-02
11.500	20.250	5.9869e-02
11.500	20.500	6.6477e-02
11.500	20.750	7.2358e-02
11.500	21.000	7.1056e-02
11.500	21.250	6.4912e-02
11.500	21.500	5.9744e-02
11.500	21.750	4.7938e-02
11.500	22.000	3.7513e-02
11.500	22.250	3.1422e-02
11.500	22.500	2.8246e-02
11.500	22.750	2.6497e-02
11.500	23.000	2.5496e-02
11.500	23.250	2.5063e-02
11.500	23.500	2.4840e-02
11.500	23.750	2.4714e-02
11.500	24.000	2.4658e-02
11.750	17.000	2.1500e-02
11.750	17.250	2.1733e-02
11.750	17.500	2.1948e-02
11.750	17.750	2.2187e-02
11.750	18.000	2.2630e-02
11.750	18.250	2.3848e-02
11.750	18.500	2.6234e-02
11.750	18.750	2.9744e-02
11.750	19.000	3.4009e-02
11.750	19.250	3.8348e-02
11.750	19.500	4.2319e-02
11.750	19.750	4.6262e-02
11.750	20.000	5.0590e-02
11.750	20.250	5.5472e-02
11.750	20.500	6.1263e-02
11.750	20.750	6.8682e-02
11.750	21.000	7.4252e-02
11.750	21.250	7.5349e-02
11.750	21.500	6.9782e-02
11.750	21.750	6.3429e-02
11.750	22.000	4.7890e-02
11.750	22.250	3.7463e-02
11.750	22.500	3.1421e-02
11.750	22.750	2.8250e-02
11.750	23.000	2.6498e-02
11.750	23.250	2.5496e-02
11.750	23.500	2.5074e-02
11.750	23.750	2.4840e-02
11.750	24.000	2.4714e-02
12.000	17.000	2.1488e-02
12.000	17.250	2.1366e-02
12.000	17.500	2.1133e-02
12.000	17.750	2.0874e-02
12.000	18.000	2.0804e-02
12.000	18.250	2.1420e-02
12.000	18.500	2.3008e-02
12.000	18.750	2.5794e-02
12.000	19.000	2.9633e-02
12.000	19.250	3.4117e-02
12.000	19.500	3.8503e-02
12.000	19.750	4.2609e-02
12.000	20.000	4.6880e-02
12.000	20.250	5.1676e-02
12.000	20.500	5.7123e-02
12.000	20.750	6.3732e-02
12.000	21.000	7.2470e-02
12.000	21.250	7.9130e-02
12.000	21.500	8.1754e-02
12.000	21.750	7.6232e-02
12.000	22.000	6.5416e-02
12.000	22.250	4.7814e-02
12.000	22.500	3.7393e-02
12.000	22.750	3.1414e-02
12.000	23.000	2.8253e-02
12.000	23.250	2.6500e-02
12.000	23.500	2.5495e-02
12.000	23.750	2.5063e-02
12.000	24.000	2.4840e-02
12.250	17.000	2.1413e-02
12.250	17.250	2.0921e-02
12.250	17.500	2.0275e-02
12.250	17.750	1.9700e-02
12.250	18.000	1.9467e-02
12.250	18.250	1.9825e-02
12.250	18.500	2.1009e-02
12.250	18.750	2.3078e-02
12.250	19.000	2.6106e-02
12.250	19.250	3.0161e-02
12.250	19.500	3.4801e-02
12.250	19.750	3.9276e-02
12.250	20.000	4.3614e-02
12.250	20.250	4.8334e-02
12.250	20.500	5.3713e-02
12.250	20.750	6.0145e-02
12.250	21.000	6.9011e-02
12.250	21.250	7.8925e-02
12.250	21.500	8.5656e-02
12.250	21.750	8.8939e-02
12.250	22.000	8.3299e-02
12.250	22.250	6.5540e-02
12.250	22.500	4.7708e-02
12.250	22.750	3.7303e-02
12.250	23.000	3.1399e-02
12.250	23.250	2.8256e-02
12.250	23.500	2.6501e-02
12.250	23.750	2.5494e-02
12.250	24.000	2.5063e-02
12.500	17.000	2.0977e-02
12.500	17.250	2.0230e-02
12.500	17.500	1.9336e-02
12.500	17.750	1.8629e-02
12.500	18.000	1.8355e-02
12.500	18.250	1.8729e-02
12.500	18.500	1.9844e-02
12.500	18.750	2.1587e-02
12.500	19.000	2.3951e-02
12.500	19.250	2.7166e-02
12.500	19.500	3.1401e-02
12.500	19.750	3.6205e-02
12.500	20.000	4.0924e-02
12.500	20.250	4.5562e-02
12.500	20.500	5.0847e-02
12.500	20.750	5.7480e-02
12.500	21.000	6.6374e-02
12.500	21.250	7.7933e-02
12.500	21.500	8.8089e-02
12.500	21.750	9.5181e-02
12.500	22.000	9.9102e-02
12.500	22.250	8.9082e-02
12.500	22.500	6.5581e-02
12.500	22.750	4.7603e-02
12.500	23.000	3.7200e-02
12.500	23.250	3.1376e-02
12.500	23.500	2.8256e-02
12.500	23.750	2.6502e-02
12.500	24.000	2.5492e-02
12.750	17.000	1.6338e-02
12.750	17.250	1.9220e-02
12.750	17.500	1.8325e-02
12.750	17.750	1.7646e-02
12.750	18.000	1.7437e-02
12.750	18.250	1.7897e-02
12.750	18.500	1.9027e-02
12.750	18.750	2.0760e-02
12.750	19.000	2.2901e-02
12.750	19.250	2.5592e-02
12.750	19.500	2.9008e-02
12.750	19.750	3.3421e-02
12.750	20.000	3.8364e-02
12.750	20.250	4.3385e-02
12.750	20.500	4.8747e-02
12.750	20.750	5.5144e-02
12.750	21.000	6.3770e-02
12.750	21.250	7.6237e-02
12.750	21.500	8.9628e-02
12.750	21.750	1.0188e-01
12.750	22.000	1.0860e-01
12.750	22.250	1.1041e-01
12.750	22.500	9.3186e-02
12.750	22.750	6.5513e-02
12.750	23.000	4.7448e-02
12.750	23.250	3.7087e-02
12.750	23.500	3.1351e-02
12.750	23.750	2.8252e-02
12.750	24.000	2.6501e-02
13.000	17.000	5.0770e-03
13.000	17.250	7.8170e-03
13.000	17.500	1.6041e-02
13.000	17.750	1.6699e-02
13.000	18.000	1.6684e-02
13.000	18.250	1.7217e-02
13.000	18.500	1.8367e-02
13.000	18.750	2.0111e-02
13.000	19.000	2.2319e-02
13.000	19.250	2.4888e-02
13.000	19.500	2.7842e-02
13.000	19.750	3.1600e-02
13.000	20.000	3.6186e-02
13.000	20.250	4.1449e-02
13.000	20.500	4.7470e-02
13.000	20.750	5.3834e-02
13.000	21.000	6.2774e-02
13.000	21.250	7.4687e-02
13.000	21.500	8.8134e-02
13.000	21.750	1.0742e-01
13.000	22.000	1.1996e-01
13.000	22.250	1.2164e-01
13.000	22.500	1.1836e-01
13.000	22.750	9.5002e-02
13.000	23.000	6.5450e-02
13.000	23.250	4.7286e-02
13.000	23.500	3.6971e-02
13.000	23.750	3.1315e-02
13.000	24.000	2.8243e-02
13.250	17.000	3.3640e-03
13.250	17.250	4.4723e-03
13.250	17.500	7.5169e-03
13.250	17.750	1.1770e-02
13.250	18.000	1.5957e-02
13.250	18.250	1.6571e-02
13.250	18.500	1.7746e-02
13.250	18.750	1.9501e-02
13.250	19.000	2.1781e-02
13.250	19.250	2.4427e-02
13.250	19.500	2.7394e-02
13.250	19.750	3.0830e-02
13.250	20.000	3.4931e-02
13.250	20.250	3.9828e-02
13.250	20.500	4.5682e-02
13.250	20.750	5.2659e-02
13.250	21.000	6.1014e-02
13.250	21.250	7.2508e-02
13.250	21.500	8.5294e-02
13.250	21.750	1.0596e-01
13.250	22.000	1.2363e-01
13.250	22.250	1.3224e-01
13.250	22.500	1.3307e-01
13.250	22.750	1.2193e-01
13.250	23.000	9.5733e-02
13.250	23.250	6.5287e-02
13.250	23.500	4.7102e-02
13.250	23.750	3.6857e-02
13.250	24.000	3.1270e-02
13.500	17.000	2.2904e-03
13.500	17.250	2.9699e-03
13.500	17.500	4.8091e-03
13.500	17.750	8.4369e-03
13.500	18.000	1.2497e-02
13.500	18.250	1.5967e-02
13.500	18.500	1.7142e-02
13.500	18.750	1.8887e-02
13.500	19.000	2.1194e-02
13.500	19.250	2.3943e-02
13.500	19.500	2.7026e-02
13.500	19.750	3.0458e-02
13.500	20.000	3.4492e-02
13.500	20.250	3.9211e-02
13.500	20.500	4.4655e-02
13.500	20.750	5.1043e-02
13.500	21.000	5.8203e-02
13.500	21.250	6.8914e-02
13.500	21.500	7.9002e-02
13.500	21.750	9.2231e-02
13.500	22.000	1.1185e-01
13.500	22.250	1.3733e-01
13.500	22.500	1.4578e-01
13.500	22.750	1.3947e-01
13.500	23.000	1.2161e-01
13.500	23.250	9.5729e-02
13.500	23.500	6.5084e-02
13.500	23.750	4.6890e-02
13.500	24.000	3.6737e-02
13.750	17.000	1.5976e-03
13.750	17.250	2.1517e-03
13.750	17.500	3.3034e-03
13.750	17.750	5.2244e-03
13.750	18.000	9.6440e-03
13.750	18.250	1.3178e-02
13.750	18.500	1.6599e-02
13.750	18.750	1.8298e-02
13.750	19.000	2.0594e-02
13.750	19.250	2.3429e-02
13.750	19.500	2.6678e-02
13.750	19.750	3.0293e-02
13.750	20.000	3.4407e-02
13.750	20.250	3.9221e-02
13.750	20.500	4.4782e-02
13.750	20.750	5.1018e-02
13.750	21.000	5.7806e-02
13.750	21.250	6.5441e-02
13.750	21.500	7.3942e-02
13.750	21.750	8.5206e-02
13.750	22.000	1.0195e-01
13.750	22.250	1.2723e-01
13.750	22.500	1.5684e-01
13.750	22.750	1.6140e-01
13.750	23.000	1.4407e-01
13.750	23.250	1.2375e-01
13.750	23.500	9.5444e-02
13.750	23.750	6.4813e-02
13.750	24.000	4.6649e-02
14.000	17.000	1.1726e-03
14.000	17.250	1.5372e-03
14.000	17.500	2.3647e-03
14.000	17.750	3.6814e-03
14.000	18.000	6.2314e-03
14.000	18.250	1.1087e-02
14.000	18.500	1.4603e-02
14.000	18.750	1.7783e-02
14.000	19.000	2.0015e-02
14.000	19.250	2.2883e-02
14.000	19.500	2.6308e-02
14.000	19.750	3.0181e-02
14.000	20.000	3.4476e-02
14.000	20.250	3.9411e-02
14.000	20.500	4.5187e-02
14.000	20.750	5.1721e-02
14.000	21.000	5.8946e-02
14.000	21.250	6.6950e-02
14.000	21.500	7.4405e-02
14.000	21.750	8.4907e-02
14.000	22.000	9.9648e-02
14.000	22.250	1.2177e-01
14.000	22.500	1.5335e-01
14.000	22.750	1.8895e-01
14.000	23.000	1.7894e-01
14.000	23.250	1.5281e-01
14.000	23.500	1.2679e-01
14.000	23.750	9.5645e-02
14.000	24.000	6.4426e-02
