InwT 925.144A  relative to Inci 1215.00A scaled to 1215A.
Hden   Phi(H)  Eq_Width (A)
 7.000	17.000	3.5322e-02
 7.000	17.250	3.4921e-02
 7.000	17.500	3.3624e-02
 7.000	17.750	3.1467e-02
 7.000	18.000	2.9048e-02
 7.000	18.250	2.7357e-02
 7.000	18.500	2.6209e-02
 7.000	18.750	2.5601e-02
 7.000	19.000	2.5278e-02
 7.000	19.250	2.5093e-02
 7.000	19.500	2.5013e-02
 7.000	19.750	2.4979e-02
 7.000	20.000	2.4964e-02
 7.000	20.250	2.4958e-02
 7.000	20.500	2.4954e-02
 7.000	20.750	2.4952e-02
 7.000	21.000	2.4951e-02
 7.000	21.250	2.4951e-02
 7.000	21.500	2.4951e-02
 7.000	21.750	2.4951e-02
 7.000	22.000	2.4951e-02
 7.000	22.250	2.4951e-02
 7.000	22.500	2.4951e-02
 7.000	22.750	2.4951e-02
 7.000	23.000	2.4951e-02
 7.000	23.250	2.4951e-02
 7.000	23.500	2.4951e-02
 7.000	23.750	2.4951e-02
 7.000	24.000	2.4951e-02
 7.250	17.000	3.6598e-02
 7.250	17.250	3.4412e-02
 7.250	17.500	3.4634e-02
 7.250	17.750	3.3493e-02
 7.250	18.000	3.1404e-02
 7.250	18.250	2.9012e-02
 7.250	18.500	2.7340e-02
 7.250	18.750	2.6202e-02
 7.250	19.000	2.5599e-02
 7.250	19.250	2.5277e-02
 7.250	19.500	2.5092e-02
 7.250	19.750	2.5013e-02
 7.250	20.000	2.4979e-02
 7.250	20.250	2.4964e-02
 7.250	20.500	2.4957e-02
 7.250	20.750	2.4954e-02
 7.250	21.000	2.4952e-02
 7.250	21.250	2.4951e-02
 7.250	21.500	2.4951e-02
 7.250	21.750	2.4950e-02
 7.250	22.000	2.4953e-02
 7.250	22.250	2.4950e-02
 7.250	22.500	2.4951e-02
 7.250	22.750	2.4951e-02
 7.250	23.000	2.4951e-02
 7.250	23.250	2.4952e-02
 7.250	23.500	2.4951e-02
 7.250	23.750	2.4952e-02
 7.250	24.000	2.4951e-02
 7.500	17.000	3.0289e-02
 7.500	17.250	3.4657e-02
 7.500	17.500	3.3658e-02
 7.500	17.750	3.4471e-02
 7.500	18.000	3.3427e-02
 7.500	18.250	3.1373e-02
 7.500	18.500	2.8991e-02
 7.500	18.750	2.7329e-02
 7.500	19.000	2.6198e-02
 7.500	19.250	2.5597e-02
 7.500	19.500	2.5276e-02
 7.500	19.750	2.5092e-02
 7.500	20.000	2.5013e-02
 7.500	20.250	2.4979e-02
 7.500	20.500	2.4964e-02
 7.500	20.750	2.4957e-02
 7.500	21.000	2.4954e-02
 7.500	21.250	2.4952e-02
 7.500	21.500	2.4951e-02
 7.500	21.750	2.4951e-02
 7.500	22.000	2.4950e-02
 7.500	22.250	2.4950e-02
 7.500	22.500	2.4950e-02
 7.500	22.750	2.4950e-02
 7.500	23.000	2.4950e-02
 7.500	23.250	2.4950e-02
 7.500	23.500	2.4950e-02
 7.500	23.750	2.4950e-02
 7.500	24.000	2.4950e-02
 7.750	17.000	2.2672e-02
 7.750	17.250	2.8059e-02
 7.750	17.500	3.2942e-02
 7.750	17.750	3.3060e-02
 7.750	18.000	3.4383e-02
 7.750	18.250	3.3402e-02
 7.750	18.500	3.1364e-02
 7.750	18.750	2.8980e-02
 7.750	19.000	2.7322e-02
 7.750	19.250	2.6195e-02
 7.750	19.500	2.5596e-02
 7.750	19.750	2.5276e-02
 7.750	20.000	2.5092e-02
 7.750	20.250	2.5013e-02
 7.750	20.500	2.4979e-02
 7.750	20.750	2.4964e-02
 7.750	21.000	2.4957e-02
 7.750	21.250	2.4954e-02
 7.750	21.500	2.4952e-02
 7.750	21.750	2.4951e-02
 7.750	22.000	2.4950e-02
 7.750	22.250	2.4950e-02
 7.750	22.500	2.4950e-02
 7.750	22.750	2.4950e-02
 7.750	23.000	2.4950e-02
 7.750	23.250	2.4950e-02
 7.750	23.500	2.4950e-02
 7.750	23.750	2.4950e-02
 7.750	24.000	2.4950e-02
 8.000	17.000	1.6448e-02
 8.000	17.250	2.0109e-02
 8.000	17.500	2.6099e-02
 8.000	17.750	3.1516e-02
 8.000	18.000	3.2604e-02
 8.000	18.250	3.4337e-02
 8.000	18.500	3.3406e-02
 8.000	18.750	3.1370e-02
 8.000	19.000	2.8975e-02
 8.000	19.250	2.7318e-02
 8.000	19.500	2.6194e-02
 8.000	19.750	2.5595e-02
 8.000	20.000	2.5276e-02
 8.000	20.250	2.5092e-02
 8.000	20.500	2.5013e-02
 8.000	20.750	2.4979e-02
 8.000	21.000	2.4964e-02
 8.000	21.250	2.4957e-02
 8.000	21.500	2.4954e-02
 8.000	21.750	2.4952e-02
 8.000	22.000	2.4951e-02
 8.000	22.250	2.4950e-02
 8.000	22.500	2.4950e-02
 8.000	22.750	2.4950e-02
 8.000	23.000	2.4950e-02
 8.000	23.250	2.4950e-02
 8.000	23.500	2.4950e-02
 8.000	23.750	2.4950e-02
 8.000	24.000	2.4952e-02
 8.250	17.000	1.2327e-02
 8.250	17.250	1.4367e-02
 8.250	17.500	1.8416e-02
 8.250	17.750	2.4865e-02
 8.250	18.000	3.0603e-02
 8.250	18.250	3.2304e-02
 8.250	18.500	3.4312e-02
 8.250	18.750	3.3425e-02
 8.250	19.000	3.1385e-02
 8.250	19.250	2.8974e-02
 8.250	19.500	2.7316e-02
 8.250	19.750	2.6193e-02
 8.250	20.000	2.5595e-02
 8.250	20.250	2.5276e-02
 8.250	20.500	2.5092e-02
 8.250	20.750	2.5013e-02
 8.250	21.000	2.4979e-02
 8.250	21.250	2.4964e-02
 8.250	21.500	2.4957e-02
 8.250	21.750	2.4954e-02
 8.250	22.000	2.4952e-02
 8.250	22.250	2.4951e-02
 8.250	22.500	2.4950e-02
 8.250	22.750	2.4950e-02
 8.250	23.000	2.4951e-02
 8.250	23.250	2.4950e-02
 8.250	23.500	2.4950e-02
 8.250	23.750	2.4950e-02
 8.250	24.000	2.4950e-02
 8.500	17.000	9.5958e-03
 8.500	17.250	1.0674e-02
 8.500	17.500	1.2975e-02
 8.500	17.750	1.7257e-02
 8.500	18.000	2.4079e-02
 8.500	18.250	3.0015e-02
 8.500	18.500	3.2098e-02
 8.500	18.750	3.4301e-02
 8.500	19.000	3.3459e-02
 8.500	19.250	3.1407e-02
 8.500	19.500	2.8976e-02
 8.500	19.750	2.7314e-02
 8.500	20.000	2.6192e-02
 8.500	20.250	2.5595e-02
 8.500	20.500	2.5276e-02
 8.500	20.750	2.5092e-02
 8.500	21.000	2.5013e-02
 8.500	21.250	2.4979e-02
 8.500	21.500	2.4964e-02
 8.500	21.750	2.4957e-02
 8.500	22.000	2.4954e-02
 8.500	22.250	2.4952e-02
 8.500	22.500	2.4951e-02
 8.500	22.750	2.4951e-02
 8.500	23.000	2.4950e-02
 8.500	23.250	2.4950e-02
 8.500	23.500	2.4950e-02
 8.500	23.750	2.4950e-02
 8.500	24.000	2.4950e-02
 8.750	17.000	7.8121e-03
 8.750	17.250	8.3593e-03
 8.750	17.500	9.6251e-03
 8.750	17.750	1.2092e-02
 8.750	18.000	1.6622e-02
 8.750	18.250	2.3711e-02
 8.750	18.500	2.9650e-02
 8.750	18.750	3.1971e-02
 8.750	19.000	3.4294e-02
 8.750	19.250	3.3501e-02
 8.750	19.500	3.1434e-02
 8.750	19.750	2.8979e-02
 8.750	20.000	2.7314e-02
 8.750	20.250	2.6192e-02
 8.750	20.500	2.5595e-02
 8.750	20.750	2.5275e-02
 8.750	21.000	2.5092e-02
 8.750	21.250	2.5013e-02
 8.750	21.500	2.4979e-02
 8.750	21.750	2.4964e-02
 8.750	22.000	2.4957e-02
 8.750	22.250	2.4954e-02
 8.750	22.500	2.4952e-02
 8.750	22.750	2.4951e-02
 8.750	23.000	2.4950e-02
 8.750	23.250	2.4950e-02
 8.750	23.500	2.4950e-02
 8.750	23.750	2.4950e-02
 8.750	24.000	2.4950e-02
 9.000	17.000	6.6379e-03
 9.000	17.250	6.9130e-03
 9.000	17.500	7.6089e-03
 9.000	17.750	9.0119e-03
 9.000	18.000	1.1674e-02
 9.000	18.250	1.6509e-02
 9.000	18.500	2.3872e-02
 9.000	18.750	2.9421e-02
 9.000	19.000	3.1877e-02
 9.000	19.250	3.4283e-02
 9.000	19.500	3.3542e-02
 9.000	19.750	3.1462e-02
 9.000	20.000	2.8982e-02
 9.000	20.250	2.7313e-02
 9.000	20.500	2.6191e-02
 9.000	20.750	2.5595e-02
 9.000	21.000	2.5275e-02
 9.000	21.250	2.5092e-02
 9.000	21.500	2.5013e-02
 9.000	21.750	2.4979e-02
 9.000	22.000	2.4964e-02
 9.000	22.250	2.4957e-02
 9.000	22.500	2.4954e-02
 9.000	22.750	2.4952e-02
 9.000	23.000	2.4951e-02
 9.000	23.250	2.4950e-02
 9.000	23.500	2.4950e-02
 9.000	23.750	2.4950e-02
 9.000	24.000	2.4951e-02
 9.250	17.000	5.8386e-03
 9.250	17.250	5.9727e-03
 9.250	17.500	6.3834e-03
 9.250	17.750	7.2226e-03
 9.250	18.000	8.8488e-03
 9.250	18.250	1.1848e-02
 9.250	18.500	1.7167e-02
 9.250	18.750	2.4771e-02
 9.250	19.000	2.9244e-02
 9.250	19.250	3.1798e-02
 9.250	19.500	3.4263e-02
 9.250	19.750	3.3579e-02
 9.250	20.000	3.1490e-02
 9.250	20.250	2.8986e-02
 9.250	20.500	2.7313e-02
 9.250	20.750	2.6191e-02
 9.250	21.000	2.5594e-02
 9.250	21.250	2.5275e-02
 9.250	21.500	2.5088e-02
 9.250	21.750	2.5009e-02
 9.250	22.000	2.4974e-02
 9.250	22.250	2.4960e-02
 9.250	22.500	2.4957e-02
 9.250	22.750	2.4953e-02
 9.250	23.000	2.4952e-02
 9.250	23.250	2.4951e-02
 9.250	23.500	2.4950e-02
 9.250	23.750	2.4950e-02
 9.250	24.000	2.4950e-02
 9.500	17.000	5.2760e-03
 9.500	17.250	5.3235e-03
 9.500	17.500	5.6016e-03
 9.500	17.750	6.1817e-03
 9.500	18.000	7.2423e-03
 9.500	18.250	9.1625e-03
 9.500	18.500	1.2658e-02
 9.500	18.750	1.8730e-02
 9.500	19.000	2.6195e-02
 9.500	19.250	2.9119e-02
 9.500	19.500	3.1717e-02
 9.500	19.750	3.4234e-02
 9.500	20.000	3.3604e-02
 9.500	20.250	3.1515e-02
 9.500	20.500	2.8990e-02
 9.500	20.750	2.7312e-02
 9.500	21.000	2.6187e-02
 9.500	21.250	2.5590e-02
 9.500	21.500	2.5271e-02
 9.500	21.750	2.5086e-02
 9.500	22.000	2.5005e-02
 9.500	22.250	2.4972e-02
 9.500	22.500	2.4957e-02
 9.500	22.750	2.4950e-02
 9.500	23.000	2.4946e-02
 9.500	23.250	2.4945e-02
 9.500	23.500	2.4944e-02
 9.500	23.750	2.4944e-02
 9.500	24.000	2.4943e-02
 9.750	17.000	4.9088e-03
 9.750	17.250	4.8470e-03
 9.750	17.500	5.0420e-03
 9.750	17.750	5.5029e-03
 9.750	18.000	6.3138e-03
 9.750	18.250	7.6705e-03
 9.750	18.500	1.0019e-02
 9.750	18.750	1.4152e-02
 9.750	19.000	2.0948e-02
 9.750	19.250	2.7214e-02
 9.750	19.500	2.9023e-02
 9.750	19.750	3.1625e-02
 9.750	20.000	3.4195e-02
 9.750	20.250	3.3612e-02
 9.750	20.500	3.1534e-02
 9.750	20.750	2.8992e-02
 9.750	21.000	2.7313e-02
 9.750	21.250	2.6187e-02
 9.750	21.500	2.5590e-02
 9.750	21.750	2.5271e-02
 9.750	22.000	2.5087e-02
 9.750	22.250	2.5005e-02
 9.750	22.500	2.4972e-02
 9.750	22.750	2.4957e-02
 9.750	23.000	2.4950e-02
 9.750	23.250	2.4946e-02
 9.750	23.500	2.4944e-02
 9.750	23.750	2.4943e-02
 9.750	24.000	2.4943e-02
10.000	17.000	4.7229e-03
10.000	17.250	4.5180e-03
10.000	17.500	4.5932e-03
10.000	17.750	4.9774e-03
10.000	18.000	5.7140e-03
10.000	18.250	6.8128e-03
10.000	18.500	8.5229e-03
10.000	18.750	1.1392e-02
10.000	19.000	1.6348e-02
10.000	19.250	2.3450e-02
10.000	19.500	2.7364e-02
10.000	19.750	2.8971e-02
10.000	20.000	3.1534e-02
10.000	20.250	3.4156e-02
10.000	20.500	3.3611e-02
10.000	20.750	3.1549e-02
10.000	21.000	2.8995e-02
10.000	21.250	2.7313e-02
10.000	21.500	2.6189e-02
10.000	21.750	2.5591e-02
10.000	22.000	2.5271e-02
10.000	22.250	2.5087e-02
10.000	22.500	2.5007e-02
10.000	22.750	2.4972e-02
10.000	23.000	2.4957e-02
10.000	23.250	2.4950e-02
10.000	23.500	2.4946e-02
10.000	23.750	2.4944e-02
10.000	24.000	2.4943e-02
10.250	17.000	4.7120e-03
10.250	17.250	4.3542e-03
10.250	17.500	4.2903e-03
10.250	17.750	4.5774e-03
10.250	18.000	5.2608e-03
10.250	18.250	6.2486e-03
10.250	18.500	7.6388e-03
10.250	18.750	9.8181e-03
10.250	19.000	1.3480e-02
10.250	19.250	1.8972e-02
10.250	19.500	2.5138e-02
10.250	19.750	2.7429e-02
10.250	20.000	2.8971e-02
10.250	20.250	3.1503e-02
10.250	20.500	3.4129e-02
10.250	20.750	3.3601e-02
10.250	21.000	3.1558e-02
10.250	21.250	2.8996e-02
10.250	21.500	2.7313e-02
10.250	21.750	2.6190e-02
10.250	22.000	2.5593e-02
10.250	22.250	2.5272e-02
10.250	22.500	2.5088e-02
10.250	22.750	2.5007e-02
10.250	23.000	2.4972e-02
10.250	23.250	2.4957e-02
10.250	23.500	2.4950e-02
10.250	23.750	2.4946e-02
10.250	24.000	2.4945e-02
10.500	17.000	4.8260e-03
10.500	17.250	4.3585e-03
10.500	17.500	4.1505e-03
10.500	17.750	4.3213e-03
10.500	18.000	4.8991e-03
10.500	18.250	5.8040e-03
10.500	18.500	7.0002e-03
10.500	18.750	8.6444e-03
10.500	19.000	1.1040e-02
10.500	19.250	1.4852e-02
10.500	19.500	2.0625e-02
10.500	19.750	2.5738e-02
10.500	20.000	2.7506e-02
10.500	20.250	2.9063e-02
10.500	20.500	3.1579e-02
10.500	20.750	3.4172e-02
10.500	21.000	3.3587e-02
10.500	21.250	3.1562e-02
10.500	21.500	2.8996e-02
10.500	21.750	2.7313e-02
10.500	22.000	2.6190e-02
10.500	22.250	2.5594e-02
10.500	22.500	2.5273e-02
10.500	22.750	2.5088e-02
10.500	23.000	2.5008e-02
10.500	23.250	2.4973e-02
10.500	23.500	2.4958e-02
10.500	23.750	2.4950e-02
10.500	24.000	2.4946e-02
10.750	17.000	5.0068e-03
10.750	17.250	4.4813e-03
10.750	17.500	4.1789e-03
10.750	17.750	4.2340e-03
10.750	18.000	4.6519e-03
10.750	18.250	5.3577e-03
10.750	18.500	6.3384e-03
10.750	18.750	7.5413e-03
10.750	19.000	9.1973e-03
10.750	19.250	1.1805e-02
10.750	19.500	1.6042e-02
10.750	19.750	2.2072e-02
10.750	20.000	2.6255e-02
10.750	20.250	2.7690e-02
10.750	20.500	2.9303e-02
10.750	20.750	3.1860e-02
10.750	21.000	3.4309e-02
10.750	21.250	3.3581e-02
10.750	21.500	3.1561e-02
10.750	21.750	2.8995e-02
10.750	22.000	2.7313e-02
10.750	22.250	2.6190e-02
10.750	22.500	2.5594e-02
10.750	22.750	2.5275e-02
10.750	23.000	2.5088e-02
10.750	23.250	2.5008e-02
10.750	23.500	2.4974e-02
10.750	23.750	2.4959e-02
10.750	24.000	2.4951e-02
11.000	17.000	5.1965e-03
11.000	17.250	4.6650e-03
11.000	17.500	4.3216e-03
11.000	17.750	4.2921e-03
11.000	18.000	4.5436e-03
11.000	18.250	4.9914e-03
11.000	18.500	5.6644e-03
11.000	18.750	6.5766e-03
11.000	19.000	7.7981e-03
11.000	19.250	9.6193e-03
11.000	19.500	1.2526e-02
11.000	19.750	1.7162e-02
11.000	20.000	2.3316e-02
11.000	20.250	2.6548e-02
11.000	20.500	2.8091e-02
11.000	20.750	2.9761e-02
11.000	21.000	3.2443e-02
11.000	21.250	3.4601e-02
11.000	21.500	3.3602e-02
11.000	21.750	3.1555e-02
11.000	22.000	2.8992e-02
11.000	22.250	2.7313e-02
11.000	22.500	2.6189e-02
11.000	22.750	2.5594e-02
11.000	23.000	2.5275e-02
11.000	23.250	2.5089e-02
11.000	23.500	2.5009e-02
11.000	23.750	2.4975e-02
11.000	24.000	2.4959e-02
11.250	17.000	5.3235e-03
11.250	17.250	4.8438e-03
11.250	17.500	4.4970e-03
11.250	17.750	4.4237e-03
11.250	18.000	4.5488e-03
11.250	18.250	4.7614e-03
11.250	18.500	5.1199e-03
11.250	18.750	5.7576e-03
11.250	19.000	6.7049e-03
11.250	19.250	8.0172e-03
11.250	19.500	1.0017e-02
11.250	19.750	1.3205e-02
11.250	20.000	1.8192e-02
11.250	20.250	2.4367e-02
11.250	20.500	2.6967e-02
11.250	20.750	2.8590e-02
11.250	21.000	3.0553e-02
11.250	21.250	3.3485e-02
11.250	21.500	3.5119e-02
11.250	21.750	3.3674e-02
11.250	22.000	3.1546e-02
11.250	22.250	2.8989e-02
11.250	22.500	2.7312e-02
11.250	22.750	2.6189e-02
11.250	23.000	2.5594e-02
11.250	23.250	2.5276e-02
11.250	23.500	2.5091e-02
11.250	23.750	2.5009e-02
11.250	24.000	2.4975e-02
11.500	17.000	5.3051e-03
11.500	17.250	4.9495e-03
11.500	17.500	4.6407e-03
11.500	17.750	4.5482e-03
11.500	18.000	4.5909e-03
11.500	18.250	4.6509e-03
11.500	18.500	4.7936e-03
11.500	18.750	5.1537e-03
11.500	19.000	5.8147e-03
11.500	19.250	6.7979e-03
11.500	19.500	8.2063e-03
11.500	19.750	1.0382e-02
11.500	20.000	1.3848e-02
11.500	20.250	1.9174e-02
11.500	20.500	2.5304e-02
11.500	20.750	2.7557e-02
11.500	21.000	2.9457e-02
11.500	21.250	3.1867e-02
11.500	21.500	3.5194e-02
11.500	21.750	3.5735e-02
11.500	22.000	3.3821e-02
11.500	22.250	3.1536e-02
11.500	22.500	2.8984e-02
11.500	22.750	2.7312e-02
11.500	23.000	2.6189e-02
11.500	23.250	2.5594e-02
11.500	23.500	2.5276e-02
11.500	23.750	2.5092e-02
11.500	24.000	2.5009e-02
11.750	17.000	5.0353e-03
11.750	17.250	4.8885e-03
11.750	17.500	4.6813e-03
11.750	17.750	4.6098e-03
11.750	18.000	4.6256e-03
11.750	18.250	4.6272e-03
11.750	18.500	4.6477e-03
11.750	18.750	4.7780e-03
11.750	19.000	5.1430e-03
11.750	19.250	5.8289e-03
11.750	19.500	6.8550e-03
11.750	19.750	8.3610e-03
11.750	20.000	1.0715e-02
11.750	20.250	1.4463e-02
11.750	20.500	2.0136e-02
11.750	20.750	2.5992e-02
11.750	21.000	2.8407e-02
11.750	21.250	3.0855e-02
11.750	21.500	3.3897e-02
11.750	21.750	3.7429e-02
11.750	22.000	3.6443e-02
11.750	22.250	3.4039e-02
11.750	22.500	3.1531e-02
11.750	22.750	2.8979e-02
11.750	23.000	2.7312e-02
11.750	23.250	2.6188e-02
11.750	23.500	2.5605e-02
11.750	23.750	2.5276e-02
11.750	24.000	2.5092e-02
12.000	17.000	4.4138e-03
12.000	17.250	4.5468e-03
12.000	17.500	4.5296e-03
12.000	17.750	4.5598e-03
12.000	18.000	4.6177e-03
12.000	18.250	4.6145e-03
12.000	18.500	4.5698e-03
12.000	18.750	4.5644e-03
12.000	19.000	4.7013e-03
12.000	19.250	5.0820e-03
12.000	19.500	5.8067e-03
12.000	19.750	6.8856e-03
12.000	20.000	8.5033e-03
12.000	20.250	1.1047e-02
12.000	20.500	1.5069e-02
12.000	20.750	2.1139e-02
12.000	21.000	2.7169e-02
12.000	21.250	2.9816e-02
12.000	21.500	3.2962e-02
12.000	21.750	3.6657e-02
12.000	22.000	3.9500e-02
12.000	22.250	3.7126e-02
12.000	22.500	3.4312e-02
12.000	22.750	3.1533e-02
12.000	23.000	2.8973e-02
12.000	23.250	2.7311e-02
12.000	23.500	2.6188e-02
12.000	23.750	2.5594e-02
12.000	24.000	2.5276e-02
12.250	17.000	3.5352e-03
12.250	17.250	3.8984e-03
12.250	17.500	4.1325e-03
12.250	17.750	4.3463e-03
12.250	18.000	4.4844e-03
12.250	18.250	4.4963e-03
12.250	18.500	4.4406e-03
12.250	18.750	4.3974e-03
12.250	19.000	4.4213e-03
12.250	19.250	4.5879e-03
12.250	19.500	5.0109e-03
12.250	19.750	5.7761e-03
12.250	20.000	6.9116e-03
12.250	20.250	8.6527e-03
12.250	20.500	1.1397e-02
12.250	20.750	1.5731e-02
12.250	21.000	2.2433e-02
12.250	21.250	2.8580e-02
12.250	21.500	3.1769e-02
12.250	21.750	3.5631e-02
12.250	22.000	3.9884e-02
12.250	22.250	4.1131e-02
12.250	22.500	3.7871e-02
12.250	22.750	3.4626e-02
12.250	23.000	3.1548e-02
12.250	23.250	2.8967e-02
12.250	23.500	2.7310e-02
12.250	23.750	2.6187e-02
12.250	24.000	2.5594e-02
12.500	17.000	2.7538e-03
12.500	17.250	3.1886e-03
12.500	17.500	3.5837e-03
12.500	17.750	3.9039e-03
12.500	18.000	4.0979e-03
12.500	18.250	4.1764e-03
12.500	18.500	4.1882e-03
12.500	18.750	4.1911e-03
12.500	19.000	4.2065e-03
12.500	19.250	4.2743e-03
12.500	19.500	4.4780e-03
12.500	19.750	4.9365e-03
12.500	20.000	5.7461e-03
12.500	20.250	6.9500e-03
12.500	20.500	8.8385e-03
12.500	20.750	1.1841e-02
12.500	21.000	1.6679e-02
12.500	21.250	2.4183e-02
12.500	21.500	3.0485e-02
12.500	21.750	3.4365e-02
12.500	22.000	3.9104e-02
12.500	22.250	4.3154e-02
12.500	22.500	4.2831e-02
12.500	22.750	3.8691e-02
12.500	23.000	3.4968e-02
12.500	23.250	3.1576e-02
12.500	23.500	2.8961e-02
12.500	23.750	2.7309e-02
12.500	24.000	2.6186e-02
12.750	17.000	2.1960e-03
12.750	17.250	2.5896e-03
12.750	17.500	2.9475e-03
12.750	17.750	3.2318e-03
12.750	18.000	3.4724e-03
12.750	18.250	3.6648e-03
12.750	18.500	3.8001e-03
12.750	18.750	3.8975e-03
12.750	19.000	3.9709e-03
12.750	19.250	4.0400e-03
12.750	19.500	4.1401e-03
12.750	19.750	4.3710e-03
12.750	20.000	4.8575e-03
12.750	20.250	5.7096e-03
12.750	20.500	7.0187e-03
12.750	20.750	9.1013e-03
12.750	21.000	1.2467e-02
12.750	21.250	1.8020e-02
12.750	21.500	2.6290e-02
12.750	21.750	3.3122e-02
12.750	22.000	3.7710e-02
12.750	22.250	4.3023e-02
12.750	22.500	4.6399e-02
12.750	22.750	4.4441e-02
12.750	23.000	3.9604e-02
12.750	23.250	3.5288e-02
12.750	23.500	3.1601e-02
12.750	23.750	2.8958e-02
12.750	24.000	2.7308e-02
13.000	17.000	1.7412e-03
13.000	17.250	2.0529e-03
13.000	17.500	2.3154e-03
13.000	17.750	2.5658e-03
13.000	18.000	2.8259e-03
13.000	18.250	3.0860e-03
13.000	18.500	3.3175e-03
13.000	18.750	3.5099e-03
13.000	19.000	3.6654e-03
13.000	19.250	3.7869e-03
13.000	19.500	3.8856e-03
13.000	19.750	4.0100e-03
13.000	20.000	4.2565e-03
13.000	20.250	4.7672e-03
13.000	20.500	5.6990e-03
13.000	20.750	7.1298e-03
13.000	21.000	9.5408e-03
13.000	21.250	1.3431e-02
13.000	21.500	1.9491e-02
13.000	21.750	2.9288e-02
13.000	22.000	3.6476e-02
13.000	22.250	4.1072e-02
13.000	22.500	4.6696e-02
13.000	22.750	4.9516e-02
13.000	23.000	4.6241e-02
13.000	23.250	4.0490e-02
13.000	23.500	3.5608e-02
13.000	23.750	3.1647e-02
13.000	24.000	2.8958e-02
13.250	17.000	1.4701e-03
13.250	17.250	1.6939e-03
13.250	17.500	1.8993e-03
13.250	17.750	2.0844e-03
13.250	18.000	2.3097e-03
13.250	18.250	2.5730e-03
13.250	18.500	2.8357e-03
13.250	18.750	3.0769e-03
13.250	19.000	3.2911e-03
13.250	19.250	3.4750e-03
13.250	19.500	3.6237e-03
13.250	19.750	3.7497e-03
13.250	20.000	3.8932e-03
13.250	20.250	4.1477e-03
13.250	20.500	4.6709e-03
13.250	20.750	5.6453e-03
13.250	21.000	7.2470e-03
13.250	21.250	9.9411e-03
13.250	21.500	1.4130e-02
13.250	21.750	2.1453e-02
13.250	22.000	3.1915e-02
13.250	22.250	3.8877e-02
13.250	22.500	4.4525e-02
13.250	22.750	5.0197e-02
13.250	23.000	5.2754e-02
13.250	23.250	4.7836e-02
13.250	23.500	4.1270e-02
13.250	23.750	3.5896e-02
13.250	24.000	3.1713e-02
13.500	17.000	1.2925e-03
13.500	17.250	1.4563e-03
13.500	17.500	1.6195e-03
13.500	17.750	1.7654e-03
13.500	18.000	1.9507e-03
13.500	18.250	2.1774e-03
13.500	18.500	2.4225e-03
13.500	18.750	2.6634e-03
13.500	19.000	2.8948e-03
13.500	19.250	3.1112e-03
13.500	19.500	3.3032e-03
13.500	19.750	3.4656e-03
13.500	20.000	3.6072e-03
13.500	20.250	3.7656e-03
13.500	20.500	4.0277e-03
13.500	20.750	4.5517e-03
13.500	21.000	5.5085e-03
13.500	21.250	7.2760e-03
13.500	21.500	9.9873e-03
13.500	21.750	1.4344e-02
13.500	22.000	2.1947e-02
13.500	22.250	3.3970e-02
13.500	22.500	4.1783e-02
13.500	22.750	4.8006e-02
13.500	23.000	5.3764e-02
13.500	23.250	5.6183e-02
13.500	23.500	4.9488e-02
13.500	23.750	4.2315e-02
13.500	24.000	3.6158e-02
13.750	17.000	1.1696e-03
13.750	17.250	1.3051e-03
13.750	17.500	1.4365e-03
13.750	17.750	1.5603e-03
13.750	18.000	1.7111e-03
13.750	18.250	1.9011e-03
13.750	18.500	2.1091e-03
13.750	18.750	2.3197e-03
13.750	19.000	2.5330e-03
13.750	19.250	2.7491e-03
13.750	19.500	2.9602e-03
13.750	19.750	3.1542e-03
13.750	20.000	3.3273e-03
13.750	20.250	3.4876e-03
13.750	20.500	3.6695e-03
13.750	20.750	3.9514e-03
13.750	21.000	4.4748e-03
13.750	21.250	5.4319e-03
13.750	21.500	7.1002e-03
13.750	21.750	9.8587e-03
13.750	22.000	1.4614e-02
13.750	22.250	2.3290e-02
13.750	22.500	3.6831e-02
13.750	22.750	4.5822e-02
13.750	23.000	5.2399e-02
13.750	23.250	5.8339e-02
13.750	23.500	5.9856e-02
13.750	23.750	5.1315e-02
13.750	24.000	4.3021e-02
14.000	17.000	1.0840e-03
14.000	17.250	1.1988e-03
14.000	17.500	1.3169e-03
14.000	17.750	1.4226e-03
14.000	18.000	1.5514e-03
14.000	18.250	1.7098e-03
14.000	18.500	1.8847e-03
14.000	18.750	2.0611e-03
14.000	19.000	2.2415e-03
14.000	19.250	2.4319e-03
14.000	19.500	2.6339e-03
14.000	19.750	2.8400e-03
14.000	20.000	3.0379e-03
14.000	20.250	3.2248e-03
14.000	20.500	3.4113e-03
14.000	20.750	3.6309e-03
14.000	21.000	3.9621e-03
14.000	21.250	4.5479e-03
14.000	21.500	5.5458e-03
14.000	21.750	7.3090e-03
14.000	22.000	1.0373e-02
14.000	22.250	1.5884e-02
14.000	22.500	2.6277e-02
14.000	22.750	4.1553e-02
14.000	23.000	5.0968e-02
14.000	23.250	5.8362e-02
14.000	23.500	6.3888e-02
14.000	23.750	6.3808e-02
14.000	24.000	5.2969e-02
