InwC 10000.0A  relative to Inci 1215.00A scaled to 1215A.
Hden   Phi(H)  Eq_Width (A)
 7.000	17.000	4.2364e-03
 7.000	17.250	4.3713e-03
 7.000	17.500	4.3732e-03
 7.000	17.750	4.3752e-03
 7.000	18.000	4.3774e-03
 7.000	18.250	4.3794e-03
 7.000	18.500	4.3806e-03
 7.000	18.750	4.3811e-03
 7.000	19.000	4.3816e-03
 7.000	19.250	4.3820e-03
 7.000	19.500	4.3821e-03
 7.000	19.750	4.3822e-03
 7.000	20.000	4.3822e-03
 7.000	20.250	4.3822e-03
 7.000	20.500	4.3822e-03
 7.000	20.750	4.3823e-03
 7.000	21.000	4.3823e-03
 7.000	21.250	4.3823e-03
 7.000	21.500	4.3824e-03
 7.000	21.750	4.3824e-03
 7.000	22.000	4.3824e-03
 7.000	22.250	4.3824e-03
 7.000	22.500	4.3824e-03
 7.000	22.750	4.3824e-03
 7.000	23.000	4.3825e-03
 7.000	23.250	4.3824e-03
 7.000	23.500	4.3824e-03
 7.000	23.750	4.3824e-03
 7.000	24.000	4.3824e-03
 7.250	17.000	4.0074e-03
 7.250	17.250	4.2372e-03
 7.250	17.500	4.3713e-03
 7.250	17.750	4.3733e-03
 7.250	18.000	4.3752e-03
 7.250	18.250	4.3774e-03
 7.250	18.500	4.3794e-03
 7.250	18.750	4.3806e-03
 7.250	19.000	4.3811e-03
 7.250	19.250	4.3816e-03
 7.250	19.500	4.3820e-03
 7.250	19.750	4.3821e-03
 7.250	20.000	4.3822e-03
 7.250	20.250	4.3822e-03
 7.250	20.500	4.3822e-03
 7.250	20.750	4.3822e-03
 7.250	21.000	4.3822e-03
 7.250	21.250	4.3823e-03
 7.250	21.500	4.3823e-03
 7.250	21.750	4.3823e-03
 7.250	22.000	4.3828e-03
 7.250	22.250	4.3823e-03
 7.250	22.500	4.3824e-03
 7.250	22.750	4.3824e-03
 7.250	23.000	4.3825e-03
 7.250	23.250	4.3826e-03
 7.250	23.500	4.3824e-03
 7.250	23.750	4.3826e-03
 7.250	24.000	4.3824e-03
 7.500	17.000	2.9373e-03
 7.500	17.250	4.0207e-03
 7.500	17.500	4.2379e-03
 7.500	17.750	4.3713e-03
 7.500	18.000	4.3733e-03
 7.500	18.250	4.3752e-03
 7.500	18.500	4.3774e-03
 7.500	18.750	4.3794e-03
 7.500	19.000	4.3806e-03
 7.500	19.250	4.3811e-03
 7.500	19.500	4.3816e-03
 7.500	19.750	4.3820e-03
 7.500	20.000	4.3821e-03
 7.500	20.250	4.3822e-03
 7.500	20.500	4.3822e-03
 7.500	20.750	4.3822e-03
 7.500	21.000	4.3822e-03
 7.500	21.250	4.3822e-03
 7.500	21.500	4.3822e-03
 7.500	21.750	4.3822e-03
 7.500	22.000	4.3823e-03
 7.500	22.250	4.3823e-03
 7.500	22.500	4.3823e-03
 7.500	22.750	4.3823e-03
 7.500	23.000	4.3823e-03
 7.500	23.250	4.3823e-03
 7.500	23.500	4.3823e-03
 7.500	23.750	4.3823e-03
 7.500	24.000	4.3823e-03
 7.750	17.000	2.1147e-03
 7.750	17.250	2.9657e-03
 7.750	17.500	4.0303e-03
 7.750	17.750	4.2384e-03
 7.750	18.000	4.3713e-03
 7.750	18.250	4.3733e-03
 7.750	18.500	4.3752e-03
 7.750	18.750	4.3774e-03
 7.750	19.000	4.3794e-03
 7.750	19.250	4.3806e-03
 7.750	19.500	4.3811e-03
 7.750	19.750	4.3816e-03
 7.750	20.000	4.3820e-03
 7.750	20.250	4.3821e-03
 7.750	20.500	4.3822e-03
 7.750	20.750	4.3822e-03
 7.750	21.000	4.3822e-03
 7.750	21.250	4.3822e-03
 7.750	21.500	4.3822e-03
 7.750	21.750	4.3822e-03
 7.750	22.000	4.3822e-03
 7.750	22.250	4.3822e-03
 7.750	22.500	4.3823e-03
 7.750	22.750	4.3822e-03
 7.750	23.000	4.3823e-03
 7.750	23.250	4.3823e-03
 7.750	23.500	4.3823e-03
 7.750	23.750	4.3823e-03
 7.750	24.000	4.3823e-03
 8.000	17.000	1.4721e-03
 8.000	17.250	2.1344e-03
 8.000	17.500	2.9717e-03
 8.000	17.750	4.0147e-03
 8.000	18.000	4.2378e-03
 8.000	18.250	4.3713e-03
 8.000	18.500	4.3733e-03
 8.000	18.750	4.3752e-03
 8.000	19.000	4.3774e-03
 8.000	19.250	4.3794e-03
 8.000	19.500	4.3806e-03
 8.000	19.750	4.3811e-03
 8.000	20.000	4.3816e-03
 8.000	20.250	4.3820e-03
 8.000	20.500	4.3821e-03
 8.000	20.750	4.3822e-03
 8.000	21.000	4.3822e-03
 8.000	21.250	4.3822e-03
 8.000	21.500	4.3822e-03
 8.000	21.750	4.3822e-03
 8.000	22.000	4.3822e-03
 8.000	22.250	4.3822e-03
 8.000	22.500	4.3822e-03
 8.000	22.750	4.3822e-03
 8.000	23.000	4.3822e-03
 8.000	23.250	4.3822e-03
 8.000	23.500	4.3822e-03
 8.000	23.750	4.3822e-03
 8.000	24.000	4.3827e-03
 8.250	17.000	1.0263e-03
 8.250	17.250	1.4998e-03
 8.250	17.500	2.1691e-03
 8.250	17.750	2.9972e-03
 8.250	18.000	4.0216e-03
 8.250	18.250	4.2382e-03
 8.250	18.500	4.3713e-03
 8.250	18.750	4.3733e-03
 8.250	19.000	4.3752e-03
 8.250	19.250	4.3774e-03
 8.250	19.500	4.3794e-03
 8.250	19.750	4.3806e-03
 8.250	20.000	4.3811e-03
 8.250	20.250	4.3816e-03
 8.250	20.500	4.3820e-03
 8.250	20.750	4.3821e-03
 8.250	21.000	4.3822e-03
 8.250	21.250	4.3822e-03
 8.250	21.500	4.3822e-03
 8.250	21.750	4.3822e-03
 8.250	22.000	4.3822e-03
 8.250	22.250	4.3822e-03
 8.250	22.500	4.3822e-03
 8.250	22.750	4.3823e-03
 8.250	23.000	4.3824e-03
 8.250	23.250	4.3823e-03
 8.250	23.500	4.3822e-03
 8.250	23.750	4.3822e-03
 8.250	24.000	4.3822e-03
 8.500	17.000	7.1951e-04
 8.500	17.250	1.0483e-03
 8.500	17.500	1.5342e-03
 8.500	17.750	2.2174e-03
 8.500	18.000	3.0378e-03
 8.500	18.250	4.0358e-03
 8.500	18.500	4.2385e-03
 8.500	18.750	4.3713e-03
 8.500	19.000	4.3733e-03
 8.500	19.250	4.3753e-03
 8.500	19.500	4.3774e-03
 8.500	19.750	4.3794e-03
 8.500	20.000	4.3806e-03
 8.500	20.250	4.3811e-03
 8.500	20.500	4.3816e-03
 8.500	20.750	4.3820e-03
 8.500	21.000	4.3821e-03
 8.500	21.250	4.3822e-03
 8.500	21.500	4.3822e-03
 8.500	21.750	4.3822e-03
 8.500	22.000	4.3822e-03
 8.500	22.250	4.3822e-03
 8.500	22.500	4.3822e-03
 8.500	22.750	4.3824e-03
 8.500	23.000	4.3822e-03
 8.500	23.250	4.3822e-03
 8.500	23.500	4.3822e-03
 8.500	23.750	4.3822e-03
 8.500	24.000	4.3822e-03
 8.750	17.000	5.0741e-04
 8.750	17.250	7.3654e-04
 8.750	17.500	1.0785e-03
 8.750	17.750	1.5875e-03
 8.750	18.000	2.2863e-03
 8.750	18.250	3.1060e-03
 8.750	18.500	4.0588e-03
 8.750	18.750	4.2388e-03
 8.750	19.000	4.3713e-03
 8.750	19.250	4.3733e-03
 8.750	19.500	4.3753e-03
 8.750	19.750	4.3774e-03
 8.750	20.000	4.3794e-03
 8.750	20.250	4.3806e-03
 8.750	20.500	4.3811e-03
 8.750	20.750	4.3816e-03
 8.750	21.000	4.3820e-03
 8.750	21.250	4.3821e-03
 8.750	21.500	4.3822e-03
 8.750	21.750	4.3822e-03
 8.750	22.000	4.3822e-03
 8.750	22.250	4.3822e-03
 8.750	22.500	4.3822e-03
 8.750	22.750	4.3822e-03
 8.750	23.000	4.3822e-03
 8.750	23.250	4.3822e-03
 8.750	23.500	4.3822e-03
 8.750	23.750	4.3822e-03
 8.750	24.000	4.3822e-03
 9.000	17.000	3.5868e-04
 9.000	17.250	5.2000e-04
 9.000	17.500	7.6181e-04
 9.000	17.750	1.1278e-03
 9.000	18.000	1.6770e-03
 9.000	18.250	2.4151e-03
 9.000	18.500	3.2272e-03
 9.000	18.750	4.1178e-03
 9.000	19.000	4.2386e-03
 9.000	19.250	4.3712e-03
 9.000	19.500	4.3733e-03
 9.000	19.750	4.3753e-03
 9.000	20.000	4.3774e-03
 9.000	20.250	4.3794e-03
 9.000	20.500	4.3806e-03
 9.000	20.750	4.3811e-03
 9.000	21.000	4.3816e-03
 9.000	21.250	4.3820e-03
 9.000	21.500	4.3821e-03
 9.000	21.750	4.3822e-03
 9.000	22.000	4.3822e-03
 9.000	22.250	4.3822e-03
 9.000	22.500	4.3822e-03
 9.000	22.750	4.3822e-03
 9.000	23.000	4.3822e-03
 9.000	23.250	4.3822e-03
 9.000	23.500	4.3822e-03
 9.000	23.750	4.3822e-03
 9.000	24.000	4.3824e-03
 9.250	17.000	2.5374e-04
 9.250	17.250	3.6815e-04
 9.250	17.500	5.4082e-04
 9.250	17.750	8.0658e-04
 9.250	18.000	1.2215e-03
 9.250	18.250	1.8327e-03
 9.250	18.500	2.6093e-03
 9.250	18.750	3.4435e-03
 9.250	19.000	4.1190e-03
 9.250	19.250	4.2379e-03
 9.250	19.500	4.3712e-03
 9.250	19.750	4.3733e-03
 9.250	20.000	4.3753e-03
 9.250	20.250	4.3775e-03
 9.250	20.500	4.3794e-03
 9.250	20.750	4.3806e-03
 9.250	21.000	4.3811e-03
 9.250	21.250	4.3816e-03
 9.250	21.500	4.3813e-03
 9.250	21.750	4.3814e-03
 9.250	22.000	4.3813e-03
 9.250	22.250	4.3815e-03
 9.250	22.500	4.3821e-03
 9.250	22.750	4.3821e-03
 9.250	23.000	4.3822e-03
 9.250	23.250	4.3822e-03
 9.250	23.500	4.3822e-03
 9.250	23.750	4.3822e-03
 9.250	24.000	4.3822e-03
 9.500	17.000	1.7975e-04
 9.500	17.250	2.6099e-04
 9.500	17.500	3.8477e-04
 9.500	17.750	5.8008e-04
 9.500	18.000	8.9391e-04
 9.500	18.250	1.3787e-03
 9.500	18.500	2.0506e-03
 9.500	18.750	2.8489e-03
 9.500	19.000	3.6756e-03
 9.500	19.250	4.1174e-03
 9.500	19.500	4.2364e-03
 9.500	19.750	4.3710e-03
 9.500	20.000	4.3733e-03
 9.500	20.250	4.3753e-03
 9.500	20.500	4.3775e-03
 9.500	20.750	4.3792e-03
 9.500	21.000	4.3798e-03
 9.500	21.250	4.3803e-03
 9.500	21.500	4.3808e-03
 9.500	21.750	4.3809e-03
 9.500	22.000	4.3808e-03
 9.500	22.250	4.3808e-03
 9.500	22.500	4.3809e-03
 9.500	22.750	4.3809e-03
 9.500	23.000	4.3809e-03
 9.500	23.250	4.3809e-03
 9.500	23.500	4.3811e-03
 9.500	23.750	4.3811e-03
 9.500	24.000	4.3811e-03
 9.750	17.000	1.2733e-04
 9.750	17.250	1.8502e-04
 9.750	17.500	2.7383e-04
 9.750	17.750	4.1753e-04
 9.750	18.000	6.5704e-04
 9.750	18.250	1.0366e-03
 9.750	18.500	1.5811e-03
 9.750	18.750	2.2869e-03
 9.750	19.000	3.0923e-03
 9.750	19.250	3.9296e-03
 9.750	19.500	4.1145e-03
 9.750	19.750	4.2339e-03
 9.750	20.000	4.3708e-03
 9.750	20.250	4.3732e-03
 9.750	20.500	4.3753e-03
 9.750	20.750	4.3774e-03
 9.750	21.000	4.3793e-03
 9.750	21.250	4.3800e-03
 9.750	21.500	4.3803e-03
 9.750	21.750	4.3808e-03
 9.750	22.000	4.3810e-03
 9.750	22.250	4.3808e-03
 9.750	22.500	4.3809e-03
 9.750	22.750	4.3809e-03
 9.750	23.000	4.3809e-03
 9.750	23.250	4.3809e-03
 9.750	23.500	4.3809e-03
 9.750	23.750	4.3809e-03
 9.750	24.000	4.3809e-03
10.000	17.000	9.0041e-05
10.000	17.250	1.3119e-04
10.000	17.500	1.9514e-04
10.000	17.750	3.0123e-04
10.000	18.000	4.8502e-04
10.000	18.250	7.7877e-04
10.000	18.500	1.2049e-03
10.000	18.750	1.7840e-03
10.000	19.000	2.5166e-03
10.000	19.250	3.3437e-03
10.000	19.500	4.0493e-03
10.000	19.750	4.1112e-03
10.000	20.000	4.2306e-03
10.000	20.250	4.3703e-03
10.000	20.500	4.3730e-03
10.000	20.750	4.3752e-03
10.000	21.000	4.3774e-03
10.000	21.250	4.3793e-03
10.000	21.500	4.3803e-03
10.000	21.750	4.3805e-03
10.000	22.000	4.3808e-03
10.000	22.250	4.3812e-03
10.000	22.500	4.3810e-03
10.000	22.750	4.3808e-03
10.000	23.000	4.3809e-03
10.000	23.250	4.3809e-03
10.000	23.500	4.3809e-03
10.000	23.750	4.3809e-03
10.000	24.000	4.3809e-03
10.250	17.000	6.3704e-05
10.250	17.250	9.3086e-05
10.250	17.500	1.3926e-04
10.250	17.750	2.1802e-04
10.250	18.000	3.5778e-04
10.250	18.250	5.8082e-04
10.250	18.500	9.0609e-04
10.250	18.750	1.3581e-03
10.250	19.000	1.9622e-03
10.250	19.250	2.7360e-03
10.250	19.500	3.6179e-03
10.250	19.750	4.0462e-03
10.250	20.000	4.1078e-03
10.250	20.250	4.2271e-03
10.250	20.500	4.3693e-03
10.250	20.750	4.3727e-03
10.250	21.000	4.3751e-03
10.250	21.250	4.3774e-03
10.250	21.500	4.3793e-03
10.250	21.750	4.3804e-03
10.250	22.000	4.3808e-03
10.250	22.250	4.3809e-03
10.250	22.500	4.3812e-03
10.250	22.750	4.3812e-03
10.250	23.000	4.3810e-03
10.250	23.250	4.3808e-03
10.250	23.500	4.3809e-03
10.250	23.750	4.3809e-03
10.250	24.000	4.3809e-03
10.500	17.000	4.5021e-05
10.500	17.250	6.6091e-05
10.500	17.500	9.9671e-05
10.500	17.750	1.5860e-04
10.500	18.000	2.6362e-04
10.500	18.250	4.3267e-04
10.500	18.500	6.7366e-04
10.500	18.750	1.0123e-03
10.500	19.000	1.4832e-03
10.500	19.250	2.1079e-03
10.500	19.500	2.9053e-03
10.500	19.750	3.7774e-03
10.500	20.000	4.0426e-03
10.500	20.250	4.1043e-03
10.500	20.500	4.2240e-03
10.500	20.750	4.3679e-03
10.500	21.000	4.3720e-03
10.500	21.250	4.3748e-03
10.500	21.500	4.3773e-03
10.500	21.750	4.3792e-03
10.500	22.000	4.3804e-03
10.500	22.250	4.3810e-03
10.500	22.500	4.3812e-03
10.500	22.750	4.3812e-03
10.500	23.000	4.3812e-03
10.500	23.250	4.3812e-03
10.500	23.500	4.3810e-03
10.500	23.750	4.3809e-03
10.500	24.000	4.3809e-03
10.750	17.000	3.1852e-05
10.750	17.250	4.6996e-05
10.750	17.500	7.1687e-05
10.750	17.750	1.1572e-04
10.750	18.000	1.9366e-04
10.750	18.250	3.1663e-04
10.750	18.500	4.9300e-04
10.750	18.750	7.5062e-04
10.750	19.000	1.0999e-03
10.750	19.250	1.5832e-03
10.750	19.500	2.2361e-03
10.750	19.750	3.0687e-03
10.750	20.000	3.9438e-03
10.750	20.250	4.0394e-03
10.750	20.500	4.1016e-03
10.750	20.750	4.2241e-03
10.750	21.000	4.3656e-03
10.750	21.250	4.3709e-03
10.750	21.500	4.3747e-03
10.750	21.750	4.3770e-03
10.750	22.000	4.3790e-03
10.750	22.250	4.3804e-03
10.750	22.500	4.3810e-03
10.750	22.750	4.3814e-03
10.750	23.000	4.3812e-03
10.750	23.250	4.3813e-03
10.750	23.500	4.3813e-03
10.750	23.750	4.3812e-03
10.750	24.000	4.3811e-03
11.000	17.000	2.2551e-05
11.000	17.250	3.3333e-05
11.000	17.500	5.1440e-05
11.000	17.750	8.4198e-05
11.000	18.000	1.4115e-04
11.000	18.250	2.2930e-04
11.000	18.500	3.6008e-04
11.000	18.750	5.4395e-04
11.000	19.000	8.0337e-04
11.000	19.250	1.1614e-03
11.000	19.500	1.6672e-03
11.000	19.750	2.3500e-03
11.000	20.000	3.2412e-03
11.000	20.250	3.9834e-03
11.000	20.500	4.0349e-03
11.000	20.750	4.1002e-03
11.000	21.000	4.2281e-03
11.000	21.250	4.3627e-03
11.000	21.500	4.3700e-03
11.000	21.750	4.3739e-03
11.000	22.000	4.3765e-03
11.000	22.250	4.3788e-03
11.000	22.500	4.3802e-03
11.000	22.750	4.3809e-03
11.000	23.000	4.3815e-03
11.000	23.250	4.3814e-03
11.000	23.500	4.3814e-03
11.000	23.750	4.3814e-03
11.000	24.000	4.3813e-03
11.250	17.000	1.6049e-05
11.250	17.250	2.3621e-05
11.250	17.500	3.6790e-05
11.250	17.750	6.0741e-05
11.250	18.000	1.0173e-04
11.250	18.250	1.6461e-04
11.250	18.500	2.5613e-04
11.250	18.750	3.9152e-04
11.250	19.000	5.7868e-04
11.250	19.250	8.4255e-04
11.250	19.500	1.2165e-03
11.250	19.750	1.7398e-03
11.250	20.000	2.4555e-03
11.250	20.250	3.3909e-03
11.250	20.500	3.9867e-03
11.250	20.750	4.0295e-03
11.250	21.000	4.1016e-03
11.250	21.250	4.2416e-03
11.250	21.500	4.3619e-03
11.250	21.750	4.3681e-03
11.250	22.000	4.3728e-03
11.250	22.250	4.3757e-03
11.250	22.500	4.3783e-03
11.250	22.750	4.3801e-03
11.250	23.000	4.3808e-03
11.250	23.250	4.3815e-03
11.250	23.500	4.3817e-03
11.250	23.750	4.3814e-03
11.250	24.000	4.3814e-03
11.500	17.000	1.1440e-05
11.500	17.250	1.6872e-05
11.500	17.500	2.6255e-05
11.500	17.750	4.3457e-05
11.500	18.000	7.2510e-05
11.500	18.250	1.1687e-04
11.500	18.500	1.8173e-04
11.500	18.750	2.7770e-04
11.500	19.000	4.1284e-04
11.500	19.250	6.0658e-04
11.500	19.500	8.7679e-04
11.500	19.750	1.2630e-03
11.500	20.000	1.8075e-03
11.500	20.250	2.5535e-03
11.500	20.500	3.5265e-03
11.500	20.750	3.9711e-03
11.500	21.000	4.0238e-03
11.500	21.250	4.1093e-03
11.500	21.500	4.2757e-03
11.500	21.750	4.3581e-03
11.500	22.000	4.3654e-03
11.500	22.250	4.3710e-03
11.500	22.500	4.3744e-03
11.500	22.750	4.3774e-03
11.500	23.000	4.3798e-03
11.500	23.250	4.3807e-03
11.500	23.500	4.3814e-03
11.500	23.750	4.3818e-03
11.500	24.000	4.3815e-03
11.750	17.000	8.3951e-06
11.750	17.250	1.2099e-05
11.750	17.500	1.8765e-05
11.750	17.750	3.0864e-05
11.750	18.000	5.1029e-05
11.750	18.250	8.1646e-05
11.750	18.500	1.2757e-04
11.750	18.750	1.9449e-04
11.750	19.000	2.9267e-04
11.750	19.250	4.3128e-04
11.750	19.500	6.2831e-04
11.750	19.750	9.0626e-04
11.750	20.000	1.3045e-03
11.750	20.250	1.8649e-03
11.750	20.500	2.6403e-03
11.750	20.750	3.6238e-03
11.750	21.000	3.9476e-03
11.750	21.250	4.0187e-03
11.750	21.500	4.1367e-03
11.750	21.750	4.3165e-03
11.750	22.000	4.3527e-03
11.750	22.250	4.3615e-03
11.750	22.500	4.3683e-03
11.750	22.750	4.3723e-03
11.750	23.000	4.3761e-03
11.750	23.250	4.3793e-03
11.750	23.500	4.3822e-03
11.750	23.750	4.3812e-03
11.750	24.000	4.3819e-03
12.000	17.000	6.1728e-06
12.000	17.250	8.8066e-06
12.000	17.500	1.3498e-05
12.000	17.750	2.1728e-05
12.000	18.000	3.5309e-05
12.000	18.250	5.6379e-05
12.000	18.500	8.8560e-05
12.000	18.750	1.3605e-04
12.000	19.000	2.0593e-04
12.000	19.250	3.0519e-04
12.000	19.500	4.4634e-04
12.000	19.750	6.4675e-04
12.000	20.000	9.3103e-04
12.000	20.250	1.3383e-03
12.000	20.500	1.9124e-03
12.000	20.750	2.7107e-03
12.000	21.000	3.7048e-03
12.000	21.250	3.9147e-03
12.000	21.500	4.0316e-03
12.000	21.750	4.1674e-03
12.000	22.000	4.3305e-03
12.000	22.250	4.3444e-03
12.000	22.500	4.3556e-03
12.000	22.750	4.3642e-03
12.000	23.000	4.3691e-03
12.000	23.250	4.3742e-03
12.000	23.500	4.3786e-03
12.000	23.750	4.3799e-03
12.000	24.000	4.3810e-03
12.250	17.000	4.6091e-06
12.250	17.250	6.5021e-06
12.250	17.500	9.6296e-06
12.250	17.750	1.5144e-05
12.250	18.000	2.4115e-05
12.250	18.250	3.8683e-05
12.250	18.500	6.1317e-05
12.250	18.750	9.5226e-05
12.250	19.000	1.4469e-04
12.250	19.250	2.1531e-04
12.250	19.500	3.1564e-04
12.250	19.750	4.5852e-04
12.250	20.000	6.6115e-04
12.250	20.250	9.4963e-04
12.250	20.500	1.3638e-03
12.250	20.750	1.9515e-03
12.250	21.000	2.7647e-03
12.250	21.250	3.6610e-03
12.250	21.500	3.8998e-03
12.250	21.750	4.0295e-03
12.250	22.000	4.1971e-03
12.250	22.250	4.3150e-03
12.250	22.500	4.3321e-03
12.250	22.750	4.3467e-03
12.250	23.000	4.3577e-03
12.250	23.250	4.3641e-03
12.250	23.500	4.3711e-03
12.250	23.750	4.3774e-03
12.250	24.000	4.3793e-03
12.500	17.000	3.3745e-06
12.500	17.250	4.6914e-06
12.500	17.500	6.9136e-06
12.500	17.750	1.0453e-05
12.500	18.000	1.6461e-05
12.500	18.250	2.6502e-05
12.500	18.500	4.2305e-05
12.500	18.750	6.6255e-05
12.500	19.000	1.0132e-04
12.500	19.250	1.5160e-04
12.500	19.500	2.2272e-04
12.500	19.750	3.2370e-04
12.500	20.000	4.6823e-04
12.500	20.250	6.7374e-04
12.500	20.500	9.6362e-04
12.500	20.750	1.3798e-03
12.500	21.000	1.9784e-03
12.500	21.250	2.7916e-03
12.500	21.500	3.6411e-03
12.500	21.750	3.8481e-03
12.500	22.000	4.0235e-03
12.500	22.250	4.2071e-03
12.500	22.500	4.2910e-03
12.500	22.750	4.3135e-03
12.500	23.000	4.3332e-03
12.500	23.250	4.3472e-03
12.500	23.500	4.3560e-03
12.500	23.750	4.3661e-03
12.500	24.000	4.3756e-03
12.750	17.000	2.0576e-06
12.750	17.250	3.3745e-06
12.750	17.500	4.7737e-06
12.750	17.750	7.2428e-06
12.750	18.000	1.1358e-05
12.750	18.250	1.8189e-05
12.750	18.500	2.9136e-05
12.750	18.750	4.6008e-05
12.750	19.000	7.0700e-05
12.750	19.250	1.0658e-04
12.750	19.500	1.5704e-04
12.750	19.750	2.2872e-04
12.750	20.000	3.3029e-04
12.750	20.250	4.7556e-04
12.750	20.500	6.8198e-04
12.750	20.750	9.7045e-04
12.750	21.000	1.3918e-03
12.750	21.250	1.9888e-03
12.750	21.500	2.8060e-03
12.750	21.750	3.5286e-03
12.750	22.000	3.7807e-03
12.750	22.250	4.0007e-03
12.750	22.500	4.1891e-03
12.750	22.750	4.2551e-03
12.750	23.000	4.2863e-03
12.750	23.250	4.3124e-03
12.750	23.500	4.3305e-03
12.750	23.750	4.3426e-03
12.750	24.000	4.3580e-03
13.000	17.000	1.0000e-07
13.000	17.250	1.3169e-06
13.000	17.500	3.2099e-06
13.000	17.750	5.0206e-06
13.000	18.000	7.9012e-06
13.000	18.250	1.2510e-05
13.000	18.500	2.0082e-05
13.000	18.750	3.1687e-05
13.000	19.000	4.9053e-05
13.000	19.250	7.4239e-05
13.000	19.500	1.1021e-04
13.000	19.750	1.6091e-04
13.000	20.000	2.3267e-04
13.000	20.250	3.3424e-04
13.000	20.500	4.8033e-04
13.000	20.750	6.8519e-04
13.000	21.000	9.8008e-04
13.000	21.250	1.3977e-03
13.000	21.500	1.9957e-03
13.000	21.750	2.7756e-03
13.000	22.000	3.3917e-03
13.000	22.250	3.6794e-03
13.000	22.500	3.9328e-03
13.000	22.750	4.1296e-03
13.000	23.000	4.2020e-03
13.000	23.250	4.2456e-03
13.000	23.500	4.2807e-03
13.000	23.750	4.3044e-03
13.000	24.000	4.3213e-03
13.250	17.000	1.0000e-07
13.250	17.250	1.0000e-07
13.250	17.500	1.4815e-06
13.250	17.750	3.0453e-06
13.250	18.000	5.5144e-06
13.250	18.250	8.7243e-06
13.250	18.500	1.3745e-05
13.250	18.750	2.1728e-05
13.250	19.000	3.3663e-05
13.250	19.250	5.1276e-05
13.250	19.500	7.6790e-05
13.250	19.750	1.1267e-04
13.250	20.000	1.6379e-04
13.250	20.250	2.3605e-04
13.250	20.500	3.3794e-04
13.250	20.750	4.8362e-04
13.250	21.000	6.8790e-04
13.250	21.250	9.7819e-04
13.250	21.500	1.3979e-03
13.250	21.750	1.9745e-03
13.250	22.000	2.6654e-03
13.250	22.250	3.1840e-03
13.250	22.500	3.5259e-03
13.250	22.750	3.8058e-03
13.250	23.000	4.0314e-03
13.250	23.250	4.1233e-03
13.250	23.500	4.1849e-03
13.250	23.750	4.2323e-03
13.250	24.000	4.2635e-03
13.500	17.000	1.0000e-07
13.500	17.250	1.0000e-07
13.500	17.500	8.2305e-07
13.500	17.750	1.8107e-06
13.500	18.000	3.5391e-06
13.500	18.250	6.1728e-06
13.500	18.500	9.5473e-06
13.500	18.750	1.4897e-05
13.500	19.000	2.3045e-05
13.500	19.250	3.5391e-05
13.500	19.500	5.2922e-05
13.500	19.750	7.8354e-05
13.500	20.000	1.1449e-04
13.500	20.250	1.6543e-04
13.500	20.500	2.3761e-04
13.500	20.750	3.3926e-04
13.500	21.000	4.8214e-04
13.500	21.250	6.8584e-04
13.500	21.500	9.7638e-04
13.500	21.750	1.3636e-03
13.500	22.000	1.8695e-03
13.500	22.250	2.4656e-03
13.500	22.500	2.9257e-03
13.500	22.750	3.2981e-03
13.500	23.000	3.6187e-03
13.500	23.250	3.8867e-03
13.500	23.500	4.0087e-03
13.500	23.750	4.0960e-03
13.500	24.000	4.1589e-03
13.750	17.000	1.0000e-07
13.750	17.250	1.0000e-07
13.750	17.500	1.0000e-07
13.750	17.750	9.8765e-07
13.750	18.000	2.2222e-06
13.750	18.250	3.9506e-06
13.750	18.500	6.6667e-06
13.750	18.750	1.0370e-05
13.750	19.000	1.5885e-05
13.750	19.250	2.4198e-05
13.750	19.500	3.6379e-05
13.750	19.750	5.4156e-05
13.750	20.000	7.9588e-05
13.750	20.250	1.1572e-04
13.750	20.500	1.6675e-04
13.750	20.750	2.3893e-04
13.750	21.000	3.3967e-04
13.750	21.250	4.7992e-04
13.750	21.500	6.8181e-04
13.750	21.750	9.4947e-04
13.750	22.000	1.2920e-03
13.750	22.250	1.7027e-03
13.750	22.500	2.1985e-03
13.750	22.750	2.6350e-03
13.750	23.000	3.0334e-03
13.750	23.250	3.3824e-03
13.750	23.500	3.6870e-03
13.750	23.750	3.8455e-03
13.750	24.000	3.9660e-03
14.000	17.000	1.0000e-07
14.000	17.250	1.0000e-07
14.000	17.500	1.0000e-07
14.000	17.750	1.0000e-07
14.000	18.000	1.2346e-06
14.000	18.250	2.5514e-06
14.000	18.500	4.4444e-06
14.000	18.750	7.1605e-06
14.000	19.000	1.0947e-05
14.000	19.250	1.6543e-05
14.000	19.500	2.4938e-05
14.000	19.750	3.7119e-05
14.000	20.000	5.4897e-05
14.000	20.250	8.0329e-05
14.000	20.500	1.1654e-04
14.000	20.750	1.6749e-04
14.000	21.000	2.3901e-04
14.000	21.250	3.3794e-04
14.000	21.500	4.8016e-04
14.000	21.750	6.6658e-04
14.000	22.000	8.9737e-04
14.000	22.250	1.1486e-03
14.000	22.500	1.4559e-03
14.000	22.750	1.8985e-03
14.000	23.000	2.2958e-03
14.000	23.250	2.7127e-03
14.000	23.500	3.0837e-03
14.000	23.750	3.4197e-03
14.000	24.000	3.6197e-03
