nFnu 1000.00A  relative to Inci 1215.00A scaled to 1215A.
Hden   Phi(H)  Eq_Width (A)
 7.000	17.000	4.9796e-02
 7.000	17.250	4.8588e-02
 7.000	17.500	4.4074e-02
 7.000	17.750	3.8472e-02
 7.000	18.000	3.3218e-02
 7.000	18.250	2.9726e-02
 7.000	18.500	2.7443e-02
 7.000	18.750	2.6284e-02
 7.000	19.000	2.5670e-02
 7.000	19.250	2.5320e-02
 7.000	19.500	2.5170e-02
 7.000	19.750	2.5107e-02
 7.000	20.000	2.5079e-02
 7.000	20.250	2.5066e-02
 7.000	20.500	2.5060e-02
 7.000	20.750	2.5056e-02
 7.000	21.000	2.5054e-02
 7.000	21.250	2.5054e-02
 7.000	21.500	2.5053e-02
 7.000	21.750	2.5053e-02
 7.000	22.000	2.5053e-02
 7.000	22.250	2.5053e-02
 7.000	22.500	2.5053e-02
 7.000	22.750	2.5053e-02
 7.000	23.000	2.5053e-02
 7.000	23.250	2.5053e-02
 7.000	23.500	2.5053e-02
 7.000	23.750	2.5053e-02
 7.000	24.000	2.5053e-02
 7.250	17.000	5.1584e-02
 7.250	17.250	4.8279e-02
 7.250	17.500	4.8129e-02
 7.250	17.750	4.3859e-02
 7.250	18.000	3.8366e-02
 7.250	18.250	3.3158e-02
 7.250	18.500	2.9696e-02
 7.250	18.750	2.7432e-02
 7.250	19.000	2.6280e-02
 7.250	19.250	2.5669e-02
 7.250	19.500	2.5319e-02
 7.250	19.750	2.5170e-02
 7.250	20.000	2.5107e-02
 7.250	20.250	2.5079e-02
 7.250	20.500	2.5066e-02
 7.250	20.750	2.5060e-02
 7.250	21.000	2.5056e-02
 7.250	21.250	2.5054e-02
 7.250	21.500	2.5053e-02
 7.250	21.750	2.5053e-02
 7.250	22.000	2.5055e-02
 7.250	22.250	2.5053e-02
 7.250	22.500	2.5053e-02
 7.250	22.750	2.5053e-02
 7.250	23.000	2.5053e-02
 7.250	23.250	2.5054e-02
 7.250	23.500	2.5053e-02
 7.250	23.750	2.5054e-02
 7.250	24.000	2.5053e-02
 7.500	17.000	3.9873e-02
 7.500	17.250	4.8323e-02
 7.500	17.500	4.7012e-02
 7.500	17.750	4.7873e-02
 7.500	18.000	4.3752e-02
 7.500	18.250	3.8312e-02
 7.500	18.500	3.3123e-02
 7.500	18.750	2.9678e-02
 7.500	19.000	2.7425e-02
 7.500	19.250	2.6277e-02
 7.500	19.500	2.5668e-02
 7.500	19.750	2.5319e-02
 7.500	20.000	2.5170e-02
 7.500	20.250	2.5107e-02
 7.500	20.500	2.5079e-02
 7.500	20.750	2.5066e-02
 7.500	21.000	2.5060e-02
 7.500	21.250	2.5056e-02
 7.500	21.500	2.5054e-02
 7.500	21.750	2.5053e-02
 7.500	22.000	2.5053e-02
 7.500	22.250	2.5052e-02
 7.500	22.500	2.5052e-02
 7.500	22.750	2.5052e-02
 7.500	23.000	2.5052e-02
 7.500	23.250	2.5052e-02
 7.500	23.500	2.5052e-02
 7.500	23.750	2.5052e-02
 7.500	24.000	2.5052e-02
 7.750	17.000	2.8249e-02
 7.750	17.250	3.6556e-02
 7.750	17.500	4.5420e-02
 7.750	17.750	4.6001e-02
 7.750	18.000	4.7737e-02
 7.750	18.250	4.3712e-02
 7.750	18.500	3.8294e-02
 7.750	18.750	3.3103e-02
 7.750	19.000	2.9667e-02
 7.750	19.250	2.7421e-02
 7.750	19.500	2.6275e-02
 7.750	19.750	2.5667e-02
 7.750	20.000	2.5319e-02
 7.750	20.250	2.5170e-02
 7.750	20.500	2.5107e-02
 7.750	20.750	2.5079e-02
 7.750	21.000	2.5066e-02
 7.750	21.250	2.5060e-02
 7.750	21.500	2.5056e-02
 7.750	21.750	2.5054e-02
 7.750	22.000	2.5053e-02
 7.750	22.250	2.5053e-02
 7.750	22.500	2.5053e-02
 7.750	22.750	2.5052e-02
 7.750	23.000	2.5052e-02
 7.750	23.250	2.5052e-02
 7.750	23.500	2.5052e-02
 7.750	23.750	2.5052e-02
 7.750	24.000	2.5052e-02
 8.000	17.000	1.9724e-02
 8.000	17.250	2.4904e-02
 8.000	17.500	3.3640e-02
 8.000	17.750	4.2919e-02
 8.000	18.000	4.5215e-02
 8.000	18.250	4.7668e-02
 8.000	18.500	4.3720e-02
 8.000	18.750	3.8301e-02
 8.000	19.000	3.3093e-02
 8.000	19.250	2.9660e-02
 8.000	19.500	2.7418e-02
 8.000	19.750	2.6274e-02
 8.000	20.000	2.5667e-02
 8.000	20.250	2.5319e-02
 8.000	20.500	2.5170e-02
 8.000	20.750	2.5107e-02
 8.000	21.000	2.5079e-02
 8.000	21.250	2.5066e-02
 8.000	21.500	2.5059e-02
 8.000	21.750	2.5056e-02
 8.000	22.000	2.5054e-02
 8.000	22.250	2.5053e-02
 8.000	22.500	2.5053e-02
 8.000	22.750	2.5052e-02
 8.000	23.000	2.5052e-02
 8.000	23.250	2.5052e-02
 8.000	23.500	2.5052e-02
 8.000	23.750	2.5052e-02
 8.000	24.000	2.5054e-02
 8.250	17.000	1.4582e-02
 8.250	17.250	1.7289e-02
 8.250	17.500	2.2748e-02
 8.250	17.750	3.1833e-02
 8.250	18.000	4.1373e-02
 8.250	18.250	4.4705e-02
 8.250	18.500	4.7632e-02
 8.250	18.750	4.3755e-02
 8.250	19.000	3.8322e-02
 8.250	19.250	3.3090e-02
 8.250	19.500	2.9656e-02
 8.250	19.750	2.7416e-02
 8.250	20.000	2.6274e-02
 8.250	20.250	2.5667e-02
 8.250	20.500	2.5319e-02
 8.250	20.750	2.5170e-02
 8.250	21.000	2.5107e-02
 8.250	21.250	2.5079e-02
 8.250	21.500	2.5066e-02
 8.250	21.750	2.5059e-02
 8.250	22.000	2.5056e-02
 8.250	22.250	2.5054e-02
 8.250	22.500	2.5053e-02
 8.250	22.750	2.5053e-02
 8.250	23.000	2.5053e-02
 8.250	23.250	2.5052e-02
 8.250	23.500	2.5052e-02
 8.250	23.750	2.5052e-02
 8.250	24.000	2.5052e-02
 8.500	17.000	1.1365e-02
 8.500	17.250	1.2756e-02
 8.500	17.500	1.5686e-02
 8.500	17.750	2.1289e-02
 8.500	18.000	3.0690e-02
 8.500	18.250	4.0396e-02
 8.500	18.500	4.4352e-02
 8.500	18.750	4.7616e-02
 8.500	19.000	4.3813e-02
 8.500	19.250	3.8354e-02
 8.500	19.500	3.3090e-02
 8.500	19.750	2.9654e-02
 8.500	20.000	2.7415e-02
 8.500	20.250	2.6273e-02
 8.500	20.500	2.5666e-02
 8.500	20.750	2.5319e-02
 8.500	21.000	2.5170e-02
 8.500	21.250	2.5107e-02
 8.500	21.500	2.5079e-02
 8.500	21.750	2.5066e-02
 8.500	22.000	2.5059e-02
 8.500	22.250	2.5056e-02
 8.500	22.500	2.5054e-02
 8.500	22.750	2.5054e-02
 8.500	23.000	2.5053e-02
 8.500	23.250	2.5052e-02
 8.500	23.500	2.5052e-02
 8.500	23.750	2.5052e-02
 8.500	24.000	2.5052e-02
 8.750	17.000	9.3239e-03
 8.750	17.250	1.0042e-02
 8.750	17.500	1.1615e-02
 8.750	17.750	1.4683e-02
 8.750	18.000	2.0520e-02
 8.750	18.250	3.0156e-02
 8.750	18.500	3.9817e-02
 8.750	18.750	4.4130e-02
 8.750	19.000	4.7604e-02
 8.750	19.250	4.3884e-02
 8.750	19.500	3.8394e-02
 8.750	19.750	3.3093e-02
 8.750	20.000	2.9652e-02
 8.750	20.250	2.7414e-02
 8.750	20.500	2.6273e-02
 8.750	20.750	2.5666e-02
 8.750	21.000	2.5319e-02
 8.750	21.250	2.5170e-02
 8.750	21.500	2.5107e-02
 8.750	21.750	2.5079e-02
 8.750	22.000	2.5066e-02
 8.750	22.250	2.5059e-02
 8.750	22.500	2.5056e-02
 8.750	22.750	2.5054e-02
 8.750	23.000	2.5053e-02
 8.750	23.250	2.5053e-02
 8.750	23.500	2.5052e-02
 8.750	23.750	2.5052e-02
 8.750	24.000	2.5052e-02
 9.000	17.000	8.0013e-03
 9.000	17.250	8.3843e-03
 9.000	17.500	9.2538e-03
 9.000	17.750	1.0959e-02
 9.000	18.000	1.4233e-02
 9.000	18.250	2.0402e-02
 9.000	18.500	3.0360e-02
 9.000	18.750	3.9557e-02
 9.000	19.000	4.3960e-02
 9.000	19.250	4.7582e-02
 9.000	19.500	4.3954e-02
 9.000	19.750	3.8437e-02
 9.000	20.000	3.3097e-02
 9.000	20.250	2.9651e-02
 9.000	20.500	2.7414e-02
 9.000	20.750	2.6273e-02
 9.000	21.000	2.5666e-02
 9.000	21.250	2.5319e-02
 9.000	21.500	2.5170e-02
 9.000	21.750	2.5107e-02
 9.000	22.000	2.5079e-02
 9.000	22.250	2.5066e-02
 9.000	22.500	2.5059e-02
 9.000	22.750	2.5056e-02
 9.000	23.000	2.5054e-02
 9.000	23.250	2.5053e-02
 9.000	23.500	2.5053e-02
 9.000	23.750	2.5052e-02
 9.000	24.000	2.5053e-02
 9.250	17.000	7.1258e-03
 9.250	17.250	7.3204e-03
 9.250	17.500	7.8466e-03
 9.250	17.750	8.8662e-03
 9.250	18.000	1.0820e-02
 9.250	18.250	1.4484e-02
 9.250	18.500	2.1260e-02
 9.250	18.750	3.1558e-02
 9.250	19.000	3.9236e-02
 9.250	19.250	4.3806e-02
 9.250	19.500	4.7542e-02
 9.250	19.750	4.4016e-02
 9.250	20.000	3.8478e-02
 9.250	20.250	3.3101e-02
 9.250	20.500	2.9650e-02
 9.250	20.750	2.7413e-02
 9.250	21.000	2.6273e-02
 9.250	21.250	2.5666e-02
 9.250	21.500	2.5315e-02
 9.250	21.750	2.5166e-02
 9.250	22.000	2.5102e-02
 9.250	22.250	2.5075e-02
 9.250	22.500	2.5065e-02
 9.250	22.750	2.5059e-02
 9.250	23.000	2.5056e-02
 9.250	23.250	2.5054e-02
 9.250	23.500	2.5053e-02
 9.250	23.750	2.5052e-02
 9.250	24.000	2.5052e-02
 9.500	17.000	6.5588e-03
 9.500	17.250	6.6086e-03
 9.500	17.500	6.9630e-03
 9.500	17.750	7.6757e-03
 9.500	18.000	8.9499e-03
 9.500	18.250	1.1253e-02
 9.500	18.500	1.5527e-02
 9.500	18.750	2.3255e-02
 9.500	19.000	3.3507e-02
 9.500	19.250	3.8929e-02
 9.500	19.500	4.3637e-02
 9.500	19.750	4.7484e-02
 9.500	20.000	4.4057e-02
 9.500	20.250	3.8513e-02
 9.500	20.500	3.3105e-02
 9.500	20.750	2.9649e-02
 9.500	21.000	2.7409e-02
 9.500	21.250	2.6268e-02
 9.500	21.500	2.5661e-02
 9.500	21.750	2.5312e-02
 9.500	22.000	2.5162e-02
 9.500	22.250	2.5099e-02
 9.500	22.500	2.5071e-02
 9.500	22.750	2.5059e-02
 9.500	23.000	2.5052e-02
 9.500	23.250	2.5048e-02
 9.500	23.500	2.5047e-02
 9.500	23.750	2.5046e-02
 9.500	24.000	2.5046e-02
 9.750	17.000	6.2757e-03
 9.750	17.250	6.1283e-03
 9.750	17.500	6.3502e-03
 9.750	17.750	6.9184e-03
 9.750	18.000	7.9094e-03
 9.750	18.250	9.5368e-03
 9.750	18.500	1.2349e-02
 9.750	18.750	1.7407e-02
 9.750	19.000	2.6068e-02
 9.750	19.250	3.5126e-02
 9.750	19.500	3.8666e-02
 9.750	19.750	4.3447e-02
 9.750	20.000	4.7408e-02
 9.750	20.250	4.4070e-02
 9.750	20.500	3.8541e-02
 9.750	20.750	3.3108e-02
 9.750	21.000	2.9649e-02
 9.750	21.250	2.7409e-02
 9.750	21.500	2.6268e-02
 9.750	21.750	2.5662e-02
 9.750	22.000	2.5313e-02
 9.750	22.250	2.5162e-02
 9.750	22.500	2.5099e-02
 9.750	22.750	2.5072e-02
 9.750	23.000	2.5058e-02
 9.750	23.250	2.5052e-02
 9.750	23.500	2.5048e-02
 9.750	23.750	2.5047e-02
 9.750	24.000	2.5046e-02
10.000	17.000	6.2904e-03
10.000	17.250	5.8787e-03
10.000	17.500	5.9017e-03
10.000	17.750	6.3598e-03
10.000	18.000	7.2696e-03
10.000	18.250	8.6051e-03
10.000	18.500	1.0647e-02
10.000	18.750	1.4085e-02
10.000	19.000	2.0162e-02
10.000	19.250	2.9284e-02
10.000	19.500	3.5635e-02
10.000	19.750	3.8529e-02
10.000	20.000	4.3245e-02
10.000	20.250	4.7331e-02
10.000	20.500	4.4068e-02
10.000	20.750	3.8563e-02
10.000	21.000	3.3110e-02
10.000	21.250	2.9649e-02
10.000	21.500	2.7411e-02
10.000	21.750	2.6269e-02
10.000	22.000	2.5662e-02
10.000	22.250	2.5314e-02
10.000	22.500	2.5164e-02
10.000	22.750	2.5099e-02
10.000	23.000	2.5072e-02
10.000	23.250	2.5059e-02
10.000	23.500	2.5052e-02
10.000	23.750	2.5048e-02
10.000	24.000	2.5046e-02
10.250	17.000	6.6393e-03
10.250	17.250	5.9148e-03
10.250	17.500	5.6865e-03
10.250	17.750	5.9862e-03
10.250	18.000	6.8230e-03
10.250	18.250	8.0337e-03
10.250	18.500	9.7174e-03
10.250	18.750	1.2316e-02
10.250	19.000	1.6717e-02
10.250	19.250	2.3506e-02
10.250	19.500	3.1623e-02
10.250	19.750	3.5846e-02
10.250	20.000	3.8561e-02
10.250	20.250	4.3199e-02
10.250	20.500	4.7280e-02
10.250	20.750	4.4050e-02
10.250	21.000	3.8576e-02
10.250	21.250	3.3112e-02
10.250	21.500	2.9649e-02
10.250	21.750	2.7411e-02
10.250	22.000	2.6271e-02
10.250	22.250	2.5662e-02
10.250	22.500	2.5314e-02
10.250	22.750	2.5164e-02
10.250	23.000	2.5100e-02
10.250	23.250	2.5071e-02
10.250	23.500	2.5058e-02
10.250	23.750	2.5052e-02
10.250	24.000	2.5049e-02
10.500	17.000	7.2903e-03
10.500	17.250	6.2860e-03
10.500	17.500	5.7708e-03
10.500	17.750	5.8671e-03
10.500	18.000	6.5424e-03
10.500	18.250	7.6519e-03
10.500	18.500	9.1006e-03
10.500	18.750	1.1089e-02
10.500	19.000	1.3964e-02
10.500	19.250	1.8469e-02
10.500	19.500	2.5536e-02
10.500	19.750	3.2423e-02
10.500	20.000	3.6052e-02
10.500	20.250	3.8840e-02
10.500	20.500	4.3401e-02
10.500	20.750	4.7373e-02
10.500	21.000	4.4026e-02
10.500	21.250	3.8583e-02
10.500	21.500	3.3112e-02
10.500	21.750	2.9649e-02
10.500	22.000	2.7411e-02
10.500	22.250	2.6272e-02
10.500	22.500	2.5664e-02
10.500	22.750	2.5314e-02
10.500	23.000	2.5165e-02
10.500	23.250	2.5101e-02
10.500	23.500	2.5072e-02
10.500	23.750	2.5059e-02
10.500	24.000	2.5052e-02
10.750	17.000	8.1932e-03
10.750	17.250	6.9631e-03
10.750	17.500	6.2156e-03
10.750	17.750	6.0862e-03
10.750	18.000	6.5095e-03
10.750	18.250	7.3376e-03
10.750	18.500	8.5096e-03
10.750	18.750	1.0027e-02
10.750	19.000	1.1938e-02
10.750	19.250	1.4948e-02
10.750	19.500	1.9961e-02
10.750	19.750	2.7346e-02
10.750	20.000	3.3488e-02
10.750	20.250	3.6558e-02
10.750	20.500	3.9510e-02
10.750	20.750	4.4089e-02
10.750	21.000	4.7651e-02
10.750	21.250	4.4016e-02
10.750	21.500	3.8581e-02
10.750	21.750	3.3111e-02
10.750	22.000	2.9649e-02
10.750	22.250	2.7411e-02
10.750	22.500	2.6273e-02
10.750	22.750	2.5666e-02
10.750	23.000	2.5315e-02
10.750	23.250	2.5166e-02
10.750	23.500	2.5102e-02
10.750	23.750	2.5073e-02
10.750	24.000	2.5060e-02
11.000	17.000	9.2956e-03
11.000	17.250	7.8907e-03
11.000	17.500	6.9795e-03
11.000	17.750	6.6644e-03
11.000	18.000	6.8055e-03
11.000	18.250	7.2463e-03
11.000	18.500	8.0430e-03
11.000	18.750	9.0768e-03
11.000	19.000	1.0450e-02
11.000	19.250	1.2479e-02
11.000	19.500	1.5860e-02
11.000	19.750	2.1388e-02
11.000	20.000	2.9140e-02
11.000	20.250	3.4301e-02
11.000	20.500	3.7685e-02
11.000	20.750	4.0720e-02
11.000	21.000	4.5455e-02
11.000	21.250	4.8235e-02
11.000	21.500	4.4055e-02
11.000	21.750	3.8574e-02
11.000	22.000	3.3109e-02
11.000	22.250	2.9649e-02
11.000	22.500	2.7410e-02
11.000	22.750	2.6273e-02
11.000	23.000	2.5667e-02
11.000	23.250	2.5315e-02
11.000	23.500	2.5166e-02
11.000	23.750	2.5102e-02
11.000	24.000	2.5074e-02
11.250	17.000	1.0504e-02
11.250	17.250	8.9916e-03
11.250	17.500	7.9711e-03
11.250	17.750	7.5337e-03
11.250	18.000	7.4356e-03
11.250	18.250	7.4904e-03
11.250	18.500	7.7369e-03
11.250	18.750	8.4051e-03
11.250	19.000	9.3599e-03
11.250	19.250	1.0762e-02
11.250	19.500	1.3024e-02
11.250	19.750	1.6764e-02
11.250	20.000	2.2799e-02
11.250	20.250	3.0845e-02
11.250	20.500	3.5286e-02
11.250	20.750	3.8969e-02
11.250	21.000	4.2724e-02
11.250	21.250	4.7812e-02
11.250	21.500	4.9264e-02
11.250	21.750	4.4184e-02
11.250	22.000	3.8561e-02
11.250	22.250	3.3105e-02
11.250	22.500	2.9649e-02
11.250	22.750	2.7409e-02
11.250	23.000	2.6273e-02
11.250	23.250	2.5667e-02
11.250	23.500	2.5317e-02
11.250	23.750	2.5166e-02
11.250	24.000	2.5103e-02
11.500	17.000	1.1662e-02
11.500	17.250	1.0184e-02
11.500	17.500	9.1133e-03
11.500	17.750	8.5838e-03
11.500	18.000	8.3084e-03
11.500	18.250	8.0529e-03
11.500	18.500	7.8756e-03
11.500	18.750	8.0667e-03
11.500	19.000	8.5962e-03
11.500	19.250	9.5719e-03
11.500	19.500	1.1060e-02
11.500	19.750	1.3556e-02
11.500	20.000	1.7683e-02
11.500	20.250	2.4292e-02
11.500	20.500	3.2652e-02
11.500	20.750	3.6872e-02
11.500	21.000	4.1233e-02
11.500	21.250	4.5947e-02
11.500	21.500	5.1622e-02
11.500	21.750	5.0460e-02
11.500	22.000	4.4443e-02
11.500	22.250	3.8547e-02
11.500	22.500	3.3100e-02
11.500	22.750	2.9650e-02
11.500	23.000	2.7409e-02
11.500	23.250	2.6273e-02
11.500	23.500	2.5667e-02
11.500	23.750	2.5318e-02
11.500	24.000	2.5167e-02
11.750	17.000	1.2395e-02
11.750	17.250	1.1244e-02
11.750	17.500	1.0259e-02
11.750	17.750	9.6970e-03
11.750	18.000	9.3127e-03
11.750	18.250	8.8537e-03
11.750	18.500	8.4109e-03
11.750	18.750	8.1116e-03
11.750	19.000	8.2338e-03
11.750	19.250	8.7297e-03
11.750	19.500	9.7156e-03
11.750	19.750	1.1335e-02
11.750	20.000	1.4082e-02
11.750	20.250	1.8644e-02
11.750	20.500	2.5893e-02
11.750	20.750	3.4213e-02
11.750	21.000	3.9101e-02
11.750	21.250	4.4811e-02
11.750	21.500	5.0788e-02
11.750	21.750	5.6493e-02
11.750	22.000	5.1811e-02
11.750	22.250	4.4822e-02
11.750	22.500	3.8540e-02
11.750	22.750	3.3094e-02
11.750	23.000	2.9650e-02
11.750	23.250	2.7408e-02
11.750	23.500	2.6284e-02
11.750	23.750	2.5667e-02
11.750	24.000	2.5319e-02
12.000	17.000	1.1582e-02
12.000	17.250	1.1606e-02
12.000	17.500	1.1053e-02
12.000	17.750	1.0639e-02
12.000	18.000	1.0271e-02
12.000	18.250	9.7685e-03
12.000	18.500	9.1696e-03
12.000	18.750	8.5658e-03
12.000	19.000	8.2721e-03
12.000	19.250	8.2570e-03
12.000	19.500	8.7888e-03
12.000	19.750	9.8227e-03
12.000	20.000	1.1607e-02
12.000	20.250	1.4643e-02
12.000	20.500	1.9676e-02
12.000	20.750	2.7707e-02
12.000	21.000	3.7321e-02
12.000	21.250	4.2811e-02
12.000	21.500	5.0123e-02
12.000	21.750	5.7221e-02
12.000	22.000	6.0898e-02
12.000	22.250	5.3076e-02
12.000	22.500	4.5289e-02
12.000	22.750	3.8545e-02
12.000	23.000	3.3087e-02
12.000	23.250	2.9651e-02
12.000	23.500	2.7407e-02
12.000	23.750	2.6272e-02
12.000	24.000	2.5667e-02
12.250	17.000	7.5377e-03
12.250	17.250	9.4897e-03
12.250	17.500	1.0647e-02
12.250	17.750	1.0933e-02
12.250	18.000	1.0898e-02
12.250	18.250	1.0553e-02
12.250	18.500	9.9486e-03
12.250	18.750	9.2393e-03
12.250	19.000	8.6640e-03
12.250	19.250	8.2290e-03
12.250	19.500	8.2573e-03
12.250	19.750	8.8149e-03
12.250	20.000	9.9235e-03
12.250	20.250	1.1907e-02
12.250	20.500	1.5269e-02
12.250	20.750	2.0871e-02
12.250	21.000	3.0260e-02
12.250	21.250	4.1064e-02
12.250	21.500	4.7848e-02
12.250	21.750	5.6637e-02
12.250	22.000	6.4607e-02
12.250	22.250	6.4197e-02
12.250	22.500	5.4432e-02
12.250	22.750	4.5818e-02
12.250	23.000	3.8568e-02
12.250	23.250	3.3080e-02
12.250	23.500	2.9651e-02
12.250	23.750	2.7405e-02
12.250	24.000	2.6272e-02
12.500	17.000	6.7765e-03
12.500	17.250	7.0988e-03
12.500	17.500	7.4161e-03
12.500	17.750	9.6160e-03
12.500	18.000	1.0593e-02
12.500	18.250	1.0727e-02
12.500	18.500	1.0391e-02
12.500	18.750	9.8195e-03
12.500	19.000	9.1398e-03
12.500	19.250	8.5517e-03
12.500	19.500	8.1589e-03
12.500	19.750	8.2160e-03
12.500	20.000	8.8257e-03
12.500	20.250	1.0043e-02
12.500	20.500	1.2267e-02
12.500	20.750	1.6091e-02
12.500	21.000	2.2660e-02
12.500	21.250	3.3872e-02
12.500	21.500	4.6060e-02
12.500	21.750	5.4479e-02
12.500	22.000	6.5104e-02
12.500	22.250	7.1912e-02
12.500	22.500	6.7554e-02
12.500	22.750	5.5911e-02
12.500	23.000	4.6386e-02
12.500	23.250	3.8611e-02
12.500	23.500	3.3074e-02
12.500	23.750	2.9651e-02
12.500	24.000	2.7403e-02
12.750	17.000	6.0400e-03
12.750	17.250	6.4774e-03
12.750	17.500	6.8832e-03
12.750	17.750	7.2166e-03
12.750	18.000	7.5860e-03
12.750	18.250	9.3157e-03
12.750	18.500	9.9092e-03
12.750	18.750	9.9049e-03
12.750	19.000	9.5221e-03
12.750	19.250	8.9856e-03
12.750	19.500	8.3872e-03
12.750	19.750	8.0351e-03
12.750	20.000	8.0928e-03
12.750	20.250	8.8166e-03
12.750	20.500	1.0216e-02
12.750	20.750	1.2776e-02
12.750	21.000	1.7213e-02
12.750	21.250	2.5178e-02
12.750	21.500	3.8394e-02
12.750	21.750	5.2789e-02
12.750	22.000	6.2985e-02
12.750	22.250	7.4519e-02
12.750	22.500	7.8960e-02
12.750	22.750	7.0623e-02
12.750	23.000	5.7520e-02
12.750	23.250	4.6904e-02
12.750	23.500	3.8647e-02
12.750	23.750	3.3070e-02
12.750	24.000	2.9651e-02
13.000	17.000	9.6294e-03
13.000	17.250	6.5247e-03
13.000	17.500	6.2374e-03
13.000	17.750	6.6047e-03
13.000	18.000	6.9443e-03
13.000	18.250	7.1947e-03
13.000	18.500	7.2890e-03
13.000	18.750	8.2909e-03
13.000	19.000	9.1139e-03
13.000	19.250	9.0880e-03
13.000	19.500	8.6821e-03
13.000	19.750	8.1760e-03
13.000	20.000	7.8718e-03
13.000	20.250	7.9779e-03
13.000	20.500	8.8409e-03
13.000	20.750	1.0474e-02
13.000	21.000	1.3581e-02
13.000	21.250	1.8961e-02
13.000	21.500	2.7935e-02
13.000	21.750	4.4903e-02
13.000	22.000	6.1273e-02
13.000	22.250	7.1330e-02
13.000	22.500	8.2994e-02
13.000	22.750	8.5540e-02
13.000	23.000	7.4036e-02
13.000	23.250	5.9059e-02
13.000	23.500	4.7416e-02
13.000	23.750	3.8715e-02
13.000	24.000	3.3070e-02
13.250	17.000	9.0412e-03
13.250	17.250	8.3459e-03
13.250	17.500	5.6986e-03
13.250	17.750	6.0420e-03
13.250	18.000	6.4140e-03
13.250	18.250	6.7603e-03
13.250	18.500	6.9910e-03
13.250	18.750	7.0675e-03
13.250	19.000	7.0012e-03
13.250	19.250	7.9212e-03
13.250	19.500	8.4984e-03
13.250	19.750	8.3199e-03
13.250	20.000	7.9311e-03
13.250	20.250	7.6868e-03
13.250	20.500	7.8843e-03
13.250	20.750	8.8250e-03
13.250	21.000	1.0752e-02
13.250	21.250	1.4326e-02
13.250	21.500	2.0184e-02
13.250	21.750	3.1577e-02
13.250	22.000	5.0741e-02
13.250	22.250	6.7094e-02
13.250	22.500	7.9699e-02
13.250	22.750	9.0717e-02
13.250	23.000	9.2197e-02
13.250	23.250	7.6949e-02
13.250	23.500	6.0371e-02
13.250	23.750	4.7868e-02
13.250	24.000	3.8810e-02
13.500	17.000	8.5166e-03
13.500	17.250	8.1794e-03
13.500	17.500	5.2495e-03
13.500	17.750	5.5551e-03
13.500	18.000	5.9205e-03
13.500	18.250	6.2983e-03
13.500	18.500	6.6049e-03
13.500	18.750	6.7857e-03
13.500	19.000	6.8359e-03
13.500	19.250	6.7658e-03
13.500	19.500	6.5933e-03
13.500	19.750	7.6958e-03
13.500	20.000	7.8703e-03
13.500	20.250	7.6526e-03
13.500	20.500	7.4906e-03
13.500	20.750	7.7312e-03
13.500	21.000	8.6566e-03
13.500	21.250	1.0892e-02
13.500	21.500	1.4420e-02
13.500	21.750	2.0434e-02
13.500	22.000	3.2211e-02
13.500	22.250	5.5560e-02
13.500	22.500	7.4326e-02
13.500	22.750	8.7827e-02
13.500	23.000	9.8297e-02
13.500	23.250	9.9045e-02
13.500	23.500	7.9944e-02
13.500	23.750	6.2184e-02
13.500	24.000	4.8271e-02
13.750	17.000	7.9980e-03
13.750	17.250	7.6026e-03
13.750	17.500	5.0279e-03
13.750	17.750	5.1223e-03
13.750	18.000	5.4684e-03
13.750	18.250	5.8505e-03
13.750	18.500	6.1885e-03
13.750	18.750	6.4288e-03
13.750	19.000	6.5624e-03
13.750	19.250	6.5937e-03
13.750	19.500	6.5281e-03
13.750	19.750	6.3788e-03
13.750	20.000	6.4591e-03
13.750	20.250	7.3421e-03
13.750	20.500	7.3683e-03
13.750	20.750	7.3516e-03
13.750	21.000	7.6644e-03
13.750	21.250	8.6505e-03
13.750	21.500	1.0655e-02
13.750	21.750	1.4217e-02
13.750	22.000	2.0841e-02
13.750	22.250	3.4854e-02
13.750	22.500	6.3002e-02
13.750	22.750	8.4633e-02
13.750	23.000	9.8118e-02
13.750	23.250	1.0814e-01
13.750	23.500	1.0617e-01
13.750	23.750	8.3241e-02
13.750	24.000	6.3336e-02
14.000	17.000	7.2928e-03
14.000	17.250	7.5054e-03
14.000	17.500	5.2477e-03
14.000	17.750	4.7193e-03
14.000	18.000	5.0471e-03
14.000	18.250	5.4179e-03
14.000	18.500	5.7681e-03
14.000	18.750	6.0413e-03
14.000	19.000	6.2270e-03
14.000	19.250	6.3309e-03
14.000	19.500	6.3597e-03
14.000	19.750	6.3133e-03
14.000	20.000	6.2022e-03
14.000	20.250	6.0578e-03
14.000	20.500	6.6642e-03
14.000	20.750	7.1239e-03
14.000	21.000	7.3421e-03
14.000	21.250	7.8612e-03
14.000	21.500	8.9459e-03
14.000	21.750	1.1137e-02
14.000	22.000	1.5189e-02
14.000	22.250	2.3118e-02
14.000	22.500	4.1354e-02
14.000	22.750	7.6410e-02
14.000	23.000	9.8068e-02
14.000	23.250	1.1218e-01
14.000	23.500	1.1997e-01
14.000	23.750	1.1377e-01
14.000	24.000	8.6131e-02
