InwT 1073.86A  relative to Inci 1215.00A scaled to 1215A.
Hden   Phi(H)  Eq_Width (A)
 7.000	17.000	3.8960e-02
 7.000	17.250	3.8700e-02
 7.000	17.500	3.5403e-02
 7.000	17.750	3.1991e-02
 7.000	18.000	2.9179e-02
 7.000	18.250	2.7387e-02
 7.000	18.500	2.6250e-02
 7.000	18.750	2.5691e-02
 7.000	19.000	2.5397e-02
 7.000	19.250	2.5230e-02
 7.000	19.500	2.5159e-02
 7.000	19.750	2.5129e-02
 7.000	20.000	2.5116e-02
 7.000	20.250	2.5110e-02
 7.000	20.500	2.5107e-02
 7.000	20.750	2.5105e-02
 7.000	21.000	2.5104e-02
 7.000	21.250	2.5104e-02
 7.000	21.500	2.5104e-02
 7.000	21.750	2.5104e-02
 7.000	22.000	2.5104e-02
 7.000	22.250	2.5104e-02
 7.000	22.500	2.5104e-02
 7.000	22.750	2.5104e-02
 7.000	23.000	2.5104e-02
 7.000	23.250	2.5104e-02
 7.000	23.500	2.5104e-02
 7.000	23.750	2.5104e-02
 7.000	24.000	2.5104e-02
 7.250	17.000	3.9934e-02
 7.250	17.250	3.8326e-02
 7.250	17.500	3.8509e-02
 7.250	17.750	3.5310e-02
 7.250	18.000	3.1944e-02
 7.250	18.250	2.9153e-02
 7.250	18.500	2.7374e-02
 7.250	18.750	2.6245e-02
 7.250	19.000	2.5689e-02
 7.250	19.250	2.5396e-02
 7.250	19.500	2.5230e-02
 7.250	19.750	2.5159e-02
 7.250	20.000	2.5129e-02
 7.250	20.250	2.5116e-02
 7.250	20.500	2.5110e-02
 7.250	20.750	2.5107e-02
 7.250	21.000	2.5105e-02
 7.250	21.250	2.5104e-02
 7.250	21.500	2.5104e-02
 7.250	21.750	2.5104e-02
 7.250	22.000	2.5106e-02
 7.250	22.250	2.5104e-02
 7.250	22.500	2.5104e-02
 7.250	22.750	2.5104e-02
 7.250	23.000	2.5104e-02
 7.250	23.250	2.5105e-02
 7.250	23.500	2.5104e-02
 7.250	23.750	2.5105e-02
 7.250	24.000	2.5104e-02
 7.500	17.000	4.3905e-02
 7.500	17.250	3.8429e-02
 7.500	17.500	3.7794e-02
 7.500	17.750	3.8403e-02
 7.500	18.000	3.5264e-02
 7.500	18.250	3.1919e-02
 7.500	18.500	2.9137e-02
 7.500	18.750	2.7366e-02
 7.500	19.000	2.6242e-02
 7.500	19.250	2.5688e-02
 7.500	19.500	2.5396e-02
 7.500	19.750	2.5230e-02
 7.500	20.000	2.5159e-02
 7.500	20.250	2.5129e-02
 7.500	20.500	2.5116e-02
 7.500	20.750	2.5110e-02
 7.500	21.000	2.5107e-02
 7.500	21.250	2.5105e-02
 7.500	21.500	2.5104e-02
 7.500	21.750	2.5104e-02
 7.500	22.000	2.5104e-02
 7.500	22.250	2.5103e-02
 7.500	22.500	2.5103e-02
 7.500	22.750	2.5103e-02
 7.500	23.000	2.5103e-02
 7.500	23.250	2.5103e-02
 7.500	23.500	2.5103e-02
 7.500	23.750	2.5104e-02
 7.500	24.000	2.5104e-02
 7.750	17.000	4.7351e-02
 7.750	17.250	4.2064e-02
 7.750	17.500	3.7103e-02
 7.750	17.750	3.7369e-02
 7.750	18.000	3.8348e-02
 7.750	18.250	3.5247e-02
 7.750	18.500	3.1910e-02
 7.750	18.750	2.9128e-02
 7.750	19.000	2.7361e-02
 7.750	19.250	2.6240e-02
 7.750	19.500	2.5687e-02
 7.750	19.750	2.5395e-02
 7.750	20.000	2.5230e-02
 7.750	20.250	2.5159e-02
 7.750	20.500	2.5129e-02
 7.750	20.750	2.5116e-02
 7.750	21.000	2.5110e-02
 7.750	21.250	2.5107e-02
 7.750	21.500	2.5105e-02
 7.750	21.750	2.5104e-02
 7.750	22.000	2.5104e-02
 7.750	22.250	2.5103e-02
 7.750	22.500	2.5103e-02
 7.750	22.750	2.5103e-02
 7.750	23.000	2.5104e-02
 7.750	23.250	2.5103e-02
 7.750	23.500	2.5103e-02
 7.750	23.750	2.5103e-02
 7.750	24.000	2.5103e-02
 8.000	17.000	4.9595e-02
 8.000	17.250	4.5380e-02
 8.000	17.500	4.0596e-02
 8.000	17.750	3.6094e-02
 8.000	18.000	3.7023e-02
 8.000	18.250	3.8322e-02
 8.000	18.500	3.5250e-02
 8.000	18.750	3.1911e-02
 8.000	19.000	2.9123e-02
 8.000	19.250	2.7358e-02
 8.000	19.500	2.6239e-02
 8.000	19.750	2.5687e-02
 8.000	20.000	2.5395e-02
 8.000	20.250	2.5229e-02
 8.000	20.500	2.5159e-02
 8.000	20.750	2.5129e-02
 8.000	21.000	2.5116e-02
 8.000	21.250	2.5110e-02
 8.000	21.500	2.5107e-02
 8.000	21.750	2.5105e-02
 8.000	22.000	2.5104e-02
 8.000	22.250	2.5104e-02
 8.000	22.500	2.5103e-02
 8.000	22.750	2.5103e-02
 8.000	23.000	2.5103e-02
 8.000	23.250	2.5103e-02
 8.000	23.500	2.5103e-02
 8.000	23.750	2.5103e-02
 8.000	24.000	2.5106e-02
 8.250	17.000	5.0779e-02
 8.250	17.250	4.7883e-02
 8.250	17.500	4.3897e-02
 8.250	17.750	3.9485e-02
 8.250	18.000	3.5372e-02
 8.250	18.250	3.6809e-02
 8.250	18.500	3.8307e-02
 8.250	18.750	3.5264e-02
 8.250	19.000	3.1917e-02
 8.250	19.250	2.9121e-02
 8.250	19.500	2.7357e-02
 8.250	19.750	2.6238e-02
 8.250	20.000	2.5686e-02
 8.250	20.250	2.5395e-02
 8.250	20.500	2.5229e-02
 8.250	20.750	2.5159e-02
 8.250	21.000	2.5129e-02
 8.250	21.250	2.5116e-02
 8.250	21.500	2.5110e-02
 8.250	21.750	2.5107e-02
 8.250	22.000	2.5105e-02
 8.250	22.250	2.5104e-02
 8.250	22.500	2.5104e-02
 8.250	22.750	2.5104e-02
 8.250	23.000	2.5104e-02
 8.250	23.250	2.5103e-02
 8.250	23.500	2.5103e-02
 8.250	23.750	2.5103e-02
 8.250	24.000	2.5103e-02
 8.500	17.000	5.1246e-02
 8.500	17.250	4.9394e-02
 8.500	17.500	4.6607e-02
 8.500	17.750	4.2678e-02
 8.500	18.000	3.8564e-02
 8.500	18.250	3.4848e-02
 8.500	18.500	3.6661e-02
 8.500	18.750	3.8301e-02
 8.500	19.000	3.5288e-02
 8.500	19.250	3.1928e-02
 8.500	19.500	2.9120e-02
 8.500	19.750	2.7355e-02
 8.500	20.000	2.6238e-02
 8.500	20.250	2.5686e-02
 8.500	20.500	2.5395e-02
 8.500	20.750	2.5229e-02
 8.500	21.000	2.5159e-02
 8.500	21.250	2.5129e-02
 8.500	21.500	2.5116e-02
 8.500	21.750	2.5110e-02
 8.500	22.000	2.5107e-02
 8.500	22.250	2.5105e-02
 8.500	22.500	2.5104e-02
 8.500	22.750	2.5104e-02
 8.500	23.000	2.5103e-02
 8.500	23.250	2.5103e-02
 8.500	23.500	2.5103e-02
 8.500	23.750	2.5103e-02
 8.500	24.000	2.5103e-02
 8.750	17.000	5.1311e-02
 8.750	17.250	5.0180e-02
 8.750	17.500	4.8362e-02
 8.750	17.750	4.5495e-02
 8.750	18.000	4.1613e-02
 8.750	18.250	3.7663e-02
 8.750	18.500	3.4438e-02
 8.750	18.750	3.6566e-02
 8.750	19.000	3.8296e-02
 8.750	19.250	3.5318e-02
 8.750	19.500	3.1942e-02
 8.750	19.750	2.9120e-02
 8.750	20.000	2.7355e-02
 8.750	20.250	2.6238e-02
 8.750	20.500	2.5686e-02
 8.750	20.750	2.5395e-02
 8.750	21.000	2.5229e-02
 8.750	21.250	2.5159e-02
 8.750	21.500	2.5129e-02
 8.750	21.750	2.5116e-02
 8.750	22.000	2.5110e-02
 8.750	22.250	2.5107e-02
 8.750	22.500	2.5105e-02
 8.750	22.750	2.5104e-02
 8.750	23.000	2.5104e-02
 8.750	23.250	2.5103e-02
 8.750	23.500	2.5103e-02
 8.750	23.750	2.5103e-02
 8.750	24.000	2.5103e-02
 9.000	17.000	5.1092e-02
 9.000	17.250	5.0504e-02
 9.000	17.500	4.9373e-02
 9.000	17.750	4.7428e-02
 9.000	18.000	4.4344e-02
 9.000	18.250	4.0242e-02
 9.000	18.500	3.6517e-02
 9.000	18.750	3.3953e-02
 9.000	19.000	3.6489e-02
 9.000	19.250	3.8284e-02
 9.000	19.500	3.5347e-02
 9.000	19.750	3.1957e-02
 9.000	20.000	2.9121e-02
 9.000	20.250	2.7354e-02
 9.000	20.500	2.6237e-02
 9.000	20.750	2.5686e-02
 9.000	21.000	2.5395e-02
 9.000	21.250	2.5229e-02
 9.000	21.500	2.5159e-02
 9.000	21.750	2.5129e-02
 9.000	22.000	2.5116e-02
 9.000	22.250	2.5110e-02
 9.000	22.500	2.5107e-02
 9.000	22.750	2.5105e-02
 9.000	23.000	2.5104e-02
 9.000	23.250	2.5104e-02
 9.000	23.500	2.5103e-02
 9.000	23.750	2.5103e-02
 9.000	24.000	2.5104e-02
 9.250	17.000	5.0638e-02
 9.250	17.250	5.0463e-02
 9.250	17.500	4.9868e-02
 9.250	17.750	4.8590e-02
 9.250	18.000	4.6308e-02
 9.250	18.250	4.2812e-02
 9.250	18.500	3.8520e-02
 9.250	18.750	3.4871e-02
 9.250	19.000	3.3780e-02
 9.250	19.250	3.6411e-02
 9.250	19.500	3.8264e-02
 9.250	19.750	3.5372e-02
 9.250	20.000	3.1972e-02
 9.250	20.250	2.9122e-02
 9.250	20.500	2.7354e-02
 9.250	20.750	2.6237e-02
 9.250	21.000	2.5686e-02
 9.250	21.250	2.5395e-02
 9.250	21.500	2.5226e-02
 9.250	21.750	2.5154e-02
 9.250	22.000	2.5124e-02
 9.250	22.250	2.5112e-02
 9.250	22.500	2.5109e-02
 9.250	22.750	2.5106e-02
 9.250	23.000	2.5105e-02
 9.250	23.250	2.5104e-02
 9.250	23.500	2.5103e-02
 9.250	23.750	2.5103e-02
 9.250	24.000	2.5103e-02
 9.500	17.000	4.9989e-02
 9.500	17.250	5.0101e-02
 9.500	17.500	4.9933e-02
 9.500	17.750	4.9213e-02
 9.500	18.000	4.7601e-02
 9.500	18.250	4.4833e-02
 9.500	18.500	4.0951e-02
 9.500	18.750	3.6675e-02
 9.500	19.000	3.3469e-02
 9.500	19.250	3.3587e-02
 9.500	19.500	3.6318e-02
 9.500	19.750	3.8234e-02
 9.500	20.000	3.5389e-02
 9.500	20.250	3.1984e-02
 9.500	20.500	2.9123e-02
 9.500	20.750	2.7352e-02
 9.500	21.000	2.6233e-02
 9.500	21.250	2.5682e-02
 9.500	21.500	2.5390e-02
 9.500	21.750	2.5223e-02
 9.500	22.000	2.5151e-02
 9.500	22.250	2.5121e-02
 9.500	22.500	2.5108e-02
 9.500	22.750	2.5102e-02
 9.500	23.000	2.5099e-02
 9.500	23.250	2.5097e-02
 9.500	23.500	2.5097e-02
 9.500	23.750	2.5097e-02
 9.500	24.000	2.5096e-02
 9.750	17.000	4.9244e-02
 9.750	17.250	4.9477e-02
 9.750	17.500	4.9615e-02
 9.750	17.750	4.9348e-02
 9.750	18.000	4.8326e-02
 9.750	18.250	4.6259e-02
 9.750	18.500	4.3128e-02
 9.750	18.750	3.9103e-02
 9.750	19.000	3.5036e-02
 9.750	19.250	3.2198e-02
 9.750	19.500	3.3414e-02
 9.750	19.750	3.6208e-02
 9.750	20.000	3.8196e-02
 9.750	20.250	3.5394e-02
 9.750	20.500	3.1994e-02
 9.750	20.750	2.9123e-02
 9.750	21.000	2.7353e-02
 9.750	21.250	2.6233e-02
 9.750	21.500	2.5682e-02
 9.750	21.750	2.5391e-02
 9.750	22.000	2.5224e-02
 9.750	22.250	2.5151e-02
 9.750	22.500	2.5122e-02
 9.750	22.750	2.5108e-02
 9.750	23.000	2.5102e-02
 9.750	23.250	2.5099e-02
 9.750	23.500	2.5097e-02
 9.750	23.750	2.5096e-02
 9.750	24.000	2.5096e-02
10.000	17.000	4.8501e-02
10.000	17.250	4.8705e-02
10.000	17.500	4.8963e-02
10.000	17.750	4.9002e-02
10.000	18.000	4.8473e-02
10.000	18.250	4.7115e-02
10.000	18.500	4.4804e-02
10.000	18.750	4.1517e-02
10.000	19.000	3.7457e-02
10.000	19.250	3.3575e-02
10.000	19.500	3.1740e-02
10.000	19.750	3.3329e-02
10.000	20.000	3.6083e-02
10.000	20.250	3.8156e-02
10.000	20.500	3.5392e-02
10.000	20.750	3.2002e-02
10.000	21.000	2.9124e-02
10.000	21.250	2.7353e-02
10.000	21.500	2.6235e-02
10.000	21.750	2.5682e-02
10.000	22.000	2.5391e-02
10.000	22.250	2.5225e-02
10.000	22.500	2.5152e-02
10.000	22.750	2.5121e-02
10.000	23.000	2.5108e-02
10.000	23.250	2.5102e-02
10.000	23.500	2.5099e-02
10.000	23.750	2.5097e-02
10.000	24.000	2.5096e-02
10.250	17.000	4.7874e-02
10.250	17.250	4.7903e-02
10.250	17.500	4.8115e-02
10.250	17.750	4.8266e-02
10.250	18.000	4.8088e-02
10.250	18.250	4.7401e-02
10.250	18.500	4.5945e-02
10.250	18.750	4.3535e-02
10.250	19.000	4.0156e-02
10.250	19.250	3.6065e-02
10.250	19.500	3.2097e-02
10.250	19.750	3.1912e-02
10.250	20.000	3.3365e-02
10.250	20.250	3.6055e-02
10.250	20.500	3.8128e-02
10.250	20.750	3.5383e-02
10.250	21.000	3.2006e-02
10.250	21.250	2.9124e-02
10.250	21.500	2.7353e-02
10.250	21.750	2.6236e-02
10.250	22.000	2.5684e-02
10.250	22.250	2.5391e-02
10.250	22.500	2.5225e-02
10.250	22.750	2.5153e-02
10.250	23.000	2.5122e-02
10.250	23.250	2.5108e-02
10.250	23.500	2.5102e-02
10.250	23.750	2.5099e-02
10.250	24.000	2.5098e-02
10.500	17.000	4.7343e-02
10.500	17.250	4.7197e-02
10.500	17.500	4.7207e-02
10.500	17.750	4.7289e-02
10.500	18.000	4.7260e-02
10.500	18.250	4.7058e-02
10.500	18.500	4.6445e-02
10.500	18.750	4.5008e-02
10.500	19.000	4.2643e-02
10.500	19.250	3.9333e-02
10.500	19.500	3.5215e-02
10.500	19.750	3.1387e-02
10.500	20.000	3.2051e-02
10.500	20.250	3.3558e-02
10.500	20.500	3.6174e-02
10.500	20.750	3.8171e-02
10.500	21.000	3.5371e-02
10.500	21.250	3.2008e-02
10.500	21.500	2.9125e-02
10.500	21.750	2.7352e-02
10.500	22.000	2.6236e-02
10.500	22.250	2.5685e-02
10.500	22.500	2.5393e-02
10.500	22.750	2.5225e-02
10.500	23.000	2.5154e-02
10.500	23.250	2.5123e-02
10.500	23.500	2.5109e-02
10.500	23.750	2.5102e-02
10.500	24.000	2.5099e-02
10.750	17.000	4.6842e-02
10.750	17.250	4.6553e-02
10.750	17.500	4.6359e-02
10.750	17.750	4.6230e-02
10.750	18.000	4.6185e-02
10.750	18.250	4.6278e-02
10.750	18.500	4.6295e-02
10.750	18.750	4.5726e-02
10.750	19.000	4.4352e-02
10.750	19.250	4.2029e-02
10.750	19.500	3.8650e-02
10.750	19.750	3.4418e-02
10.750	20.000	3.0690e-02
10.750	20.250	3.2385e-02
10.750	20.500	3.3998e-02
10.750	20.750	3.6585e-02
10.750	21.000	3.8303e-02
10.750	21.250	3.5366e-02
10.750	21.500	3.2007e-02
10.750	21.750	2.9124e-02
10.750	22.000	2.7353e-02
10.750	22.250	2.6236e-02
10.750	22.500	2.5686e-02
10.750	22.750	2.5395e-02
10.750	23.000	2.5225e-02
10.750	23.250	2.5154e-02
10.750	23.500	2.5124e-02
10.750	23.750	2.5110e-02
10.750	24.000	2.5103e-02
11.000	17.000	4.6168e-02
11.000	17.250	4.5869e-02
11.000	17.500	4.5517e-02
11.000	17.750	4.5196e-02
11.000	18.000	4.5047e-02
11.000	18.250	4.5186e-02
11.000	18.500	4.5485e-02
11.000	18.750	4.5624e-02
11.000	19.000	4.5129e-02
11.000	19.250	4.3820e-02
11.000	19.500	4.1523e-02
11.000	19.750	3.8098e-02
11.000	20.000	3.3606e-02
11.000	20.250	3.0993e-02
11.000	20.500	3.3139e-02
11.000	20.750	3.4765e-02
11.000	21.000	3.7394e-02
11.000	21.250	3.8581e-02
11.000	21.500	3.5381e-02
11.000	21.750	3.2004e-02
11.000	22.000	2.9124e-02
11.000	22.250	2.7353e-02
11.000	22.500	2.6235e-02
11.000	22.750	2.5686e-02
11.000	23.000	2.5395e-02
11.000	23.250	2.5226e-02
11.000	23.500	2.5155e-02
11.000	23.750	2.5124e-02
11.000	24.000	2.5111e-02
11.250	17.000	4.4957e-02
11.250	17.250	4.4889e-02
11.250	17.500	4.4505e-02
11.250	17.750	4.4092e-02
11.250	18.000	4.3872e-02
11.250	18.250	4.3921e-02
11.250	18.500	4.4221e-02
11.250	18.750	4.4729e-02
11.250	19.000	4.4982e-02
11.250	19.250	4.4559e-02
11.250	19.500	4.3342e-02
11.250	19.750	4.1101e-02
11.250	20.000	3.7651e-02
11.250	20.250	3.3053e-02
11.250	20.500	3.1568e-02
11.250	20.750	3.3930e-02
11.250	21.000	3.6010e-02
11.250	21.250	3.8786e-02
11.250	21.500	3.9069e-02
11.250	21.750	3.5435e-02
11.250	22.000	3.1999e-02
11.250	22.250	2.9123e-02
11.250	22.500	2.7353e-02
11.250	22.750	2.6235e-02
11.250	23.000	2.5686e-02
11.250	23.250	2.5395e-02
11.250	23.500	2.5228e-02
11.250	23.750	2.5155e-02
11.250	24.000	2.5125e-02
11.500	17.000	4.2844e-02
11.500	17.250	4.3210e-02
11.500	17.500	4.3047e-02
11.500	17.750	4.2683e-02
11.500	18.000	4.2497e-02
11.500	18.250	4.2533e-02
11.500	18.500	4.2787e-02
11.500	18.750	4.3336e-02
11.500	19.000	4.3948e-02
11.500	19.250	4.4299e-02
11.500	19.500	4.3983e-02
11.500	19.750	4.2907e-02
11.500	20.000	4.0801e-02
11.500	20.250	3.7359e-02
11.500	20.500	3.2763e-02
11.500	20.750	3.2561e-02
11.500	21.000	3.5357e-02
11.500	21.250	3.8000e-02
11.500	21.500	4.1054e-02
11.500	21.750	3.9626e-02
11.500	22.000	3.5544e-02
11.500	22.250	3.1994e-02
11.500	22.500	2.9122e-02
11.500	22.750	2.7353e-02
11.500	23.000	2.6235e-02
11.500	23.250	2.5686e-02
11.500	23.500	2.5396e-02
11.500	23.750	2.5229e-02
11.500	24.000	2.5155e-02
11.750	17.000	3.9746e-02
11.750	17.250	4.0471e-02
11.750	17.500	4.0745e-02
11.750	17.750	4.0678e-02
11.750	18.000	4.0721e-02
11.750	18.250	4.0973e-02
11.750	18.500	4.1256e-02
11.750	18.750	4.1660e-02
11.750	19.000	4.2335e-02
11.750	19.250	4.3053e-02
11.750	19.500	4.3527e-02
11.750	19.750	4.3407e-02
11.750	20.000	4.2558e-02
11.750	20.250	4.0618e-02
11.750	20.500	3.7259e-02
11.750	20.750	3.2834e-02
11.750	21.000	3.3948e-02
11.750	21.250	3.7619e-02
11.750	21.500	4.0969e-02
11.750	21.750	4.3919e-02
11.750	22.000	4.0245e-02
11.750	22.250	3.5701e-02
11.750	22.500	3.1991e-02
11.750	22.750	2.9120e-02
11.750	23.000	2.7354e-02
11.750	23.250	2.6234e-02
11.750	23.500	2.5697e-02
11.750	23.750	2.5396e-02
11.750	24.000	2.5229e-02
12.000	17.000	3.5647e-02
12.000	17.250	3.6610e-02
12.000	17.500	3.7348e-02
12.000	17.750	3.7920e-02
12.000	18.000	3.8522e-02
12.000	18.250	3.9081e-02
12.000	18.500	3.9476e-02
12.000	18.750	3.9803e-02
12.000	19.000	4.0340e-02
12.000	19.250	4.1105e-02
12.000	19.500	4.2031e-02
12.000	19.750	4.2721e-02
12.000	20.000	4.2879e-02
12.000	20.250	4.2318e-02
12.000	20.500	4.0612e-02
12.000	20.750	3.7399e-02
12.000	21.000	3.3472e-02
12.000	21.250	3.6326e-02
12.000	21.500	4.0956e-02
12.000	21.750	4.4882e-02
12.000	22.000	4.6329e-02
12.000	22.250	4.0809e-02
12.000	22.500	3.5891e-02
12.000	22.750	3.1991e-02
12.000	23.000	2.9118e-02
12.000	23.250	2.7354e-02
12.000	23.500	2.6233e-02
12.000	23.750	2.5685e-02
12.000	24.000	2.5396e-02
12.250	17.000	3.0936e-02
12.250	17.250	3.2065e-02
12.250	17.500	3.3253e-02
12.250	17.750	3.4610e-02
12.250	18.000	3.5850e-02
12.250	18.250	3.6676e-02
12.250	18.500	3.7211e-02
12.250	18.750	3.7644e-02
12.250	19.000	3.8124e-02
12.250	19.250	3.8816e-02
12.250	19.500	3.9819e-02
12.250	19.750	4.0988e-02
12.250	20.000	4.1930e-02
12.250	20.250	4.2420e-02
12.250	20.500	4.2210e-02
12.250	20.750	4.0853e-02
12.250	21.000	3.8131e-02
12.250	21.250	3.5561e-02
12.250	21.500	3.9527e-02
12.250	21.750	4.4966e-02
12.250	22.000	4.9306e-02
12.250	22.250	4.7935e-02
12.250	22.500	4.1403e-02
12.250	22.750	3.6103e-02
12.250	23.000	3.1997e-02
12.250	23.250	2.9116e-02
12.250	23.500	2.7355e-02
12.250	23.750	2.6233e-02
12.250	24.000	2.5685e-02
12.500	17.000	2.7693e-02
12.500	17.250	2.8519e-02
12.500	17.500	2.9833e-02
12.500	17.750	3.1439e-02
12.500	18.000	3.2756e-02
12.500	18.250	3.3684e-02
12.500	18.500	3.4373e-02
12.500	18.750	3.5034e-02
12.500	19.000	3.5664e-02
12.500	19.250	3.6350e-02
12.500	19.500	3.7266e-02
12.500	19.750	3.8514e-02
12.500	20.000	3.9936e-02
12.500	20.250	4.1164e-02
12.500	20.500	4.2053e-02
12.500	20.750	4.2357e-02
12.500	21.000	4.1649e-02
12.500	21.250	3.9664e-02
12.500	21.500	3.8541e-02
12.500	21.750	4.3733e-02
12.500	22.000	5.0192e-02
12.500	22.250	5.3536e-02
12.500	22.500	4.9534e-02
12.500	22.750	4.2050e-02
12.500	23.000	3.6328e-02
12.500	23.250	3.2010e-02
12.500	23.500	2.9113e-02
12.500	23.750	2.7355e-02
12.500	24.000	2.6231e-02
12.750	17.000	2.6326e-02
12.750	17.250	2.6952e-02
12.750	17.500	2.7738e-02
12.750	17.750	2.8554e-02
12.750	18.000	2.9439e-02
12.750	18.250	3.0329e-02
12.750	18.500	3.1148e-02
12.750	18.750	3.1983e-02
12.750	19.000	3.2835e-02
12.750	19.250	3.3704e-02
12.750	19.500	3.4569e-02
12.750	19.750	3.5690e-02
12.750	20.000	3.7129e-02
12.750	20.250	3.8833e-02
12.750	20.500	4.0444e-02
12.750	20.750	4.1848e-02
12.750	21.000	4.2816e-02
12.750	21.250	4.3103e-02
12.750	21.500	4.2181e-02
12.750	21.750	4.2869e-02
12.750	22.000	4.9142e-02
12.750	22.250	5.5949e-02
12.750	22.500	5.7448e-02
12.750	22.750	5.0950e-02
12.750	23.000	4.2738e-02
12.750	23.250	3.6527e-02
12.750	23.500	3.2019e-02
12.750	23.750	2.9110e-02
12.750	24.000	2.7355e-02
13.000	17.000	2.4028e-02
13.000	17.250	2.5031e-02
13.000	17.500	2.5407e-02
13.000	17.750	2.5908e-02
13.000	18.000	2.6523e-02
13.000	18.250	2.7204e-02
13.000	18.500	2.7921e-02
13.000	18.750	2.8737e-02
13.000	19.000	2.9678e-02
13.000	19.250	3.0685e-02
13.000	19.500	3.1677e-02
13.000	19.750	3.2718e-02
13.000	20.000	3.4007e-02
13.000	20.250	3.5660e-02
13.000	20.500	3.7744e-02
13.000	20.750	3.9766e-02
13.000	21.000	4.1953e-02
13.000	21.250	4.3889e-02
13.000	21.500	4.5015e-02
13.000	21.750	4.5550e-02
13.000	22.000	4.8378e-02
13.000	22.250	5.4345e-02
13.000	22.500	6.0899e-02
13.000	22.750	6.0878e-02
13.000	23.000	5.2521e-02
13.000	23.250	4.3387e-02
13.000	23.500	3.6722e-02
13.000	23.750	3.2039e-02
13.000	24.000	2.9108e-02
13.250	17.000	2.2515e-02
13.250	17.250	2.3261e-02
13.250	17.500	2.3549e-02
13.250	17.750	2.3768e-02
13.250	18.000	2.4192e-02
13.250	18.250	2.4750e-02
13.250	18.500	2.5316e-02
13.250	18.750	2.5895e-02
13.250	19.000	2.6578e-02
13.250	19.250	2.7471e-02
13.250	19.500	2.8515e-02
13.250	19.750	2.9625e-02
13.250	20.000	3.0812e-02
13.250	20.250	3.2256e-02
13.250	20.500	3.4136e-02
13.250	20.750	3.6495e-02
13.250	21.000	3.9039e-02
13.250	21.250	4.1888e-02
13.250	21.500	4.4533e-02
13.250	21.750	4.7214e-02
13.250	22.000	4.8146e-02
13.250	22.250	5.1951e-02
13.250	22.500	5.9417e-02
13.250	22.750	6.5099e-02
13.250	23.000	6.4199e-02
13.250	23.250	5.3815e-02
13.250	23.500	4.3923e-02
13.250	23.750	3.6889e-02
13.250	24.000	3.2068e-02
13.500	17.000	2.0968e-02
13.500	17.250	2.1671e-02
13.500	17.500	2.1907e-02
13.500	17.750	2.1950e-02
13.500	18.000	2.2251e-02
13.500	18.250	2.2705e-02
13.500	18.500	2.3182e-02
13.500	18.750	2.3618e-02
13.500	19.000	2.4065e-02
13.500	19.250	2.4605e-02
13.500	19.500	2.5334e-02
13.500	19.750	2.6322e-02
13.500	20.000	2.7475e-02
13.500	20.250	2.8788e-02
13.500	20.500	3.0370e-02
13.500	20.750	3.2400e-02
13.500	21.000	3.4845e-02
13.500	21.250	3.7921e-02
13.500	21.500	4.0917e-02
13.500	21.750	4.3487e-02
13.500	22.000	4.6094e-02
13.500	22.250	4.9653e-02
13.500	22.500	5.6433e-02
13.500	22.750	6.4049e-02
13.500	23.000	6.8894e-02
13.500	23.250	6.7477e-02
13.500	23.500	5.5132e-02
13.500	23.750	4.4683e-02
13.500	24.000	3.7033e-02
13.750	17.000	1.9191e-02
13.750	17.250	2.0217e-02
13.750	17.500	2.0408e-02
13.750	17.750	2.0361e-02
13.750	18.000	2.0537e-02
13.750	18.250	2.0932e-02
13.750	18.500	2.1347e-02
13.750	18.750	2.1697e-02
13.750	19.000	2.2005e-02
13.750	19.250	2.2336e-02
13.750	19.500	2.2764e-02
13.750	19.750	2.3359e-02
13.750	20.000	2.4225e-02
13.750	20.250	2.5388e-02
13.750	20.500	2.6808e-02
13.750	20.750	2.8510e-02
13.750	21.000	3.0567e-02
13.750	21.250	3.3097e-02
13.750	21.500	3.6047e-02
13.750	21.750	3.8847e-02
13.750	22.000	4.1908e-02
13.750	22.250	4.5913e-02
13.750	22.500	5.2876e-02
13.750	22.750	6.2850e-02
13.750	23.000	6.9778e-02
13.750	23.250	7.3980e-02
13.750	23.500	7.0784e-02
13.750	23.750	5.6566e-02
13.750	24.000	4.5130e-02
14.000	17.000	1.7156e-02
14.000	17.250	1.8537e-02
14.000	17.500	1.8991e-02
14.000	17.750	1.8888e-02
14.000	18.000	1.8990e-02
14.000	18.250	1.9313e-02
14.000	18.500	1.9697e-02
14.000	18.750	2.0010e-02
14.000	19.000	2.0247e-02
14.000	19.250	2.0459e-02
14.000	19.500	2.0713e-02
14.000	19.750	2.1073e-02
14.000	20.000	2.1601e-02
14.000	20.250	2.2385e-02
14.000	20.500	2.3515e-02
14.000	20.750	2.4976e-02
14.000	21.000	2.6770e-02
14.000	21.250	2.8958e-02
14.000	21.500	3.1687e-02
14.000	21.750	3.4433e-02
14.000	22.000	3.7556e-02
14.000	22.250	4.1667e-02
14.000	22.500	4.8203e-02
14.000	22.750	6.0461e-02
14.000	23.000	7.1208e-02
14.000	23.250	7.7735e-02
14.000	23.500	8.0074e-02
14.000	23.750	7.4307e-02
14.000	24.000	5.7768e-02
