nFnu 1103.23A  relative to Inci 1215.00A scaled to 1215A.
Hden   Phi(H)  Eq_Width (A)
 7.000	17.000	5.4973e-02
 7.000	17.250	5.3495e-02
 7.000	17.500	4.6142e-02
 7.000	17.750	3.8929e-02
 7.000	18.000	3.3218e-02
 7.000	18.250	2.9622e-02
 7.000	18.500	2.7365e-02
 7.000	18.750	2.6267e-02
 7.000	19.000	2.5689e-02
 7.000	19.250	2.5361e-02
 7.000	19.500	2.5222e-02
 7.000	19.750	2.5163e-02
 7.000	20.000	2.5138e-02
 7.000	20.250	2.5126e-02
 7.000	20.500	2.5120e-02
 7.000	20.750	2.5117e-02
 7.000	21.000	2.5115e-02
 7.000	21.250	2.5114e-02
 7.000	21.500	2.5114e-02
 7.000	21.750	2.5114e-02
 7.000	22.000	2.5114e-02
 7.000	22.250	2.5113e-02
 7.000	22.500	2.5113e-02
 7.000	22.750	2.5113e-02
 7.000	23.000	2.5114e-02
 7.000	23.250	2.5113e-02
 7.000	23.500	2.5113e-02
 7.000	23.750	2.5113e-02
 7.000	24.000	2.5113e-02
 7.250	17.000	5.7689e-02
 7.250	17.250	5.3787e-02
 7.250	17.500	5.3140e-02
 7.250	17.750	4.5967e-02
 7.250	18.000	3.8840e-02
 7.250	18.250	3.3168e-02
 7.250	18.500	2.9599e-02
 7.250	18.750	2.7357e-02
 7.250	19.000	2.6263e-02
 7.250	19.250	2.5688e-02
 7.250	19.500	2.5361e-02
 7.250	19.750	2.5222e-02
 7.250	20.000	2.5163e-02
 7.250	20.250	2.5138e-02
 7.250	20.500	2.5126e-02
 7.250	20.750	2.5120e-02
 7.250	21.000	2.5116e-02
 7.250	21.250	2.5115e-02
 7.250	21.500	2.5114e-02
 7.250	21.750	2.5113e-02
 7.250	22.000	2.5116e-02
 7.250	22.250	2.5113e-02
 7.250	22.500	2.5113e-02
 7.250	22.750	2.5113e-02
 7.250	23.000	2.5114e-02
 7.250	23.250	2.5114e-02
 7.250	23.500	2.5113e-02
 7.250	23.750	2.5114e-02
 7.250	24.000	2.5113e-02
 7.500	17.000	6.6654e-02
 7.500	17.250	5.4837e-02
 7.500	17.500	5.2788e-02
 7.500	17.750	5.2945e-02
 7.500	18.000	4.5880e-02
 7.500	18.250	3.8793e-02
 7.500	18.500	3.3138e-02
 7.500	18.750	2.9584e-02
 7.500	19.000	2.7351e-02
 7.500	19.250	2.6261e-02
 7.500	19.500	2.5687e-02
 7.500	19.750	2.5361e-02
 7.500	20.000	2.5222e-02
 7.500	20.250	2.5163e-02
 7.500	20.500	2.5138e-02
 7.500	20.750	2.5126e-02
 7.500	21.000	2.5120e-02
 7.500	21.250	2.5116e-02
 7.500	21.500	2.5115e-02
 7.500	21.750	2.5114e-02
 7.500	22.000	2.5113e-02
 7.500	22.250	2.5113e-02
 7.500	22.500	2.5113e-02
 7.500	22.750	2.5113e-02
 7.500	23.000	2.5113e-02
 7.500	23.250	2.5113e-02
 7.500	23.500	2.5113e-02
 7.500	23.750	2.5113e-02
 7.500	24.000	2.5113e-02
 7.750	17.000	7.4096e-02
 7.750	17.250	6.3196e-02
 7.750	17.500	5.2323e-02
 7.750	17.750	5.1989e-02
 7.750	18.000	5.2843e-02
 7.750	18.250	4.5847e-02
 7.750	18.500	3.8773e-02
 7.750	18.750	3.3121e-02
 7.750	19.000	2.9574e-02
 7.750	19.250	2.7347e-02
 7.750	19.500	2.6260e-02
 7.750	19.750	2.5687e-02
 7.750	20.000	2.5360e-02
 7.750	20.250	2.5222e-02
 7.750	20.500	2.5163e-02
 7.750	20.750	2.5138e-02
 7.750	21.000	2.5126e-02
 7.750	21.250	2.5120e-02
 7.750	21.500	2.5116e-02
 7.750	21.750	2.5115e-02
 7.750	22.000	2.5114e-02
 7.750	22.250	2.5113e-02
 7.750	22.500	2.5113e-02
 7.750	22.750	2.5113e-02
 7.750	23.000	2.5113e-02
 7.750	23.250	2.5113e-02
 7.750	23.500	2.5113e-02
 7.750	23.750	2.5113e-02
 7.750	24.000	2.5113e-02
 8.000	17.000	7.9017e-02
 8.000	17.250	7.0419e-02
 8.000	17.500	6.0440e-02
 8.000	17.750	5.0425e-02
 8.000	18.000	5.1335e-02
 8.000	18.250	5.2794e-02
 8.000	18.500	4.5850e-02
 8.000	18.750	3.8773e-02
 8.000	19.000	3.3111e-02
 8.000	19.250	2.9569e-02
 8.000	19.500	2.7345e-02
 8.000	19.750	2.6259e-02
 8.000	20.000	2.5687e-02
 8.000	20.250	2.5360e-02
 8.000	20.500	2.5222e-02
 8.000	20.750	2.5163e-02
 8.000	21.000	2.5138e-02
 8.000	21.250	2.5126e-02
 8.000	21.500	2.5120e-02
 8.000	21.750	2.5116e-02
 8.000	22.000	2.5115e-02
 8.000	22.250	2.5114e-02
 8.000	22.500	2.5113e-02
 8.000	22.750	2.5113e-02
 8.000	23.000	2.5113e-02
 8.000	23.250	2.5113e-02
 8.000	23.500	2.5113e-02
 8.000	23.750	2.5113e-02
 8.000	24.000	2.5115e-02
 8.250	17.000	8.1858e-02
 8.250	17.250	7.5858e-02
 8.250	17.500	6.7653e-02
 8.250	17.750	5.8348e-02
 8.250	18.000	4.9053e-02
 8.250	18.250	5.0932e-02
 8.250	18.500	5.2768e-02
 8.250	18.750	4.5876e-02
 8.250	19.000	3.8783e-02
 8.250	19.250	3.3106e-02
 8.250	19.500	2.9565e-02
 8.250	19.750	2.7344e-02
 8.250	20.000	2.6258e-02
 8.250	20.250	2.5686e-02
 8.250	20.500	2.5360e-02
 8.250	20.750	2.5222e-02
 8.250	21.000	2.5163e-02
 8.250	21.250	2.5138e-02
 8.250	21.500	2.5126e-02
 8.250	21.750	2.5120e-02
 8.250	22.000	2.5116e-02
 8.250	22.250	2.5115e-02
 8.250	22.500	2.5114e-02
 8.250	22.750	2.5113e-02
 8.250	23.000	2.5114e-02
 8.250	23.250	2.5113e-02
 8.250	23.500	2.5113e-02
 8.250	23.750	2.5113e-02
 8.250	24.000	2.5113e-02
 8.500	17.000	8.3382e-02
 8.500	17.250	7.9328e-02
 8.500	17.500	7.3504e-02
 8.500	17.750	6.5369e-02
 8.500	18.000	5.6600e-02
 8.500	18.250	4.8046e-02
 8.500	18.500	5.0653e-02
 8.500	18.750	5.2757e-02
 8.500	19.000	4.5920e-02
 8.500	19.250	3.8801e-02
 8.500	19.500	3.3104e-02
 8.500	19.750	2.9563e-02
 8.500	20.000	2.7343e-02
 8.500	20.250	2.6258e-02
 8.500	20.500	2.5686e-02
 8.500	20.750	2.5360e-02
 8.500	21.000	2.5222e-02
 8.500	21.250	2.5163e-02
 8.500	21.500	2.5138e-02
 8.500	21.750	2.5126e-02
 8.500	22.000	2.5120e-02
 8.500	22.250	2.5116e-02
 8.500	22.500	2.5115e-02
 8.500	22.750	2.5114e-02
 8.500	23.000	2.5113e-02
 8.500	23.250	2.5113e-02
 8.500	23.500	2.5113e-02
 8.500	23.750	2.5113e-02
 8.500	24.000	2.5113e-02
 8.750	17.000	8.4267e-02
 8.750	17.250	8.1460e-02
 8.750	17.500	7.7453e-02
 8.750	17.750	7.1452e-02
 8.750	18.000	6.3365e-02
 8.750	18.250	5.4863e-02
 8.750	18.500	4.7242e-02
 8.750	18.750	5.0474e-02
 8.750	19.000	5.2746e-02
 8.750	19.250	4.5973e-02
 8.750	19.500	3.8824e-02
 8.750	19.750	3.3103e-02
 8.750	20.000	2.9561e-02
 8.750	20.250	2.7342e-02
 8.750	20.500	2.6258e-02
 8.750	20.750	2.5686e-02
 8.750	21.000	2.5360e-02
 8.750	21.250	2.5222e-02
 8.750	21.500	2.5163e-02
 8.750	21.750	2.5138e-02
 8.750	22.000	2.5126e-02
 8.750	22.250	2.5120e-02
 8.750	22.500	2.5116e-02
 8.750	22.750	2.5115e-02
 8.750	23.000	2.5114e-02
 8.750	23.250	2.5113e-02
 8.750	23.500	2.5113e-02
 8.750	23.750	2.5113e-02
 8.750	24.000	2.5113e-02
 9.000	17.000	8.4807e-02
 9.000	17.250	8.2840e-02
 9.000	17.500	8.0030e-02
 9.000	17.750	7.5772e-02
 9.000	18.000	6.9327e-02
 9.000	18.250	6.0759e-02
 9.000	18.500	5.2616e-02
 9.000	18.750	4.6243e-02
 9.000	19.000	5.0327e-02
 9.000	19.250	5.2724e-02
 9.000	19.500	4.6027e-02
 9.000	19.750	3.8850e-02
 9.000	20.000	3.3103e-02
 9.000	20.250	2.9560e-02
 9.000	20.500	2.7341e-02
 9.000	20.750	2.6258e-02
 9.000	21.000	2.5686e-02
 9.000	21.250	2.5360e-02
 9.000	21.500	2.5222e-02
 9.000	21.750	2.5163e-02
 9.000	22.000	2.5138e-02
 9.000	22.250	2.5126e-02
 9.000	22.500	2.5120e-02
 9.000	22.750	2.5116e-02
 9.000	23.000	2.5115e-02
 9.000	23.250	2.5114e-02
 9.000	23.500	2.5113e-02
 9.000	23.750	2.5113e-02
 9.000	24.000	2.5113e-02
 9.250	17.000	8.5171e-02
 9.250	17.250	8.3722e-02
 9.250	17.500	8.1760e-02
 9.250	17.750	7.8686e-02
 9.250	18.000	7.3786e-02
 9.250	18.250	6.6493e-02
 9.250	18.500	5.7452e-02
 9.250	18.750	4.9300e-02
 9.250	19.000	4.5910e-02
 9.250	19.250	5.0180e-02
 9.250	19.500	5.2685e-02
 9.250	19.750	4.6073e-02
 9.250	20.000	3.8874e-02
 9.250	20.250	3.3104e-02
 9.250	20.500	2.9559e-02
 9.250	20.750	2.7341e-02
 9.250	21.000	2.6258e-02
 9.250	21.250	2.5686e-02
 9.250	21.500	2.5356e-02
 9.250	21.750	2.5218e-02
 9.250	22.000	2.5158e-02
 9.250	22.250	2.5133e-02
 9.250	22.500	2.5125e-02
 9.250	22.750	2.5119e-02
 9.250	23.000	2.5116e-02
 9.250	23.250	2.5114e-02
 9.250	23.500	2.5113e-02
 9.250	23.750	2.5113e-02
 9.250	24.000	2.5113e-02
 9.500	17.000	8.5525e-02
 9.500	17.250	8.4270e-02
 9.500	17.500	8.2878e-02
 9.500	17.750	8.0727e-02
 9.500	18.000	7.7058e-02
 9.500	18.250	7.1194e-02
 9.500	18.500	6.3034e-02
 9.500	18.750	5.3838e-02
 9.500	19.000	4.6328e-02
 9.500	19.250	4.5503e-02
 9.500	19.500	5.0000e-02
 9.500	19.750	5.2629e-02
 9.500	20.000	4.6103e-02
 9.500	20.250	3.8895e-02
 9.500	20.500	3.3105e-02
 9.500	20.750	2.9557e-02
 9.500	21.000	2.7336e-02
 9.500	21.250	2.6253e-02
 9.500	21.500	2.5681e-02
 9.500	21.750	2.5354e-02
 9.500	22.000	2.5214e-02
 9.500	22.250	2.5156e-02
 9.500	22.500	2.5130e-02
 9.500	22.750	2.5118e-02
 9.500	23.000	2.5112e-02
 9.500	23.250	2.5109e-02
 9.500	23.500	2.5108e-02
 9.500	23.750	2.5107e-02
 9.500	24.000	2.5106e-02
 9.750	17.000	8.6151e-02
 9.750	17.250	8.4681e-02
 9.750	17.500	8.3553e-02
 9.750	17.750	8.2082e-02
 9.750	18.000	7.9468e-02
 9.750	18.250	7.4925e-02
 9.750	18.500	6.8222e-02
 9.750	18.750	5.9571e-02
 9.750	19.000	5.0534e-02
 9.750	19.250	4.3486e-02
 9.750	19.500	4.5127e-02
 9.750	19.750	4.9790e-02
 9.750	20.000	5.2556e-02
 9.750	20.250	4.6111e-02
 9.750	20.500	3.8911e-02
 9.750	20.750	3.3105e-02
 9.750	21.000	2.9557e-02
 9.750	21.250	2.7337e-02
 9.750	21.500	2.6253e-02
 9.750	21.750	2.5682e-02
 9.750	22.000	2.5355e-02
 9.750	22.250	2.5214e-02
 9.750	22.500	2.5156e-02
 9.750	22.750	2.5130e-02
 9.750	23.000	2.5118e-02
 9.750	23.250	2.5112e-02
 9.750	23.500	2.5109e-02
 9.750	23.750	2.5107e-02
 9.750	24.000	2.5106e-02
10.000	17.000	8.7350e-02
10.000	17.250	8.5270e-02
10.000	17.500	8.3973e-02
10.000	17.750	8.2860e-02
10.000	18.000	8.1114e-02
10.000	18.250	7.7877e-02
10.000	18.500	7.2697e-02
10.000	18.750	6.5450e-02
10.000	19.000	5.6476e-02
10.000	19.250	4.7494e-02
10.000	19.500	4.2455e-02
10.000	19.750	4.4945e-02
10.000	20.000	4.9546e-02
10.000	20.250	5.2482e-02
10.000	20.500	4.6108e-02
10.000	20.750	3.8924e-02
10.000	21.000	3.3106e-02
10.000	21.250	2.9557e-02
10.000	21.500	2.7338e-02
10.000	21.750	2.6254e-02
10.000	22.000	2.5682e-02
10.000	22.250	2.5355e-02
10.000	22.500	2.5215e-02
10.000	22.750	2.5156e-02
10.000	23.000	2.5130e-02
10.000	23.250	2.5118e-02
10.000	23.500	2.5112e-02
10.000	23.750	2.5109e-02
10.000	24.000	2.5107e-02
10.250	17.000	8.9466e-02
10.250	17.250	8.6393e-02
10.250	17.500	8.4519e-02
10.250	17.750	8.3363e-02
10.250	18.000	8.2219e-02
10.250	18.250	8.0173e-02
10.250	18.500	7.6532e-02
10.250	18.750	7.0899e-02
10.250	19.000	6.3246e-02
10.250	19.250	5.3884e-02
10.250	19.500	4.4315e-02
10.250	19.750	4.2829e-02
10.250	20.000	4.5029e-02
10.250	20.250	4.9507e-02
10.250	20.500	5.2432e-02
10.250	20.750	4.6092e-02
10.250	21.000	3.8932e-02
10.250	21.250	3.3106e-02
10.250	21.500	2.9557e-02
10.250	21.750	2.7339e-02
10.250	22.000	2.6256e-02
10.250	22.250	2.5682e-02
10.250	22.500	2.5356e-02
10.250	22.750	2.5216e-02
10.250	23.000	2.5156e-02
10.250	23.250	2.5130e-02
10.250	23.500	2.5118e-02
10.250	23.750	2.5112e-02
10.250	24.000	2.5109e-02
10.500	17.000	9.2603e-02
10.500	17.250	8.8419e-02
10.500	17.500	8.5614e-02
10.500	17.750	8.4066e-02
10.500	18.000	8.3132e-02
10.500	18.250	8.1974e-02
10.500	18.500	7.9682e-02
10.500	18.750	7.5693e-02
10.500	19.000	6.9759e-02
10.500	19.250	6.1772e-02
10.500	19.500	5.2035e-02
10.500	19.750	4.2500e-02
10.500	20.000	4.3112e-02
10.500	20.250	4.5448e-02
10.500	20.500	4.9762e-02
10.500	20.750	5.2521e-02
10.500	21.000	4.6072e-02
10.500	21.250	3.8935e-02
10.500	21.500	3.3107e-02
10.500	21.750	2.9557e-02
10.500	22.000	2.7338e-02
10.500	22.250	2.6257e-02
10.500	22.500	2.5684e-02
10.500	22.750	2.5356e-02
10.500	23.000	2.5217e-02
10.500	23.250	2.5157e-02
10.500	23.500	2.5131e-02
10.500	23.750	2.5118e-02
10.500	24.000	2.5112e-02
10.750	17.000	9.6769e-02
10.750	17.250	9.1445e-02
10.750	17.500	8.7674e-02
10.750	17.750	8.5478e-02
10.750	18.000	8.4413e-02
10.750	18.250	8.3594e-02
10.750	18.500	8.2192e-02
10.750	18.750	7.9575e-02
10.750	19.000	7.5067e-02
10.750	19.250	6.8775e-02
10.750	19.500	6.0453e-02
10.750	19.750	5.0255e-02
10.750	20.000	4.0852e-02
10.750	20.250	4.3812e-02
10.750	20.500	4.6386e-02
10.750	20.750	5.0613e-02
10.750	21.000	5.2782e-02
10.750	21.250	4.6063e-02
10.750	21.500	3.8935e-02
10.750	21.750	3.3107e-02
10.750	22.000	2.9557e-02
10.750	22.250	2.7338e-02
10.750	22.500	2.6257e-02
10.750	22.750	2.5686e-02
10.750	23.000	2.5356e-02
10.750	23.250	2.5217e-02
10.750	23.500	2.5158e-02
10.750	23.750	2.5132e-02
10.750	24.000	2.5119e-02
11.000	17.000	1.0167e-01
11.000	17.250	9.5367e-02
11.000	17.500	9.0720e-02
11.000	17.750	8.7937e-02
11.000	18.000	8.6514e-02
11.000	18.250	8.5426e-02
11.000	18.500	8.4277e-02
11.000	18.750	8.2267e-02
11.000	19.000	7.9035e-02
11.000	19.250	7.4311e-02
11.000	19.500	6.7926e-02
11.000	19.750	5.9361e-02
11.000	20.000	4.8525e-02
11.000	20.250	4.1404e-02
11.000	20.500	4.5430e-02
11.000	20.750	4.8001e-02
11.000	21.000	5.2254e-02
11.000	21.250	5.3325e-02
11.000	21.500	4.6094e-02
11.000	21.750	3.8930e-02
11.000	22.000	3.3107e-02
11.000	22.250	2.9557e-02
11.000	22.500	2.7338e-02
11.000	22.750	2.6258e-02
11.000	23.000	2.5686e-02
11.000	23.250	2.5357e-02
11.000	23.500	2.5218e-02
11.000	23.750	2.5159e-02
11.000	24.000	2.5133e-02
11.250	17.000	1.0649e-01
11.250	17.250	9.9661e-02
11.250	17.500	9.4426e-02
11.250	17.750	9.1295e-02
11.250	18.000	8.9497e-02
11.250	18.250	8.7785e-02
11.250	18.500	8.5838e-02
11.250	18.750	8.4192e-02
11.250	19.000	8.1798e-02
11.250	19.250	7.8341e-02
11.250	19.500	7.3670e-02
11.250	19.750	6.7251e-02
11.250	20.000	5.8513e-02
11.250	20.250	4.7343e-02
11.250	20.500	4.2494e-02
11.250	20.750	4.7066e-02
11.250	21.000	5.0591e-02
11.250	21.250	5.5036e-02
11.250	21.500	5.4277e-02
11.250	21.750	4.6197e-02
11.250	22.000	3.8923e-02
11.250	22.250	3.3106e-02
11.250	22.500	2.9558e-02
11.250	22.750	2.7337e-02
11.250	23.000	2.6258e-02
11.250	23.250	2.5687e-02
11.250	23.500	2.5359e-02
11.250	23.750	2.5218e-02
11.250	24.000	2.5159e-02
11.500	17.000	1.0997e-01
11.500	17.250	1.0340e-01
11.500	17.500	9.8158e-02
11.500	17.750	9.4945e-02
11.500	18.000	9.2925e-02
11.500	18.250	9.0599e-02
11.500	18.500	8.7890e-02
11.500	18.750	8.5757e-02
11.500	19.000	8.3539e-02
11.500	19.250	8.1102e-02
11.500	19.500	7.7626e-02
11.500	19.750	7.3097e-02
11.500	20.000	6.6816e-02
11.500	20.250	5.8017e-02
11.500	20.500	4.6715e-02
11.500	20.750	4.4598e-02
11.500	21.000	5.0066e-02
11.500	21.250	5.4690e-02
11.500	21.500	5.9536e-02
11.500	21.750	5.5353e-02
11.500	22.000	4.6401e-02
11.500	22.250	3.8915e-02
11.500	22.500	3.3105e-02
11.500	22.750	2.9560e-02
11.500	23.000	2.7336e-02
11.500	23.250	2.6257e-02
11.500	23.500	2.5687e-02
11.500	23.750	2.5360e-02
11.500	24.000	2.5218e-02
11.750	17.000	1.0971e-01
11.750	17.250	1.0468e-01
11.750	17.500	1.0037e-01
11.750	17.750	9.7738e-02
11.750	18.000	9.5914e-02
11.750	18.250	9.3409e-02
11.750	18.500	9.0374e-02
11.750	18.750	8.7273e-02
11.750	19.000	8.4882e-02
11.750	19.250	8.2536e-02
11.750	19.500	8.0084e-02
11.750	19.750	7.6861e-02
11.750	20.000	7.2656e-02
11.750	20.250	6.6612e-02
11.750	20.500	5.7898e-02
11.750	20.750	4.6698e-02
11.750	21.000	4.7505e-02
11.750	21.250	5.4799e-02
11.750	21.500	6.0753e-02
11.750	21.750	6.5176e-02
11.750	22.000	5.6544e-02
11.750	22.250	4.6694e-02
11.750	22.500	3.8910e-02
11.750	22.750	3.3104e-02
11.750	23.000	2.9561e-02
11.750	23.250	2.7335e-02
11.750	23.500	2.6269e-02
11.750	23.750	2.5687e-02
11.750	24.000	2.5360e-02
12.000	17.000	9.5840e-02
12.000	17.250	9.9396e-02
12.000	17.500	9.8073e-02
12.000	17.750	9.7502e-02
12.000	18.000	9.7103e-02
12.000	18.250	9.5426e-02
12.000	18.500	9.2577e-02
12.000	18.750	8.9023e-02
12.000	19.000	8.5960e-02
12.000	19.250	8.3190e-02
12.000	19.500	8.1084e-02
12.000	19.750	7.8888e-02
12.000	20.000	7.6113e-02
12.000	20.250	7.2373e-02
12.000	20.500	6.6730e-02
12.000	20.750	5.8238e-02
12.000	21.000	4.8061e-02
12.000	21.250	5.2523e-02
12.000	21.500	6.1766e-02
12.000	21.750	6.8691e-02
12.000	22.000	6.9925e-02
12.000	22.250	5.7618e-02
12.000	22.500	4.7048e-02
12.000	22.750	3.8913e-02
12.000	23.000	3.3102e-02
12.000	23.250	2.9563e-02
12.000	23.500	2.7334e-02
12.000	23.750	2.6257e-02
12.000	24.000	2.5687e-02
12.250	17.000	4.9814e-02
12.250	17.250	7.1034e-02
12.250	17.500	8.4754e-02
12.250	17.750	9.0611e-02
12.250	18.000	9.4240e-02
12.250	18.250	9.4936e-02
12.250	18.500	9.3150e-02
12.250	18.750	9.0072e-02
12.250	19.000	8.6777e-02
12.250	19.250	8.3559e-02
12.250	19.500	8.1171e-02
12.250	19.750	7.9404e-02
12.250	20.000	7.7603e-02
12.250	20.250	7.5413e-02
12.250	20.500	7.2295e-02
12.250	20.750	6.7289e-02
12.250	21.000	5.9755e-02
12.250	21.250	5.2297e-02
12.250	21.500	5.9234e-02
12.250	21.750	7.0049e-02
12.250	22.000	7.7636e-02
12.250	22.250	7.3071e-02
12.250	22.500	5.8743e-02
12.250	22.750	4.7439e-02
12.250	23.000	3.8926e-02
12.250	23.250	3.3100e-02
12.250	23.500	2.9565e-02
12.250	23.750	2.7332e-02
12.250	24.000	2.6256e-02
12.500	17.000	4.5295e-02
12.500	17.250	4.6010e-02
12.500	17.500	4.7685e-02
12.500	17.750	7.0357e-02
12.500	18.000	8.3049e-02
12.500	18.250	8.8223e-02
12.500	18.500	8.9332e-02
12.500	18.750	8.8404e-02
12.500	19.000	8.6167e-02
12.500	19.250	8.3412e-02
12.500	19.500	8.0781e-02
12.500	19.750	7.8860e-02
12.500	20.000	7.7546e-02
12.500	20.250	7.6274e-02
12.500	20.500	7.4811e-02
12.500	20.750	7.2675e-02
12.500	21.000	6.8952e-02
12.500	21.250	6.2868e-02
12.500	21.500	5.8370e-02
12.500	21.750	6.8071e-02
12.500	22.000	8.0896e-02
12.500	22.250	8.6138e-02
12.500	22.500	7.6176e-02
12.500	22.750	5.9962e-02
12.500	23.000	4.7850e-02
12.500	23.250	3.8950e-02
12.500	23.500	3.3097e-02
12.500	23.750	2.9567e-02
12.500	24.000	2.7330e-02
12.750	17.000	4.4630e-02
12.750	17.250	4.4839e-02
12.750	17.500	4.5302e-02
12.750	17.750	4.5791e-02
12.750	18.000	4.7793e-02
12.750	18.250	6.6241e-02
12.750	18.500	7.5461e-02
12.750	18.750	8.0186e-02
12.750	19.000	8.1902e-02
12.750	19.250	8.1391e-02
12.750	19.500	7.9534e-02
12.750	19.750	7.7605e-02
12.750	20.000	7.6112e-02
12.750	20.250	7.5459e-02
12.750	20.500	7.4946e-02
12.750	20.750	7.4484e-02
12.750	21.000	7.3636e-02
12.750	21.250	7.1912e-02
12.750	21.500	6.7999e-02
12.750	21.750	6.7283e-02
12.750	22.000	7.9468e-02
12.750	22.250	9.2822e-02
12.750	22.500	9.3947e-02
12.750	22.750	7.8893e-02
12.750	23.000	6.1247e-02
12.750	23.250	4.8211e-02
12.750	23.500	3.8968e-02
12.750	23.750	3.3094e-02
12.750	24.000	2.9567e-02
13.000	17.000	9.2284e-02
13.000	17.250	5.1075e-02
13.000	17.500	4.1726e-02
13.000	17.750	4.1704e-02
13.000	18.000	4.1900e-02
13.000	18.250	4.2252e-02
13.000	18.500	4.2787e-02
13.000	18.750	5.4428e-02
13.000	19.000	6.7914e-02
13.000	19.250	7.3948e-02
13.000	19.500	7.5611e-02
13.000	19.750	7.5090e-02
13.000	20.000	7.3949e-02
13.000	20.250	7.3109e-02
13.000	20.500	7.3267e-02
13.000	20.750	7.3644e-02
13.000	21.000	7.4752e-02
13.000	21.250	7.5855e-02
13.000	21.500	7.5782e-02
13.000	21.750	7.4882e-02
13.000	22.000	7.8717e-02
13.000	22.250	9.0416e-02
13.000	22.500	1.0296e-01
13.000	22.750	1.0075e-01
13.000	23.000	8.1903e-02
13.000	23.250	6.2451e-02
13.000	23.500	4.8560e-02
13.000	23.750	3.9004e-02
13.000	24.000	3.3092e-02
13.250	17.000	8.8293e-02
13.250	17.250	7.6097e-02
13.250	17.500	3.8840e-02
13.250	17.750	3.8322e-02
13.250	18.000	3.8213e-02
13.250	18.250	3.8391e-02
13.250	18.500	3.8698e-02
13.250	18.750	3.9174e-02
13.250	19.000	3.9947e-02
13.250	19.250	5.2124e-02
13.250	19.500	6.4341e-02
13.250	19.750	6.9075e-02
13.250	20.000	7.0043e-02
13.250	20.250	6.9852e-02
13.250	20.500	6.9864e-02
13.250	20.750	7.0729e-02
13.250	21.000	7.2223e-02
13.250	21.250	7.4689e-02
13.250	21.500	7.7167e-02
13.250	21.750	8.0303e-02
13.250	22.000	8.0139e-02
13.250	22.250	8.6208e-02
13.250	22.500	1.0107e-01
13.250	22.750	1.1144e-01
13.250	23.000	1.0729e-01
13.250	23.250	8.4349e-02
13.250	23.500	6.3432e-02
13.250	23.750	4.8858e-02
13.250	24.000	3.9054e-02
13.500	17.000	8.4395e-02
13.500	17.250	7.6037e-02
13.500	17.500	3.6426e-02
13.500	17.750	3.5416e-02
13.500	18.000	3.5131e-02
13.500	18.250	3.5161e-02
13.500	18.500	3.5346e-02
13.500	18.750	3.5603e-02
13.500	19.000	3.5997e-02
13.500	19.250	3.6630e-02
13.500	19.500	3.7624e-02
13.500	19.750	5.2850e-02
13.500	20.000	6.1246e-02
13.500	20.250	6.4217e-02
13.500	20.500	6.5181e-02
13.500	20.750	6.5989e-02
13.500	21.000	6.7326e-02
13.500	21.250	7.0037e-02
13.500	21.500	7.2807e-02
13.500	21.750	7.5183e-02
13.500	22.000	7.7994e-02
13.500	22.250	8.3178e-02
13.500	22.500	9.5811e-02
13.500	22.750	1.1071e-01
13.500	23.000	1.1902e-01
13.500	23.250	1.1370e-01
13.500	23.500	8.6836e-02
13.500	23.750	6.4846e-02
13.500	24.000	4.9112e-02
13.750	17.000	7.9735e-02
13.750	17.250	7.1906e-02
13.750	17.500	3.6406e-02
13.750	17.750	3.2929e-02
13.750	18.000	3.2418e-02
13.750	18.250	3.2376e-02
13.750	18.500	3.2472e-02
13.750	18.750	3.2600e-02
13.750	19.000	3.2767e-02
13.750	19.250	3.3055e-02
13.750	19.500	3.3553e-02
13.750	19.750	3.4365e-02
13.750	20.000	3.7874e-02
13.750	20.250	5.2032e-02
13.750	20.500	5.7542e-02
13.750	20.750	5.9980e-02
13.750	21.000	6.1629e-02
13.750	21.250	6.3610e-02
13.750	21.500	6.6286e-02
13.750	21.750	6.8904e-02
13.750	22.000	7.2257e-02
13.750	22.250	7.7759e-02
13.750	22.500	9.0022e-02
13.750	22.750	1.0963e-01
13.750	23.000	1.2264e-01
13.750	23.250	1.2926e-01
13.750	23.500	1.2011e-01
13.750	23.750	8.9551e-02
13.750	24.000	6.5658e-02
14.000	17.000	7.2647e-02
14.000	17.250	7.1792e-02
14.000	17.500	4.1529e-02
14.000	17.750	3.0670e-02
14.000	18.000	3.0024e-02
14.000	18.250	2.9857e-02
14.000	18.500	2.9912e-02
14.000	18.750	2.9977e-02
14.000	19.000	3.0022e-02
14.000	19.250	3.0107e-02
14.000	19.500	3.0310e-02
14.000	19.750	3.0719e-02
14.000	20.000	3.1427e-02
14.000	20.250	3.2548e-02
14.000	20.500	4.0919e-02
14.000	20.750	4.9997e-02
14.000	21.000	5.4210e-02
14.000	21.250	5.7053e-02
14.000	21.500	6.0070e-02
14.000	21.750	6.2828e-02
14.000	22.000	6.6282e-02
14.000	22.250	7.1791e-02
14.000	22.500	8.2462e-02
14.000	22.750	1.0651e-01
14.000	23.000	1.2774e-01
14.000	23.250	1.3921e-01
14.000	23.500	1.4150e-01
14.000	23.750	1.2694e-01
14.000	24.000	9.1811e-02
