InwC 913.000A  relative to Inci 1215.00A scaled to 1215A.
Hden   Phi(H)  Eq_Width (A)
 7.000	17.000	2.4058e-02
 7.000	17.250	2.4870e-02
 7.000	17.500	2.4881e-02
 7.000	17.750	2.4893e-02
 7.000	18.000	2.4905e-02
 7.000	18.250	2.4916e-02
 7.000	18.500	2.4923e-02
 7.000	18.750	2.4926e-02
 7.000	19.000	2.4929e-02
 7.000	19.250	2.4931e-02
 7.000	19.500	2.4932e-02
 7.000	19.750	2.4932e-02
 7.000	20.000	2.4933e-02
 7.000	20.250	2.4933e-02
 7.000	20.500	2.4933e-02
 7.000	20.750	2.4933e-02
 7.000	21.000	2.4933e-02
 7.000	21.250	2.4933e-02
 7.000	21.500	2.4933e-02
 7.000	21.750	2.4933e-02
 7.000	22.000	2.4933e-02
 7.000	22.250	2.4933e-02
 7.000	22.500	2.4933e-02
 7.000	22.750	2.4933e-02
 7.000	23.000	2.4934e-02
 7.000	23.250	2.4933e-02
 7.000	23.500	2.4933e-02
 7.000	23.750	2.4933e-02
 7.000	24.000	2.4933e-02
 7.250	17.000	2.3354e-02
 7.250	17.250	2.4064e-02
 7.250	17.500	2.4870e-02
 7.250	17.750	2.4881e-02
 7.250	18.000	2.4893e-02
 7.250	18.250	2.4905e-02
 7.250	18.500	2.4916e-02
 7.250	18.750	2.4923e-02
 7.250	19.000	2.4926e-02
 7.250	19.250	2.4929e-02
 7.250	19.500	2.4931e-02
 7.250	19.750	2.4932e-02
 7.250	20.000	2.4932e-02
 7.250	20.250	2.4933e-02
 7.250	20.500	2.4933e-02
 7.250	20.750	2.4933e-02
 7.250	21.000	2.4933e-02
 7.250	21.250	2.4933e-02
 7.250	21.500	2.4933e-02
 7.250	21.750	2.4933e-02
 7.250	22.000	2.4936e-02
 7.250	22.250	2.4933e-02
 7.250	22.500	2.4933e-02
 7.250	22.750	2.4933e-02
 7.250	23.000	2.4934e-02
 7.250	23.250	2.4935e-02
 7.250	23.500	2.4933e-02
 7.250	23.750	2.4935e-02
 7.250	24.000	2.4933e-02
 7.500	17.000	1.9043e-02
 7.500	17.250	2.3355e-02
 7.500	17.500	2.4068e-02
 7.500	17.750	2.4870e-02
 7.500	18.000	2.4881e-02
 7.500	18.250	2.4893e-02
 7.500	18.500	2.4905e-02
 7.500	18.750	2.4916e-02
 7.500	19.000	2.4923e-02
 7.500	19.250	2.4926e-02
 7.500	19.500	2.4929e-02
 7.500	19.750	2.4931e-02
 7.500	20.000	2.4932e-02
 7.500	20.250	2.4932e-02
 7.500	20.500	2.4933e-02
 7.500	20.750	2.4933e-02
 7.500	21.000	2.4933e-02
 7.500	21.250	2.4933e-02
 7.500	21.500	2.4933e-02
 7.500	21.750	2.4933e-02
 7.500	22.000	2.4933e-02
 7.500	22.250	2.4933e-02
 7.500	22.500	2.4933e-02
 7.500	22.750	2.4933e-02
 7.500	23.000	2.4933e-02
 7.500	23.250	2.4933e-02
 7.500	23.500	2.4933e-02
 7.500	23.750	2.4933e-02
 7.500	24.000	2.4933e-02
 7.750	17.000	1.3186e-02
 7.750	17.250	1.8972e-02
 7.750	17.500	2.3355e-02
 7.750	17.750	2.4072e-02
 7.750	18.000	2.4870e-02
 7.750	18.250	2.4881e-02
 7.750	18.500	2.4893e-02
 7.750	18.750	2.4905e-02
 7.750	19.000	2.4916e-02
 7.750	19.250	2.4923e-02
 7.750	19.500	2.4926e-02
 7.750	19.750	2.4929e-02
 7.750	20.000	2.4931e-02
 7.750	20.250	2.4932e-02
 7.750	20.500	2.4932e-02
 7.750	20.750	2.4933e-02
 7.750	21.000	2.4933e-02
 7.750	21.250	2.4933e-02
 7.750	21.500	2.4933e-02
 7.750	21.750	2.4933e-02
 7.750	22.000	2.4933e-02
 7.750	22.250	2.4933e-02
 7.750	22.500	2.4933e-02
 7.750	22.750	2.4933e-02
 7.750	23.000	2.4933e-02
 7.750	23.250	2.4933e-02
 7.750	23.500	2.4933e-02
 7.750	23.750	2.4933e-02
 7.750	24.000	2.4933e-02
 8.000	17.000	9.0374e-03
 8.000	17.250	1.2910e-02
 8.000	17.500	1.8785e-02
 8.000	17.750	2.3338e-02
 8.000	18.000	2.4068e-02
 8.000	18.250	2.4870e-02
 8.000	18.500	2.4882e-02
 8.000	18.750	2.4893e-02
 8.000	19.000	2.4905e-02
 8.000	19.250	2.4916e-02
 8.000	19.500	2.4923e-02
 8.000	19.750	2.4926e-02
 8.000	20.000	2.4929e-02
 8.000	20.250	2.4931e-02
 8.000	20.500	2.4932e-02
 8.000	20.750	2.4932e-02
 8.000	21.000	2.4933e-02
 8.000	21.250	2.4933e-02
 8.000	21.500	2.4933e-02
 8.000	21.750	2.4933e-02
 8.000	22.000	2.4933e-02
 8.000	22.250	2.4933e-02
 8.000	22.500	2.4933e-02
 8.000	22.750	2.4933e-02
 8.000	23.000	2.4933e-02
 8.000	23.250	2.4933e-02
 8.000	23.500	2.4933e-02
 8.000	23.750	2.4933e-02
 8.000	24.000	2.4935e-02
 8.250	17.000	6.7254e-03
 8.250	17.250	8.8733e-03
 8.250	17.500	1.2770e-02
 8.250	17.750	1.8737e-02
 8.250	18.000	2.3338e-02
 8.250	18.250	2.4071e-02
 8.250	18.500	2.4870e-02
 8.250	18.750	2.4882e-02
 8.250	19.000	2.4893e-02
 8.250	19.250	2.4905e-02
 8.250	19.500	2.4917e-02
 8.250	19.750	2.4923e-02
 8.250	20.000	2.4926e-02
 8.250	20.250	2.4929e-02
 8.250	20.500	2.4931e-02
 8.250	20.750	2.4932e-02
 8.250	21.000	2.4932e-02
 8.250	21.250	2.4933e-02
 8.250	21.500	2.4933e-02
 8.250	21.750	2.4933e-02
 8.250	22.000	2.4933e-02
 8.250	22.250	2.4933e-02
 8.250	22.500	2.4933e-02
 8.250	22.750	2.4933e-02
 8.250	23.000	2.4933e-02
 8.250	23.250	2.4933e-02
 8.250	23.500	2.4933e-02
 8.250	23.750	2.4933e-02
 8.250	24.000	2.4933e-02
 8.500	17.000	5.4537e-03
 8.500	17.250	6.5870e-03
 8.500	17.500	8.7384e-03
 8.500	17.750	1.2647e-02
 8.500	18.000	1.8714e-02
 8.500	18.250	2.3336e-02
 8.500	18.500	2.4073e-02
 8.500	18.750	2.4870e-02
 8.500	19.000	2.4882e-02
 8.500	19.250	2.4893e-02
 8.500	19.500	2.4905e-02
 8.500	19.750	2.4917e-02
 8.500	20.000	2.4923e-02
 8.500	20.250	2.4926e-02
 8.500	20.500	2.4929e-02
 8.500	20.750	2.4931e-02
 8.500	21.000	2.4932e-02
 8.500	21.250	2.4932e-02
 8.500	21.500	2.4933e-02
 8.500	21.750	2.4933e-02
 8.500	22.000	2.4933e-02
 8.500	22.250	2.4933e-02
 8.500	22.500	2.4933e-02
 8.500	22.750	2.4933e-02
 8.500	23.000	2.4933e-02
 8.500	23.250	2.4933e-02
 8.500	23.500	2.4933e-02
 8.500	23.750	2.4933e-02
 8.500	24.000	2.4933e-02
 8.750	17.000	4.7367e-03
 8.750	17.250	5.3288e-03
 8.750	17.500	6.4731e-03
 8.750	17.750	8.6386e-03
 8.750	18.000	1.2601e-02
 8.750	18.250	1.8798e-02
 8.750	18.500	2.3335e-02
 8.750	18.750	2.4075e-02
 8.750	19.000	2.4870e-02
 8.750	19.250	2.4882e-02
 8.750	19.500	2.4893e-02
 8.750	19.750	2.4906e-02
 8.750	20.000	2.4917e-02
 8.750	20.250	2.4923e-02
 8.750	20.500	2.4926e-02
 8.750	20.750	2.4929e-02
 8.750	21.000	2.4931e-02
 8.750	21.250	2.4932e-02
 8.750	21.500	2.4932e-02
 8.750	21.750	2.4933e-02
 8.750	22.000	2.4933e-02
 8.750	22.250	2.4933e-02
 8.750	22.500	2.4933e-02
 8.750	22.750	2.4933e-02
 8.750	23.000	2.4933e-02
 8.750	23.250	2.4933e-02
 8.750	23.500	2.4933e-02
 8.750	23.750	2.4933e-02
 8.750	24.000	2.4933e-02
 9.000	17.000	4.3077e-03
 9.000	17.250	4.6237e-03
 9.000	17.500	5.2319e-03
 9.000	17.750	6.4041e-03
 9.000	18.000	8.6506e-03
 9.000	18.250	1.2828e-02
 9.000	18.500	1.9218e-02
 9.000	18.750	2.3303e-02
 9.000	19.000	2.4075e-02
 9.000	19.250	2.4870e-02
 9.000	19.500	2.4882e-02
 9.000	19.750	2.4893e-02
 9.000	20.000	2.4906e-02
 9.000	20.250	2.4917e-02
 9.000	20.500	2.4923e-02
 9.000	20.750	2.4926e-02
 9.000	21.000	2.4929e-02
 9.000	21.250	2.4931e-02
 9.000	21.500	2.4932e-02
 9.000	21.750	2.4932e-02
 9.000	22.000	2.4932e-02
 9.000	22.250	2.4933e-02
 9.000	22.500	2.4933e-02
 9.000	22.750	2.4933e-02
 9.000	23.000	2.4933e-02
 9.000	23.250	2.4933e-02
 9.000	23.500	2.4933e-02
 9.000	23.750	2.4933e-02
 9.000	24.000	2.4933e-02
 9.250	17.000	4.0260e-03
 9.250	17.250	4.2005e-03
 9.250	17.500	4.5370e-03
 9.250	17.750	5.2032e-03
 9.250	18.000	6.5278e-03
 9.250	18.250	9.0494e-03
 9.250	18.500	1.3660e-02
 9.250	18.750	2.0247e-02
 9.250	19.000	2.3296e-02
 9.250	19.250	2.4073e-02
 9.250	19.500	2.4869e-02
 9.250	19.750	2.4882e-02
 9.250	20.000	2.4893e-02
 9.250	20.250	2.4906e-02
 9.250	20.500	2.4917e-02
 9.250	20.750	2.4923e-02
 9.250	21.000	2.4926e-02
 9.250	21.250	2.4929e-02
 9.250	21.500	2.4927e-02
 9.250	21.750	2.4928e-02
 9.250	22.000	2.4927e-02
 9.250	22.250	2.4928e-02
 9.250	22.500	2.4932e-02
 9.250	22.750	2.4932e-02
 9.250	23.000	2.4932e-02
 9.250	23.250	2.4933e-02
 9.250	23.500	2.4933e-02
 9.250	23.750	2.4933e-02
 9.250	24.000	2.4933e-02
 9.500	17.000	3.8357e-03
 9.500	17.250	3.9241e-03
 9.500	17.500	4.1297e-03
 9.500	17.750	4.5582e-03
 9.500	18.000	5.3896e-03
 9.500	18.250	6.9675e-03
 9.500	18.500	9.9513e-03
 9.500	18.750	1.5287e-02
 9.500	19.000	2.1709e-02
 9.500	19.250	2.3292e-02
 9.500	19.500	2.4067e-02
 9.500	19.750	2.4869e-02
 9.500	20.000	2.4882e-02
 9.500	20.250	2.4894e-02
 9.500	20.500	2.4906e-02
 9.500	20.750	2.4915e-02
 9.500	21.000	2.4919e-02
 9.500	21.250	2.4922e-02
 9.500	21.500	2.4924e-02
 9.500	21.750	2.4925e-02
 9.500	22.000	2.4924e-02
 9.500	22.250	2.4925e-02
 9.500	22.500	2.4925e-02
 9.500	22.750	2.4925e-02
 9.500	23.000	2.4925e-02
 9.500	23.250	2.4925e-02
 9.500	23.500	2.4926e-02
 9.500	23.750	2.4926e-02
 9.500	24.000	2.4926e-02
 9.750	17.000	3.7260e-03
 9.750	17.250	3.7280e-03
 9.750	17.500	3.8570e-03
 9.750	17.750	4.1674e-03
 9.750	18.000	4.7729e-03
 9.750	18.250	5.8646e-03
 9.750	18.500	7.8523e-03
 9.750	18.750	1.1465e-02
 9.750	19.000	1.7509e-02
 9.750	19.250	2.2722e-02
 9.750	19.500	2.3291e-02
 9.750	19.750	2.4056e-02
 9.750	20.000	2.4867e-02
 9.750	20.250	2.4882e-02
 9.750	20.500	2.4894e-02
 9.750	20.750	2.4906e-02
 9.750	21.000	2.4916e-02
 9.750	21.250	2.4920e-02
 9.750	21.500	2.4922e-02
 9.750	21.750	2.4925e-02
 9.750	22.000	2.4926e-02
 9.750	22.250	2.4925e-02
 9.750	22.500	2.4925e-02
 9.750	22.750	2.4925e-02
 9.750	23.000	2.4925e-02
 9.750	23.250	2.4925e-02
 9.750	23.500	2.4925e-02
 9.750	23.750	2.4925e-02
 9.750	24.000	2.4925e-02
10.000	17.000	3.7090e-03
10.000	17.250	3.6023e-03
10.000	17.500	3.6406e-03
10.000	17.750	3.8812e-03
10.000	18.000	4.4084e-03
10.000	18.250	5.2681e-03
10.000	18.500	6.7098e-03
10.000	18.750	9.2198e-03
10.000	19.000	1.3650e-02
10.000	19.250	1.9997e-02
10.000	19.500	2.2856e-02
10.000	19.750	2.3294e-02
10.000	20.000	2.4043e-02
10.000	20.250	2.4866e-02
10.000	20.500	2.4881e-02
10.000	20.750	2.4894e-02
10.000	21.000	2.4906e-02
10.000	21.250	2.4917e-02
10.000	21.500	2.4922e-02
10.000	21.750	2.4923e-02
10.000	22.000	2.4925e-02
10.000	22.250	2.4926e-02
10.000	22.500	2.4926e-02
10.000	22.750	2.4925e-02
10.000	23.000	2.4925e-02
10.000	23.250	2.4925e-02
10.000	23.500	2.4925e-02
10.000	23.750	2.4925e-02
10.000	24.000	2.4925e-02
10.250	17.000	3.7776e-03
10.250	17.250	3.5651e-03
10.250	17.500	3.5100e-03
10.250	17.750	3.6848e-03
10.250	18.000	4.1665e-03
10.250	18.250	4.9214e-03
10.250	18.500	6.0751e-03
10.250	18.750	7.9894e-03
10.250	19.000	1.1281e-02
10.250	19.250	1.6222e-02
10.250	19.500	2.1623e-02
10.250	19.750	2.2875e-02
10.250	20.000	2.3297e-02
10.250	20.250	2.4034e-02
10.250	20.500	2.4863e-02
10.250	20.750	2.4881e-02
10.250	21.000	2.4894e-02
10.250	21.250	2.4906e-02
10.250	21.500	2.4917e-02
10.250	21.750	2.4923e-02
10.250	22.000	2.4925e-02
10.250	22.250	2.4925e-02
10.250	22.500	2.4927e-02
10.250	22.750	2.4927e-02
10.250	23.000	2.4925e-02
10.250	23.250	2.4925e-02
10.250	23.500	2.4925e-02
10.250	23.750	2.4925e-02
10.250	24.000	2.4925e-02
10.500	17.000	3.9091e-03
10.500	17.250	3.6128e-03
10.500	17.500	3.4663e-03
10.500	17.750	3.5739e-03
10.500	18.000	3.9929e-03
10.500	18.250	4.6853e-03
10.500	18.500	5.6528e-03
10.500	18.750	7.0642e-03
10.500	19.000	9.1857e-03
10.500	19.250	1.2609e-02
10.500	19.500	1.7811e-02
10.500	19.750	2.2126e-02
10.500	20.000	2.2885e-02
10.500	20.250	2.3302e-02
10.500	20.500	2.4031e-02
10.500	20.750	2.4860e-02
10.500	21.000	2.4880e-02
10.500	21.250	2.4894e-02
10.500	21.500	2.4906e-02
10.500	21.750	2.4917e-02
10.500	22.000	2.4923e-02
10.500	22.250	2.4926e-02
10.500	22.500	2.4927e-02
10.500	22.750	2.4927e-02
10.500	23.000	2.4927e-02
10.500	23.250	2.4926e-02
10.500	23.500	2.4926e-02
10.500	23.750	2.4925e-02
10.500	24.000	2.4925e-02
10.750	17.000	4.0642e-03
10.750	17.250	3.7155e-03
10.750	17.500	3.5026e-03
10.750	17.750	3.5503e-03
10.750	18.000	3.8752e-03
10.750	18.250	4.4227e-03
10.750	18.500	5.1970e-03
10.750	18.750	6.1758e-03
10.750	19.000	7.5914e-03
10.750	19.250	9.8997e-03
10.750	19.500	1.3707e-02
10.750	19.750	1.9118e-02
10.750	20.000	2.2498e-02
10.750	20.250	2.2895e-02
10.750	20.500	2.3312e-02
10.750	20.750	2.4045e-02
10.750	21.000	2.4858e-02
10.750	21.250	2.4879e-02
10.750	21.500	2.4893e-02
10.750	21.750	2.4906e-02
10.750	22.000	2.4917e-02
10.750	22.250	2.4923e-02
10.750	22.500	2.4926e-02
10.750	22.750	2.4928e-02
10.750	23.000	2.4927e-02
10.750	23.250	2.4927e-02
10.750	23.500	2.4927e-02
10.750	23.750	2.4927e-02
10.750	24.000	2.4926e-02
11.000	17.000	4.1942e-03
11.000	17.250	3.8364e-03
11.000	17.500	3.5889e-03
11.000	17.750	3.5843e-03
11.000	18.000	3.8097e-03
11.000	18.250	4.1793e-03
11.000	18.500	4.7030e-03
11.000	18.750	5.4146e-03
11.000	19.000	6.4121e-03
11.000	19.250	7.9733e-03
11.000	19.500	1.0534e-02
11.000	19.750	1.4676e-02
11.000	20.000	2.0158e-02
11.000	20.250	2.2546e-02
11.000	20.500	2.2913e-02
11.000	20.750	2.3330e-02
11.000	21.000	2.4087e-02
11.000	21.250	2.4856e-02
11.000	21.500	2.4877e-02
11.000	21.750	2.4893e-02
11.000	22.000	2.4906e-02
11.000	22.250	2.4917e-02
11.000	22.500	2.4923e-02
11.000	22.750	2.4926e-02
11.000	23.000	2.4929e-02
11.000	23.250	2.4928e-02
11.000	23.500	2.4928e-02
11.000	23.750	2.4928e-02
11.000	24.000	2.4927e-02
11.250	17.000	4.2347e-03
11.250	17.250	3.9226e-03
11.250	17.500	3.6695e-03
11.250	17.750	3.6309e-03
11.250	18.000	3.7723e-03
11.250	18.250	3.9831e-03
11.250	18.500	4.2812e-03
11.250	18.750	4.7764e-03
11.250	19.000	5.5262e-03
11.250	19.250	6.6041e-03
11.250	19.500	8.3030e-03
11.250	19.750	1.1071e-02
11.250	20.000	1.5477e-02
11.250	20.250	2.0893e-02
11.250	20.500	2.2598e-02
11.250	20.750	2.2927e-02
11.250	21.000	2.3371e-02
11.250	21.250	2.4186e-02
11.250	21.500	2.4852e-02
11.250	21.750	2.4876e-02
11.250	22.000	2.4892e-02
11.250	22.250	2.4906e-02
11.250	22.500	2.4916e-02
11.250	22.750	2.4923e-02
11.250	23.000	2.4926e-02
11.250	23.250	2.4929e-02
11.250	23.500	2.4930e-02
11.250	23.750	2.4928e-02
11.250	24.000	2.4928e-02
11.500	17.000	4.1101e-03
11.500	17.250	3.9134e-03
11.500	17.500	3.6947e-03
11.500	17.750	3.6399e-03
11.500	18.000	3.7181e-03
11.500	18.250	3.8228e-03
11.500	18.500	3.9871e-03
11.500	18.750	4.2966e-03
11.500	19.000	4.8167e-03
11.500	19.250	5.5979e-03
11.500	19.500	6.7448e-03
11.500	19.750	8.5544e-03
11.500	20.000	1.1502e-02
11.500	20.250	1.6135e-02
11.500	20.500	2.1393e-02
11.500	20.750	2.2600e-02
11.500	21.000	2.2954e-02
11.500	21.250	2.3462e-02
11.500	21.500	2.4385e-02
11.500	21.750	2.4848e-02
11.500	22.000	2.4874e-02
11.500	22.250	2.4892e-02
11.500	22.500	2.4906e-02
11.500	22.750	2.4916e-02
11.500	23.000	2.4923e-02
11.500	23.250	2.4926e-02
11.500	23.500	2.4929e-02
11.500	23.750	2.4931e-02
11.500	24.000	2.4928e-02
11.750	17.000	3.7333e-03
11.750	17.250	3.7284e-03
11.750	17.500	3.6039e-03
11.750	17.750	3.5741e-03
11.750	18.000	3.6360e-03
11.750	18.250	3.6992e-03
11.750	18.500	3.7847e-03
11.750	18.750	3.9503e-03
11.750	19.000	4.2695e-03
11.750	19.250	4.8096e-03
11.750	19.500	5.6182e-03
11.750	19.750	6.8158e-03
11.750	20.000	8.7128e-03
11.750	20.250	1.1820e-02
11.750	20.500	1.6660e-02
11.750	20.750	2.1482e-02
11.750	21.000	2.2601e-02
11.750	21.250	2.3021e-02
11.750	21.500	2.3633e-02
11.750	21.750	2.4655e-02
11.750	22.000	2.4843e-02
11.750	22.250	2.4872e-02
11.750	22.500	2.4891e-02
11.750	22.750	2.4905e-02
11.750	23.000	2.4916e-02
11.750	23.250	2.4923e-02
11.750	23.500	2.4937e-02
11.750	23.750	2.4929e-02
11.750	24.000	2.4931e-02
12.000	17.000	3.0370e-03
12.000	17.250	3.2772e-03
12.000	17.500	3.3298e-03
12.000	17.750	3.4052e-03
12.000	18.000	3.5120e-03
12.000	18.250	3.5672e-03
12.000	18.500	3.5944e-03
12.000	18.750	3.6678e-03
12.000	19.000	3.8505e-03
12.000	19.250	4.1858e-03
12.000	19.500	4.7544e-03
12.000	19.750	5.5858e-03
12.000	20.000	6.8235e-03
12.000	20.250	8.7896e-03
12.000	20.500	1.2018e-02
12.000	20.750	1.7079e-02
12.000	21.000	2.1777e-02
12.000	21.250	2.2640e-02
12.000	21.500	2.3134e-02
12.000	21.750	2.3887e-02
12.000	22.000	2.4793e-02
12.000	22.250	2.4839e-02
12.000	22.500	2.4869e-02
12.000	22.750	2.4890e-02
12.000	23.000	2.4905e-02
12.000	23.250	2.4916e-02
12.000	23.500	2.4923e-02
12.000	23.750	2.4926e-02
12.000	24.000	2.4929e-02
12.250	17.000	2.1595e-03
12.250	17.250	2.5771e-03
12.250	17.500	2.8570e-03
12.250	17.750	3.1042e-03
12.250	18.000	3.2725e-03
12.250	18.250	3.3216e-03
12.250	18.500	3.3262e-03
12.250	18.750	3.3703e-03
12.250	19.000	3.4895e-03
12.250	19.250	3.7109e-03
12.250	19.500	4.0826e-03
12.250	19.750	4.6722e-03
12.250	20.000	5.5123e-03
12.250	20.250	6.7706e-03
12.250	20.500	8.7847e-03
12.250	20.750	1.2121e-02
12.250	21.000	1.7458e-02
12.250	21.250	2.1858e-02
12.250	21.500	2.2700e-02
12.250	21.750	2.3285e-02
12.250	22.000	2.4180e-02
12.250	22.250	2.4790e-02
12.250	22.500	2.4834e-02
12.250	22.750	2.4866e-02
12.250	23.000	2.4888e-02
12.250	23.250	2.4904e-02
12.250	23.500	2.4915e-02
12.250	23.750	2.4923e-02
12.250	24.000	2.4926e-02
12.500	17.000	1.4572e-03
12.500	17.250	1.9040e-03
12.500	17.500	2.3041e-03
12.500	17.750	2.6149e-03
12.500	18.000	2.7958e-03
12.500	18.250	2.8784e-03
12.500	18.500	2.9278e-03
12.500	18.750	3.0084e-03
12.500	19.000	3.1307e-03
12.500	19.250	3.3086e-03
12.500	19.500	3.5699e-03
12.500	19.750	3.9632e-03
12.500	20.000	4.5622e-03
12.500	20.250	5.3998e-03
12.500	20.500	6.6686e-03
12.500	20.750	8.7113e-03
12.500	21.000	1.2178e-02
12.500	21.250	1.7838e-02
12.500	21.500	2.1925e-02
12.500	21.750	2.2797e-02
12.500	22.000	2.3491e-02
12.500	22.250	2.4423e-02
12.500	22.500	2.4787e-02
12.500	22.750	2.4831e-02
12.500	23.000	2.4863e-02
12.500	23.250	2.4886e-02
12.500	23.500	2.4903e-02
12.500	23.750	2.4915e-02
12.500	24.000	2.4923e-02
12.750	17.000	1.0203e-03
12.750	17.250	1.3809e-03
12.750	17.500	1.6935e-03
12.750	17.750	1.9202e-03
12.750	18.000	2.1051e-03
12.750	18.250	2.2632e-03
12.750	18.500	2.4058e-03
12.750	18.750	2.5588e-03
12.750	19.000	2.7305e-03
12.750	19.250	2.9215e-03
12.750	19.500	3.1405e-03
12.750	19.750	3.4254e-03
12.750	20.000	3.8283e-03
12.750	20.250	4.4226e-03
12.750	20.500	5.2537e-03
12.750	20.750	6.5167e-03
12.750	21.000	8.5956e-03
12.750	21.250	1.2232e-02
12.750	21.500	1.8114e-02
12.750	21.750	2.2073e-02
12.750	22.000	2.2933e-02
12.750	22.250	2.3729e-02
12.750	22.500	2.4600e-02
12.750	22.750	2.4783e-02
12.750	23.000	2.4828e-02
12.750	23.250	2.4860e-02
12.750	23.500	2.4884e-02
12.750	23.750	2.4901e-02
12.750	24.000	2.4914e-02
13.000	17.000	6.4593e-04
13.000	17.250	8.8543e-04
13.000	17.500	1.0803e-03
13.000	17.750	1.2531e-03
13.000	18.000	1.4301e-03
13.000	18.250	1.6209e-03
13.000	18.500	1.8228e-03
13.000	18.750	2.0387e-03
13.000	19.000	2.2681e-03
13.000	19.250	2.5007e-03
13.000	19.500	2.7304e-03
13.000	19.750	2.9738e-03
13.000	20.000	3.2685e-03
13.000	20.250	3.6721e-03
13.000	20.500	4.2570e-03
13.000	20.750	5.0734e-03
13.000	21.000	6.3393e-03
13.000	21.250	8.4726e-03
13.000	21.500	1.2194e-02
13.000	21.750	1.8680e-02
13.000	22.000	2.2310e-02
13.000	22.250	2.3059e-02
13.000	22.500	2.3897e-02
13.000	22.750	2.4665e-02
13.000	23.000	2.4782e-02
13.000	23.250	2.4826e-02
13.000	23.500	2.4858e-02
13.000	23.750	2.4881e-02
13.000	24.000	2.4900e-02
13.250	17.000	4.1556e-04
13.250	17.250	5.7128e-04
13.250	17.500	6.9679e-04
13.250	17.750	7.9309e-04
13.250	18.000	9.1687e-04
13.250	18.250	1.0846e-03
13.250	18.500	1.2844e-03
13.250	18.750	1.5135e-03
13.250	19.000	1.7672e-03
13.250	19.250	2.0347e-03
13.250	19.500	2.2984e-03
13.250	19.750	2.5530e-03
13.250	20.000	2.8109e-03
13.250	20.250	3.1073e-03
13.250	20.500	3.4998e-03
13.250	20.750	4.0649e-03
13.250	21.000	4.8618e-03
13.250	21.250	6.1277e-03
13.250	21.500	8.2659e-03
13.250	21.750	1.2313e-02
13.250	22.000	1.9204e-02
13.250	22.250	2.2400e-02
13.250	22.500	2.3148e-02
13.250	22.750	2.3951e-02
13.250	23.000	2.4681e-02
13.250	23.250	2.4779e-02
13.250	23.500	2.4824e-02
13.250	23.750	2.4856e-02
13.250	24.000	2.4879e-02
13.500	17.000	2.7761e-04
13.500	17.250	3.7350e-04
13.500	17.500	4.5309e-04
13.500	17.750	5.0675e-04
13.500	18.000	5.8461e-04
13.500	18.250	6.9934e-04
13.500	18.500	8.5572e-04
13.500	18.750	1.0517e-03
13.500	19.000	1.2867e-03
13.500	19.250	1.5516e-03
13.500	19.500	1.8291e-03
13.500	19.750	2.1008e-03
13.500	20.000	2.3592e-03
13.500	20.250	2.6176e-03
13.500	20.500	2.9106e-03
13.500	20.750	3.2939e-03
13.500	21.000	3.8319e-03
13.500	21.250	4.6168e-03
13.500	21.500	5.8533e-03
13.500	21.750	7.9933e-03
13.500	22.000	1.2208e-02
13.500	22.250	1.9653e-02
13.500	22.500	2.2429e-02
13.500	22.750	2.3139e-02
13.500	23.000	2.3880e-02
13.500	23.250	2.4665e-02
13.500	23.500	2.4775e-02
13.500	23.750	2.4820e-02
13.500	24.000	2.4852e-02
13.750	17.000	1.9333e-04
13.750	17.250	2.5539e-04
13.750	17.500	3.0560e-04
13.750	17.750	3.4091e-04
13.750	18.000	3.8288e-04
13.750	18.250	4.5506e-04
13.750	18.500	5.5844e-04
13.750	18.750	6.9909e-04
13.750	19.000	8.8313e-04
13.750	19.250	1.1104e-03
13.750	19.500	1.3693e-03
13.750	19.750	1.6402e-03
13.750	20.000	1.9064e-03
13.750	20.250	2.1602e-03
13.750	20.500	2.4138e-03
13.750	20.750	2.6980e-03
13.750	21.000	3.0652e-03
13.750	21.250	3.5773e-03
13.750	21.500	4.3305e-03
13.750	21.750	5.5301e-03
13.750	22.000	7.7513e-03
13.750	22.250	1.2426e-02
13.750	22.500	2.0214e-02
13.750	22.750	2.2437e-02
13.750	23.000	2.3073e-02
13.750	23.250	2.3862e-02
13.750	23.500	2.4642e-02
13.750	23.750	2.4767e-02
13.750	24.000	2.4814e-02
14.000	17.000	1.4025e-04
14.000	17.250	1.8321e-04
14.000	17.500	2.1802e-04
14.000	17.750	2.3984e-04
14.000	18.000	2.6510e-04
14.000	18.250	3.0560e-04
14.000	18.500	3.6947e-04
14.000	18.750	4.5992e-04
14.000	19.000	5.8650e-04
14.000	19.250	7.5490e-04
14.000	19.500	9.6519e-04
14.000	19.750	1.2082e-03
14.000	20.000	1.4651e-03
14.000	20.250	1.7193e-03
14.000	20.500	1.9618e-03
14.000	20.750	2.2040e-03
14.000	21.000	2.4781e-03
14.000	21.250	2.8322e-03
14.000	21.500	3.3309e-03
14.000	21.750	4.0464e-03
14.000	22.000	5.2688e-03
14.000	22.250	7.7151e-03
14.000	22.500	1.3148e-02
14.000	22.750	2.0804e-02
14.000	23.000	2.2424e-02
14.000	23.250	2.3063e-02
14.000	23.500	2.3876e-02
14.000	23.750	2.4651e-02
14.000	24.000	2.4753e-02
