InwT 1356.96A  relative to Inci 1215.00A scaled to 1215A.
Hden   Phi(H)  Eq_Width (A)
 7.000	17.000	4.6829e-02
 7.000	17.250	4.4401e-02
 7.000	17.500	3.7110e-02
 7.000	17.750	3.2000e-02
 7.000	18.000	2.8846e-02
 7.000	18.250	2.7031e-02
 7.000	18.500	2.5964e-02
 7.000	18.750	2.5479e-02
 7.000	19.000	2.5228e-02
 7.000	19.250	2.5087e-02
 7.000	19.500	2.5028e-02
 7.000	19.750	2.5003e-02
 7.000	20.000	2.4992e-02
 7.000	20.250	2.4987e-02
 7.000	20.500	2.4985e-02
 7.000	20.750	2.4983e-02
 7.000	21.000	2.4983e-02
 7.000	21.250	2.4983e-02
 7.000	21.500	2.4983e-02
 7.000	21.750	2.4983e-02
 7.000	22.000	2.4983e-02
 7.000	22.250	2.4982e-02
 7.000	22.500	2.4982e-02
 7.000	22.750	2.4982e-02
 7.000	23.000	2.4983e-02
 7.000	23.250	2.4982e-02
 7.000	23.500	2.4982e-02
 7.000	23.750	2.4982e-02
 7.000	24.000	2.4982e-02
 7.250	17.000	4.9898e-02
 7.250	17.250	4.6526e-02
 7.250	17.500	4.4291e-02
 7.250	17.750	3.7050e-02
 7.250	18.000	3.1968e-02
 7.250	18.250	2.8830e-02
 7.250	18.500	2.7024e-02
 7.250	18.750	2.5961e-02
 7.250	19.000	2.5478e-02
 7.250	19.250	2.5228e-02
 7.250	19.500	2.5087e-02
 7.250	19.750	2.5028e-02
 7.250	20.000	2.5003e-02
 7.250	20.250	2.4992e-02
 7.250	20.500	2.4987e-02
 7.250	20.750	2.4985e-02
 7.250	21.000	2.4983e-02
 7.250	21.250	2.4983e-02
 7.250	21.500	2.4982e-02
 7.250	21.750	2.4982e-02
 7.250	22.000	2.4985e-02
 7.250	22.250	2.4982e-02
 7.250	22.500	2.4982e-02
 7.250	22.750	2.4982e-02
 7.250	23.000	2.4983e-02
 7.250	23.250	2.4984e-02
 7.250	23.500	2.4982e-02
 7.250	23.750	2.4983e-02
 7.250	24.000	2.4982e-02
 7.500	17.000	6.0831e-02
 7.500	17.250	4.9029e-02
 7.500	17.500	4.6269e-02
 7.500	17.750	4.4230e-02
 7.500	18.000	3.7017e-02
 7.500	18.250	3.1948e-02
 7.500	18.500	2.8819e-02
 7.500	18.750	2.7019e-02
 7.500	19.000	2.5959e-02
 7.500	19.250	2.5477e-02
 7.500	19.500	2.5227e-02
 7.500	19.750	2.5087e-02
 7.500	20.000	2.5028e-02
 7.500	20.250	2.5003e-02
 7.500	20.500	2.4992e-02
 7.500	20.750	2.4987e-02
 7.500	21.000	2.4985e-02
 7.500	21.250	2.4983e-02
 7.500	21.500	2.4983e-02
 7.500	21.750	2.4982e-02
 7.500	22.000	2.4982e-02
 7.500	22.250	2.4982e-02
 7.500	22.500	2.4982e-02
 7.500	22.750	2.4982e-02
 7.500	23.000	2.4982e-02
 7.500	23.250	2.4982e-02
 7.500	23.500	2.4982e-02
 7.500	23.750	2.4982e-02
 7.500	24.000	2.4982e-02
 7.750	17.000	7.0089e-02
 7.750	17.250	5.9562e-02
 7.750	17.500	4.8264e-02
 7.750	17.750	4.6064e-02
 7.750	18.000	4.4198e-02
 7.750	18.250	3.7000e-02
 7.750	18.500	3.1935e-02
 7.750	18.750	2.8812e-02
 7.750	19.000	2.7016e-02
 7.750	19.250	2.5958e-02
 7.750	19.500	2.5477e-02
 7.750	19.750	2.5227e-02
 7.750	20.000	2.5087e-02
 7.750	20.250	2.5028e-02
 7.750	20.500	2.5003e-02
 7.750	20.750	2.4992e-02
 7.750	21.000	2.4987e-02
 7.750	21.250	2.4985e-02
 7.750	21.500	2.4983e-02
 7.750	21.750	2.4983e-02
 7.750	22.000	2.4982e-02
 7.750	22.250	2.4982e-02
 7.750	22.500	2.4982e-02
 7.750	22.750	2.4982e-02
 7.750	23.000	2.4982e-02
 7.750	23.250	2.4982e-02
 7.750	23.500	2.4982e-02
 7.750	23.750	2.4982e-02
 7.750	24.000	2.4982e-02
 8.000	17.000	7.7129e-02
 8.000	17.250	6.8624e-02
 8.000	17.500	5.8514e-02
 8.000	17.750	4.7725e-02
 8.000	18.000	4.5848e-02
 8.000	18.250	4.4183e-02
 8.000	18.500	3.6994e-02
 8.000	18.750	3.1928e-02
 8.000	19.000	2.8807e-02
 8.000	19.250	2.7014e-02
 8.000	19.500	2.5958e-02
 8.000	19.750	2.5476e-02
 8.000	20.000	2.5227e-02
 8.000	20.250	2.5087e-02
 8.000	20.500	2.5028e-02
 8.000	20.750	2.5003e-02
 8.000	21.000	2.4992e-02
 8.000	21.250	2.4987e-02
 8.000	21.500	2.4985e-02
 8.000	21.750	2.4983e-02
 8.000	22.000	2.4982e-02
 8.000	22.250	2.4982e-02
 8.000	22.500	2.4982e-02
 8.000	22.750	2.4982e-02
 8.000	23.000	2.4982e-02
 8.000	23.250	2.4982e-02
 8.000	23.500	2.4982e-02
 8.000	23.750	2.4982e-02
 8.000	24.000	2.4984e-02
 8.250	17.000	8.1997e-02
 8.250	17.250	7.5912e-02
 8.250	17.500	6.7446e-02
 8.250	17.750	5.7637e-02
 8.250	18.000	4.7298e-02
 8.250	18.250	4.5753e-02
 8.250	18.500	4.4173e-02
 8.250	18.750	3.6994e-02
 8.250	19.000	3.1923e-02
 8.250	19.250	2.8803e-02
 8.250	19.500	2.7013e-02
 8.250	19.750	2.5957e-02
 8.250	20.000	2.5476e-02
 8.250	20.250	2.5227e-02
 8.250	20.500	2.5087e-02
 8.250	20.750	2.5028e-02
 8.250	21.000	2.5003e-02
 8.250	21.250	2.4992e-02
 8.250	21.500	2.4987e-02
 8.250	21.750	2.4985e-02
 8.250	22.000	2.4983e-02
 8.250	22.250	2.4982e-02
 8.250	22.500	2.4982e-02
 8.250	22.750	2.4982e-02
 8.250	23.000	2.4983e-02
 8.250	23.250	2.4982e-02
 8.250	23.500	2.4982e-02
 8.250	23.750	2.4982e-02
 8.250	24.000	2.4982e-02
 8.500	17.000	8.5193e-02
 8.500	17.250	8.1027e-02
 8.500	17.500	7.4861e-02
 8.500	17.750	6.6244e-02
 8.500	18.000	5.6700e-02
 8.500	18.250	4.6912e-02
 8.500	18.500	4.5692e-02
 8.500	18.750	4.4168e-02
 8.500	19.000	3.6998e-02
 8.500	19.250	3.1919e-02
 8.500	19.500	2.8800e-02
 8.500	19.750	2.7012e-02
 8.500	20.000	2.5957e-02
 8.500	20.250	2.5476e-02
 8.500	20.500	2.5227e-02
 8.500	20.750	2.5086e-02
 8.500	21.000	2.5028e-02
 8.500	21.250	2.5003e-02
 8.500	21.500	2.4992e-02
 8.500	21.750	2.4987e-02
 8.500	22.000	2.4985e-02
 8.500	22.250	2.4983e-02
 8.500	22.500	2.4982e-02
 8.500	22.750	2.4983e-02
 8.500	23.000	2.4982e-02
 8.500	23.250	2.4982e-02
 8.500	23.500	2.4982e-02
 8.500	23.750	2.4982e-02
 8.500	24.000	2.4982e-02
 8.750	17.000	8.7292e-02
 8.750	17.250	8.4459e-02
 8.750	17.500	8.0160e-02
 8.750	17.750	7.3662e-02
 8.750	18.000	6.4895e-02
 8.750	18.250	5.5490e-02
 8.750	18.500	4.6525e-02
 8.750	18.750	4.5654e-02
 8.750	19.000	4.4163e-02
 8.750	19.250	3.7005e-02
 8.750	19.500	3.1916e-02
 8.750	19.750	2.8797e-02
 8.750	20.000	2.7011e-02
 8.750	20.250	2.5956e-02
 8.750	20.500	2.5476e-02
 8.750	20.750	2.5227e-02
 8.750	21.000	2.5087e-02
 8.750	21.250	2.5028e-02
 8.750	21.500	2.5003e-02
 8.750	21.750	2.4992e-02
 8.750	22.000	2.4987e-02
 8.750	22.250	2.4985e-02
 8.750	22.500	2.4983e-02
 8.750	22.750	2.4982e-02
 8.750	23.000	2.4982e-02
 8.750	23.250	2.4982e-02
 8.750	23.500	2.4982e-02
 8.750	23.750	2.4982e-02
 8.750	24.000	2.4982e-02
 9.000	17.000	8.8602e-02
 9.000	17.250	8.6762e-02
 9.000	17.500	8.3786e-02
 9.000	17.750	7.9125e-02
 9.000	18.000	7.2044e-02
 9.000	18.250	6.2711e-02
 9.000	18.500	5.3649e-02
 9.000	18.750	4.5763e-02
 9.000	19.000	4.5612e-02
 9.000	19.250	4.4153e-02
 9.000	19.500	3.7012e-02
 9.000	19.750	3.1913e-02
 9.000	20.000	2.8794e-02
 9.000	20.250	2.7010e-02
 9.000	20.500	2.5956e-02
 9.000	20.750	2.5476e-02
 9.000	21.000	2.5227e-02
 9.000	21.250	2.5087e-02
 9.000	21.500	2.5028e-02
 9.000	21.750	2.5003e-02
 9.000	22.000	2.4992e-02
 9.000	22.250	2.4987e-02
 9.000	22.500	2.4985e-02
 9.000	22.750	2.4983e-02
 9.000	23.000	2.4982e-02
 9.000	23.250	2.4982e-02
 9.000	23.500	2.4982e-02
 9.000	23.750	2.4982e-02
 9.000	24.000	2.4982e-02
 9.250	17.000	8.9267e-02
 9.250	17.250	8.8203e-02
 9.250	17.500	8.6248e-02
 9.250	17.750	8.2903e-02
 9.250	18.000	7.7473e-02
 9.250	18.250	6.9432e-02
 9.250	18.500	5.9676e-02
 9.250	18.750	5.0850e-02
 9.250	19.000	4.5508e-02
 9.250	19.250	4.5554e-02
 9.250	19.500	4.4138e-02
 9.250	19.750	3.7018e-02
 9.250	20.000	3.1910e-02
 9.250	20.250	2.8792e-02
 9.250	20.500	2.7009e-02
 9.250	20.750	2.5956e-02
 9.250	21.000	2.5476e-02
 9.250	21.250	2.5227e-02
 9.250	21.500	2.5082e-02
 9.250	21.750	2.5023e-02
 9.250	22.000	2.4998e-02
 9.250	22.250	2.4988e-02
 9.250	22.500	2.4986e-02
 9.250	22.750	2.4984e-02
 9.250	23.000	2.4983e-02
 9.250	23.250	2.4982e-02
 9.250	23.500	2.4982e-02
 9.250	23.750	2.4982e-02
 9.250	24.000	2.4982e-02
 9.500	17.000	8.9373e-02
 9.500	17.250	8.8909e-02
 9.500	17.500	8.7784e-02
 9.500	17.750	8.5521e-02
 9.500	18.000	8.1405e-02
 9.500	18.250	7.4844e-02
 9.500	18.500	6.6000e-02
 9.500	18.750	5.6354e-02
 9.500	19.000	4.8539e-02
 9.500	19.250	4.5117e-02
 9.500	19.500	4.5458e-02
 9.500	19.750	4.4117e-02
 9.500	20.000	3.7021e-02
 9.500	20.250	3.1908e-02
 9.500	20.500	2.8790e-02
 9.500	20.750	2.7008e-02
 9.500	21.000	2.5952e-02
 9.500	21.250	2.5472e-02
 9.500	21.500	2.5222e-02
 9.500	21.750	2.5080e-02
 9.500	22.000	2.5020e-02
 9.500	22.250	2.4995e-02
 9.500	22.500	2.4985e-02
 9.500	22.750	2.4980e-02
 9.500	23.000	2.4977e-02
 9.500	23.250	2.4976e-02
 9.500	23.500	2.4976e-02
 9.500	23.750	2.4975e-02
 9.500	24.000	2.4975e-02
 9.750	17.000	8.9006e-02
 9.750	17.250	8.8966e-02
 9.750	17.500	8.8510e-02
 9.750	17.750	8.7153e-02
 9.750	18.000	8.4174e-02
 9.750	18.250	7.9037e-02
 9.750	18.500	7.1658e-02
 9.750	18.750	6.2575e-02
 9.750	19.000	5.3508e-02
 9.750	19.250	4.6633e-02
 9.750	19.500	4.4742e-02
 9.750	19.750	4.5336e-02
 9.750	20.000	4.4089e-02
 9.750	20.250	3.7020e-02
 9.750	20.500	3.1906e-02
 9.750	20.750	2.8788e-02
 9.750	21.000	2.7008e-02
 9.750	21.250	2.5952e-02
 9.750	21.500	2.5472e-02
 9.750	21.750	2.5223e-02
 9.750	22.000	2.5081e-02
 9.750	22.250	2.5020e-02
 9.750	22.500	2.4995e-02
 9.750	22.750	2.4985e-02
 9.750	23.000	2.4979e-02
 9.750	23.250	2.4977e-02
 9.750	23.500	2.4976e-02
 9.750	23.750	2.4975e-02
 9.750	24.000	2.4974e-02
10.000	17.000	8.8281e-02
10.000	17.250	8.8477e-02
10.000	17.500	8.8479e-02
10.000	17.750	8.7874e-02
10.000	18.000	8.5954e-02
10.000	18.250	8.2168e-02
10.000	18.500	7.6260e-02
10.000	18.750	6.8465e-02
10.000	19.000	5.9478e-02
10.000	19.250	5.1132e-02
10.000	19.500	4.6200e-02
10.000	19.750	4.4580e-02
10.000	20.000	4.5160e-02
10.000	20.250	4.4060e-02
10.000	20.500	3.7017e-02
10.000	20.750	3.1904e-02
10.000	21.000	2.8787e-02
10.000	21.250	2.7008e-02
10.000	21.500	2.5954e-02
10.000	21.750	2.5473e-02
10.000	22.000	2.5223e-02
10.000	22.250	2.5082e-02
10.000	22.500	2.5021e-02
10.000	22.750	2.4995e-02
10.000	23.000	2.4985e-02
10.000	23.250	2.4980e-02
10.000	23.500	2.4977e-02
10.000	23.750	2.4976e-02
10.000	24.000	2.4975e-02
10.250	17.000	8.7596e-02
10.250	17.250	8.7644e-02
10.250	17.500	8.7891e-02
10.250	17.750	8.7822e-02
10.250	18.000	8.6821e-02
10.250	18.250	8.4251e-02
10.250	18.500	7.9744e-02
10.250	18.750	7.3364e-02
10.250	19.000	6.5444e-02
10.250	19.250	5.6734e-02
10.250	19.500	4.8780e-02
10.250	19.750	4.6600e-02
10.250	20.000	4.4702e-02
10.250	20.250	4.5146e-02
10.250	20.500	4.4038e-02
10.250	20.750	3.7011e-02
10.250	21.000	3.1903e-02
10.250	21.250	2.8786e-02
10.250	21.500	2.7008e-02
10.250	21.750	2.5955e-02
10.250	22.000	2.5475e-02
10.250	22.250	2.5223e-02
10.250	22.500	2.5082e-02
10.250	22.750	2.5022e-02
10.250	23.000	2.4996e-02
10.250	23.250	2.4984e-02
10.250	23.500	2.4980e-02
10.250	23.750	2.4977e-02
10.250	24.000	2.4976e-02
10.500	17.000	8.7081e-02
10.500	17.250	8.6896e-02
10.500	17.500	8.7005e-02
10.500	17.750	8.7241e-02
10.500	18.000	8.6809e-02
10.500	18.250	8.5060e-02
10.500	18.500	8.1835e-02
10.500	18.750	7.7024e-02
10.500	19.000	7.0823e-02
10.500	19.250	6.3480e-02
10.500	19.500	5.5188e-02
10.500	19.750	4.8038e-02
10.500	20.000	4.6820e-02
10.500	20.250	4.5086e-02
10.500	20.500	4.5313e-02
10.500	20.750	4.4060e-02
10.500	21.000	3.7005e-02
10.500	21.250	3.1901e-02
10.500	21.500	2.8786e-02
10.500	21.750	2.7007e-02
10.500	22.000	2.5955e-02
10.500	22.250	2.5476e-02
10.500	22.500	2.5225e-02
10.500	22.750	2.5082e-02
10.500	23.000	2.5023e-02
10.500	23.250	2.4997e-02
10.500	23.500	2.4985e-02
10.500	23.750	2.4980e-02
10.500	24.000	2.4977e-02
10.750	17.000	8.6791e-02
10.750	17.250	8.6418e-02
10.750	17.500	8.6283e-02
10.750	17.750	8.6353e-02
10.750	18.000	8.6029e-02
10.750	18.250	8.4794e-02
10.750	18.500	8.2536e-02
10.750	18.750	7.9105e-02
10.750	19.000	7.4756e-02
10.750	19.250	6.9067e-02
10.750	19.500	6.1868e-02
10.750	19.750	5.3630e-02
10.750	20.000	4.6861e-02
10.750	20.250	4.7373e-02
10.750	20.500	4.5868e-02
10.750	20.750	4.5888e-02
10.750	21.000	4.4135e-02
10.750	21.250	3.7000e-02
10.750	21.500	3.1901e-02
10.750	21.750	2.8787e-02
10.750	22.000	2.7008e-02
10.750	22.250	2.5954e-02
10.750	22.500	2.5476e-02
10.750	22.750	2.5226e-02
10.750	23.000	2.5082e-02
10.750	23.250	2.5023e-02
10.750	23.500	2.4998e-02
10.750	23.750	2.4986e-02
10.750	24.000	2.4981e-02
11.000	17.000	8.6669e-02
11.000	17.250	8.6233e-02
11.000	17.500	8.5835e-02
11.000	17.750	8.5404e-02
11.000	18.000	8.4725e-02
11.000	18.250	8.3546e-02
11.000	18.500	8.1881e-02
11.000	18.750	7.9912e-02
11.000	19.000	7.7135e-02
11.000	19.250	7.3244e-02
11.000	19.500	6.7678e-02
11.000	19.750	6.0435e-02
11.000	20.000	5.1696e-02
11.000	20.250	4.7514e-02
11.000	20.500	4.8808e-02
11.000	20.750	4.7108e-02
11.000	21.000	4.6947e-02
11.000	21.250	4.4295e-02
11.000	21.500	3.7002e-02
11.000	21.750	3.1900e-02
11.000	22.000	2.8788e-02
11.000	22.250	2.7008e-02
11.000	22.500	2.5954e-02
11.000	22.750	2.5476e-02
11.000	23.000	2.5227e-02
11.000	23.250	2.5083e-02
11.000	23.500	2.5023e-02
11.000	23.750	2.4998e-02
11.000	24.000	2.4987e-02
11.250	17.000	8.6685e-02
11.250	17.250	8.6234e-02
11.250	17.500	8.5528e-02
11.250	17.750	8.4516e-02
11.250	18.000	8.3177e-02
11.250	18.250	8.1673e-02
11.250	18.500	8.0470e-02
11.250	18.750	7.9423e-02
11.250	19.000	7.8090e-02
11.250	19.250	7.5739e-02
11.250	19.500	7.1972e-02
11.250	19.750	6.6466e-02
11.250	20.000	5.9071e-02
11.250	20.250	5.0157e-02
11.250	20.500	4.7912e-02
11.250	20.750	4.9883e-02
11.250	21.000	4.8998e-02
11.250	21.250	4.8712e-02
11.250	21.500	4.4569e-02
11.250	21.750	3.7018e-02
11.250	22.000	3.1899e-02
11.250	22.250	2.8790e-02
11.250	22.500	2.7008e-02
11.250	22.750	2.5954e-02
11.250	23.000	2.5476e-02
11.250	23.250	2.5227e-02
11.250	23.500	2.5085e-02
11.250	23.750	2.5023e-02
11.250	24.000	2.4999e-02
11.500	17.000	8.6869e-02
11.500	17.250	8.6270e-02
11.500	17.500	8.5215e-02
11.500	17.750	8.3604e-02
11.500	18.000	8.1535e-02
11.500	18.250	7.9615e-02
11.500	18.500	7.8576e-02
11.500	18.750	7.8146e-02
11.500	19.000	7.7858e-02
11.500	19.250	7.6807e-02
11.500	19.500	7.4637e-02
11.500	19.750	7.0982e-02
11.500	20.000	6.5536e-02
11.500	20.250	5.7997e-02
11.500	20.500	4.9093e-02
11.500	20.750	4.9404e-02
11.500	21.000	5.2170e-02
11.500	21.250	5.1963e-02
11.500	21.500	5.1639e-02
11.500	21.750	4.4857e-02
11.500	22.000	3.7050e-02
11.500	22.250	3.1898e-02
11.500	22.500	2.8792e-02
11.500	22.750	2.7010e-02
11.500	23.000	2.5953e-02
11.500	23.250	2.5476e-02
11.500	23.500	2.5227e-02
11.500	23.750	2.5086e-02
11.500	24.000	2.5024e-02
11.750	17.000	8.7214e-02
11.750	17.250	8.6240e-02
11.750	17.500	8.4703e-02
11.750	17.750	8.2446e-02
11.750	18.000	7.9759e-02
11.750	18.250	7.7713e-02
11.750	18.500	7.6694e-02
11.750	18.750	7.6529e-02
11.750	19.000	7.6757e-02
11.750	19.250	7.6788e-02
11.750	19.500	7.5926e-02
11.750	19.750	7.3881e-02
11.750	20.000	7.0387e-02
11.750	20.250	6.4959e-02
11.750	20.500	5.7361e-02
11.750	20.750	4.8936e-02
11.750	21.000	5.1425e-02
11.750	21.250	5.5857e-02
11.750	21.500	5.6309e-02
11.750	21.750	5.5214e-02
11.750	22.000	4.5150e-02
11.750	22.250	3.7091e-02
11.750	22.500	3.1897e-02
11.750	22.750	2.8794e-02
11.750	23.000	2.7011e-02
11.750	23.250	2.5953e-02
11.750	23.500	2.5487e-02
11.750	23.750	2.5227e-02
11.750	24.000	2.5086e-02
12.000	17.000	8.7541e-02
12.000	17.250	8.6007e-02
12.000	17.500	8.3773e-02
12.000	17.750	8.0787e-02
12.000	18.000	7.7841e-02
12.000	18.250	7.5984e-02
12.000	18.500	7.5059e-02
12.000	18.750	7.4902e-02
12.000	19.000	7.5263e-02
12.000	19.250	7.5891e-02
12.000	19.500	7.6129e-02
12.000	19.750	7.5428e-02
12.000	20.000	7.3572e-02
12.000	20.250	7.0250e-02
12.000	20.500	6.4882e-02
12.000	20.750	5.7337e-02
12.000	21.000	4.9877e-02
12.000	21.250	5.5506e-02
12.000	21.500	6.1273e-02
12.000	21.750	6.1971e-02
12.000	22.000	5.7653e-02
12.000	22.250	4.5383e-02
12.000	22.500	3.7134e-02
12.000	22.750	3.1893e-02
12.000	23.000	2.8796e-02
12.000	23.250	2.7012e-02
12.000	23.500	2.5952e-02
12.000	23.750	2.5475e-02
12.000	24.000	2.5227e-02
12.250	17.000	8.7251e-02
12.250	17.250	8.5075e-02
12.250	17.500	8.1975e-02
12.250	17.750	7.8413e-02
12.250	18.000	7.5720e-02
12.250	18.250	7.4245e-02
12.250	18.500	7.3620e-02
12.250	18.750	7.3508e-02
12.250	19.000	7.3803e-02
12.250	19.250	7.4552e-02
12.250	19.500	7.5460e-02
12.250	19.750	7.5878e-02
12.250	20.000	7.5361e-02
12.250	20.250	7.3759e-02
12.250	20.500	7.0614e-02
12.250	20.750	6.5496e-02
12.250	21.000	5.8850e-02
12.250	21.250	5.4061e-02
12.250	21.500	6.0902e-02
12.250	21.750	6.7429e-02
12.250	22.000	6.8206e-02
12.250	22.250	5.8630e-02
12.250	22.500	4.5604e-02
12.250	22.750	3.7172e-02
12.250	23.000	3.1887e-02
12.250	23.250	2.8797e-02
12.250	23.500	2.7014e-02
12.250	23.750	2.5951e-02
12.250	24.000	2.5475e-02
12.500	17.000	8.4827e-02
12.500	17.250	8.2305e-02
12.500	17.500	7.8716e-02
12.500	17.750	7.5341e-02
12.500	18.000	7.3292e-02
12.500	18.250	7.2414e-02
12.500	18.500	7.2163e-02
12.500	18.750	7.2270e-02
12.500	19.000	7.2621e-02
12.500	19.250	7.3272e-02
12.500	19.500	7.4307e-02
12.500	19.750	7.5442e-02
12.500	20.000	7.6071e-02
12.500	20.250	7.5742e-02
12.500	20.500	7.4438e-02
12.500	20.750	7.1873e-02
12.500	21.000	6.7721e-02
12.500	21.250	6.2393e-02
12.500	21.500	6.0020e-02
12.500	21.750	6.8289e-02
12.500	22.000	7.5809e-02
12.500	22.250	7.3644e-02
12.500	22.500	5.9516e-02
12.500	22.750	4.5845e-02
12.500	23.000	3.7204e-02
12.500	23.250	3.1878e-02
12.500	23.500	2.8796e-02
12.500	23.750	2.7015e-02
12.500	24.000	2.5949e-02
12.750	17.000	6.0632e-02
12.750	17.250	7.6550e-02
12.750	17.500	7.3877e-02
12.750	17.750	7.1906e-02
12.750	18.000	7.0800e-02
12.750	18.250	7.0366e-02
12.750	18.500	7.0465e-02
12.750	18.750	7.0888e-02
12.750	19.000	7.1490e-02
12.750	19.250	7.2225e-02
12.750	19.500	7.3185e-02
12.750	19.750	7.4456e-02
12.750	20.000	7.5765e-02
12.750	20.250	7.6601e-02
12.750	20.500	7.6667e-02
12.750	20.750	7.5948e-02
12.750	21.000	7.4187e-02
12.750	21.250	7.1737e-02
12.750	21.500	6.8152e-02
12.750	21.750	6.9196e-02
12.750	22.000	7.8225e-02
12.750	22.250	8.4997e-02
12.750	22.500	7.8029e-02
12.750	22.750	6.0192e-02
12.750	23.000	4.6062e-02
12.750	23.250	3.7217e-02
12.750	23.500	3.1866e-02
12.750	23.750	2.8793e-02
12.750	24.000	2.7014e-02
13.000	17.000	1.3369e-02
13.000	17.250	2.6073e-02
13.000	17.500	6.3913e-02
13.000	17.750	6.8313e-02
13.000	18.000	6.8032e-02
13.000	18.250	6.7985e-02
13.000	18.500	6.8405e-02
13.000	18.750	6.9178e-02
13.000	19.000	7.0140e-02
13.000	19.250	7.1171e-02
13.000	19.500	7.2234e-02
13.000	19.750	7.3472e-02
13.000	20.000	7.4927e-02
13.000	20.250	7.6438e-02
13.000	20.500	7.7789e-02
13.000	20.750	7.8358e-02
13.000	21.000	7.8777e-02
13.000	21.250	7.8594e-02
13.000	21.500	7.7101e-02
13.000	21.750	7.6454e-02
13.000	22.000	8.1040e-02
13.000	22.250	8.7704e-02
13.000	22.500	9.1952e-02
13.000	22.750	8.0983e-02
13.000	23.000	6.0941e-02
13.000	23.250	4.6248e-02
13.000	23.500	3.7224e-02
13.000	23.750	3.1852e-02
13.000	24.000	2.8787e-02
13.250	17.000	9.0347e-03
13.250	17.250	1.4050e-02
13.250	17.500	2.7976e-02
13.250	17.750	4.6958e-02
13.250	18.000	6.4561e-02
13.250	18.250	6.4961e-02
13.250	18.500	6.5782e-02
13.250	18.750	6.6970e-02
13.250	19.000	6.8378e-02
13.250	19.250	6.9798e-02
13.250	19.500	7.1204e-02
13.250	19.750	7.2613e-02
13.250	20.000	7.4089e-02
13.250	20.250	7.5714e-02
13.250	20.500	7.7480e-02
13.250	20.750	7.9210e-02
13.250	21.000	8.0657e-02
13.250	21.250	8.2151e-02
13.250	21.500	8.2643e-02
13.250	21.750	8.4173e-02
13.250	22.000	8.3417e-02
13.250	22.250	8.8731e-02
13.250	22.500	9.6412e-02
13.250	22.750	9.6367e-02
13.250	23.000	8.3276e-02
13.250	23.250	6.1447e-02
13.250	23.500	4.6359e-02
13.250	23.750	3.7218e-02
13.250	24.000	3.1834e-02
13.500	17.000	6.4113e-03
13.500	17.250	9.2919e-03
13.500	17.500	1.7345e-02
13.500	17.750	3.2880e-02
13.500	18.000	4.8978e-02
13.500	18.250	6.1325e-02
13.500	18.500	6.2483e-02
13.500	18.750	6.4047e-02
13.500	19.000	6.5972e-02
13.500	19.250	6.7924e-02
13.500	19.500	6.9779e-02
13.500	19.750	7.1549e-02
13.500	20.000	7.3319e-02
13.500	20.250	7.5125e-02
13.500	20.500	7.6976e-02
13.500	20.750	7.8880e-02
13.500	21.000	8.0510e-02
13.500	21.250	8.2770e-02
13.500	21.500	8.3507e-02
13.500	21.750	8.2949e-02
13.500	22.000	8.3209e-02
13.500	22.250	8.8561e-02
13.500	22.500	9.7956e-02
13.500	22.750	1.0273e-01
13.500	23.000	9.8724e-02
13.500	23.250	8.5079e-02
13.500	23.500	6.1933e-02
13.500	23.750	4.6564e-02
13.500	24.000	3.7198e-02
13.750	17.000	4.7479e-03
13.750	17.250	6.9695e-03
13.750	17.500	1.1749e-02
13.750	17.750	1.9482e-02
13.750	18.000	3.6560e-02
13.750	18.250	4.8415e-02
13.750	18.500	5.8733e-02
13.750	18.750	6.0549e-02
13.750	19.000	6.2807e-02
13.750	19.250	6.5321e-02
13.750	19.500	6.7803e-02
13.750	19.750	7.0089e-02
13.750	20.000	7.2267e-02
13.750	20.250	7.4480e-02
13.750	20.500	7.6723e-02
13.750	20.750	7.8899e-02
13.750	21.000	8.0831e-02
13.750	21.250	8.2338e-02
13.750	21.500	8.3325e-02
13.750	21.750	8.3214e-02
13.750	22.000	8.3106e-02
13.750	22.250	8.6249e-02
13.750	22.500	9.8313e-02
13.750	22.750	1.1012e-01
13.750	23.000	1.0930e-01
13.750	23.250	1.0299e-01
13.750	23.500	8.6632e-02
13.750	23.750	6.2428e-02
13.750	24.000	4.6594e-02
14.000	17.000	3.7972e-03
14.000	17.250	5.1515e-03
14.000	17.500	8.4552e-03
14.000	17.750	1.3392e-02
14.000	18.000	2.2542e-02
14.000	18.250	3.8962e-02
14.000	18.500	4.8927e-02
14.000	18.750	5.6653e-02
14.000	19.000	5.9158e-02
14.000	19.250	6.2008e-02
14.000	19.500	6.5035e-02
14.000	19.750	6.8000e-02
14.000	20.000	7.0757e-02
14.000	20.250	7.3434e-02
14.000	20.500	7.6158e-02
14.000	20.750	7.8893e-02
14.000	21.000	8.1489e-02
14.000	21.250	8.3761e-02
14.000	21.500	8.5041e-02
14.000	21.750	8.5695e-02
14.000	22.000	8.5790e-02
14.000	22.250	8.7322e-02
14.000	22.500	9.5961e-02
14.000	22.750	1.1825e-01
14.000	23.000	1.2506e-01
14.000	23.250	1.1915e-01
14.000	23.500	1.0816e-01
14.000	23.750	8.8475e-02
14.000	24.000	6.2714e-02
