InwT 1900.00A  relative to Inci 1215.00A scaled to 1215A.
Hden   Phi(H)  Eq_Width (A)
 7.000	17.000	6.4604e-02
 7.000	17.250	5.1899e-02
 7.000	17.500	3.7768e-02
 7.000	17.750	3.0640e-02
 7.000	18.000	2.7306e-02
 7.000	18.250	2.5593e-02
 7.000	18.500	2.4664e-02
 7.000	18.750	2.4274e-02
 7.000	19.000	2.4076e-02
 7.000	19.250	2.3965e-02
 7.000	19.500	2.3920e-02
 7.000	19.750	2.3901e-02
 7.000	20.000	2.3893e-02
 7.000	20.250	2.3889e-02
 7.000	20.500	2.3887e-02
 7.000	20.750	2.3887e-02
 7.000	21.000	2.3886e-02
 7.000	21.250	2.3886e-02
 7.000	21.500	2.3886e-02
 7.000	21.750	2.3886e-02
 7.000	22.000	2.3886e-02
 7.000	22.250	2.3886e-02
 7.000	22.500	2.3886e-02
 7.000	22.750	2.3886e-02
 7.000	23.000	2.3886e-02
 7.000	23.250	2.3886e-02
 7.000	23.500	2.3886e-02
 7.000	23.750	2.3886e-02
 7.000	24.000	2.3886e-02
 7.250	17.000	7.6684e-02
 7.250	17.250	6.4511e-02
 7.250	17.500	5.1800e-02
 7.250	17.750	3.7719e-02
 7.250	18.000	3.0617e-02
 7.250	18.250	2.7297e-02
 7.250	18.500	2.5590e-02
 7.250	18.750	2.4662e-02
 7.250	19.000	2.4273e-02
 7.250	19.250	2.4075e-02
 7.250	19.500	2.3965e-02
 7.250	19.750	2.3920e-02
 7.250	20.000	2.3901e-02
 7.250	20.250	2.3893e-02
 7.250	20.500	2.3889e-02
 7.250	20.750	2.3887e-02
 7.250	21.000	2.3887e-02
 7.250	21.250	2.3886e-02
 7.250	21.500	2.3886e-02
 7.250	21.750	2.3886e-02
 7.250	22.000	2.3888e-02
 7.250	22.250	2.3886e-02
 7.250	22.500	2.3886e-02
 7.250	22.750	2.3886e-02
 7.250	23.000	2.3886e-02
 7.250	23.250	2.3887e-02
 7.250	23.500	2.3886e-02
 7.250	23.750	2.3887e-02
 7.250	24.000	2.3886e-02
 7.500	17.000	7.2347e-02
 7.500	17.250	7.6709e-02
 7.500	17.500	6.4431e-02
 7.500	17.750	5.1733e-02
 7.500	18.000	3.7681e-02
 7.500	18.250	3.0597e-02
 7.500	18.500	2.7291e-02
 7.500	18.750	2.5588e-02
 7.500	19.000	2.4662e-02
 7.500	19.250	2.4273e-02
 7.500	19.500	2.4075e-02
 7.500	19.750	2.3965e-02
 7.500	20.000	2.3920e-02
 7.500	20.250	2.3901e-02
 7.500	20.500	2.3893e-02
 7.500	20.750	2.3889e-02
 7.500	21.000	2.3887e-02
 7.500	21.250	2.3886e-02
 7.500	21.500	2.3886e-02
 7.500	21.750	2.3886e-02
 7.500	22.000	2.3886e-02
 7.500	22.250	2.3886e-02
 7.500	22.500	2.3886e-02
 7.500	22.750	2.3886e-02
 7.500	23.000	2.3886e-02
 7.500	23.250	2.3886e-02
 7.500	23.500	2.3886e-02
 7.500	23.750	2.3886e-02
 7.500	24.000	2.3886e-02
 7.750	17.000	6.8746e-02
 7.750	17.250	7.2454e-02
 7.750	17.500	7.6676e-02
 7.750	17.750	6.4377e-02
 7.750	18.000	5.1689e-02
 7.750	18.250	3.7650e-02
 7.750	18.500	3.0578e-02
 7.750	18.750	2.7285e-02
 7.750	19.000	2.5586e-02
 7.750	19.250	2.4661e-02
 7.750	19.500	2.4273e-02
 7.750	19.750	2.4075e-02
 7.750	20.000	2.3965e-02
 7.750	20.250	2.3920e-02
 7.750	20.500	2.3901e-02
 7.750	20.750	2.3893e-02
 7.750	21.000	2.3889e-02
 7.750	21.250	2.3887e-02
 7.750	21.500	2.3886e-02
 7.750	21.750	2.3886e-02
 7.750	22.000	2.3886e-02
 7.750	22.250	2.3885e-02
 7.750	22.500	2.3886e-02
 7.750	22.750	2.3885e-02
 7.750	23.000	2.3886e-02
 7.750	23.250	2.3885e-02
 7.750	23.500	2.3885e-02
 7.750	23.750	2.3885e-02
 7.750	24.000	2.3885e-02
 8.000	17.000	6.4379e-02
 8.000	17.250	6.8105e-02
 8.000	17.500	7.1793e-02
 8.000	17.750	7.5990e-02
 8.000	18.000	6.4220e-02
 8.000	18.250	5.1658e-02
 8.000	18.500	3.7621e-02
 8.000	18.750	3.0559e-02
 8.000	19.000	2.7280e-02
 8.000	19.250	2.5585e-02
 8.000	19.500	2.4661e-02
 8.000	19.750	2.4273e-02
 8.000	20.000	2.4075e-02
 8.000	20.250	2.3965e-02
 8.000	20.500	2.3920e-02
 8.000	20.750	2.3901e-02
 8.000	21.000	2.3893e-02
 8.000	21.250	2.3889e-02
 8.000	21.500	2.3887e-02
 8.000	21.750	2.3886e-02
 8.000	22.000	2.3886e-02
 8.000	22.250	2.3886e-02
 8.000	22.500	2.3885e-02
 8.000	22.750	2.3885e-02
 8.000	23.000	2.3885e-02
 8.000	23.250	2.3885e-02
 8.000	23.500	2.3885e-02
 8.000	23.750	2.3885e-02
 8.000	24.000	2.3888e-02
 8.250	17.000	6.1267e-02
 8.250	17.250	6.4564e-02
 8.250	17.500	6.8380e-02
 8.250	17.750	7.1972e-02
 8.250	18.000	7.6017e-02
 8.250	18.250	6.4224e-02
 8.250	18.500	5.1639e-02
 8.250	18.750	3.7594e-02
 8.250	19.000	3.0540e-02
 8.250	19.250	2.7274e-02
 8.250	19.500	2.5584e-02
 8.250	19.750	2.4660e-02
 8.250	20.000	2.4273e-02
 8.250	20.250	2.4075e-02
 8.250	20.500	2.3965e-02
 8.250	20.750	2.3920e-02
 8.250	21.000	2.3901e-02
 8.250	21.250	2.3893e-02
 8.250	21.500	2.3889e-02
 8.250	21.750	2.3887e-02
 8.250	22.000	2.3886e-02
 8.250	22.250	2.3886e-02
 8.250	22.500	2.3886e-02
 8.250	22.750	2.3886e-02
 8.250	23.000	2.3886e-02
 8.250	23.250	2.3885e-02
 8.250	23.500	2.3885e-02
 8.250	23.750	2.3885e-02
 8.250	24.000	2.3885e-02
 8.500	17.000	5.8629e-02
 8.500	17.250	6.1512e-02
 8.500	17.500	6.4974e-02
 8.500	17.750	6.8906e-02
 8.500	18.000	7.2413e-02
 8.500	18.250	7.6199e-02
 8.500	18.500	6.4246e-02
 8.500	18.750	5.1625e-02
 8.500	19.000	3.7564e-02
 8.500	19.250	3.0518e-02
 8.500	19.500	2.7268e-02
 8.500	19.750	2.5583e-02
 8.500	20.000	2.4660e-02
 8.500	20.250	2.4273e-02
 8.500	20.500	2.4075e-02
 8.500	20.750	2.3965e-02
 8.500	21.000	2.3920e-02
 8.500	21.250	2.3901e-02
 8.500	21.500	2.3893e-02
 8.500	21.750	2.3889e-02
 8.500	22.000	2.3887e-02
 8.500	22.250	2.3886e-02
 8.500	22.500	2.3886e-02
 8.500	22.750	2.3886e-02
 8.500	23.000	2.3885e-02
 8.500	23.250	2.3885e-02
 8.500	23.500	2.3885e-02
 8.500	23.750	2.3885e-02
 8.500	24.000	2.3885e-02
 8.750	17.000	5.6233e-02
 8.750	17.250	5.8957e-02
 8.750	17.500	6.2059e-02
 8.750	17.750	6.5792e-02
 8.750	18.000	6.9919e-02
 8.750	18.250	7.3343e-02
 8.750	18.500	7.6575e-02
 8.750	18.750	6.4279e-02
 8.750	19.000	5.1617e-02
 8.750	19.250	3.7534e-02
 8.750	19.500	3.0496e-02
 8.750	19.750	2.7263e-02
 8.750	20.000	2.5582e-02
 8.750	20.250	2.4660e-02
 8.750	20.500	2.4273e-02
 8.750	20.750	2.4075e-02
 8.750	21.000	2.3965e-02
 8.750	21.250	2.3920e-02
 8.750	21.500	2.3901e-02
 8.750	21.750	2.3893e-02
 8.750	22.000	2.3889e-02
 8.750	22.250	2.3887e-02
 8.750	22.500	2.3886e-02
 8.750	22.750	2.3886e-02
 8.750	23.000	2.3886e-02
 8.750	23.250	2.3885e-02
 8.750	23.500	2.3885e-02
 8.750	23.750	2.3885e-02
 8.750	24.000	2.3885e-02
 9.000	17.000	5.3832e-02
 9.000	17.250	5.6661e-02
 9.000	17.500	5.9672e-02
 9.000	17.750	6.3208e-02
 9.000	18.000	6.7485e-02
 9.000	18.250	7.2014e-02
 9.000	18.500	7.5328e-02
 9.000	18.750	7.7582e-02
 9.000	19.000	6.4297e-02
 9.000	19.250	5.1616e-02
 9.000	19.500	3.7506e-02
 9.000	19.750	3.0472e-02
 9.000	20.000	2.7257e-02
 9.000	20.250	2.5581e-02
 9.000	20.500	2.4660e-02
 9.000	20.750	2.4273e-02
 9.000	21.000	2.4075e-02
 9.000	21.250	2.3965e-02
 9.000	21.500	2.3920e-02
 9.000	21.750	2.3901e-02
 9.000	22.000	2.3893e-02
 9.000	22.250	2.3889e-02
 9.000	22.500	2.3887e-02
 9.000	22.750	2.3886e-02
 9.000	23.000	2.3886e-02
 9.000	23.250	2.3886e-02
 9.000	23.500	2.3885e-02
 9.000	23.750	2.3885e-02
 9.000	24.000	2.3886e-02
 9.250	17.000	5.1177e-02
 9.250	17.250	5.4330e-02
 9.250	17.500	5.7597e-02
 9.250	17.750	6.1242e-02
 9.250	18.000	6.5580e-02
 9.250	18.250	7.0699e-02
 9.250	18.500	7.5707e-02
 9.250	18.750	7.9484e-02
 9.250	19.000	7.7434e-02
 9.250	19.250	6.4286e-02
 9.250	19.500	5.1619e-02
 9.250	19.750	3.7481e-02
 9.250	20.000	3.0450e-02
 9.250	20.250	2.7251e-02
 9.250	20.500	2.5580e-02
 9.250	20.750	2.4660e-02
 9.250	21.000	2.4273e-02
 9.250	21.250	2.4075e-02
 9.250	21.500	2.3961e-02
 9.250	21.750	2.3916e-02
 9.250	22.000	2.3896e-02
 9.250	22.250	2.3889e-02
 9.250	22.500	2.3889e-02
 9.250	22.750	2.3887e-02
 9.250	23.000	2.3886e-02
 9.250	23.250	2.3886e-02
 9.250	23.500	2.3885e-02
 9.250	23.750	2.3885e-02
 9.250	24.000	2.3885e-02
 9.500	17.000	4.8075e-02
 9.500	17.250	5.1760e-02
 9.500	17.500	5.5527e-02
 9.500	17.750	5.9645e-02
 9.500	18.000	6.4326e-02
 9.500	18.250	6.9897e-02
 9.500	18.500	7.5941e-02
 9.500	18.750	8.1296e-02
 9.500	19.000	8.5239e-02
 9.500	19.250	7.6930e-02
 9.500	19.500	6.4214e-02
 9.500	19.750	5.1626e-02
 9.500	20.000	3.7463e-02
 9.500	20.250	3.0431e-02
 9.500	20.500	2.7246e-02
 9.500	20.750	2.5579e-02
 9.500	21.000	2.4656e-02
 9.500	21.250	2.4269e-02
 9.500	21.500	2.4071e-02
 9.500	21.750	2.3959e-02
 9.500	22.000	2.3913e-02
 9.500	22.250	2.3894e-02
 9.500	22.500	2.3886e-02
 9.500	22.750	2.3882e-02
 9.500	23.000	2.3880e-02
 9.500	23.250	2.3879e-02
 9.500	23.500	2.3879e-02
 9.500	23.750	2.3879e-02
 9.500	24.000	2.3879e-02
 9.750	17.000	4.4190e-02
 9.750	17.250	4.8634e-02
 9.750	17.500	5.3143e-02
 9.750	17.750	5.8041e-02
 9.750	18.000	6.3599e-02
 9.750	18.250	6.9910e-02
 9.750	18.500	7.6489e-02
 9.750	18.750	8.2777e-02
 9.750	19.000	8.8172e-02
 9.750	19.250	9.2648e-02
 9.750	19.500	7.6397e-02
 9.750	19.750	6.4099e-02
 9.750	20.000	5.1633e-02
 9.750	20.250	3.7455e-02
 9.750	20.500	3.0416e-02
 9.750	20.750	2.7242e-02
 9.750	21.000	2.5578e-02
 9.750	21.250	2.4656e-02
 9.750	21.500	2.4269e-02
 9.750	21.750	2.4071e-02
 9.750	22.000	2.3960e-02
 9.750	22.250	2.3913e-02
 9.750	22.500	2.3894e-02
 9.750	22.750	2.3886e-02
 9.750	23.000	2.3882e-02
 9.750	23.250	2.3880e-02
 9.750	23.500	2.3879e-02
 9.750	23.750	2.3879e-02
 9.750	24.000	2.3878e-02
10.000	17.000	3.9157e-02
10.000	17.250	4.4711e-02
10.000	17.500	5.0203e-02
10.000	17.750	5.6190e-02
10.000	18.000	6.3100e-02
10.000	18.250	7.0438e-02
10.000	18.500	7.7370e-02
10.000	18.750	8.3903e-02
10.000	19.000	9.0154e-02
10.000	19.250	9.6195e-02
10.000	19.500	9.7130e-02
10.000	19.750	7.6140e-02
10.000	20.000	6.3885e-02
10.000	20.250	5.1632e-02
10.000	20.500	3.7450e-02
10.000	20.750	3.0403e-02
10.000	21.000	2.7240e-02
10.000	21.250	2.5578e-02
10.000	21.500	2.4658e-02
10.000	21.750	2.4269e-02
10.000	22.000	2.4071e-02
10.000	22.250	2.3960e-02
10.000	22.500	2.3914e-02
10.000	22.750	2.3894e-02
10.000	23.000	2.3886e-02
10.000	23.250	2.3882e-02
10.000	23.500	2.3880e-02
10.000	23.750	2.3879e-02
10.000	24.000	2.3879e-02
10.250	17.000	3.3932e-02
10.250	17.250	3.9721e-02
10.250	17.500	4.6557e-02
10.250	17.750	5.3916e-02
10.250	18.000	6.2288e-02
10.250	18.250	7.0744e-02
10.250	18.500	7.8157e-02
10.250	18.750	8.4710e-02
10.250	19.000	9.0678e-02
10.250	19.250	9.7279e-02
10.250	19.500	1.0527e-01
10.250	19.750	9.7878e-02
10.250	20.000	7.6233e-02
10.250	20.250	6.3803e-02
10.250	20.500	5.1616e-02
10.250	20.750	3.7449e-02
10.250	21.000	3.0395e-02
10.250	21.250	2.7238e-02
10.250	21.500	2.5578e-02
10.250	21.750	2.4658e-02
10.250	22.000	2.4271e-02
10.250	22.250	2.4072e-02
10.250	22.500	2.3961e-02
10.250	22.750	2.3915e-02
10.250	23.000	2.3894e-02
10.250	23.250	2.3886e-02
10.250	23.500	2.3882e-02
10.250	23.750	2.3880e-02
10.250	24.000	2.3879e-02
10.500	17.000	2.9036e-02
10.500	17.250	3.4610e-02
10.500	17.500	4.1968e-02
10.500	17.750	5.1087e-02
10.500	18.000	6.0727e-02
10.500	18.250	7.0027e-02
10.500	18.500	7.8068e-02
10.500	18.750	8.4828e-02
10.500	19.000	9.1072e-02
10.500	19.250	9.7561e-02
10.500	19.500	1.0493e-01
10.500	19.750	1.1324e-01
10.500	20.000	9.7836e-02
10.500	20.250	7.6523e-02
10.500	20.500	6.3812e-02
10.500	20.750	5.1545e-02
10.500	21.000	3.7447e-02
10.500	21.250	3.0390e-02
10.500	21.500	2.7238e-02
10.500	21.750	2.5578e-02
10.500	22.000	2.4658e-02
10.500	22.250	2.4272e-02
10.500	22.500	2.4073e-02
10.500	22.750	2.3961e-02
10.500	23.000	2.3915e-02
10.500	23.250	2.3895e-02
10.500	23.500	2.3886e-02
10.500	23.750	2.3882e-02
10.500	24.000	2.3880e-02
10.750	17.000	2.5059e-02
10.750	17.250	2.9895e-02
10.750	17.500	3.7350e-02
10.750	17.750	4.7286e-02
10.750	18.000	5.7967e-02
10.750	18.250	6.7765e-02
10.750	18.500	7.6199e-02
10.750	18.750	8.3618e-02
10.750	19.000	9.0237e-02
10.750	19.250	9.6629e-02
10.750	19.500	1.0329e-01
10.750	19.750	1.1104e-01
10.750	20.000	1.1871e-01
10.750	20.250	9.8097e-02
10.750	20.500	7.7144e-02
10.750	20.750	6.4136e-02
10.750	21.000	5.1415e-02
10.750	21.250	3.7439e-02
10.750	21.500	3.0388e-02
10.750	21.750	2.7239e-02
10.750	22.000	2.5578e-02
10.750	22.250	2.4658e-02
10.750	22.500	2.4272e-02
10.750	22.750	2.4075e-02
10.750	23.000	2.3961e-02
10.750	23.250	2.3916e-02
10.750	23.500	2.3896e-02
10.750	23.750	2.3887e-02
10.750	24.000	2.3883e-02
11.000	17.000	2.2062e-02
11.000	17.250	2.6104e-02
11.000	17.500	3.2899e-02
11.000	17.750	4.2634e-02
11.000	18.000	5.3414e-02
11.000	18.250	6.3443e-02
11.000	18.500	7.2444e-02
11.000	18.750	8.0477e-02
11.000	19.000	8.7675e-02
11.000	19.250	9.4219e-02
11.000	19.500	1.0047e-01
11.000	19.750	1.0702e-01
11.000	20.000	1.1461e-01
11.000	20.250	1.2120e-01
11.000	20.500	9.9542e-02
11.000	20.750	7.8084e-02
11.000	21.000	6.4801e-02
11.000	21.250	5.1187e-02
11.000	21.500	3.7413e-02
11.000	21.750	3.0388e-02
11.000	22.000	2.7240e-02
11.000	22.250	2.5578e-02
11.000	22.500	2.4658e-02
11.000	22.750	2.4272e-02
11.000	23.000	2.4075e-02
11.000	23.250	2.3962e-02
11.000	23.500	2.3916e-02
11.000	23.750	2.3897e-02
11.000	24.000	2.3888e-02
11.250	17.000	1.9847e-02
11.250	17.250	2.3286e-02
11.250	17.500	2.9045e-02
11.250	17.750	3.7451e-02
11.250	18.000	4.7436e-02
11.250	18.250	5.7369e-02
11.250	18.500	6.6793e-02
11.250	18.750	7.5569e-02
11.250	19.000	8.3394e-02
11.250	19.250	9.0318e-02
11.250	19.500	9.6554e-02
11.250	19.750	1.0252e-01
11.250	20.000	1.0893e-01
11.250	20.250	1.1672e-01
11.250	20.500	1.1920e-01
11.250	20.750	9.9895e-02
11.250	21.000	7.9622e-02
11.250	21.250	6.6142e-02
11.250	21.500	5.0794e-02
11.250	21.750	3.7356e-02
11.250	22.000	3.0390e-02
11.250	22.250	2.7243e-02
11.250	22.500	2.5578e-02
11.250	22.750	2.4657e-02
11.250	23.000	2.4272e-02
11.250	23.250	2.4075e-02
11.250	23.500	2.3964e-02
11.250	23.750	2.3916e-02
11.250	24.000	2.3897e-02
11.500	17.000	1.8251e-02
11.500	17.250	2.1227e-02
11.500	17.500	2.5991e-02
11.500	17.750	3.2688e-02
11.500	18.000	4.1027e-02
11.500	18.250	5.0307e-02
11.500	18.500	5.9872e-02
11.500	18.750	6.9297e-02
11.500	19.000	7.7965e-02
11.500	19.250	8.5389e-02
11.500	19.500	9.1837e-02
11.500	19.750	9.7850e-02
11.500	20.000	1.0390e-01
11.500	20.250	1.1054e-01
11.500	20.500	1.1878e-01
11.500	20.750	1.1950e-01
11.500	21.000	1.0194e-01
11.500	21.250	8.2492e-02
11.500	21.500	6.8813e-02
11.500	21.750	5.0359e-02
11.500	22.000	3.7253e-02
11.500	22.250	3.0392e-02
11.500	22.500	2.7247e-02
11.500	22.750	2.5579e-02
11.500	23.000	2.4657e-02
11.500	23.250	2.4272e-02
11.500	23.500	2.4075e-02
11.500	23.750	2.3965e-02
11.500	24.000	2.3917e-02
11.750	17.000	1.7117e-02
11.750	17.250	1.9628e-02
11.750	17.500	2.3565e-02
11.750	17.750	2.8900e-02
11.750	18.000	3.5437e-02
11.750	18.250	4.3410e-02
11.750	18.500	5.2671e-02
11.750	18.750	6.2379e-02
11.750	19.000	7.1805e-02
11.750	19.250	8.0093e-02
11.750	19.500	8.7008e-02
11.750	19.750	9.3172e-02
11.750	20.000	9.9316e-02
11.750	20.250	1.0572e-01
11.750	20.500	1.1300e-01
11.750	20.750	1.2250e-01
11.750	21.000	1.2036e-01
11.750	21.250	1.0602e-01
11.750	21.500	8.7187e-02
11.750	21.750	7.2164e-02
11.750	22.000	4.9857e-02
11.750	22.250	3.7101e-02
11.750	22.500	3.0390e-02
11.750	22.750	2.7252e-02
11.750	23.000	2.5580e-02
11.750	23.250	2.4656e-02
11.750	23.500	2.4282e-02
11.750	23.750	2.4075e-02
11.750	24.000	2.3965e-02
12.000	17.000	1.6258e-02
12.000	17.250	1.8294e-02
12.000	17.500	2.1484e-02
12.000	17.750	2.5863e-02
12.000	18.000	3.1219e-02
12.000	18.250	3.7906e-02
12.000	18.500	4.6207e-02
12.000	18.750	5.5723e-02
12.000	19.000	6.5518e-02
12.000	19.250	7.4744e-02
12.000	19.500	8.2534e-02
12.000	19.750	8.9136e-02
12.000	20.000	9.5355e-02
12.000	20.250	1.0186e-01
12.000	20.500	1.0891e-01
12.000	20.750	1.1738e-01
12.000	21.000	1.2805e-01
12.000	21.250	1.2513e-01
12.000	21.500	1.1244e-01
12.000	21.750	9.3797e-02
12.000	22.000	7.3164e-02
12.000	22.250	4.9401e-02
12.000	22.500	3.6908e-02
12.000	22.750	3.0379e-02
12.000	23.000	2.7256e-02
12.000	23.250	2.5582e-02
12.000	23.500	2.4655e-02
12.000	23.750	2.4272e-02
12.000	24.000	2.4075e-02
12.250	17.000	1.5506e-02
12.250	17.250	1.7062e-02
12.250	17.500	1.9540e-02
12.250	17.750	2.3208e-02
12.250	18.000	2.7981e-02
12.250	18.250	3.4012e-02
12.250	18.500	4.1584e-02
12.250	18.750	5.0397e-02
12.250	19.000	5.9864e-02
12.250	19.250	6.9500e-02
12.250	19.500	7.8438e-02
12.250	19.750	8.5886e-02
12.250	20.000	9.2419e-02
12.250	20.250	9.8991e-02
12.250	20.500	1.0620e-01
12.250	20.750	1.1474e-01
12.250	21.000	1.2666e-01
12.250	21.250	1.3706e-01
12.250	21.500	1.3192e-01
12.250	21.750	1.1988e-01
12.250	22.000	1.0113e-01
12.250	22.250	7.1995e-02
12.250	22.500	4.8905e-02
12.250	22.750	3.6682e-02
12.250	23.000	3.0354e-02
12.250	23.250	2.7258e-02
12.250	23.500	2.5583e-02
12.250	23.750	2.4653e-02
12.250	24.000	2.4271e-02
12.500	17.000	1.4571e-02
12.500	17.250	1.5731e-02
12.500	17.500	1.7661e-02
12.500	17.750	2.0764e-02
12.500	18.000	2.5205e-02
12.500	18.250	3.1064e-02
12.500	18.500	3.8428e-02
12.500	18.750	4.6878e-02
12.500	19.000	5.5859e-02
12.500	19.250	6.5133e-02
12.500	19.500	7.4538e-02
12.500	19.750	8.3310e-02
12.500	20.000	9.0818e-02
12.500	20.250	9.7526e-02
12.500	20.500	1.0475e-01
12.500	20.750	1.1388e-01
12.500	21.000	1.2638e-01
12.500	21.250	1.4227e-01
12.500	21.500	1.5007e-01
12.500	21.750	1.4288e-01
12.500	22.000	1.3087e-01
12.500	22.250	1.0668e-01
12.500	22.500	7.0833e-02
12.500	22.750	4.8388e-02
12.500	23.000	3.6440e-02
12.500	23.250	3.0316e-02
12.500	23.500	2.7257e-02
12.500	23.750	2.5583e-02
12.500	24.000	2.4652e-02
12.750	17.000	1.2032e-02
12.750	17.250	1.4137e-02
12.750	17.500	1.5767e-02
12.750	17.750	1.8550e-02
12.750	18.000	2.2750e-02
12.750	18.250	2.8516e-02
12.750	18.500	3.5793e-02
12.750	18.750	4.4370e-02
12.750	19.000	5.3309e-02
12.750	19.250	6.2580e-02
12.750	19.500	7.1641e-02
12.750	19.750	8.0913e-02
12.750	20.000	8.9583e-02
12.750	20.250	9.7376e-02
12.750	20.500	1.0513e-01
12.750	20.750	1.1406e-01
12.750	21.000	1.2645e-01
12.750	21.250	1.4453e-01
12.750	21.500	1.6159e-01
12.750	21.750	1.6998e-01
12.750	22.000	1.5926e-01
12.750	22.250	1.4362e-01
12.750	22.500	1.0982e-01
12.750	22.750	6.9802e-02
12.750	23.000	4.7821e-02
12.750	23.250	3.6202e-02
12.750	23.500	3.0276e-02
12.750	23.750	2.7251e-02
12.750	24.000	2.5581e-02
13.000	17.000	6.5491e-03
13.000	17.250	8.9002e-03
13.000	17.500	1.3600e-02
13.000	17.750	1.6553e-02
13.000	18.000	2.0562e-02
13.000	18.250	2.6156e-02
13.000	18.500	3.3333e-02
13.000	18.750	4.1882e-02
13.000	19.000	5.1173e-02
13.000	19.250	6.0624e-02
13.000	19.500	6.9809e-02
13.000	19.750	7.9208e-02
13.000	20.000	8.8500e-02
13.000	20.250	9.7668e-02
13.000	20.500	1.0718e-01
13.000	20.750	1.1657e-01
13.000	21.000	1.2982e-01
13.000	21.250	1.4751e-01
13.000	21.500	1.6558e-01
13.000	21.750	1.9205e-01
13.000	22.000	1.9605e-01
13.000	22.250	1.7561e-01
13.000	22.500	1.5199e-01
13.000	22.750	1.0958e-01
13.000	23.000	6.8687e-02
13.000	23.250	4.7280e-02
13.000	23.500	3.5966e-02
13.000	23.750	3.0221e-02
13.000	24.000	2.7238e-02
13.250	17.000	5.0462e-03
13.250	17.250	6.6187e-03
13.250	17.500	9.4802e-03
13.250	17.750	1.3502e-02
13.250	18.000	1.8603e-02
13.250	18.250	2.3970e-02
13.250	18.500	3.0935e-02
13.250	18.750	3.9349e-02
13.250	19.000	4.8808e-02
13.250	19.250	5.8561e-02
13.250	19.500	6.8234e-02
13.250	19.750	7.7980e-02
13.250	20.000	8.7784e-02
13.250	20.250	9.7624e-02
13.250	20.500	1.0793e-01
13.250	20.750	1.1931e-01
13.250	21.000	1.3220e-01
13.250	21.250	1.4988e-01
13.250	21.500	1.6778e-01
13.250	21.750	1.9827e-01
13.250	22.000	2.2049e-01
13.250	22.250	2.1377e-01
13.250	22.500	1.8883e-01
13.250	22.750	1.5341e-01
13.250	23.000	1.0782e-01
13.250	23.250	6.7739e-02
13.250	23.500	4.6801e-02
13.250	23.750	3.5750e-02
13.250	24.000	3.0150e-02
13.500	17.000	3.9909e-03
13.500	17.250	5.2524e-03
13.500	17.500	7.5452e-03
13.500	17.750	1.1181e-02
13.500	18.000	1.5986e-02
13.500	18.250	2.1961e-02
13.500	18.500	2.8663e-02
13.500	18.750	3.6879e-02
13.500	19.000	4.6300e-02
13.500	19.250	5.6337e-02
13.500	19.500	6.6393e-02
13.500	19.750	7.6368e-02
13.500	20.000	8.6846e-02
13.500	20.250	9.7648e-02
13.500	20.500	1.0853e-01
13.500	20.750	1.1995e-01
13.500	21.000	1.3172e-01
13.500	21.250	1.4913e-01
13.500	21.500	1.6351e-01
13.500	21.750	1.8365e-01
13.500	22.000	2.1270e-01
13.500	22.250	2.4451e-01
13.500	22.500	2.2994e-01
13.500	22.750	1.9250e-01
13.500	23.000	1.4815e-01
13.500	23.250	1.0519e-01
13.500	23.500	6.6735e-02
13.500	23.750	4.6130e-02
13.500	24.000	3.5537e-02
13.750	17.000	3.2275e-03
13.750	17.250	4.3165e-03
13.750	17.500	6.1852e-03
13.750	17.750	9.0258e-03
13.750	18.000	1.3743e-02
13.750	18.250	1.9439e-02
13.750	18.500	2.6549e-02
13.750	18.750	3.4534e-02
13.750	19.000	4.3886e-02
13.750	19.250	5.4160e-02
13.750	19.500	6.4745e-02
13.750	19.750	7.5319e-02
13.750	20.000	8.6129e-02
13.750	20.250	9.7576e-02
13.750	20.500	1.0956e-01
13.750	20.750	1.2167e-01
13.750	21.000	1.3365e-01
13.750	21.250	1.4640e-01
13.750	21.500	1.5917e-01
13.750	21.750	1.7746e-01
13.750	22.000	2.0462e-01
13.750	22.250	2.4214e-01
13.750	22.500	2.7302e-01
13.750	22.750	2.4435e-01
13.750	23.000	1.9029e-01
13.750	23.250	1.4620e-01
13.750	23.500	1.0245e-01
13.750	23.750	6.5580e-02
13.750	24.000	4.5626e-02
14.000	17.000	2.6821e-03
14.000	17.250	3.5731e-03
14.000	17.500	5.1253e-03
14.000	17.750	7.5821e-03
14.000	18.000	1.1443e-02
14.000	18.250	1.7326e-02
14.000	18.500	2.4185e-02
14.000	18.750	3.2387e-02
14.000	19.000	4.1562e-02
14.000	19.250	5.2013e-02
14.000	19.500	6.3225e-02
14.000	19.750	7.4647e-02
14.000	20.000	8.6033e-02
14.000	20.250	9.7852e-02
14.000	20.500	1.1052e-01
14.000	20.750	1.2365e-01
14.000	21.000	1.3703e-01
14.000	21.250	1.5096e-01
14.000	21.500	1.6239e-01
14.000	21.750	1.8007e-01
14.000	22.000	2.0534e-01
14.000	22.250	2.4151e-01
14.000	22.500	2.8487e-01
14.000	22.750	3.1327e-01
14.000	23.000	2.5809e-01
14.000	23.250	1.9396e-01
14.000	23.500	1.4534e-01
14.000	23.750	1.0053e-01
14.000	24.000	6.4467e-02
