InwC 3400.00A  relative to Inci 1215.00A scaled to 1215A.
Hden   Phi(H)  Eq_Width (A)
 7.000	17.000	1.8321e-02
 7.000	17.250	1.8906e-02
 7.000	17.500	1.8914e-02
 7.000	17.750	1.8923e-02
 7.000	18.000	1.8933e-02
 7.000	18.250	1.8941e-02
 7.000	18.500	1.8946e-02
 7.000	18.750	1.8949e-02
 7.000	19.000	1.8951e-02
 7.000	19.250	1.8953e-02
 7.000	19.500	1.8953e-02
 7.000	19.750	1.8954e-02
 7.000	20.000	1.8954e-02
 7.000	20.250	1.8954e-02
 7.000	20.500	1.8954e-02
 7.000	20.750	1.8954e-02
 7.000	21.000	1.8954e-02
 7.000	21.250	1.8954e-02
 7.000	21.500	1.8954e-02
 7.000	21.750	1.8954e-02
 7.000	22.000	1.8954e-02
 7.000	22.250	1.8954e-02
 7.000	22.500	1.8954e-02
 7.000	22.750	1.8954e-02
 7.000	23.000	1.8955e-02
 7.000	23.250	1.8954e-02
 7.000	23.500	1.8954e-02
 7.000	23.750	1.8955e-02
 7.000	24.000	1.8954e-02
 7.250	17.000	1.7319e-02
 7.250	17.250	1.8323e-02
 7.250	17.500	1.8906e-02
 7.250	17.750	1.8914e-02
 7.250	18.000	1.8923e-02
 7.250	18.250	1.8933e-02
 7.250	18.500	1.8941e-02
 7.250	18.750	1.8946e-02
 7.250	19.000	1.8949e-02
 7.250	19.250	1.8951e-02
 7.250	19.500	1.8953e-02
 7.250	19.750	1.8953e-02
 7.250	20.000	1.8954e-02
 7.250	20.250	1.8954e-02
 7.250	20.500	1.8954e-02
 7.250	20.750	1.8954e-02
 7.250	21.000	1.8954e-02
 7.250	21.250	1.8954e-02
 7.250	21.500	1.8954e-02
 7.250	21.750	1.8954e-02
 7.250	22.000	1.8956e-02
 7.250	22.250	1.8954e-02
 7.250	22.500	1.8954e-02
 7.250	22.750	1.8954e-02
 7.250	23.000	1.8955e-02
 7.250	23.250	1.8955e-02
 7.250	23.500	1.8955e-02
 7.250	23.750	1.8955e-02
 7.250	24.000	1.8954e-02
 7.500	17.000	1.2702e-02
 7.500	17.250	1.7365e-02
 7.500	17.500	1.8324e-02
 7.500	17.750	1.8905e-02
 7.500	18.000	1.8914e-02
 7.500	18.250	1.8923e-02
 7.500	18.500	1.8933e-02
 7.500	18.750	1.8941e-02
 7.500	19.000	1.8946e-02
 7.500	19.250	1.8949e-02
 7.500	19.500	1.8951e-02
 7.500	19.750	1.8953e-02
 7.500	20.000	1.8953e-02
 7.500	20.250	1.8954e-02
 7.500	20.500	1.8954e-02
 7.500	20.750	1.8954e-02
 7.500	21.000	1.8954e-02
 7.500	21.250	1.8954e-02
 7.500	21.500	1.8954e-02
 7.500	21.750	1.8954e-02
 7.500	22.000	1.8954e-02
 7.500	22.250	1.8954e-02
 7.500	22.500	1.8954e-02
 7.500	22.750	1.8954e-02
 7.500	23.000	1.8954e-02
 7.500	23.250	1.8954e-02
 7.500	23.500	1.8954e-02
 7.500	23.750	1.8954e-02
 7.500	24.000	1.8954e-02
 7.750	17.000	9.1571e-03
 7.750	17.250	1.2797e-02
 7.750	17.500	1.7388e-02
 7.750	17.750	1.8324e-02
 7.750	18.000	1.8905e-02
 7.750	18.250	1.8914e-02
 7.750	18.500	1.8923e-02
 7.750	18.750	1.8933e-02
 7.750	19.000	1.8941e-02
 7.750	19.250	1.8946e-02
 7.750	19.500	1.8949e-02
 7.750	19.750	1.8951e-02
 7.750	20.000	1.8953e-02
 7.750	20.250	1.8953e-02
 7.750	20.500	1.8954e-02
 7.750	20.750	1.8954e-02
 7.750	21.000	1.8954e-02
 7.750	21.250	1.8954e-02
 7.750	21.500	1.8954e-02
 7.750	21.750	1.8954e-02
 7.750	22.000	1.8954e-02
 7.750	22.250	1.8954e-02
 7.750	22.500	1.8954e-02
 7.750	22.750	1.8954e-02
 7.750	23.000	1.8954e-02
 7.750	23.250	1.8954e-02
 7.750	23.500	1.8954e-02
 7.750	23.750	1.8954e-02
 7.750	24.000	1.8954e-02
 8.000	17.000	6.3952e-03
 8.000	17.250	9.2046e-03
 8.000	17.500	1.2779e-02
 8.000	17.750	1.7290e-02
 8.000	18.000	1.8316e-02
 8.000	18.250	1.8904e-02
 8.000	18.500	1.8914e-02
 8.000	18.750	1.8923e-02
 8.000	19.000	1.8933e-02
 8.000	19.250	1.8941e-02
 8.000	19.500	1.8946e-02
 8.000	19.750	1.8949e-02
 8.000	20.000	1.8951e-02
 8.000	20.250	1.8953e-02
 8.000	20.500	1.8953e-02
 8.000	20.750	1.8954e-02
 8.000	21.000	1.8954e-02
 8.000	21.250	1.8954e-02
 8.000	21.500	1.8954e-02
 8.000	21.750	1.8954e-02
 8.000	22.000	1.8954e-02
 8.000	22.250	1.8954e-02
 8.000	22.500	1.8954e-02
 8.000	22.750	1.8954e-02
 8.000	23.000	1.8954e-02
 8.000	23.250	1.8954e-02
 8.000	23.500	1.8954e-02
 8.000	23.750	1.8954e-02
 8.000	24.000	1.8956e-02
 8.250	17.000	4.4826e-03
 8.250	17.250	6.4744e-03
 8.250	17.500	9.2909e-03
 8.250	17.750	1.2817e-02
 8.250	18.000	1.7272e-02
 8.250	18.250	1.8309e-02
 8.250	18.500	1.8903e-02
 8.250	18.750	1.8914e-02
 8.250	19.000	1.8923e-02
 8.250	19.250	1.8933e-02
 8.250	19.500	1.8941e-02
 8.250	19.750	1.8946e-02
 8.250	20.000	1.8949e-02
 8.250	20.250	1.8951e-02
 8.250	20.500	1.8953e-02
 8.250	20.750	1.8953e-02
 8.250	21.000	1.8954e-02
 8.250	21.250	1.8954e-02
 8.250	21.500	1.8954e-02
 8.250	21.750	1.8954e-02
 8.250	22.000	1.8954e-02
 8.250	22.250	1.8954e-02
 8.250	22.500	1.8954e-02
 8.250	22.750	1.8954e-02
 8.250	23.000	1.8954e-02
 8.250	23.250	1.8954e-02
 8.250	23.500	1.8954e-02
 8.250	23.750	1.8954e-02
 8.250	24.000	1.8954e-02
 8.500	17.000	3.1695e-03
 8.500	17.250	4.5379e-03
 8.500	17.500	6.5532e-03
 8.500	17.750	9.3891e-03
 8.500	18.000	1.2872e-02
 8.500	18.250	1.7257e-02
 8.500	18.500	1.8297e-02
 8.500	18.750	1.8901e-02
 8.500	19.000	1.8914e-02
 8.500	19.250	1.8923e-02
 8.500	19.500	1.8933e-02
 8.500	19.750	1.8941e-02
 8.500	20.000	1.8946e-02
 8.500	20.250	1.8949e-02
 8.500	20.500	1.8951e-02
 8.500	20.750	1.8953e-02
 8.500	21.000	1.8953e-02
 8.500	21.250	1.8954e-02
 8.500	21.500	1.8954e-02
 8.500	21.750	1.8954e-02
 8.500	22.000	1.8954e-02
 8.500	22.250	1.8954e-02
 8.500	22.500	1.8954e-02
 8.500	22.750	1.8954e-02
 8.500	23.000	1.8954e-02
 8.500	23.250	1.8954e-02
 8.500	23.500	1.8954e-02
 8.500	23.750	1.8954e-02
 8.500	24.000	1.8954e-02
 8.750	17.000	2.2633e-03
 8.750	17.250	3.2058e-03
 8.750	17.500	4.5998e-03
 8.750	17.750	6.6610e-03
 8.750	18.000	9.5043e-03
 8.750	18.250	1.2975e-02
 8.750	18.500	1.7241e-02
 8.750	18.750	1.8276e-02
 8.750	19.000	1.8897e-02
 8.750	19.250	1.8913e-02
 8.750	19.500	1.8923e-02
 8.750	19.750	1.8933e-02
 8.750	20.000	1.8941e-02
 8.750	20.250	1.8946e-02
 8.750	20.500	1.8949e-02
 8.750	20.750	1.8951e-02
 8.750	21.000	1.8953e-02
 8.750	21.250	1.8953e-02
 8.750	21.500	1.8954e-02
 8.750	21.750	1.8954e-02
 8.750	22.000	1.8954e-02
 8.750	22.250	1.8954e-02
 8.750	22.500	1.8954e-02
 8.750	22.750	1.8954e-02
 8.750	23.000	1.8954e-02
 8.750	23.250	1.8954e-02
 8.750	23.500	1.8954e-02
 8.750	23.750	1.8954e-02
 8.750	24.000	1.8954e-02
 9.000	17.000	1.6301e-03
 9.000	17.250	2.2844e-03
 9.000	17.500	3.2508e-03
 9.000	17.750	4.6932e-03
 9.000	18.000	6.8369e-03
 9.000	18.250	9.7651e-03
 9.000	18.500	1.3230e-02
 9.000	18.750	1.7341e-02
 9.000	19.000	1.8241e-02
 9.000	19.250	1.8891e-02
 9.000	19.500	1.8912e-02
 9.000	19.750	1.8923e-02
 9.000	20.000	1.8933e-02
 9.000	20.250	1.8941e-02
 9.000	20.500	1.8946e-02
 9.000	20.750	1.8949e-02
 9.000	21.000	1.8951e-02
 9.000	21.250	1.8953e-02
 9.000	21.500	1.8953e-02
 9.000	21.750	1.8954e-02
 9.000	22.000	1.8954e-02
 9.000	22.250	1.8954e-02
 9.000	22.500	1.8954e-02
 9.000	22.750	1.8954e-02
 9.000	23.000	1.8954e-02
 9.000	23.250	1.8954e-02
 9.000	23.500	1.8954e-02
 9.000	23.750	1.8954e-02
 9.000	24.000	1.8954e-02
 9.250	17.000	1.1853e-03
 9.250	17.250	1.6421e-03
 9.250	17.500	2.3174e-03
 9.250	17.750	3.3344e-03
 9.250	18.000	4.8891e-03
 9.250	18.250	7.1791e-03
 9.250	18.500	1.0209e-02
 9.250	18.750	1.3830e-02
 9.250	19.000	1.7212e-02
 9.250	19.250	1.8184e-02
 9.250	19.500	1.8881e-02
 9.250	19.750	1.8910e-02
 9.250	20.000	1.8923e-02
 9.250	20.250	1.8933e-02
 9.250	20.500	1.8941e-02
 9.250	20.750	1.8946e-02
 9.250	21.000	1.8949e-02
 9.250	21.250	1.8951e-02
 9.250	21.500	1.8950e-02
 9.250	21.750	1.8950e-02
 9.250	22.000	1.8950e-02
 9.250	22.250	1.8950e-02
 9.250	22.500	1.8953e-02
 9.250	22.750	1.8953e-02
 9.250	23.000	1.8954e-02
 9.250	23.250	1.8954e-02
 9.250	23.500	1.8954e-02
 9.250	23.750	1.8954e-02
 9.250	24.000	1.8954e-02
 9.500	17.000	8.7333e-04
 9.500	17.250	1.1924e-03
 9.500	17.500	1.6657e-03
 9.500	17.750	2.3910e-03
 9.500	18.000	3.5245e-03
 9.500	18.250	5.2537e-03
 9.500	18.500	7.6771e-03
 9.500	18.750	1.0802e-02
 9.500	19.000	1.4552e-02
 9.500	19.250	1.7080e-02
 9.500	19.500	1.8108e-02
 9.500	19.750	1.8864e-02
 9.500	20.000	1.8906e-02
 9.500	20.250	1.8922e-02
 9.500	20.500	1.8932e-02
 9.500	20.750	1.8940e-02
 9.500	21.000	1.8943e-02
 9.500	21.250	1.8946e-02
 9.500	21.500	1.8948e-02
 9.500	21.750	1.8948e-02
 9.500	22.000	1.8948e-02
 9.500	22.250	1.8948e-02
 9.500	22.500	1.8948e-02
 9.500	22.750	1.8948e-02
 9.500	23.000	1.8948e-02
 9.500	23.250	1.8948e-02
 9.500	23.500	1.8949e-02
 9.500	23.750	1.8949e-02
 9.500	24.000	1.8949e-02
 9.750	17.000	6.5366e-04
 9.750	17.250	8.7646e-04
 9.750	17.500	1.2089e-03
 9.750	17.750	1.7274e-03
 9.750	18.000	2.5658e-03
 9.750	18.250	3.8496e-03
 9.750	18.500	5.6672e-03
 9.750	18.750	8.1264e-03
 9.750	19.000	1.1395e-02
 9.750	19.250	1.5414e-02
 9.750	19.500	1.6952e-02
 9.750	19.750	1.8023e-02
 9.750	20.000	1.8837e-02
 9.750	20.250	1.8901e-02
 9.750	20.500	1.8920e-02
 9.750	20.750	1.8932e-02
 9.750	21.000	1.8941e-02
 9.750	21.250	1.8944e-02
 9.750	21.500	1.8946e-02
 9.750	21.750	1.8948e-02
 9.750	22.000	1.8949e-02
 9.750	22.250	1.8948e-02
 9.750	22.500	1.8948e-02
 9.750	22.750	1.8948e-02
 9.750	23.000	1.8948e-02
 9.750	23.250	1.8948e-02
 9.750	23.500	1.8948e-02
 9.750	23.750	1.8948e-02
 9.750	24.000	1.8948e-02
10.000	17.000	4.9860e-04
10.000	17.250	6.5498e-04
10.000	17.500	8.8971e-04
10.000	17.750	1.2635e-03
10.000	18.000	1.8862e-03
10.000	18.250	2.8270e-03
10.000	18.500	4.1351e-03
10.000	18.750	5.9371e-03
10.000	19.000	8.4705e-03
10.000	19.250	1.2087e-02
10.000	19.500	1.5686e-02
10.000	19.750	1.6847e-02
10.000	20.000	1.7933e-02
10.000	20.250	1.8799e-02
10.000	20.500	1.8891e-02
10.000	20.750	1.8918e-02
10.000	21.000	1.8931e-02
10.000	21.250	1.8941e-02
10.000	21.500	1.8945e-02
10.000	21.750	1.8946e-02
10.000	22.000	1.8948e-02
10.000	22.250	1.8949e-02
10.000	22.500	1.8948e-02
10.000	22.750	1.8948e-02
10.000	23.000	1.8948e-02
10.000	23.250	1.8948e-02
10.000	23.500	1.8948e-02
10.000	23.750	1.8948e-02
10.000	24.000	1.8948e-02
10.250	17.000	3.8938e-04
10.250	17.250	4.9967e-04
10.250	17.500	6.6609e-04
10.250	17.750	9.3811e-04
10.250	18.000	1.3955e-03
10.250	18.250	2.0747e-03
10.250	18.500	3.0006e-03
10.250	18.750	4.2572e-03
10.250	19.000	6.0655e-03
10.250	19.250	8.9260e-03
10.250	19.500	1.3072e-02
10.250	19.750	1.5804e-02
10.250	20.000	1.6747e-02
10.250	20.250	1.7837e-02
10.250	20.500	1.8752e-02
10.250	20.750	1.8877e-02
10.250	21.000	1.8915e-02
10.250	21.250	1.8929e-02
10.250	21.500	1.8940e-02
10.250	21.750	1.8946e-02
10.250	22.000	1.8948e-02
10.250	22.250	1.8948e-02
10.250	22.500	1.8949e-02
10.250	22.750	1.8949e-02
10.250	23.000	1.8948e-02
10.250	23.250	1.8948e-02
10.250	23.500	1.8948e-02
10.250	23.750	1.8948e-02
10.250	24.000	1.8948e-02
10.500	17.000	3.1251e-04
10.500	17.250	3.9037e-04
10.500	17.500	5.0971e-04
10.500	17.750	7.0955e-04
10.500	18.000	1.0435e-03
10.500	18.250	1.5398e-03
10.500	18.500	2.2023e-03
10.500	18.750	3.1286e-03
10.500	19.000	4.5140e-03
10.500	19.250	6.5633e-03
10.500	19.500	9.6307e-03
10.500	19.750	1.3596e-02
10.500	20.000	1.5611e-02
10.500	20.250	1.6649e-02
10.500	20.500	1.7760e-02
10.500	20.750	1.8695e-02
10.500	21.000	1.8857e-02
10.500	21.250	1.8909e-02
10.500	21.500	1.8927e-02
10.500	21.750	1.8939e-02
10.500	22.000	1.8946e-02
10.500	22.250	1.8948e-02
10.500	22.500	1.8949e-02
10.500	22.750	1.8950e-02
10.500	23.000	1.8950e-02
10.500	23.250	1.8949e-02
10.500	23.500	1.8948e-02
10.500	23.750	1.8948e-02
10.500	24.000	1.8948e-02
10.750	17.000	2.5827e-04
10.750	17.250	3.1325e-04
10.750	17.500	3.9942e-04
10.750	17.750	5.4593e-04
10.750	18.000	7.9251e-04
10.750	18.250	1.1564e-03
10.750	18.500	1.6562e-03
10.750	18.750	2.3829e-03
10.750	19.000	3.3960e-03
10.750	19.250	4.8580e-03
10.750	19.500	7.0105e-03
10.750	19.750	1.0174e-02
10.750	20.000	1.3989e-02
10.750	20.250	1.5491e-02
10.750	20.500	1.6566e-02
10.750	20.750	1.7697e-02
10.750	21.000	1.8645e-02
10.750	21.250	1.8833e-02
10.750	21.500	1.8900e-02
10.750	21.750	1.8923e-02
10.750	22.000	1.8938e-02
10.750	22.250	1.8946e-02
10.750	22.500	1.8948e-02
10.750	22.750	1.8950e-02
10.750	23.000	1.8950e-02
10.750	23.250	1.8950e-02
10.750	23.500	1.8950e-02
10.750	23.750	1.8949e-02
10.750	24.000	1.8949e-02
11.000	17.000	2.1984e-04
11.000	17.250	2.5819e-04
11.000	17.500	3.1984e-04
11.000	17.750	4.2823e-04
11.000	18.000	6.1070e-04
11.000	18.250	8.8099e-04
11.000	18.500	1.2714e-03
11.000	18.750	1.8128e-03
11.000	19.000	2.5620e-03
11.000	19.250	3.6026e-03
11.000	19.500	5.1128e-03
11.000	19.750	7.3096e-03
11.000	20.000	1.0563e-02
11.000	20.250	1.4119e-02
11.000	20.500	1.5468e-02
11.000	20.750	1.6502e-02
11.000	21.000	1.7671e-02
11.000	21.250	1.8603e-02
11.000	21.500	1.8805e-02
11.000	21.750	1.8889e-02
11.000	22.000	1.8917e-02
11.000	22.250	1.8936e-02
11.000	22.500	1.8945e-02
11.000	22.750	1.8948e-02
11.000	23.000	1.8951e-02
11.000	23.250	1.8950e-02
11.000	23.500	1.8950e-02
11.000	23.750	1.8950e-02
11.000	24.000	1.8950e-02
11.250	17.000	1.9235e-04
11.250	17.250	2.1835e-04
11.250	17.500	2.6230e-04
11.250	17.750	3.4198e-04
11.250	18.000	4.7671e-04
11.250	18.250	6.7942e-04
11.250	18.500	9.6864e-04
11.250	18.750	1.3815e-03
11.250	19.000	1.9328e-03
11.250	19.250	2.6883e-03
11.250	19.500	3.7504e-03
11.250	19.750	5.2642e-03
11.250	20.000	7.4714e-03
11.250	20.250	1.0745e-02
11.250	20.500	1.3885e-02
11.250	20.750	1.5382e-02
11.250	21.000	1.6491e-02
11.250	21.250	1.7701e-02
11.250	21.500	1.8542e-02
11.250	21.750	1.8777e-02
11.250	22.000	1.8875e-02
11.250	22.250	1.8910e-02
11.250	22.500	1.8933e-02
11.250	22.750	1.8944e-02
11.250	23.000	1.8948e-02
11.250	23.250	1.8951e-02
11.250	23.500	1.8952e-02
11.250	23.750	1.8950e-02
11.250	24.000	1.8950e-02
11.500	17.000	1.7300e-04
11.500	17.250	1.9029e-04
11.500	17.500	2.2099e-04
11.500	17.750	2.7868e-04
11.500	18.000	3.7745e-04
11.500	18.250	5.2815e-04
11.500	18.500	7.4321e-04
11.500	18.750	1.0488e-03
11.500	19.000	1.4587e-03
11.500	19.250	2.0203e-03
11.500	19.500	2.7765e-03
11.500	19.750	3.8367e-03
11.500	20.000	5.3441e-03
11.500	20.250	7.5397e-03
11.500	20.500	1.0822e-02
11.500	20.750	1.3690e-02
11.500	21.000	1.5333e-02
11.500	21.250	1.6525e-02
11.500	21.500	1.7813e-02
11.500	21.750	1.8504e-02
11.500	22.000	1.8750e-02
11.500	22.250	1.8860e-02
11.500	22.500	1.8902e-02
11.500	22.750	1.8930e-02
11.500	23.000	1.8943e-02
11.500	23.250	1.8947e-02
11.500	23.500	1.8951e-02
11.500	23.750	1.8952e-02
11.500	24.000	1.8951e-02
11.750	17.000	1.5951e-04
11.750	17.250	1.7053e-04
11.750	17.500	1.9160e-04
11.750	17.750	2.3259e-04
11.750	18.000	3.0387e-04
11.750	18.250	4.1276e-04
11.750	18.500	5.7177e-04
11.750	18.750	7.9432e-04
11.750	19.000	1.1045e-03
11.750	19.250	1.5195e-03
11.750	19.500	2.0793e-03
11.750	19.750	2.8344e-03
11.750	20.000	3.8863e-03
11.750	20.250	5.3728e-03
11.750	20.500	7.5620e-03
11.750	20.750	1.0791e-02
11.750	21.000	1.3541e-02
11.750	21.250	1.5375e-02
11.750	21.500	1.6665e-02
11.750	21.750	1.7989e-02
11.750	22.000	1.8462e-02
11.750	22.250	1.8723e-02
11.750	22.500	1.8845e-02
11.750	22.750	1.8894e-02
11.750	23.000	1.8925e-02
11.750	23.250	1.8942e-02
11.750	23.500	1.8955e-02
11.750	23.750	1.8950e-02
11.750	24.000	1.8953e-02
12.000	17.000	1.5037e-04
12.000	17.250	1.5695e-04
12.000	17.500	1.7086e-04
12.000	17.750	1.9918e-04
12.000	18.000	2.4881e-04
12.000	18.250	3.2658e-04
12.000	18.500	4.4305e-04
12.000	18.750	6.0790e-04
12.000	19.000	8.3885e-04
12.000	19.250	1.1488e-03
12.000	19.500	1.5647e-03
12.000	19.750	2.1218e-03
12.000	20.000	2.8727e-03
12.000	20.250	3.9129e-03
12.000	20.500	5.3834e-03
12.000	20.750	7.5743e-03
12.000	21.000	1.0816e-02
12.000	21.250	1.3482e-02
12.000	21.500	1.5494e-02
12.000	21.750	1.6886e-02
12.000	22.000	1.8070e-02
12.000	22.250	1.8445e-02
12.000	22.500	1.8695e-02
12.000	22.750	1.8830e-02
12.000	23.000	1.8886e-02
12.000	23.250	1.8921e-02
12.000	23.500	1.8940e-02
12.000	23.750	1.8946e-02
12.000	24.000	1.8950e-02
12.250	17.000	1.4395e-04
12.250	17.250	1.4798e-04
12.250	17.500	1.5671e-04
12.250	17.750	1.7539e-04
12.250	18.000	2.0922e-04
12.250	18.250	2.6486e-04
12.250	18.500	3.4947e-04
12.250	18.750	4.7160e-04
12.250	19.000	6.4255e-04
12.250	19.250	8.7366e-04
12.250	19.500	1.1833e-03
12.250	19.750	1.5984e-03
12.250	20.000	2.1517e-03
12.250	20.250	2.8982e-03
12.250	20.500	3.9315e-03
12.250	20.750	5.4045e-03
12.250	21.000	7.6307e-03
12.250	21.250	1.0669e-02
12.250	21.500	1.3503e-02
12.250	21.750	1.5680e-02
12.250	22.000	1.7137e-02
12.250	22.250	1.8055e-02
12.250	22.500	1.8415e-02
12.250	22.750	1.8670e-02
12.250	23.000	1.8814e-02
12.250	23.250	1.8877e-02
12.250	23.500	1.8916e-02
12.250	23.750	1.8938e-02
12.250	24.000	1.8945e-02
12.500	17.000	1.3909e-04
12.500	17.250	1.4189e-04
12.500	17.500	1.4749e-04
12.500	17.750	1.5951e-04
12.500	18.000	1.8230e-04
12.500	18.250	2.2107e-04
12.500	18.500	2.8173e-04
12.500	18.750	3.7095e-04
12.500	19.000	4.9687e-04
12.500	19.250	6.6914e-04
12.500	19.500	8.9992e-04
12.500	19.750	1.2085e-03
12.500	20.000	1.6234e-03
12.500	20.250	2.1771e-03
12.500	20.500	2.9193e-03
12.500	20.750	3.9534e-03
12.500	21.000	5.4621e-03
12.500	21.250	7.7603e-03
12.500	21.500	1.0713e-02
12.500	21.750	1.3663e-02
12.500	22.000	1.5952e-02
12.500	22.250	1.7341e-02
12.500	22.500	1.8050e-02
12.500	22.750	1.8391e-02
12.500	23.000	1.8649e-02
12.500	23.250	1.8797e-02
12.500	23.500	1.8867e-02
12.500	23.750	1.8911e-02
12.500	24.000	1.8937e-02
12.750	17.000	1.0214e-04
12.750	17.250	1.3835e-04
12.750	17.500	1.4181e-04
12.750	17.750	1.4947e-04
12.750	18.000	1.6477e-04
12.750	18.250	1.9103e-04
12.750	18.500	2.3350e-04
12.750	18.750	2.9786e-04
12.750	19.000	3.8963e-04
12.750	19.250	5.1770e-04
12.750	19.500	6.8922e-04
12.750	19.750	9.1951e-04
12.750	20.000	1.2265e-03
12.750	20.250	1.6403e-03
12.750	20.500	2.1935e-03
12.750	20.750	2.9337e-03
12.750	21.000	3.9909e-03
12.750	21.250	5.5559e-03
12.750	21.500	7.8518e-03
12.750	21.750	1.0932e-02
12.750	22.000	1.3961e-02
12.750	22.250	1.6215e-02
12.750	22.500	1.7490e-02
12.750	22.750	1.8045e-02
12.750	23.000	1.8378e-02
12.750	23.250	1.8628e-02
12.750	23.500	1.8778e-02
12.750	23.750	1.8855e-02
12.750	24.000	1.8904e-02
13.000	17.000	1.8272e-05
13.000	17.250	4.4033e-05
13.000	17.500	1.2757e-04
13.000	17.750	1.4337e-04
13.000	18.000	1.5325e-04
13.000	18.250	1.7070e-04
13.000	18.500	1.9975e-04
13.000	18.750	2.4486e-04
13.000	19.000	3.1078e-04
13.000	19.250	4.0370e-04
13.000	19.500	5.3119e-04
13.000	19.750	7.0198e-04
13.000	20.000	9.3021e-04
13.000	20.250	1.2347e-03
13.000	20.500	1.6476e-03
13.000	20.750	2.1976e-03
13.000	21.000	2.9607e-03
13.000	21.250	4.0498e-03
13.000	21.500	5.5999e-03
13.000	21.750	8.1315e-03
13.000	22.000	1.1264e-02
13.000	22.250	1.4256e-02
13.000	22.500	1.6349e-02
13.000	22.750	1.7549e-02
13.000	23.000	1.8038e-02
13.000	23.250	1.8364e-02
13.000	23.500	1.8608e-02
13.000	23.750	1.8757e-02
13.000	24.000	1.8839e-02
13.250	17.000	1.1111e-05
13.250	17.250	2.1399e-05
13.250	17.500	5.1193e-05
13.250	17.750	9.7202e-05
13.250	18.000	1.4609e-04
13.250	18.250	1.5753e-04
13.250	18.500	1.7654e-04
13.250	18.750	2.0724e-04
13.250	19.000	2.5342e-04
13.250	19.250	3.1992e-04
13.250	19.500	4.1309e-04
13.250	19.750	5.3885e-04
13.250	20.000	7.0897e-04
13.250	20.250	9.3613e-04
13.250	20.500	1.2378e-03
13.250	20.750	1.6458e-03
13.250	21.000	2.1938e-03
13.250	21.250	2.9610e-03
13.250	21.500	4.0236e-03
13.250	21.750	5.7352e-03
13.250	22.000	8.3602e-03
13.250	22.250	1.1442e-02
13.250	22.500	1.4427e-02
13.250	22.750	1.6357e-02
13.250	23.000	1.7554e-02
13.250	23.250	1.8019e-02
13.250	23.500	1.8343e-02
13.250	23.750	1.8582e-02
13.250	24.000	1.8731e-02
13.500	17.000	6.7490e-06
13.500	17.250	1.2510e-05
13.500	17.500	2.9218e-05
13.500	17.750	6.5844e-05
13.500	18.000	1.1012e-04
13.500	18.250	1.4914e-04
13.500	18.500	1.6148e-04
13.500	18.750	1.8165e-04
13.500	19.000	2.1300e-04
13.500	19.250	2.6016e-04
13.500	19.500	3.2576e-04
13.500	19.750	4.1761e-04
13.500	20.000	5.4198e-04
13.500	20.250	7.0856e-04
13.500	20.500	9.3103e-04
13.500	20.750	1.2257e-03
13.500	21.000	1.6190e-03
13.500	21.250	2.1609e-03
13.500	21.500	2.8774e-03
13.500	21.750	3.9403e-03
13.500	22.000	5.6453e-03
13.500	22.250	8.4799e-03
13.500	22.500	1.1553e-02
13.500	22.750	1.4355e-02
13.500	23.000	1.6252e-02
13.500	23.250	1.7505e-02
13.500	23.500	1.7976e-02
13.500	23.750	1.8307e-02
13.500	24.000	1.8545e-02
13.750	17.000	4.0329e-06
13.750	17.250	8.0658e-06
13.750	17.500	1.7613e-05
13.750	17.750	3.5144e-05
13.750	18.000	8.0082e-05
13.750	18.250	1.1695e-04
13.750	18.500	1.5160e-04
13.750	18.750	1.6494e-04
13.750	19.000	1.8560e-04
13.750	19.250	2.1720e-04
13.750	19.500	2.6337e-04
13.750	19.750	3.2881e-04
13.750	20.000	4.1877e-04
13.750	20.250	5.4033e-04
13.750	20.500	7.0214e-04
13.750	20.750	9.1687e-04
13.750	21.000	1.1979e-03
13.750	21.250	1.5695e-03
13.750	21.500	2.0488e-03
13.750	21.750	2.7264e-03
13.750	22.000	3.7547e-03
13.750	22.250	5.5303e-03
13.750	22.500	8.5739e-03
13.750	22.750	1.1636e-02
13.750	23.000	1.4267e-02
13.750	23.250	1.6131e-02
13.750	23.500	1.7401e-02
13.750	23.750	1.7895e-02
13.750	24.000	1.8244e-02
14.000	17.000	2.3868e-06
14.000	17.250	4.6914e-06
14.000	17.500	1.0700e-05
14.000	17.750	2.1317e-05
14.000	18.000	4.4198e-05
14.000	18.250	9.3004e-05
14.000	18.500	1.2658e-04
14.000	18.750	1.5391e-04
14.000	19.000	1.6716e-04
14.000	19.250	1.8782e-04
14.000	19.500	2.1942e-04
14.000	19.750	2.6469e-04
14.000	20.000	3.2864e-04
14.000	20.250	4.1572e-04
14.000	20.500	5.3276e-04
14.000	20.750	6.8650e-04
14.000	21.000	8.8708e-04
14.000	21.250	1.1451e-03
14.000	21.500	1.4673e-03
14.000	21.750	1.8947e-03
14.000	22.000	2.4979e-03
14.000	22.250	3.5058e-03
14.000	22.500	5.4222e-03
14.000	22.750	8.7240e-03
14.000	23.000	1.1568e-02
14.000	23.250	1.4117e-02
14.000	23.500	1.5951e-02
14.000	23.750	1.7240e-02
14.000	24.000	1.7757e-02
