InwC 3648.00A  relative to Inci 1215.00A scaled to 1215A.
Hden   Phi(H)  Eq_Width (A)
 7.000	17.000	1.7441e-02
 7.000	17.250	1.7997e-02
 7.000	17.500	1.8005e-02
 7.000	17.750	1.8013e-02
 7.000	18.000	1.8022e-02
 7.000	18.250	1.8030e-02
 7.000	18.500	1.8035e-02
 7.000	18.750	1.8037e-02
 7.000	19.000	1.8039e-02
 7.000	19.250	1.8041e-02
 7.000	19.500	1.8041e-02
 7.000	19.750	1.8042e-02
 7.000	20.000	1.8042e-02
 7.000	20.250	1.8042e-02
 7.000	20.500	1.8042e-02
 7.000	20.750	1.8042e-02
 7.000	21.000	1.8042e-02
 7.000	21.250	1.8042e-02
 7.000	21.500	1.8042e-02
 7.000	21.750	1.8042e-02
 7.000	22.000	1.8042e-02
 7.000	22.250	1.8042e-02
 7.000	22.500	1.8042e-02
 7.000	22.750	1.8042e-02
 7.000	23.000	1.8043e-02
 7.000	23.250	1.8042e-02
 7.000	23.500	1.8042e-02
 7.000	23.750	1.8042e-02
 7.000	24.000	1.8042e-02
 7.250	17.000	1.6501e-02
 7.250	17.250	1.7445e-02
 7.250	17.500	1.7997e-02
 7.250	17.750	1.8005e-02
 7.250	18.000	1.8013e-02
 7.250	18.250	1.8022e-02
 7.250	18.500	1.8030e-02
 7.250	18.750	1.8035e-02
 7.250	19.000	1.8037e-02
 7.250	19.250	1.8039e-02
 7.250	19.500	1.8041e-02
 7.250	19.750	1.8041e-02
 7.250	20.000	1.8042e-02
 7.250	20.250	1.8042e-02
 7.250	20.500	1.8042e-02
 7.250	20.750	1.8042e-02
 7.250	21.000	1.8042e-02
 7.250	21.250	1.8042e-02
 7.250	21.500	1.8042e-02
 7.250	21.750	1.8042e-02
 7.250	22.000	1.8044e-02
 7.250	22.250	1.8042e-02
 7.250	22.500	1.8042e-02
 7.250	22.750	1.8042e-02
 7.250	23.000	1.8043e-02
 7.250	23.250	1.8043e-02
 7.250	23.500	1.8042e-02
 7.250	23.750	1.8043e-02
 7.250	24.000	1.8042e-02
 7.500	17.000	1.2117e-02
 7.500	17.250	1.6555e-02
 7.500	17.500	1.7447e-02
 7.500	17.750	1.7997e-02
 7.500	18.000	1.8005e-02
 7.500	18.250	1.8013e-02
 7.500	18.500	1.8022e-02
 7.500	18.750	1.8030e-02
 7.500	19.000	1.8035e-02
 7.500	19.250	1.8037e-02
 7.500	19.500	1.8039e-02
 7.500	19.750	1.8041e-02
 7.500	20.000	1.8041e-02
 7.500	20.250	1.8042e-02
 7.500	20.500	1.8042e-02
 7.500	20.750	1.8042e-02
 7.500	21.000	1.8042e-02
 7.500	21.250	1.8042e-02
 7.500	21.500	1.8042e-02
 7.500	21.750	1.8042e-02
 7.500	22.000	1.8042e-02
 7.500	22.250	1.8042e-02
 7.500	22.500	1.8042e-02
 7.500	22.750	1.8042e-02
 7.500	23.000	1.8042e-02
 7.500	23.250	1.8042e-02
 7.500	23.500	1.8042e-02
 7.500	23.750	1.8042e-02
 7.500	24.000	1.8042e-02
 7.750	17.000	8.7481e-03
 7.750	17.250	1.2233e-02
 7.750	17.500	1.6595e-02
 7.750	17.750	1.7450e-02
 7.750	18.000	1.7997e-02
 7.750	18.250	1.8005e-02
 7.750	18.500	1.8013e-02
 7.750	18.750	1.8022e-02
 7.750	19.000	1.8030e-02
 7.750	19.250	1.8035e-02
 7.750	19.500	1.8037e-02
 7.750	19.750	1.8039e-02
 7.750	20.000	1.8041e-02
 7.750	20.250	1.8041e-02
 7.750	20.500	1.8042e-02
 7.750	20.750	1.8042e-02
 7.750	21.000	1.8042e-02
 7.750	21.250	1.8042e-02
 7.750	21.500	1.8042e-02
 7.750	21.750	1.8042e-02
 7.750	22.000	1.8042e-02
 7.750	22.250	1.8042e-02
 7.750	22.500	1.8042e-02
 7.750	22.750	1.8042e-02
 7.750	23.000	1.8042e-02
 7.750	23.250	1.8042e-02
 7.750	23.500	1.8042e-02
 7.750	23.750	1.8042e-02
 7.750	24.000	1.8042e-02
 8.000	17.000	6.1169e-03
 8.000	17.250	8.8285e-03
 8.000	17.500	1.2258e-02
 8.000	17.750	1.6531e-02
 8.000	18.000	1.7447e-02
 8.000	18.250	1.7997e-02
 8.000	18.500	1.8005e-02
 8.000	18.750	1.8013e-02
 8.000	19.000	1.8022e-02
 8.000	19.250	1.8030e-02
 8.000	19.500	1.8035e-02
 8.000	19.750	1.8037e-02
 8.000	20.000	1.8039e-02
 8.000	20.250	1.8041e-02
 8.000	20.500	1.8041e-02
 8.000	20.750	1.8042e-02
 8.000	21.000	1.8042e-02
 8.000	21.250	1.8042e-02
 8.000	21.500	1.8042e-02
 8.000	21.750	1.8042e-02
 8.000	22.000	1.8042e-02
 8.000	22.250	1.8042e-02
 8.000	22.500	1.8042e-02
 8.000	22.750	1.8042e-02
 8.000	23.000	1.8042e-02
 8.000	23.250	1.8042e-02
 8.000	23.500	1.8042e-02
 8.000	23.750	1.8042e-02
 8.000	24.000	1.8044e-02
 8.250	17.000	4.2918e-03
 8.250	17.250	6.2307e-03
 8.250	17.500	8.9707e-03
 8.250	17.750	1.2362e-02
 8.250	18.000	1.6559e-02
 8.250	18.250	1.7449e-02
 8.250	18.500	1.7997e-02
 8.250	18.750	1.8005e-02
 8.250	19.000	1.8013e-02
 8.250	19.250	1.8022e-02
 8.250	19.500	1.8030e-02
 8.250	19.750	1.8035e-02
 8.250	20.000	1.8037e-02
 8.250	20.250	1.8039e-02
 8.250	20.500	1.8041e-02
 8.250	20.750	1.8041e-02
 8.250	21.000	1.8042e-02
 8.250	21.250	1.8042e-02
 8.250	21.500	1.8042e-02
 8.250	21.750	1.8042e-02
 8.250	22.000	1.8042e-02
 8.250	22.250	1.8042e-02
 8.250	22.500	1.8042e-02
 8.250	22.750	1.8042e-02
 8.250	23.000	1.8042e-02
 8.250	23.250	1.8042e-02
 8.250	23.500	1.8042e-02
 8.250	23.750	1.8042e-02
 8.250	24.000	1.8042e-02
 8.500	17.000	3.0364e-03
 8.500	17.250	4.3821e-03
 8.500	17.500	6.3714e-03
 8.500	17.750	9.1681e-03
 8.500	18.000	1.2528e-02
 8.500	18.250	1.6617e-02
 8.500	18.500	1.7450e-02
 8.500	18.750	1.7997e-02
 8.500	19.000	1.8005e-02
 8.500	19.250	1.8013e-02
 8.500	19.500	1.8022e-02
 8.500	19.750	1.8030e-02
 8.500	20.000	1.8035e-02
 8.500	20.250	1.8037e-02
 8.500	20.500	1.8039e-02
 8.500	20.750	1.8041e-02
 8.500	21.000	1.8041e-02
 8.500	21.250	1.8042e-02
 8.500	21.500	1.8042e-02
 8.500	21.750	1.8042e-02
 8.500	22.000	1.8042e-02
 8.500	22.250	1.8042e-02
 8.500	22.500	1.8042e-02
 8.500	22.750	1.8042e-02
 8.500	23.000	1.8042e-02
 8.500	23.250	1.8042e-02
 8.500	23.500	1.8042e-02
 8.500	23.750	1.8042e-02
 8.500	24.000	1.8042e-02
 8.750	17.000	2.1681e-03
 8.750	17.250	3.1063e-03
 8.750	17.500	4.5058e-03
 8.750	17.750	6.5890e-03
 8.750	18.000	9.4497e-03
 8.750	18.250	1.2806e-02
 8.750	18.500	1.6711e-02
 8.750	18.750	1.7451e-02
 8.750	19.000	1.7997e-02
 8.750	19.250	1.8005e-02
 8.750	19.500	1.8013e-02
 8.750	19.750	1.8022e-02
 8.750	20.000	1.8030e-02
 8.750	20.250	1.8035e-02
 8.750	20.500	1.8037e-02
 8.750	20.750	1.8039e-02
 8.750	21.000	1.8041e-02
 8.750	21.250	1.8041e-02
 8.750	21.500	1.8042e-02
 8.750	21.750	1.8042e-02
 8.750	22.000	1.8042e-02
 8.750	22.250	1.8042e-02
 8.750	22.500	1.8042e-02
 8.750	22.750	1.8042e-02
 8.750	23.000	1.8042e-02
 8.750	23.250	1.8042e-02
 8.750	23.500	1.8042e-02
 8.750	23.750	1.8042e-02
 8.750	24.000	1.8042e-02
 9.000	17.000	1.5594e-03
 9.000	17.250	2.2199e-03
 9.000	17.500	3.2095e-03
 9.000	17.750	4.7075e-03
 9.000	18.000	6.9552e-03
 9.000	18.250	9.9759e-03
 9.000	18.500	1.3301e-02
 9.000	18.750	1.6952e-02
 9.000	19.000	1.7451e-02
 9.000	19.250	1.7997e-02
 9.000	19.500	1.8005e-02
 9.000	19.750	1.8013e-02
 9.000	20.000	1.8022e-02
 9.000	20.250	1.8030e-02
 9.000	20.500	1.8035e-02
 9.000	20.750	1.8037e-02
 9.000	21.000	1.8039e-02
 9.000	21.250	1.8041e-02
 9.000	21.500	1.8041e-02
 9.000	21.750	1.8042e-02
 9.000	22.000	1.8042e-02
 9.000	22.250	1.8042e-02
 9.000	22.500	1.8042e-02
 9.000	22.750	1.8042e-02
 9.000	23.000	1.8042e-02
 9.000	23.250	1.8042e-02
 9.000	23.500	1.8042e-02
 9.000	23.750	1.8042e-02
 9.000	24.000	1.8042e-02
 9.250	17.000	1.1299e-03
 9.250	17.250	1.5984e-03
 9.250	17.500	2.3052e-03
 9.250	17.750	3.3928e-03
 9.250	18.000	5.0906e-03
 9.250	18.250	7.5916e-03
 9.250	18.500	1.0771e-02
 9.250	18.750	1.4187e-02
 9.250	19.000	1.6956e-02
 9.250	19.250	1.7448e-02
 9.250	19.500	1.7997e-02
 9.250	19.750	1.8005e-02
 9.250	20.000	1.8013e-02
 9.250	20.250	1.8022e-02
 9.250	20.500	1.8030e-02
 9.250	20.750	1.8035e-02
 9.250	21.000	1.8037e-02
 9.250	21.250	1.8039e-02
 9.250	21.500	1.8038e-02
 9.250	21.750	1.8038e-02
 9.250	22.000	1.8038e-02
 9.250	22.250	1.8039e-02
 9.250	22.500	1.8041e-02
 9.250	22.750	1.8041e-02
 9.250	23.000	1.8042e-02
 9.250	23.250	1.8042e-02
 9.250	23.500	1.8042e-02
 9.250	23.750	1.8042e-02
 9.250	24.000	1.8042e-02
 9.500	17.000	8.2683e-04
 9.500	17.250	1.1597e-03
 9.500	17.500	1.6663e-03
 9.500	17.750	2.4658e-03
 9.500	18.000	3.7502e-03
 9.500	18.250	5.7344e-03
 9.500	18.500	8.4845e-03
 9.500	18.750	1.1753e-02
 9.500	19.000	1.5138e-02
 9.500	19.250	1.6949e-02
 9.500	19.500	1.7442e-02
 9.500	19.750	1.7996e-02
 9.500	20.000	1.8005e-02
 9.500	20.250	1.8014e-02
 9.500	20.500	1.8022e-02
 9.500	20.750	1.8029e-02
 9.500	21.000	1.8032e-02
 9.500	21.250	1.8034e-02
 9.500	21.500	1.8036e-02
 9.500	21.750	1.8036e-02
 9.500	22.000	1.8036e-02
 9.500	22.250	1.8036e-02
 9.500	22.500	1.8036e-02
 9.500	22.750	1.8036e-02
 9.500	23.000	1.8036e-02
 9.500	23.250	1.8036e-02
 9.500	23.500	1.8037e-02
 9.500	23.750	1.8037e-02
 9.500	24.000	1.8037e-02
 9.750	17.000	6.1218e-04
 9.750	17.250	8.4856e-04
 9.750	17.500	1.2123e-03
 9.750	17.750	1.8006e-03
 9.750	18.000	2.7813e-03
 9.750	18.250	4.3353e-03
 9.750	18.500	6.5640e-03
 9.750	18.750	9.4521e-03
 9.750	19.000	1.2749e-02
 9.750	19.250	1.6180e-02
 9.750	19.500	1.6939e-02
 9.750	19.750	1.7432e-02
 9.750	20.000	1.7996e-02
 9.750	20.250	1.8005e-02
 9.750	20.500	1.8014e-02
 9.750	20.750	1.8022e-02
 9.750	21.000	1.8030e-02
 9.750	21.250	1.8033e-02
 9.750	21.500	1.8034e-02
 9.750	21.750	1.8036e-02
 9.750	22.000	1.8037e-02
 9.750	22.250	1.8036e-02
 9.750	22.500	1.8036e-02
 9.750	22.750	1.8036e-02
 9.750	23.000	1.8036e-02
 9.750	23.250	1.8036e-02
 9.750	23.500	1.8036e-02
 9.750	23.750	1.8036e-02
 9.750	24.000	1.8036e-02
10.000	17.000	4.5967e-04
10.000	17.250	6.2815e-04
10.000	17.500	8.9004e-04
10.000	17.750	1.3246e-03
10.000	18.000	2.0777e-03
10.000	18.250	3.2812e-03
10.000	18.500	5.0267e-03
10.000	18.750	7.3960e-03
10.000	19.000	1.0391e-02
10.000	19.250	1.3774e-02
10.000	19.500	1.6667e-02
10.000	19.750	1.6926e-02
10.000	20.000	1.7417e-02
10.000	20.250	1.7995e-02
10.000	20.500	1.8005e-02
10.000	20.750	1.8014e-02
10.000	21.000	1.8023e-02
10.000	21.250	1.8030e-02
10.000	21.500	1.8034e-02
10.000	21.750	1.8035e-02
10.000	22.000	1.8036e-02
10.000	22.250	1.8037e-02
10.000	22.500	1.8037e-02
10.000	22.750	1.8036e-02
10.000	23.000	1.8036e-02
10.000	23.250	1.8036e-02
10.000	23.500	1.8036e-02
10.000	23.750	1.8036e-02
10.000	24.000	1.8036e-02
10.250	17.000	3.5152e-04
10.250	17.250	4.7210e-04
10.250	17.500	6.6123e-04
10.250	17.750	9.8403e-04
10.250	18.000	1.5577e-03
10.250	18.250	2.4727e-03
10.250	18.500	3.8067e-03
10.250	18.750	5.6576e-03
10.250	19.000	8.1260e-03
10.250	19.250	1.1285e-02
10.250	19.500	1.4892e-02
10.250	19.750	1.6657e-02
10.250	20.000	1.6912e-02
10.250	20.250	1.7404e-02
10.250	20.500	1.7991e-02
10.250	20.750	1.8005e-02
10.250	21.000	1.8014e-02
10.250	21.250	1.8023e-02
10.250	21.500	1.8030e-02
10.250	21.750	1.8035e-02
10.250	22.000	1.8036e-02
10.250	22.250	1.8036e-02
10.250	22.500	1.8038e-02
10.250	22.750	1.8037e-02
10.250	23.000	1.8037e-02
10.250	23.250	1.8036e-02
10.250	23.500	1.8036e-02
10.250	23.750	1.8036e-02
10.250	24.000	1.8036e-02
10.500	17.000	2.7498e-04
10.500	17.250	3.6140e-04
10.500	17.500	4.9934e-04
10.500	17.750	7.4115e-04
10.500	18.000	1.1728e-03
10.500	18.250	1.8680e-03
10.500	18.500	2.8580e-03
10.500	18.750	4.2460e-03
10.500	19.000	6.1711e-03
10.500	19.250	8.7190e-03
10.500	19.500	1.1971e-02
10.500	19.750	1.5539e-02
10.500	20.000	1.6644e-02
10.500	20.250	1.6901e-02
10.500	20.500	1.7397e-02
10.500	20.750	1.7988e-02
10.500	21.000	1.8004e-02
10.500	21.250	1.8013e-02
10.500	21.500	1.8023e-02
10.500	21.750	1.8030e-02
10.500	22.000	1.8035e-02
10.500	22.250	1.8037e-02
10.500	22.500	1.8038e-02
10.500	22.750	1.8038e-02
10.500	23.000	1.8038e-02
10.500	23.250	1.8037e-02
10.500	23.500	1.8037e-02
10.500	23.750	1.8036e-02
10.500	24.000	1.8036e-02
10.750	17.000	2.2091e-04
10.750	17.250	2.8305e-04
10.750	17.500	3.8453e-04
10.750	17.750	5.6535e-04
10.750	18.000	8.8667e-04
10.750	18.250	1.3937e-03
10.750	18.500	2.1201e-03
10.750	18.750	3.1779e-03
10.750	19.000	4.6068e-03
10.750	19.250	6.5782e-03
10.750	19.500	9.2377e-03
10.750	19.750	1.2633e-02
10.750	20.000	1.6221e-02
10.750	20.250	1.6626e-02
10.750	20.500	1.6895e-02
10.750	20.750	1.7402e-02
10.750	21.000	1.7984e-02
10.750	21.250	1.8002e-02
10.750	21.500	1.8013e-02
10.750	21.750	1.8022e-02
10.750	22.000	1.8030e-02
10.750	22.250	1.8035e-02
10.750	22.500	1.8037e-02
10.750	22.750	1.8039e-02
10.750	23.000	1.8038e-02
10.750	23.250	1.8038e-02
10.750	23.500	1.8038e-02
10.750	23.750	1.8037e-02
10.750	24.000	1.8037e-02
11.000	17.000	1.8255e-04
11.000	17.250	2.2708e-04
11.000	17.500	3.0156e-04
11.000	17.750	4.3613e-04
11.000	18.000	6.7152e-04
11.000	18.250	1.0359e-03
11.000	18.500	1.5760e-03
11.000	18.750	2.3320e-03
11.000	19.000	3.3956e-03
11.000	19.250	4.8576e-03
11.000	19.500	6.9192e-03
11.000	19.750	9.6988e-03
11.000	20.000	1.3337e-02
11.000	20.250	1.6396e-02
11.000	20.500	1.6625e-02
11.000	20.750	1.6900e-02
11.000	21.000	1.7429e-02
11.000	21.250	1.7979e-02
11.000	21.500	1.8000e-02
11.000	21.750	1.8012e-02
11.000	22.000	1.8022e-02
11.000	22.250	1.8030e-02
11.000	22.500	1.8035e-02
11.000	22.750	1.8037e-02
11.000	23.000	1.8039e-02
11.000	23.250	1.8038e-02
11.000	23.500	1.8038e-02
11.000	23.750	1.8038e-02
11.000	24.000	1.8038e-02
11.250	17.000	1.5539e-04
11.250	17.250	1.8691e-04
11.250	17.500	2.4115e-04
11.250	17.750	3.4000e-04
11.250	18.000	5.0963e-04
11.250	18.250	7.6996e-04
11.250	18.500	1.1485e-03
11.250	18.750	1.7073e-03
11.250	19.000	2.4764e-03
11.250	19.250	3.5565e-03
11.250	19.500	5.0827e-03
11.250	19.750	7.2155e-03
11.250	20.000	1.0134e-02
11.250	20.250	1.3964e-02
11.250	20.500	1.6430e-02
11.250	20.750	1.6621e-02
11.250	21.000	1.6922e-02
11.250	21.250	1.7498e-02
11.250	21.500	1.7977e-02
11.250	21.750	1.7996e-02
11.250	22.000	1.8011e-02
11.250	22.250	1.8021e-02
11.250	22.500	1.8029e-02
11.250	22.750	1.8034e-02
11.250	23.000	1.8037e-02
11.250	23.250	1.8039e-02
11.250	23.500	1.8040e-02
11.250	23.750	1.8038e-02
11.250	24.000	1.8038e-02
11.500	17.000	1.3630e-04
11.500	17.250	1.5852e-04
11.500	17.500	1.9745e-04
11.500	17.750	2.6848e-04
11.500	18.000	3.8881e-04
11.500	18.250	5.7300e-04
11.500	18.500	8.4189e-04
11.500	18.750	1.2394e-03
11.500	19.000	1.7966e-03
11.500	19.250	2.5923e-03
11.500	19.500	3.6981e-03
11.500	19.750	5.2762e-03
11.500	20.000	7.5006e-03
11.500	20.250	1.0557e-02
11.500	20.500	1.4564e-02
11.500	20.750	1.6417e-02
11.500	21.000	1.6632e-02
11.500	21.250	1.6982e-02
11.500	21.500	1.7641e-02
11.500	21.750	1.7973e-02
11.500	22.000	1.7993e-02
11.500	22.250	1.8009e-02
11.500	22.500	1.8020e-02
11.500	22.750	1.8029e-02
11.500	23.000	1.8034e-02
11.500	23.250	1.8037e-02
11.500	23.500	1.8039e-02
11.500	23.750	1.8040e-02
11.500	24.000	1.8039e-02
11.750	17.000	1.2313e-04
11.750	17.250	1.3852e-04
11.750	17.500	1.6601e-04
11.750	17.750	2.1597e-04
11.750	18.000	2.9975e-04
11.750	18.250	4.2724e-04
11.750	18.500	6.1794e-04
11.750	18.750	8.9572e-04
11.750	19.000	1.3022e-03
11.750	19.250	1.8742e-03
11.750	19.500	2.6836e-03
11.750	19.750	3.8231e-03
11.750	20.000	5.4560e-03
11.750	20.250	7.7602e-03
11.750	20.500	1.0967e-02
11.750	20.750	1.5060e-02
11.750	21.000	1.6396e-02
11.750	21.250	1.6667e-02
11.750	21.500	1.7102e-02
11.750	21.750	1.7833e-02
11.750	22.000	1.7968e-02
11.750	22.250	1.7990e-02
11.750	22.500	1.8006e-02
11.750	22.750	1.8018e-02
11.750	23.000	1.8027e-02
11.750	23.250	1.8034e-02
11.750	23.500	1.8044e-02
11.750	23.750	1.8039e-02
11.750	24.000	1.8041e-02
12.000	17.000	1.1424e-04
12.000	17.250	1.2461e-04
12.000	17.500	1.4346e-04
12.000	17.750	1.7753e-04
12.000	18.000	2.3407e-04
12.000	18.250	3.2198e-04
12.000	18.500	4.5630e-04
12.000	18.750	6.5407e-04
12.000	19.000	9.4428e-04
12.000	19.250	1.3559e-03
12.000	19.500	1.9385e-03
12.000	19.750	2.7637e-03
12.000	20.000	3.9346e-03
12.000	20.250	5.6178e-03
12.000	20.500	8.0088e-03
12.000	20.750	1.1366e-02
12.000	21.000	1.5573e-02
12.000	21.250	1.6392e-02
12.000	21.500	1.6737e-02
12.000	21.750	1.7280e-02
12.000	22.000	1.7929e-02
12.000	22.250	1.7961e-02
12.000	22.500	1.7985e-02
12.000	22.750	1.8003e-02
12.000	23.000	1.8015e-02
12.000	23.250	1.8026e-02
12.000	23.500	1.8033e-02
12.000	23.750	1.8036e-02
12.000	24.000	1.8039e-02
12.250	17.000	1.0790e-04
12.250	17.250	1.1514e-04
12.250	17.500	1.2757e-04
12.250	17.750	1.4996e-04
12.250	18.000	1.8749e-04
12.250	18.250	2.4831e-04
12.250	18.500	3.4288e-04
12.250	18.750	4.8428e-04
12.250	19.000	6.9078e-04
12.250	19.250	9.8486e-04
12.250	19.500	1.4011e-03
12.250	19.750	1.9927e-03
12.250	20.000	2.8320e-03
12.250	20.250	4.0314e-03
12.250	20.500	5.7691e-03
12.250	20.750	8.2709e-03
12.250	21.000	1.1788e-02
12.250	21.250	1.5670e-02
12.250	21.500	1.6398e-02
12.250	21.750	1.6828e-02
12.250	22.000	1.7482e-02
12.250	22.250	1.7920e-02
12.250	22.500	1.7953e-02
12.250	22.750	1.7979e-02
12.250	23.000	1.7998e-02
12.250	23.250	1.8012e-02
12.250	23.500	1.8024e-02
12.250	23.750	1.8033e-02
12.250	24.000	1.8036e-02
12.500	17.000	1.0288e-04
12.500	17.250	1.0823e-04
12.500	17.500	1.1654e-04
12.500	17.750	1.3086e-04
12.500	18.000	1.5564e-04
12.500	18.250	1.9712e-04
12.500	18.500	2.6329e-04
12.500	18.750	3.6354e-04
12.500	19.000	5.1045e-04
12.500	19.250	7.2066e-04
12.500	19.500	1.0174e-03
12.500	19.750	1.4382e-03
12.500	20.000	2.0400e-03
12.500	20.250	2.9002e-03
12.500	20.500	4.1262e-03
12.500	20.750	5.9175e-03
12.500	21.000	8.5579e-03
12.500	21.250	1.2231e-02
12.500	21.500	1.5772e-02
12.500	21.750	1.6409e-02
12.500	22.000	1.6953e-02
12.500	22.250	1.7642e-02
12.500	22.500	1.7906e-02
12.500	22.750	1.7941e-02
12.500	23.000	1.7970e-02
12.500	23.250	1.7990e-02
12.500	23.500	1.8006e-02
12.500	23.750	1.8020e-02
12.500	24.000	1.8031e-02
12.750	17.000	7.4568e-05
12.750	17.250	1.0337e-04
12.750	17.500	1.0881e-04
12.750	17.750	1.1802e-04
12.750	18.000	1.3457e-04
12.750	18.250	1.6247e-04
12.750	18.500	2.0790e-04
12.750	18.750	2.7852e-04
12.750	19.000	3.8247e-04
12.750	19.250	5.3325e-04
12.750	19.500	7.4502e-04
12.750	19.750	1.0451e-03
12.750	20.000	1.4708e-03
12.750	20.250	2.0830e-03
12.750	20.500	2.9626e-03
12.750	20.750	4.2171e-03
12.750	21.000	6.1056e-03
12.750	21.250	8.8895e-03
12.750	21.500	1.2537e-02
12.750	21.750	1.5736e-02
12.750	22.000	1.6437e-02
12.750	22.250	1.7089e-02
12.750	22.500	1.7741e-02
12.750	22.750	1.7884e-02
12.750	23.000	1.7925e-02
12.750	23.250	1.7956e-02
12.750	23.500	1.7979e-02
12.750	23.750	1.7997e-02
12.750	24.000	1.8015e-02
13.000	17.000	1.3333e-05
13.000	17.250	3.2428e-05
13.000	17.500	9.5309e-05
13.000	17.750	1.0963e-04
13.000	18.000	1.2049e-04
13.000	18.250	1.3901e-04
13.000	18.500	1.6979e-04
13.000	18.750	2.1844e-04
13.000	19.000	2.9136e-04
13.000	19.250	3.9753e-04
13.000	19.500	5.4938e-04
13.000	19.750	7.6305e-04
13.000	20.000	1.0654e-03
13.000	20.250	1.4962e-03
13.000	20.500	2.1231e-03
13.000	20.750	3.0224e-03
13.000	21.000	4.3630e-03
13.000	21.250	6.3589e-03
13.000	21.500	9.1360e-03
13.000	21.750	1.3015e-02
13.000	22.000	1.5740e-02
13.000	22.250	1.6437e-02
13.000	22.500	1.7147e-02
13.000	22.750	1.7743e-02
13.000	23.000	1.7851e-02
13.000	23.250	1.7899e-02
13.000	23.500	1.7937e-02
13.000	23.750	1.7963e-02
13.000	24.000	1.7984e-02
13.250	17.000	8.0658e-06
13.250	17.250	1.5556e-05
13.250	17.500	3.7613e-05
13.250	17.750	7.2510e-05
13.250	18.000	1.1136e-04
13.250	18.250	1.2354e-04
13.250	18.500	1.4379e-04
13.250	18.750	1.7654e-04
13.250	19.000	2.2675e-04
13.250	19.250	3.0107e-04
13.250	19.500	4.0889e-04
13.250	19.750	5.6082e-04
13.250	20.000	7.7761e-04
13.250	20.250	1.0859e-03
13.250	20.500	1.5264e-03
13.250	20.750	2.1705e-03
13.250	21.000	3.1096e-03
13.250	21.250	4.5233e-03
13.250	21.500	6.5278e-03
13.250	21.750	9.6091e-03
13.250	22.000	1.3371e-02
13.250	22.250	1.5593e-02
13.250	22.500	1.6368e-02
13.250	22.750	1.7086e-02
13.250	23.000	1.7685e-02
13.250	23.250	1.7798e-02
13.250	23.500	1.7860e-02
13.250	23.750	1.7906e-02
13.250	24.000	1.7937e-02
13.500	17.000	4.8560e-06
13.500	17.250	9.0535e-06
13.500	17.500	2.1235e-05
13.500	17.750	4.8230e-05
13.500	18.000	8.1975e-05
13.500	18.250	1.1350e-04
13.500	18.500	1.2675e-04
13.500	18.750	1.4831e-04
13.500	19.000	1.8206e-04
13.500	19.250	2.3391e-04
13.500	19.500	3.0831e-04
13.500	19.750	4.1646e-04
13.500	20.000	5.7029e-04
13.500	20.250	7.8881e-04
13.500	20.500	1.1026e-03
13.500	20.750	1.5552e-03
13.500	21.000	2.2174e-03
13.500	21.250	3.2235e-03
13.500	21.500	4.6405e-03
13.500	21.750	6.8255e-03
13.500	22.000	9.9802e-03
13.500	22.250	1.3554e-02
13.500	22.500	1.5356e-02
13.500	22.750	1.6165e-02
13.500	23.000	1.6895e-02
13.500	23.250	1.7571e-02
13.500	23.500	1.7718e-02
13.500	23.750	1.7801e-02
13.500	24.000	1.7858e-02
13.750	17.000	2.8807e-06
13.750	17.250	5.8436e-06
13.750	17.500	1.2675e-05
13.750	17.750	2.5514e-05
13.750	18.000	5.8601e-05
13.750	18.250	8.6996e-05
13.750	18.500	1.1539e-04
13.750	18.750	1.2971e-04
13.750	19.000	1.5202e-04
13.750	19.250	1.8658e-04
13.750	19.500	2.3819e-04
13.750	19.750	3.1383e-04
13.750	20.000	4.2272e-04
13.750	20.250	5.7860e-04
13.750	20.500	8.0165e-04
13.750	20.750	1.1249e-03
13.750	21.000	1.5953e-03
13.750	21.250	2.2955e-03
13.750	21.500	3.2947e-03
13.750	21.750	4.8637e-03
13.750	22.000	7.2334e-03
13.750	22.250	1.0437e-02
13.750	22.500	1.3551e-02
13.750	22.750	1.5047e-02
13.750	23.000	1.5878e-02
13.750	23.250	1.6686e-02
13.750	23.500	1.7405e-02
13.750	23.750	1.7597e-02
13.750	24.000	1.7709e-02
14.000	17.000	1.7284e-06
14.000	17.250	3.3745e-06
14.000	17.500	7.6543e-06
14.000	17.750	1.5391e-05
14.000	18.000	3.2016e-05
14.000	18.250	6.7984e-05
14.000	18.500	9.4156e-05
14.000	18.750	1.1737e-04
14.000	19.000	1.3193e-04
14.000	19.250	1.5457e-04
14.000	19.500	1.8979e-04
14.000	19.750	2.4165e-04
14.000	20.000	3.1794e-04
14.000	20.250	4.2798e-04
14.000	20.500	5.8700e-04
14.000	20.750	8.1646e-04
14.000	21.000	1.1528e-03
14.000	21.250	1.6519e-03
14.000	21.500	2.3648e-03
14.000	21.750	3.4919e-03
14.000	22.000	5.2252e-03
14.000	22.250	7.7038e-03
14.000	22.500	1.0713e-02
14.000	22.750	1.3374e-02
14.000	23.000	1.4631e-02
14.000	23.250	1.5545e-02
14.000	23.500	1.6421e-02
14.000	23.750	1.7191e-02
14.000	24.000	1.7417e-02
