InwC 2430.05A  relative to Inci 1215.00A scaled to 1215A.
Hden   Phi(H)  Eq_Width (A)
 7.000	17.000	2.1399e-02
 7.000	17.250	2.2229e-02
 7.000	17.500	2.2239e-02
 7.000	17.750	2.2249e-02
 7.000	18.000	2.2260e-02
 7.000	18.250	2.2270e-02
 7.000	18.500	2.2276e-02
 7.000	18.750	2.2279e-02
 7.000	19.000	2.2282e-02
 7.000	19.250	2.2284e-02
 7.000	19.500	2.2284e-02
 7.000	19.750	2.2285e-02
 7.000	20.000	2.2285e-02
 7.000	20.250	2.2285e-02
 7.000	20.500	2.2285e-02
 7.000	20.750	2.2285e-02
 7.000	21.000	2.2285e-02
 7.000	21.250	2.2285e-02
 7.000	21.500	2.2286e-02
 7.000	21.750	2.2286e-02
 7.000	22.000	2.2286e-02
 7.000	22.250	2.2286e-02
 7.000	22.500	2.2286e-02
 7.000	22.750	2.2286e-02
 7.000	23.000	2.2286e-02
 7.000	23.250	2.2286e-02
 7.000	23.500	2.2286e-02
 7.000	23.750	2.2286e-02
 7.000	24.000	2.2286e-02
 7.250	17.000	1.9971e-02
 7.250	17.250	2.1405e-02
 7.250	17.500	2.2228e-02
 7.250	17.750	2.2239e-02
 7.250	18.000	2.2249e-02
 7.250	18.250	2.2260e-02
 7.250	18.500	2.2270e-02
 7.250	18.750	2.2276e-02
 7.250	19.000	2.2279e-02
 7.250	19.250	2.2282e-02
 7.250	19.500	2.2284e-02
 7.250	19.750	2.2284e-02
 7.250	20.000	2.2285e-02
 7.250	20.250	2.2285e-02
 7.250	20.500	2.2285e-02
 7.250	20.750	2.2285e-02
 7.250	21.000	2.2285e-02
 7.250	21.250	2.2285e-02
 7.250	21.500	2.2285e-02
 7.250	21.750	2.2285e-02
 7.250	22.000	2.2288e-02
 7.250	22.250	2.2285e-02
 7.250	22.500	2.2286e-02
 7.250	22.750	2.2286e-02
 7.250	23.000	2.2286e-02
 7.250	23.250	2.2287e-02
 7.250	23.500	2.2286e-02
 7.250	23.750	2.2287e-02
 7.250	24.000	2.2286e-02
 7.500	17.000	1.4750e-02
 7.500	17.250	2.0031e-02
 7.500	17.500	2.1410e-02
 7.500	17.750	2.2228e-02
 7.500	18.000	2.2239e-02
 7.500	18.250	2.2249e-02
 7.500	18.500	2.2260e-02
 7.500	18.750	2.2270e-02
 7.500	19.000	2.2276e-02
 7.500	19.250	2.2279e-02
 7.500	19.500	2.2282e-02
 7.500	19.750	2.2284e-02
 7.500	20.000	2.2284e-02
 7.500	20.250	2.2285e-02
 7.500	20.500	2.2285e-02
 7.500	20.750	2.2285e-02
 7.500	21.000	2.2285e-02
 7.500	21.250	2.2285e-02
 7.500	21.500	2.2285e-02
 7.500	21.750	2.2285e-02
 7.500	22.000	2.2285e-02
 7.500	22.250	2.2285e-02
 7.500	22.500	2.2285e-02
 7.500	22.750	2.2285e-02
 7.500	23.000	2.2285e-02
 7.500	23.250	2.2285e-02
 7.500	23.500	2.2285e-02
 7.500	23.750	2.2285e-02
 7.500	24.000	2.2285e-02
 7.750	17.000	1.0816e-02
 7.750	17.250	1.4876e-02
 7.750	17.500	2.0072e-02
 7.750	17.750	2.1414e-02
 7.750	18.000	2.2228e-02
 7.750	18.250	2.2239e-02
 7.750	18.500	2.2249e-02
 7.750	18.750	2.2260e-02
 7.750	19.000	2.2270e-02
 7.750	19.250	2.2276e-02
 7.750	19.500	2.2279e-02
 7.750	19.750	2.2282e-02
 7.750	20.000	2.2284e-02
 7.750	20.250	2.2284e-02
 7.750	20.500	2.2285e-02
 7.750	20.750	2.2285e-02
 7.750	21.000	2.2285e-02
 7.750	21.250	2.2285e-02
 7.750	21.500	2.2285e-02
 7.750	21.750	2.2285e-02
 7.750	22.000	2.2285e-02
 7.750	22.250	2.2285e-02
 7.750	22.500	2.2285e-02
 7.750	22.750	2.2285e-02
 7.750	23.000	2.2285e-02
 7.750	23.250	2.2285e-02
 7.750	23.500	2.2285e-02
 7.750	23.750	2.2285e-02
 7.750	24.000	2.2285e-02
 8.000	17.000	7.7685e-03
 8.000	17.250	1.0896e-02
 8.000	17.500	1.4889e-02
 8.000	17.750	1.9993e-02
 8.000	18.000	2.1408e-02
 8.000	18.250	2.2228e-02
 8.000	18.500	2.2239e-02
 8.000	18.750	2.2249e-02
 8.000	19.000	2.2260e-02
 8.000	19.250	2.2270e-02
 8.000	19.500	2.2276e-02
 8.000	19.750	2.2279e-02
 8.000	20.000	2.2282e-02
 8.000	20.250	2.2284e-02
 8.000	20.500	2.2284e-02
 8.000	20.750	2.2285e-02
 8.000	21.000	2.2285e-02
 8.000	21.250	2.2285e-02
 8.000	21.500	2.2285e-02
 8.000	21.750	2.2285e-02
 8.000	22.000	2.2285e-02
 8.000	22.250	2.2285e-02
 8.000	22.500	2.2285e-02
 8.000	22.750	2.2285e-02
 8.000	23.000	2.2285e-02
 8.000	23.250	2.2285e-02
 8.000	23.500	2.2285e-02
 8.000	23.750	2.2285e-02
 8.000	24.000	2.2287e-02
 8.250	17.000	5.6523e-03
 8.250	17.250	7.8836e-03
 8.250	17.500	1.1034e-02
 8.250	17.750	1.4983e-02
 8.250	18.000	2.0013e-02
 8.250	18.250	2.1409e-02
 8.250	18.500	2.2227e-02
 8.250	18.750	2.2239e-02
 8.250	19.000	2.2249e-02
 8.250	19.250	2.2260e-02
 8.250	19.500	2.2270e-02
 8.250	19.750	2.2276e-02
 8.250	20.000	2.2279e-02
 8.250	20.250	2.2282e-02
 8.250	20.500	2.2284e-02
 8.250	20.750	2.2284e-02
 8.250	21.000	2.2285e-02
 8.250	21.250	2.2285e-02
 8.250	21.500	2.2285e-02
 8.250	21.750	2.2285e-02
 8.250	22.000	2.2285e-02
 8.250	22.250	2.2285e-02
 8.250	22.500	2.2285e-02
 8.250	22.750	2.2285e-02
 8.250	23.000	2.2286e-02
 8.250	23.250	2.2285e-02
 8.250	23.500	2.2285e-02
 8.250	23.750	2.2285e-02
 8.250	24.000	2.2285e-02
 8.500	17.000	4.1907e-03
 8.500	17.250	5.7390e-03
 8.500	17.500	8.0159e-03
 8.500	17.750	1.1217e-02
 8.500	18.000	1.5126e-02
 8.500	18.250	2.0055e-02
 8.500	18.500	2.1408e-02
 8.500	18.750	2.2226e-02
 8.500	19.000	2.2239e-02
 8.500	19.250	2.2249e-02
 8.500	19.500	2.2260e-02
 8.500	19.750	2.2270e-02
 8.500	20.000	2.2276e-02
 8.500	20.250	2.2279e-02
 8.500	20.500	2.2282e-02
 8.500	20.750	2.2284e-02
 8.500	21.000	2.2284e-02
 8.500	21.250	2.2285e-02
 8.500	21.500	2.2285e-02
 8.500	21.750	2.2285e-02
 8.500	22.000	2.2285e-02
 8.500	22.250	2.2285e-02
 8.500	22.500	2.2285e-02
 8.500	22.750	2.2286e-02
 8.500	23.000	2.2285e-02
 8.500	23.250	2.2285e-02
 8.500	23.500	2.2285e-02
 8.500	23.750	2.2285e-02
 8.500	24.000	2.2285e-02
 8.750	17.000	3.1745e-03
 8.750	17.250	4.2528e-03
 8.750	17.500	5.8490e-03
 8.750	17.750	8.2106e-03
 8.750	18.000	1.1458e-02
 8.750	18.250	1.5364e-02
 8.750	18.500	2.0122e-02
 8.750	18.750	2.1404e-02
 8.750	19.000	2.2225e-02
 8.750	19.250	2.2238e-02
 8.750	19.500	2.2249e-02
 8.750	19.750	2.2260e-02
 8.750	20.000	2.2270e-02
 8.750	20.250	2.2276e-02
 8.750	20.500	2.2279e-02
 8.750	20.750	2.2282e-02
 8.750	21.000	2.2284e-02
 8.750	21.250	2.2284e-02
 8.750	21.500	2.2285e-02
 8.750	21.750	2.2285e-02
 8.750	22.000	2.2285e-02
 8.750	22.250	2.2285e-02
 8.750	22.500	2.2285e-02
 8.750	22.750	2.2285e-02
 8.750	23.000	2.2285e-02
 8.750	23.250	2.2285e-02
 8.750	23.500	2.2285e-02
 8.750	23.750	2.2285e-02
 8.750	24.000	2.2285e-02
 9.000	17.000	2.4589e-03
 9.000	17.250	3.2154e-03
 9.000	17.500	4.3381e-03
 9.000	17.750	6.0211e-03
 9.000	18.000	8.5290e-03
 9.000	18.250	1.1918e-02
 9.000	18.500	1.5804e-02
 9.000	18.750	2.0330e-02
 9.000	19.000	2.1394e-02
 9.000	19.250	2.2221e-02
 9.000	19.500	2.2238e-02
 9.000	19.750	2.2249e-02
 9.000	20.000	2.2260e-02
 9.000	20.250	2.2270e-02
 9.000	20.500	2.2276e-02
 9.000	20.750	2.2279e-02
 9.000	21.000	2.2282e-02
 9.000	21.250	2.2284e-02
 9.000	21.500	2.2284e-02
 9.000	21.750	2.2285e-02
 9.000	22.000	2.2285e-02
 9.000	22.250	2.2285e-02
 9.000	22.500	2.2285e-02
 9.000	22.750	2.2285e-02
 9.000	23.000	2.2285e-02
 9.000	23.250	2.2285e-02
 9.000	23.500	2.2285e-02
 9.000	23.750	2.2285e-02
 9.000	24.000	2.2286e-02
 9.250	17.000	1.9526e-03
 9.250	17.250	2.4854e-03
 9.250	17.500	3.2806e-03
 9.250	17.750	4.4894e-03
 9.250	18.000	6.3537e-03
 9.250	18.250	9.0915e-03
 9.250	18.500	1.2628e-02
 9.250	18.750	1.6660e-02
 9.250	19.000	2.0293e-02
 9.250	19.250	2.1375e-02
 9.250	19.500	2.2217e-02
 9.250	19.750	2.2237e-02
 9.250	20.000	2.2249e-02
 9.250	20.250	2.2260e-02
 9.250	20.500	2.2270e-02
 9.250	20.750	2.2276e-02
 9.250	21.000	2.2279e-02
 9.250	21.250	2.2282e-02
 9.250	21.500	2.2280e-02
 9.250	21.750	2.2280e-02
 9.250	22.000	2.2280e-02
 9.250	22.250	2.2281e-02
 9.250	22.500	2.2284e-02
 9.250	22.750	2.2284e-02
 9.250	23.000	2.2285e-02
 9.250	23.250	2.2285e-02
 9.250	23.500	2.2285e-02
 9.250	23.750	2.2285e-02
 9.250	24.000	2.2285e-02
 9.500	17.000	1.5950e-03
 9.500	17.250	1.9696e-03
 9.500	17.500	2.5328e-03
 9.500	17.750	3.4093e-03
 9.500	18.000	4.7986e-03
 9.500	18.250	6.9272e-03
 9.500	18.500	9.8783e-03
 9.500	18.750	1.3513e-02
 9.500	19.000	1.7620e-02
 9.500	19.250	2.0246e-02
 9.500	19.500	2.1343e-02
 9.500	19.750	2.2208e-02
 9.500	20.000	2.2235e-02
 9.500	20.250	2.2249e-02
 9.500	20.500	2.2260e-02
 9.500	20.750	2.2269e-02
 9.500	21.000	2.2273e-02
 9.500	21.250	2.2275e-02
 9.500	21.500	2.2278e-02
 9.500	21.750	2.2278e-02
 9.500	22.000	2.2278e-02
 9.500	22.250	2.2278e-02
 9.500	22.500	2.2278e-02
 9.500	22.750	2.2278e-02
 9.500	23.000	2.2278e-02
 9.500	23.250	2.2278e-02
 9.500	23.500	2.2279e-02
 9.500	23.750	2.2279e-02
 9.500	24.000	2.2279e-02
 9.750	17.000	1.3417e-03
 9.750	17.250	1.6041e-03
 9.750	17.500	2.0023e-03
 9.750	17.750	2.6366e-03
 9.750	18.000	3.6815e-03
 9.750	18.250	5.3091e-03
 9.750	18.500	7.6194e-03
 9.750	18.750	1.0657e-02
 9.750	19.000	1.4398e-02
 9.750	19.250	1.8753e-02
 9.750	19.500	2.0208e-02
 9.750	19.750	2.1300e-02
 9.750	20.000	2.2194e-02
 9.750	20.250	2.2232e-02
 9.750	20.500	2.2248e-02
 9.750	20.750	2.2260e-02
 9.750	21.000	2.2270e-02
 9.750	21.250	2.2273e-02
 9.750	21.500	2.2275e-02
 9.750	21.750	2.2278e-02
 9.750	22.000	2.2279e-02
 9.750	22.250	2.2278e-02
 9.750	22.500	2.2278e-02
 9.750	22.750	2.2278e-02
 9.750	23.000	2.2278e-02
 9.750	23.250	2.2278e-02
 9.750	23.500	2.2278e-02
 9.750	23.750	2.2278e-02
 9.750	24.000	2.2278e-02
10.000	17.000	1.1621e-03
10.000	17.250	1.3459e-03
10.000	17.500	1.6275e-03
10.000	17.750	2.0875e-03
10.000	18.000	2.8742e-03
10.000	18.250	4.0999e-03
10.000	18.500	5.8385e-03
10.000	18.750	8.2015e-03
10.000	19.000	1.1343e-02
10.000	19.250	1.5399e-02
10.000	19.500	1.9244e-02
10.000	19.750	2.0188e-02
10.000	20.000	2.1257e-02
10.000	20.250	2.2175e-02
10.000	20.500	2.2228e-02
10.000	20.750	2.2247e-02
10.000	21.000	2.2260e-02
10.000	21.250	2.2270e-02
10.000	21.500	2.2275e-02
10.000	21.750	2.2276e-02
10.000	22.000	2.2278e-02
10.000	22.250	2.2279e-02
10.000	22.500	2.2279e-02
10.000	22.750	2.2278e-02
10.000	23.000	2.2278e-02
10.000	23.250	2.2278e-02
10.000	23.500	2.2278e-02
10.000	23.750	2.2278e-02
10.000	24.000	2.2278e-02
10.250	17.000	1.0352e-03
10.250	17.250	1.1638e-03
10.250	17.500	1.3626e-03
10.250	17.750	1.6971e-03
10.250	18.000	2.2808e-03
10.250	18.250	3.1851e-03
10.250	18.500	4.4630e-03
10.250	18.750	6.2092e-03
10.250	19.000	8.6115e-03
10.250	19.250	1.2070e-02
10.250	19.500	1.6664e-02
10.250	19.750	1.9353e-02
10.250	20.000	2.0172e-02
10.250	20.250	2.1215e-02
10.250	20.500	2.2150e-02
10.250	20.750	2.2221e-02
10.250	21.000	2.2245e-02
10.250	21.250	2.2259e-02
10.250	21.500	2.2270e-02
10.250	21.750	2.2276e-02
10.250	22.000	2.2278e-02
10.250	22.250	2.2278e-02
10.250	22.500	2.2280e-02
10.250	22.750	2.2279e-02
10.250	23.000	2.2278e-02
10.250	23.250	2.2278e-02
10.250	23.500	2.2278e-02
10.250	23.750	2.2278e-02
10.250	24.000	2.2278e-02
10.500	17.000	9.4551e-04
10.500	17.250	1.0351e-03
10.500	17.500	1.1758e-03
10.500	17.750	1.4198e-03
10.500	18.000	1.8467e-03
10.500	18.250	2.5156e-03
10.500	18.500	3.4436e-03
10.500	18.750	4.7441e-03
10.500	19.000	6.6203e-03
10.500	19.250	9.2536e-03
10.500	19.500	1.2938e-02
10.500	19.750	1.7382e-02
10.500	20.000	1.9307e-02
10.500	20.250	2.0156e-02
10.500	20.500	2.1184e-02
10.500	20.750	2.2121e-02
10.500	21.000	2.2211e-02
10.500	21.250	2.2243e-02
10.500	21.500	2.2258e-02
10.500	21.750	2.2269e-02
10.500	22.000	2.2276e-02
10.500	22.250	2.2278e-02
10.500	22.500	2.2280e-02
10.500	22.750	2.2280e-02
10.500	23.000	2.2280e-02
10.500	23.250	2.2279e-02
10.500	23.500	2.2279e-02
10.500	23.750	2.2278e-02
10.500	24.000	2.2278e-02
10.750	17.000	8.8189e-04
10.750	17.250	9.4379e-04
10.750	17.500	1.0433e-03
10.750	17.750	1.2193e-03
10.750	18.000	1.5309e-03
10.750	18.250	2.0159e-03
10.750	18.500	2.7047e-03
10.750	18.750	3.7169e-03
10.750	19.000	5.1071e-03
10.750	19.250	7.0667e-03
10.750	19.500	9.8351e-03
10.750	19.750	1.3668e-02
10.750	20.000	1.8067e-02
10.750	20.250	1.9288e-02
10.750	20.500	2.0147e-02
10.750	20.750	2.1171e-02
10.750	21.000	2.2095e-02
10.750	21.250	2.2198e-02
10.750	21.500	2.2238e-02
10.750	21.750	2.2256e-02
10.750	22.000	2.2269e-02
10.750	22.250	2.2276e-02
10.750	22.500	2.2279e-02
10.750	22.750	2.2281e-02
10.750	23.000	2.2280e-02
10.750	23.250	2.2280e-02
10.750	23.500	2.2280e-02
10.750	23.750	2.2280e-02
10.750	24.000	2.2279e-02
11.000	17.000	8.3621e-04
11.000	17.250	8.7811e-04
11.000	17.500	9.4691e-04
11.000	17.750	1.0737e-03
11.000	18.000	1.2993e-03
11.000	18.250	1.6509e-03
11.000	18.500	2.1770e-03
11.000	18.750	2.9174e-03
11.000	19.000	3.9519e-03
11.000	19.250	5.3781e-03
11.000	19.500	7.4171e-03
11.000	19.750	1.0278e-02
11.000	20.000	1.4315e-02
11.000	20.250	1.8280e-02
11.000	20.500	1.9321e-02
11.000	20.750	2.0144e-02
11.000	21.000	2.1189e-02
11.000	21.250	2.2073e-02
11.000	21.500	2.2184e-02
11.000	21.750	2.2233e-02
11.000	22.000	2.2253e-02
11.000	22.250	2.2268e-02
11.000	22.500	2.2276e-02
11.000	22.750	2.2279e-02
11.000	23.000	2.2281e-02
11.000	23.250	2.2281e-02
11.000	23.500	2.2280e-02
11.000	23.750	2.2280e-02
11.000	24.000	2.2280e-02
11.250	17.000	8.0280e-04
11.250	17.250	8.2971e-04
11.250	17.500	8.7654e-04
11.250	17.750	9.6658e-04
11.250	18.000	1.1285e-03
11.250	18.250	1.3851e-03
11.250	18.500	1.7642e-03
11.250	18.750	2.3206e-03
11.250	19.000	3.0751e-03
11.250	19.250	4.1209e-03
11.250	19.500	5.5926e-03
11.250	19.750	7.6652e-03
11.250	20.000	1.0603e-02
11.250	20.250	1.4764e-02
11.250	20.500	1.8187e-02
11.250	20.750	1.9304e-02
11.250	21.000	2.0179e-02
11.250	21.250	2.1265e-02
11.250	21.500	2.2041e-02
11.250	21.750	2.2169e-02
11.250	22.000	2.2225e-02
11.250	22.250	2.2250e-02
11.250	22.500	2.2266e-02
11.250	22.750	2.2275e-02
11.250	23.000	2.2279e-02
11.250	23.250	2.2281e-02
11.250	23.500	2.2282e-02
11.250	23.750	2.2281e-02
11.250	24.000	2.2281e-02
11.500	17.000	7.7852e-04
11.500	17.250	7.9457e-04
11.500	17.500	8.2527e-04
11.500	17.750	8.8790e-04
11.500	18.000	1.0035e-03
11.500	18.250	1.1898e-03
11.500	18.500	1.4650e-03
11.500	18.750	1.8677e-03
11.500	19.000	2.4202e-03
11.500	19.250	3.1942e-03
11.500	19.500	4.2514e-03
11.500	19.750	5.7444e-03
11.500	20.000	7.8556e-03
11.500	20.250	1.0850e-02
11.500	20.500	1.5119e-02
11.500	20.750	1.8093e-02
11.500	21.000	1.9307e-02
11.500	21.250	2.0261e-02
11.500	21.500	2.1432e-02
11.500	21.750	2.2021e-02
11.500	22.000	2.2156e-02
11.500	22.250	2.2218e-02
11.500	22.500	2.2246e-02
11.500	22.750	2.2265e-02
11.500	23.000	2.2275e-02
11.500	23.250	2.2278e-02
11.500	23.500	2.2281e-02
11.500	23.750	2.2283e-02
11.500	24.000	2.2281e-02
11.750	17.000	7.6156e-04
11.750	17.250	7.6938e-04
11.750	17.500	7.8831e-04
11.750	17.750	8.3103e-04
11.750	18.000	9.1276e-04
11.750	18.250	1.0448e-03
11.750	18.500	1.2437e-03
11.750	18.750	1.5292e-03
11.750	19.000	1.9388e-03
11.750	19.250	2.5013e-03
11.750	19.500	3.2797e-03
11.750	19.750	4.3506e-03
11.750	20.000	5.8623e-03
11.750	20.250	7.9925e-03
11.750	20.500	1.1051e-02
11.750	20.750	1.5328e-02
11.750	21.000	1.8005e-02
11.750	21.250	1.9383e-02
11.750	21.500	2.0437e-02
11.750	21.750	2.1666e-02
11.750	22.000	2.1999e-02
11.750	22.250	2.2141e-02
11.750	22.500	2.2210e-02
11.750	22.750	2.2241e-02
11.750	23.000	2.2262e-02
11.750	23.250	2.2274e-02
11.750	23.500	2.2288e-02
11.750	23.750	2.2281e-02
11.750	24.000	2.2283e-02
12.000	17.000	7.5078e-04
12.000	17.250	7.5243e-04
12.000	17.500	7.6255e-04
12.000	17.750	7.9062e-04
12.000	18.000	8.4683e-04
12.000	18.250	9.3959e-04
12.000	18.500	1.0820e-03
12.000	18.750	1.2882e-03
12.000	19.000	1.5855e-03
12.000	19.250	1.9964e-03
12.000	19.500	2.5642e-03
12.000	19.750	3.3472e-03
12.000	20.000	4.4291e-03
12.000	20.250	5.9541e-03
12.000	20.500	8.1092e-03
12.000	20.750	1.1236e-02
12.000	21.000	1.5597e-02
12.000	21.250	1.7996e-02
12.000	21.500	1.9520e-02
12.000	21.750	2.0697e-02
12.000	22.000	2.1779e-02
12.000	22.250	2.1990e-02
12.000	22.500	2.2127e-02
12.000	22.750	2.2203e-02
12.000	23.000	2.2237e-02
12.000	23.250	2.2260e-02
12.000	23.500	2.2273e-02
12.000	23.750	2.2278e-02
12.000	24.000	2.2281e-02
12.250	17.000	7.4420e-04
12.250	17.250	7.4263e-04
12.250	17.500	7.4650e-04
12.250	17.750	7.6362e-04
12.250	18.000	8.0123e-04
12.250	18.250	8.6650e-04
12.250	18.500	9.6765e-04
12.250	18.750	1.1168e-03
12.250	19.000	1.3313e-03
12.250	19.250	1.6300e-03
12.250	19.500	2.0426e-03
12.250	19.750	2.6136e-03
12.250	20.000	3.4001e-03
12.250	20.250	4.4919e-03
12.250	20.500	6.0362e-03
12.250	20.750	8.2428e-03
12.250	21.000	1.1470e-02
12.250	21.250	1.5537e-02
12.250	21.500	1.8034e-02
12.250	21.750	1.9713e-02
12.250	22.000	2.0987e-02
12.250	22.250	2.1772e-02
12.250	22.500	2.1973e-02
12.250	22.750	2.2114e-02
12.250	23.000	2.2194e-02
12.250	23.250	2.2233e-02
12.250	23.500	2.2258e-02
12.250	23.750	2.2272e-02
12.250	24.000	2.2277e-02
12.500	17.000	7.3844e-04
12.500	17.250	7.3844e-04
12.500	17.500	7.3934e-04
12.500	17.750	7.4881e-04
12.500	18.000	7.7251e-04
12.500	18.250	8.1621e-04
12.500	18.500	8.8691e-04
12.500	18.750	9.9333e-04
12.500	19.000	1.1475e-03
12.500	19.250	1.3645e-03
12.500	19.500	1.6642e-03
12.500	19.750	2.0780e-03
12.500	20.000	2.6539e-03
12.500	20.250	3.4510e-03
12.500	20.500	4.5527e-03
12.500	20.750	6.1234e-03
12.500	21.000	8.4216e-03
12.500	21.250	1.1786e-02
12.500	21.500	1.5649e-02
12.500	21.750	1.8190e-02
12.500	22.000	1.9982e-02
12.500	22.250	2.1223e-02
12.500	22.500	2.1769e-02
12.500	22.750	2.1960e-02
12.500	23.000	2.2103e-02
12.500	23.250	2.2185e-02
12.500	23.500	2.2227e-02
12.500	23.750	2.2255e-02
12.500	24.000	2.2271e-02
12.750	17.000	5.4667e-04
12.750	17.250	7.3868e-04
12.750	17.500	7.3819e-04
12.750	17.750	7.4255e-04
12.750	18.000	7.5613e-04
12.750	18.250	7.8346e-04
12.750	18.500	8.3086e-04
12.750	18.750	9.0568e-04
12.750	19.000	1.0155e-03
12.750	19.250	1.1731e-03
12.750	19.500	1.3903e-03
12.750	19.750	1.6913e-03
12.750	20.000	2.1065e-03
12.750	20.250	2.6871e-03
12.750	20.500	3.4938e-03
12.750	20.750	4.6093e-03
12.750	21.000	6.2441e-03
12.750	21.250	8.6573e-03
12.750	21.500	1.2015e-02
12.750	21.750	1.5871e-02
12.750	22.000	1.8455e-02
12.750	22.250	2.0260e-02
12.750	22.500	2.1391e-02
12.750	22.750	2.1765e-02
12.750	23.000	2.1952e-02
12.750	23.250	2.2091e-02
12.750	23.500	2.2175e-02
12.750	23.750	2.2220e-02
12.750	24.000	2.2251e-02
13.000	17.000	9.2428e-05
13.000	17.250	2.2609e-04
13.000	17.500	6.7811e-04
13.000	17.750	7.4025e-04
13.000	18.000	7.4724e-04
13.000	18.250	7.6305e-04
13.000	18.500	7.9325e-04
13.000	18.750	8.4362e-04
13.000	19.000	9.2058e-04
13.000	19.250	1.0321e-03
13.000	19.500	1.1899e-03
13.000	19.750	1.4076e-03
13.000	20.000	1.7082e-03
13.000	20.250	2.1243e-03
13.000	20.500	2.7119e-03
13.000	20.750	3.5274e-03
13.000	21.000	4.7039e-03
13.000	21.250	6.4199e-03
13.000	21.500	8.8172e-03
13.000	21.750	1.2512e-02
13.000	22.000	1.6231e-02
13.000	22.250	1.8718e-02
13.000	22.500	2.0418e-02
13.000	22.750	2.1452e-02
13.000	23.000	2.1758e-02
13.000	23.250	2.1942e-02
13.000	23.500	2.2079e-02
13.000	23.750	2.2163e-02
13.000	24.000	2.2211e-02
13.250	17.000	5.6296e-05
13.250	17.250	1.0840e-04
13.250	17.500	2.6362e-04
13.250	17.750	5.0206e-04
13.250	18.000	7.4337e-04
13.250	18.250	7.5193e-04
13.250	18.500	7.6922e-04
13.250	18.750	8.0132e-04
13.250	19.000	8.5300e-04
13.250	19.250	9.3078e-04
13.250	19.500	1.0434e-03
13.250	19.750	1.1998e-03
13.250	20.000	1.4184e-03
13.250	20.250	1.7212e-03
13.250	20.500	2.1402e-03
13.250	20.750	2.7334e-03
13.250	21.000	3.5683e-03
13.250	21.250	4.7856e-03
13.250	21.500	6.4807e-03
13.250	21.750	9.1648e-03
13.250	22.000	1.2955e-02
13.250	22.250	1.6428e-02
13.250	22.500	1.8879e-02
13.250	22.750	2.0443e-02
13.250	23.000	2.1457e-02
13.250	23.250	2.1743e-02
13.250	23.500	2.1928e-02
13.250	23.750	2.2063e-02
13.250	24.000	2.2147e-02
13.500	17.000	3.4321e-05
13.500	17.250	6.3457e-05
13.500	17.500	1.4971e-04
13.500	17.750	3.4091e-04
13.500	18.000	5.6601e-04
13.500	18.250	7.4667e-04
13.500	18.500	7.5605e-04
13.500	18.750	7.7449e-04
13.500	19.000	8.0716e-04
13.500	19.250	8.6025e-04
13.500	19.500	9.3720e-04
13.500	19.750	1.0486e-03
13.500	20.000	1.2045e-03
13.500	20.250	1.4208e-03
13.500	20.500	1.7225e-03
13.500	20.750	2.1422e-03
13.500	21.000	2.7339e-03
13.500	21.250	3.5974e-03
13.500	21.500	4.7705e-03
13.500	21.750	6.5483e-03
13.500	22.000	9.2754e-03
13.500	22.250	1.3278e-02
13.500	22.500	1.6547e-02
13.500	22.750	1.8825e-02
13.500	23.000	2.0336e-02
13.500	23.250	2.1414e-02
13.500	23.500	2.1712e-02
13.500	23.750	2.1903e-02
13.500	24.000	2.2038e-02
13.750	17.000	2.0412e-05
13.750	17.250	4.1235e-05
13.750	17.500	9.0206e-05
13.750	17.750	1.8049e-04
13.750	18.000	4.1514e-04
13.750	18.250	5.9556e-04
13.750	18.500	7.4930e-04
13.750	18.750	7.5942e-04
13.750	19.000	7.7819e-04
13.750	19.250	8.1119e-04
13.750	19.500	8.6321e-04
13.750	19.750	9.4016e-04
13.750	20.000	1.0499e-03
13.750	20.250	1.2037e-03
13.750	20.500	1.4177e-03
13.750	20.750	1.7171e-03
13.750	21.000	2.1346e-03
13.750	21.250	2.7270e-03
13.750	21.500	3.5300e-03
13.750	21.750	4.7291e-03
13.750	22.000	6.5207e-03
13.750	22.250	9.3453e-03
13.750	22.500	1.3544e-02
13.750	22.750	1.6619e-02
13.750	23.000	1.8725e-02
13.750	23.250	2.0243e-02
13.750	23.500	2.1333e-02
13.750	23.750	2.1655e-02
13.750	24.000	2.1860e-02
14.000	17.000	1.2346e-05
14.000	17.250	2.4033e-05
14.000	17.500	5.5144e-05
14.000	17.750	1.0963e-04
14.000	18.000	2.2757e-04
14.000	18.250	4.8148e-04
14.000	18.500	6.4165e-04
14.000	18.750	7.5152e-04
14.000	19.000	7.6123e-04
14.000	19.250	7.7984e-04
14.000	19.500	8.1267e-04
14.000	19.750	8.6362e-04
14.000	20.000	9.3901e-04
14.000	20.250	1.0458e-03
14.000	20.500	1.1963e-03
14.000	20.750	1.4053e-03
14.000	21.000	1.6982e-03
14.000	21.250	2.1087e-03
14.000	21.500	2.6588e-03
14.000	21.750	3.4589e-03
14.000	22.000	4.6027e-03
14.000	22.250	6.3218e-03
14.000	22.500	9.3035e-03
14.000	22.750	1.3837e-02
14.000	23.000	1.6567e-02
14.000	23.250	1.8610e-02
14.000	23.500	2.0125e-02
14.000	23.750	2.1231e-02
14.000	24.000	2.1561e-02
