nFnu 1073.86A  relative to Inci 1215.00A scaled to 1215A.
Hden   Phi(H)  Eq_Width (A)
 7.000	17.000	5.3482e-02
 7.000	17.250	5.2167e-02
 7.000	17.500	4.5614e-02
 7.000	17.750	3.8828e-02
 7.000	18.000	3.3230e-02
 7.000	18.250	2.9657e-02
 7.000	18.500	2.7392e-02
 7.000	18.750	2.6277e-02
 7.000	19.000	2.5690e-02
 7.000	19.250	2.5356e-02
 7.000	19.500	2.5215e-02
 7.000	19.750	2.5155e-02
 7.000	20.000	2.5129e-02
 7.000	20.250	2.5116e-02
 7.000	20.500	2.5110e-02
 7.000	20.750	2.5107e-02
 7.000	21.000	2.5106e-02
 7.000	21.250	2.5105e-02
 7.000	21.500	2.5104e-02
 7.000	21.750	2.5104e-02
 7.000	22.000	2.5104e-02
 7.000	22.250	2.5104e-02
 7.000	22.500	2.5104e-02
 7.000	22.750	2.5104e-02
 7.000	23.000	2.5104e-02
 7.000	23.250	2.5104e-02
 7.000	23.500	2.5104e-02
 7.000	23.750	2.5104e-02
 7.000	24.000	2.5104e-02
 7.250	17.000	5.5537e-02
 7.250	17.250	5.2213e-02
 7.250	17.500	5.1787e-02
 7.250	17.750	4.5431e-02
 7.250	18.000	3.8735e-02
 7.250	18.250	3.3178e-02
 7.250	18.500	2.9632e-02
 7.250	18.750	2.7383e-02
 7.250	19.000	2.6274e-02
 7.250	19.250	2.5689e-02
 7.250	19.500	2.5356e-02
 7.250	19.750	2.5215e-02
 7.250	20.000	2.5155e-02
 7.250	20.250	2.5129e-02
 7.250	20.500	2.5116e-02
 7.250	20.750	2.5110e-02
 7.250	21.000	2.5107e-02
 7.250	21.250	2.5105e-02
 7.250	21.500	2.5104e-02
 7.250	21.750	2.5104e-02
 7.250	22.000	2.5107e-02
 7.250	22.250	2.5104e-02
 7.250	22.500	2.5104e-02
 7.250	22.750	2.5104e-02
 7.250	23.000	2.5104e-02
 7.250	23.250	2.5105e-02
 7.250	23.500	2.5104e-02
 7.250	23.750	2.5105e-02
 7.250	24.000	2.5104e-02
 7.500	17.000	5.7181e-02
 7.500	17.250	5.2611e-02
 7.500	17.500	5.1146e-02
 7.500	17.750	5.1578e-02
 7.500	18.000	4.5339e-02
 7.500	18.250	3.8686e-02
 7.500	18.500	3.3147e-02
 7.500	18.750	2.9617e-02
 7.500	19.000	2.7377e-02
 7.500	19.250	2.6271e-02
 7.500	19.500	2.5688e-02
 7.500	19.750	2.5356e-02
 7.500	20.000	2.5215e-02
 7.500	20.250	2.5155e-02
 7.500	20.500	2.5129e-02
 7.500	20.750	2.5116e-02
 7.500	21.000	2.5110e-02
 7.500	21.250	2.5107e-02
 7.500	21.500	2.5105e-02
 7.500	21.750	2.5104e-02
 7.500	22.000	2.5104e-02
 7.500	22.250	2.5104e-02
 7.500	22.500	2.5103e-02
 7.500	22.750	2.5103e-02
 7.500	23.000	2.5103e-02
 7.500	23.250	2.5104e-02
 7.500	23.500	2.5103e-02
 7.500	23.750	2.5104e-02
 7.500	24.000	2.5104e-02
 7.750	17.000	5.8725e-02
 7.750	17.250	5.3765e-02
 7.750	17.500	5.0019e-02
 7.750	17.750	5.0293e-02
 7.750	18.000	5.1469e-02
 7.750	18.250	4.5304e-02
 7.750	18.500	3.8667e-02
 7.750	18.750	3.3129e-02
 7.750	19.000	2.9607e-02
 7.750	19.250	2.7373e-02
 7.750	19.500	2.6270e-02
 7.750	19.750	2.5688e-02
 7.750	20.000	2.5356e-02
 7.750	20.250	2.5215e-02
 7.750	20.500	2.5155e-02
 7.750	20.750	2.5129e-02
 7.750	21.000	2.5116e-02
 7.750	21.250	2.5110e-02
 7.750	21.500	2.5107e-02
 7.750	21.750	2.5105e-02
 7.750	22.000	2.5104e-02
 7.750	22.250	2.5104e-02
 7.750	22.500	2.5104e-02
 7.750	22.750	2.5103e-02
 7.750	23.000	2.5104e-02
 7.750	23.250	2.5103e-02
 7.750	23.500	2.5103e-02
 7.750	23.750	2.5103e-02
 7.750	24.000	2.5103e-02
 8.000	17.000	5.8961e-02
 8.000	17.250	5.5047e-02
 8.000	17.500	5.0950e-02
 8.000	17.750	4.7921e-02
 8.000	18.000	4.9606e-02
 8.000	18.250	5.1415e-02
 8.000	18.500	4.5310e-02
 8.000	18.750	3.8669e-02
 8.000	19.000	3.3119e-02
 8.000	19.250	2.9601e-02
 8.000	19.500	2.7371e-02
 8.000	19.750	2.6269e-02
 8.000	20.000	2.5688e-02
 8.000	20.250	2.5356e-02
 8.000	20.500	2.5215e-02
 8.000	20.750	2.5155e-02
 8.000	21.000	2.5129e-02
 8.000	21.250	2.5116e-02
 8.000	21.500	2.5110e-02
 8.000	21.750	2.5107e-02
 8.000	22.000	2.5105e-02
 8.000	22.250	2.5104e-02
 8.000	22.500	2.5104e-02
 8.000	22.750	2.5103e-02
 8.000	23.000	2.5103e-02
 8.000	23.250	2.5103e-02
 8.000	23.500	2.5103e-02
 8.000	23.750	2.5103e-02
 8.000	24.000	2.5106e-02
 8.250	17.000	5.8563e-02
 8.250	17.250	5.5869e-02
 8.250	17.500	5.2439e-02
 8.250	17.750	4.8972e-02
 8.250	18.000	4.6521e-02
 8.250	18.250	4.9175e-02
 8.250	18.500	5.1387e-02
 8.250	18.750	4.5338e-02
 8.250	19.000	3.8682e-02
 8.250	19.250	3.3114e-02
 8.250	19.500	2.9597e-02
 8.250	19.750	2.7369e-02
 8.250	20.000	2.6268e-02
 8.250	20.250	2.5687e-02
 8.250	20.500	2.5356e-02
 8.250	20.750	2.5215e-02
 8.250	21.000	2.5155e-02
 8.250	21.250	2.5129e-02
 8.250	21.500	2.5116e-02
 8.250	21.750	2.5110e-02
 8.250	22.000	2.5107e-02
 8.250	22.250	2.5105e-02
 8.250	22.500	2.5104e-02
 8.250	22.750	2.5104e-02
 8.250	23.000	2.5104e-02
 8.250	23.250	2.5103e-02
 8.250	23.500	2.5103e-02
 8.250	23.750	2.5103e-02
 8.250	24.000	2.5103e-02
 8.500	17.000	5.7901e-02
 8.500	17.250	5.6101e-02
 8.500	17.500	5.3699e-02
 8.500	17.750	5.0474e-02
 8.500	18.000	4.7498e-02
 8.500	18.250	4.5565e-02
 8.500	18.500	4.8877e-02
 8.500	18.750	5.1375e-02
 8.500	19.000	4.5386e-02
 8.500	19.250	3.8704e-02
 8.500	19.500	3.3113e-02
 8.500	19.750	2.9595e-02
 8.500	20.000	2.7368e-02
 8.500	20.250	2.6268e-02
 8.500	20.500	2.5687e-02
 8.500	20.750	2.5356e-02
 8.500	21.000	2.5215e-02
 8.500	21.250	2.5155e-02
 8.500	21.500	2.5129e-02
 8.500	21.750	2.5116e-02
 8.500	22.000	2.5110e-02
 8.500	22.250	2.5107e-02
 8.500	22.500	2.5105e-02
 8.500	22.750	2.5105e-02
 8.500	23.000	2.5104e-02
 8.500	23.250	2.5103e-02
 8.500	23.500	2.5103e-02
 8.500	23.750	2.5103e-02
 8.500	24.000	2.5103e-02
 8.750	17.000	5.7317e-02
 8.750	17.250	5.6062e-02
 8.750	17.500	5.4423e-02
 8.750	17.750	5.2044e-02
 8.750	18.000	4.9008e-02
 8.750	18.250	4.6281e-02
 8.750	18.500	4.4890e-02
 8.750	18.750	4.8686e-02
 8.750	19.000	5.1364e-02
 8.750	19.250	4.5445e-02
 8.750	19.500	3.8731e-02
 8.750	19.750	3.3113e-02
 8.750	20.000	2.9593e-02
 8.750	20.250	2.7367e-02
 8.750	20.500	2.6268e-02
 8.750	20.750	2.5687e-02
 8.750	21.000	2.5356e-02
 8.750	21.250	2.5215e-02
 8.750	21.500	2.5155e-02
 8.750	21.750	2.5129e-02
 8.750	22.000	2.5116e-02
 8.750	22.250	2.5110e-02
 8.750	22.500	2.5107e-02
 8.750	22.750	2.5105e-02
 8.750	23.000	2.5104e-02
 8.750	23.250	2.5104e-02
 8.750	23.500	2.5103e-02
 8.750	23.750	2.5103e-02
 8.750	24.000	2.5103e-02
 9.000	17.000	5.6868e-02
 9.000	17.250	5.5988e-02
 9.000	17.500	5.4834e-02
 9.000	17.750	5.3149e-02
 9.000	18.000	5.0646e-02
 9.000	18.250	4.7440e-02
 9.000	18.500	4.4975e-02
 9.000	18.750	4.4272e-02
 9.000	19.000	4.8533e-02
 9.000	19.250	5.1342e-02
 9.000	19.500	4.5503e-02
 9.000	19.750	3.8761e-02
 9.000	20.000	3.3114e-02
 9.000	20.250	2.9592e-02
 9.000	20.500	2.7367e-02
 9.000	20.750	2.6268e-02
 9.000	21.000	2.5687e-02
 9.000	21.250	2.5356e-02
 9.000	21.500	2.5215e-02
 9.000	21.750	2.5155e-02
 9.000	22.000	2.5129e-02
 9.000	22.250	2.5116e-02
 9.000	22.500	2.5110e-02
 9.000	22.750	2.5107e-02
 9.000	23.000	2.5105e-02
 9.000	23.250	2.5104e-02
 9.000	23.500	2.5104e-02
 9.000	23.750	2.5103e-02
 9.000	24.000	2.5104e-02
 9.250	17.000	5.6550e-02
 9.250	17.250	5.5899e-02
 9.250	17.500	5.5114e-02
 9.250	17.750	5.3892e-02
 9.250	18.000	5.1945e-02
 9.250	18.250	4.9068e-02
 9.250	18.500	4.5674e-02
 9.250	18.750	4.3286e-02
 9.250	19.000	4.3951e-02
 9.250	19.250	4.8383e-02
 9.250	19.500	5.1303e-02
 9.250	19.750	4.5553e-02
 9.250	20.000	3.8790e-02
 9.250	20.250	3.3116e-02
 9.250	20.500	2.9591e-02
 9.250	20.750	2.7366e-02
 9.250	21.000	2.6268e-02
 9.250	21.250	2.5687e-02
 9.250	21.500	2.5352e-02
 9.250	21.750	2.5210e-02
 9.250	22.000	2.5150e-02
 9.250	22.250	2.5124e-02
 9.250	22.500	2.5116e-02
 9.250	22.750	2.5110e-02
 9.250	23.000	2.5107e-02
 9.250	23.250	2.5105e-02
 9.250	23.500	2.5104e-02
 9.250	23.750	2.5103e-02
 9.250	24.000	2.5103e-02
 9.500	17.000	5.6382e-02
 9.500	17.250	5.5793e-02
 9.500	17.500	5.5271e-02
 9.500	17.750	5.4466e-02
 9.500	18.000	5.3002e-02
 9.500	18.250	5.0602e-02
 9.500	18.500	4.7315e-02
 9.500	18.750	4.3881e-02
 9.500	19.000	4.1907e-02
 9.500	19.250	4.3574e-02
 9.500	19.500	4.8205e-02
 9.500	19.750	5.1245e-02
 9.500	20.000	4.5586e-02
 9.500	20.250	3.8815e-02
 9.500	20.500	3.3117e-02
 9.500	20.750	2.9589e-02
 9.500	21.000	2.7361e-02
 9.500	21.250	2.6263e-02
 9.500	21.500	2.5682e-02
 9.500	21.750	2.5349e-02
 9.500	22.000	2.5207e-02
 9.500	22.250	2.5147e-02
 9.500	22.500	2.5121e-02
 9.500	22.750	2.5109e-02
 9.500	23.000	2.5103e-02
 9.500	23.250	2.5099e-02
 9.500	23.500	2.5098e-02
 9.500	23.750	2.5097e-02
 9.500	24.000	2.5097e-02
 9.750	17.000	5.6505e-02
 9.750	17.250	5.5723e-02
 9.750	17.500	5.5305e-02
 9.750	17.750	5.4836e-02
 9.750	18.000	5.3868e-02
 9.750	18.250	5.1998e-02
 9.750	18.500	4.9175e-02
 9.750	18.750	4.5629e-02
 9.750	19.000	4.2322e-02
 9.750	19.250	4.0702e-02
 9.750	19.500	4.3231e-02
 9.750	19.750	4.8000e-02
 9.750	20.000	5.1171e-02
 9.750	20.250	4.5596e-02
 9.750	20.500	3.8834e-02
 9.750	20.750	3.3118e-02
 9.750	21.000	2.9589e-02
 9.750	21.250	2.7362e-02
 9.750	21.500	2.6263e-02
 9.750	21.750	2.5683e-02
 9.750	22.000	2.5350e-02
 9.750	22.250	2.5207e-02
 9.750	22.500	2.5147e-02
 9.750	22.750	2.5121e-02
 9.750	23.000	2.5109e-02
 9.750	23.250	2.5102e-02
 9.750	23.500	2.5099e-02
 9.750	23.750	2.5098e-02
 9.750	24.000	2.5097e-02
10.000	17.000	5.7079e-02
10.000	17.250	5.5867e-02
10.000	17.500	5.5283e-02
10.000	17.750	5.4980e-02
10.000	18.000	5.4472e-02
10.000	18.250	5.3224e-02
10.000	18.500	5.0997e-02
10.000	18.750	4.7860e-02
10.000	19.000	4.4158e-02
10.000	19.250	4.0964e-02
10.000	19.500	4.0381e-02
10.000	19.750	4.3062e-02
10.000	20.000	4.7767e-02
10.000	20.250	5.1096e-02
10.000	20.500	4.5593e-02
10.000	20.750	3.8849e-02
10.000	21.000	3.3120e-02
10.000	21.250	2.9589e-02
10.000	21.500	2.7363e-02
10.000	21.750	2.6264e-02
10.000	22.000	2.5683e-02
10.000	22.250	2.5351e-02
10.000	22.500	2.5208e-02
10.000	22.750	2.5147e-02
10.000	23.000	2.5121e-02
10.000	23.250	2.5109e-02
10.000	23.500	2.5103e-02
10.000	23.750	2.5099e-02
10.000	24.000	2.5097e-02
10.250	17.000	5.8316e-02
10.250	17.250	5.6441e-02
10.250	17.500	5.5437e-02
10.250	17.750	5.5047e-02
10.250	18.000	5.4847e-02
10.250	18.250	5.4205e-02
10.250	18.500	5.2689e-02
10.250	18.750	5.0168e-02
10.250	19.000	4.6804e-02
10.250	19.250	4.2981e-02
10.250	19.500	3.9627e-02
10.250	19.750	4.0708e-02
10.250	20.000	4.3131e-02
10.250	20.250	4.7726e-02
10.250	20.500	5.1045e-02
10.250	20.750	4.5576e-02
10.250	21.000	3.8859e-02
10.250	21.250	3.3120e-02
10.250	21.500	2.9589e-02
10.250	21.750	2.7364e-02
10.250	22.000	2.6266e-02
10.250	22.250	2.5683e-02
10.250	22.500	2.5351e-02
10.250	22.750	2.5209e-02
10.250	23.000	2.5148e-02
10.250	23.250	2.5121e-02
10.250	23.500	2.5109e-02
10.250	23.750	2.5103e-02
10.250	24.000	2.5100e-02
10.500	17.000	6.0228e-02
10.500	17.250	5.7679e-02
10.500	17.500	5.6048e-02
10.500	17.750	5.5350e-02
10.500	18.000	5.5182e-02
10.500	18.250	5.4962e-02
10.500	18.500	5.4102e-02
10.500	18.750	5.2324e-02
10.500	19.000	4.9648e-02
10.500	19.250	4.6186e-02
10.500	19.500	4.2255e-02
10.500	19.750	3.8969e-02
10.500	20.000	4.0971e-02
10.500	20.250	4.3511e-02
10.500	20.500	4.7968e-02
10.500	20.750	5.1136e-02
10.500	21.000	4.5555e-02
10.500	21.250	3.8863e-02
10.500	21.500	3.3120e-02
10.500	21.750	2.9589e-02
10.500	22.000	2.7364e-02
10.500	22.250	2.6267e-02
10.500	22.500	2.5685e-02
10.500	22.750	2.5351e-02
10.500	23.000	2.5210e-02
10.500	23.250	2.5149e-02
10.500	23.500	2.5122e-02
10.500	23.750	2.5109e-02
10.500	24.000	2.5102e-02
10.750	17.000	6.2755e-02
10.750	17.250	5.9593e-02
10.750	17.500	5.7380e-02
10.750	17.750	5.6217e-02
10.750	18.000	5.5844e-02
10.750	18.250	5.5671e-02
10.750	18.500	5.5202e-02
10.750	18.750	5.4109e-02
10.750	19.000	5.2068e-02
10.750	19.250	4.9257e-02
10.750	19.500	4.5699e-02
10.750	19.750	4.1636e-02
10.750	20.000	3.8462e-02
10.750	20.250	4.1620e-02
10.750	20.500	4.4377e-02
10.750	20.750	4.8777e-02
10.750	21.000	5.1404e-02
10.750	21.250	4.5546e-02
10.750	21.500	3.8862e-02
10.750	21.750	3.3120e-02
10.750	22.000	2.9589e-02
10.750	22.250	2.7363e-02
10.750	22.500	2.6267e-02
10.750	22.750	2.5687e-02
10.750	23.000	2.5352e-02
10.750	23.250	2.5210e-02
10.750	23.500	2.5150e-02
10.750	23.750	2.5123e-02
10.750	24.000	2.5110e-02
11.000	17.000	6.5635e-02
11.000	17.250	6.2046e-02
11.000	17.500	5.9379e-02
11.000	17.750	5.7843e-02
11.000	18.000	5.7125e-02
11.000	18.250	5.6606e-02
11.000	18.500	5.6139e-02
11.000	18.750	5.5304e-02
11.000	19.000	5.3871e-02
11.000	19.250	5.1743e-02
11.000	19.500	4.8963e-02
11.000	19.750	4.5397e-02
11.000	20.000	4.1134e-02
11.000	20.250	3.9204e-02
11.000	20.500	4.3101e-02
11.000	20.750	4.5884e-02
11.000	21.000	5.0349e-02
11.000	21.250	5.1962e-02
11.000	21.500	4.5580e-02
11.000	21.750	3.8857e-02
11.000	22.000	3.3120e-02
11.000	22.250	2.9589e-02
11.000	22.500	2.7363e-02
11.000	22.750	2.6268e-02
11.000	23.000	2.5687e-02
11.000	23.250	2.5352e-02
11.000	23.500	2.5210e-02
11.000	23.750	2.5150e-02
11.000	24.000	2.5124e-02
11.250	17.000	6.8255e-02
11.250	17.250	6.4626e-02
11.250	17.500	6.1760e-02
11.250	17.750	6.0056e-02
11.250	18.000	5.9032e-02
11.250	18.250	5.7987e-02
11.250	18.500	5.6893e-02
11.250	18.750	5.6138e-02
11.250	19.000	5.5078e-02
11.250	19.250	5.3527e-02
11.250	19.500	5.1496e-02
11.250	19.750	4.8820e-02
11.250	20.000	4.5327e-02
11.250	20.250	4.1067e-02
11.250	20.500	4.0292e-02
11.250	20.750	4.4650e-02
11.250	21.000	4.8319e-02
11.250	21.250	5.3025e-02
11.250	21.500	5.2942e-02
11.250	21.750	4.5690e-02
11.250	22.000	3.8848e-02
11.250	22.250	3.3118e-02
11.250	22.500	2.9590e-02
11.250	22.750	2.7362e-02
11.250	23.000	2.6268e-02
11.250	23.250	2.5688e-02
11.250	23.500	2.5354e-02
11.250	23.750	2.5210e-02
11.250	24.000	2.5151e-02
11.500	17.000	6.9721e-02
11.500	17.250	6.6650e-02
11.500	17.500	6.4020e-02
11.500	17.750	6.2362e-02
11.500	18.000	6.1200e-02
11.500	18.250	5.9736e-02
11.500	18.500	5.8079e-02
11.500	18.750	5.6868e-02
11.500	19.000	5.5781e-02
11.500	19.250	5.4697e-02
11.500	19.500	5.3176e-02
11.500	19.750	5.1334e-02
11.500	20.000	4.8913e-02
11.500	20.250	4.5585e-02
11.500	20.500	4.1474e-02
11.500	20.750	4.2262e-02
11.500	21.000	4.7452e-02
11.500	21.250	5.2187e-02
11.500	21.500	5.7349e-02
11.500	21.750	5.4059e-02
11.500	22.000	4.5909e-02
11.500	22.250	3.8838e-02
11.500	22.500	3.3116e-02
11.500	22.750	2.9591e-02
11.500	23.000	2.7361e-02
11.500	23.250	2.6268e-02
11.500	23.500	2.5688e-02
11.500	23.750	2.5355e-02
11.500	24.000	2.5211e-02
11.750	17.000	6.8459e-02
11.750	17.250	6.6802e-02
11.750	17.500	6.5066e-02
11.750	17.750	6.3911e-02
11.750	18.000	6.2939e-02
11.750	18.250	6.1447e-02
11.750	18.500	5.9583e-02
11.750	18.750	5.7703e-02
11.750	19.000	5.6341e-02
11.750	19.250	5.5200e-02
11.750	19.500	5.4131e-02
11.750	19.750	5.2836e-02
11.750	20.000	5.1336e-02
11.750	20.250	4.9248e-02
11.750	20.500	4.6213e-02
11.750	20.750	4.2414e-02
11.750	21.000	4.4993e-02
11.750	21.250	5.1873e-02
11.750	21.500	5.7926e-02
11.750	21.750	6.2795e-02
11.750	22.000	5.5300e-02
11.750	22.250	4.6226e-02
11.750	22.500	3.8833e-02
11.750	22.750	3.3114e-02
11.750	23.000	2.9593e-02
11.750	23.250	2.7360e-02
11.750	23.500	2.6279e-02
11.750	23.750	2.5688e-02
11.750	24.000	2.5356e-02
12.000	17.000	5.8625e-02
12.000	17.250	6.2451e-02
12.000	17.500	6.2866e-02
12.000	17.750	6.3180e-02
12.000	18.000	6.3253e-02
12.000	18.250	6.2448e-02
12.000	18.500	6.0856e-02
12.000	18.750	5.8757e-02
12.000	19.000	5.6884e-02
12.000	19.250	5.5359e-02
12.000	19.500	5.4360e-02
12.000	19.750	5.3496e-02
12.000	20.000	5.2578e-02
12.000	20.250	5.1538e-02
12.000	20.500	4.9916e-02
12.000	20.750	4.7301e-02
12.000	21.000	4.4525e-02
12.000	21.250	4.9653e-02
12.000	21.500	5.8390e-02
12.000	21.750	6.5464e-02
12.000	22.000	6.7472e-02
12.000	22.250	5.6432e-02
12.000	22.500	4.6612e-02
12.000	22.750	3.8836e-02
12.000	23.000	3.3111e-02
12.000	23.250	2.9594e-02
12.000	23.500	2.7359e-02
12.000	23.750	2.6267e-02
12.000	24.000	2.5688e-02
12.250	17.000	3.0949e-02
12.250	17.250	4.3955e-02
12.250	17.500	5.3363e-02
12.250	17.750	5.7798e-02
12.250	18.000	6.0638e-02
12.250	18.250	6.1591e-02
12.250	18.500	6.0956e-02
12.250	18.750	5.9347e-02
12.250	19.000	5.7375e-02
12.250	19.250	5.5487e-02
12.250	19.500	5.4173e-02
12.250	19.750	5.3413e-02
12.250	20.000	5.2860e-02
12.250	20.250	5.2439e-02
12.250	20.500	5.1987e-02
12.250	20.750	5.1055e-02
12.250	21.000	4.9549e-02
12.250	21.250	4.8749e-02
12.250	21.500	5.5907e-02
12.250	21.750	6.6198e-02
12.250	22.000	7.3995e-02
12.250	22.250	7.0683e-02
12.250	22.500	5.7626e-02
12.250	22.750	4.7041e-02
12.250	23.000	3.8852e-02
12.250	23.250	3.3107e-02
12.250	23.500	2.9596e-02
12.250	23.750	2.7358e-02
12.250	24.000	2.6266e-02
12.500	17.000	2.7708e-02
12.500	17.250	2.8532e-02
12.500	17.500	2.9844e-02
12.500	17.750	4.3984e-02
12.500	18.000	5.2535e-02
12.500	18.250	5.6637e-02
12.500	18.500	5.8131e-02
12.500	18.750	5.8115e-02
12.500	19.000	5.7029e-02
12.500	19.250	5.5395e-02
12.500	19.500	5.3837e-02
12.500	19.750	5.2831e-02
12.500	20.000	5.2406e-02
12.500	20.250	5.2276e-02
12.500	20.500	5.2470e-02
12.500	20.750	5.2916e-02
12.500	21.000	5.3304e-02
12.500	21.250	5.3341e-02
12.500	21.500	5.4666e-02
12.500	21.750	6.4133e-02
12.500	22.000	7.6393e-02
12.500	22.250	8.2190e-02
12.500	22.500	7.3878e-02
12.500	22.750	5.8920e-02
12.500	23.000	4.7495e-02
12.500	23.250	3.8881e-02
12.500	23.500	3.3103e-02
12.500	23.750	2.9597e-02
12.500	24.000	2.7355e-02
12.750	17.000	2.6344e-02
12.750	17.250	2.6967e-02
12.750	17.500	2.7751e-02
12.750	17.750	2.8564e-02
12.750	18.000	3.0239e-02
12.750	18.250	4.2140e-02
12.750	18.500	4.8786e-02
12.750	18.750	5.2514e-02
12.750	19.000	5.4147e-02
12.750	19.250	5.4089e-02
12.750	19.500	5.3068e-02
12.750	19.750	5.1958e-02
12.750	20.000	5.1273e-02
12.750	20.250	5.1289e-02
12.750	20.500	5.1766e-02
12.750	20.750	5.2817e-02
12.750	21.000	5.4497e-02
12.750	21.250	5.6849e-02
12.750	21.500	5.8829e-02
12.750	21.750	6.3003e-02
12.750	22.000	7.4716e-02
12.750	22.250	8.7630e-02
12.750	22.500	8.9819e-02
12.750	22.750	7.6707e-02
12.750	23.000	6.0298e-02
12.750	23.250	4.7898e-02
12.750	23.500	3.8904e-02
12.750	23.750	3.3100e-02
12.750	24.000	2.9597e-02
13.000	17.000	5.1252e-02
13.000	17.250	2.9726e-02
13.000	17.500	2.5420e-02
13.000	17.750	2.5919e-02
13.000	18.000	2.6532e-02
13.000	18.250	2.7212e-02
13.000	18.500	2.7929e-02
13.000	18.750	3.5609e-02
13.000	19.000	4.4778e-02
13.000	19.250	4.9162e-02
13.000	19.500	5.0517e-02
13.000	19.750	5.0354e-02
13.000	20.000	4.9760e-02
13.000	20.250	4.9523e-02
13.000	20.500	5.0177e-02
13.000	20.750	5.1358e-02
13.000	21.000	5.3823e-02
13.000	21.250	5.7314e-02
13.000	21.500	6.1149e-02
13.000	21.750	6.6194e-02
13.000	22.000	7.3619e-02
13.000	22.250	8.4926e-02
13.000	22.500	9.7328e-02
13.000	22.750	9.6599e-02
13.000	23.000	7.9844e-02
13.000	23.250	6.1596e-02
13.000	23.500	4.8290e-02
13.000	23.750	3.8948e-02
13.000	24.000	3.3099e-02
13.250	17.000	4.8831e-02
13.250	17.250	4.2781e-02
13.250	17.500	2.3572e-02
13.250	17.750	2.3781e-02
13.250	18.000	2.4201e-02
13.250	18.250	2.4759e-02
13.250	18.500	2.5324e-02
13.250	18.750	2.5902e-02
13.250	19.000	2.6585e-02
13.250	19.250	3.4655e-02
13.250	19.500	4.3022e-02
13.250	19.750	4.6430e-02
13.250	20.000	4.7246e-02
13.250	20.250	4.7292e-02
13.250	20.500	4.7622e-02
13.250	20.750	4.8819e-02
13.250	21.000	5.0950e-02
13.250	21.250	5.4624e-02
13.250	21.500	5.9282e-02
13.250	21.750	6.6379e-02
13.250	22.000	7.2014e-02
13.250	22.250	8.0631e-02
13.250	22.500	9.4934e-02
13.250	22.750	1.0564e-01
13.250	23.000	1.0322e-01
13.250	23.250	8.2428e-02
13.250	23.500	6.2668e-02
13.250	23.750	4.8629e-02
13.250	24.000	3.9010e-02
13.500	17.000	4.6536e-02
13.500	17.250	4.2589e-02
13.500	17.500	2.2039e-02
13.500	17.750	2.1970e-02
13.500	18.000	2.2263e-02
13.500	18.250	2.2714e-02
13.500	18.500	2.3191e-02
13.500	18.750	2.3626e-02
13.500	19.000	2.4073e-02
13.500	19.250	2.4612e-02
13.500	19.500	2.5339e-02
13.500	19.750	3.5609e-02
13.500	20.000	4.1441e-02
13.500	20.250	4.3605e-02
13.500	20.500	4.4449e-02
13.500	20.750	4.5335e-02
13.500	21.000	4.6864e-02
13.500	21.250	4.9998e-02
13.500	21.500	5.3847e-02
13.500	21.750	5.8639e-02
13.500	22.000	6.5592e-02
13.500	22.250	7.5704e-02
13.500	22.500	8.9534e-02
13.500	22.750	1.0417e-01
13.500	23.000	1.1328e-01
13.500	23.250	1.0979e-01
13.500	23.500	8.5063e-02
13.500	23.750	6.4193e-02
13.500	24.000	4.8922e-02
13.750	17.000	4.3937e-02
13.750	17.250	4.0108e-02
13.750	17.500	2.1791e-02
13.750	17.750	2.0400e-02
13.750	18.000	2.0554e-02
13.750	18.250	2.0944e-02
13.750	18.500	2.1356e-02
13.750	18.750	2.1707e-02
13.750	19.000	2.2014e-02
13.750	19.250	2.2344e-02
13.750	19.500	2.2770e-02
13.750	19.750	2.3365e-02
13.750	20.000	2.5748e-02
13.750	20.250	3.5492e-02
13.750	20.500	3.9426e-02
13.750	20.750	4.1307e-02
13.750	21.000	4.2788e-02
13.750	21.250	4.4785e-02
13.750	21.500	4.7780e-02
13.750	21.750	5.1645e-02
13.750	22.000	5.7464e-02
13.750	22.250	6.6895e-02
13.750	22.500	8.2607e-02
13.750	22.750	1.0234e-01
13.750	23.000	1.1570e-01
13.750	23.250	1.2347e-01
13.750	23.500	1.1643e-01
13.750	23.750	8.7947e-02
13.750	24.000	6.5097e-02
14.000	17.000	4.0065e-02
14.000	17.250	3.9981e-02
14.000	17.500	2.4264e-02
14.000	17.750	1.8956e-02
14.000	18.000	1.9023e-02
14.000	18.250	1.9330e-02
14.000	18.500	1.9709e-02
14.000	18.750	2.0021e-02
14.000	19.000	2.0257e-02
14.000	19.250	2.0469e-02
14.000	19.500	2.0722e-02
14.000	19.750	2.1079e-02
14.000	20.000	2.1607e-02
14.000	20.250	2.2390e-02
14.000	20.500	2.8179e-02
14.000	20.750	3.4637e-02
14.000	21.000	3.7810e-02
14.000	21.250	4.0198e-02
14.000	21.500	4.2943e-02
14.000	21.750	4.6186e-02
14.000	22.000	5.0938e-02
14.000	22.250	5.8815e-02
14.000	22.500	7.2659e-02
14.000	22.750	9.7905e-02
14.000	23.000	1.1913e-01
14.000	23.250	1.3164e-01
14.000	23.500	1.3566e-01
14.000	23.750	1.2351e-01
14.000	24.000	9.0384e-02
