nFnu 1035.92A  relative to Inci 1215.00A scaled to 1215A.
Hden   Phi(H)  Eq_Width (A)
 7.000	17.000	5.1550e-02
 7.000	17.250	5.0350e-02
 7.000	17.500	4.4855e-02
 7.000	17.750	3.8663e-02
 7.000	18.000	3.3233e-02
 7.000	18.250	2.9697e-02
 7.000	18.500	2.7421e-02
 7.000	18.750	2.6285e-02
 7.000	19.000	2.5685e-02
 7.000	19.250	2.5342e-02
 7.000	19.500	2.5197e-02
 7.000	19.750	2.5135e-02
 7.000	20.000	2.5108e-02
 7.000	20.250	2.5096e-02
 7.000	20.500	2.5089e-02
 7.000	20.750	2.5086e-02
 7.000	21.000	2.5084e-02
 7.000	21.250	2.5084e-02
 7.000	21.500	2.5083e-02
 7.000	21.750	2.5083e-02
 7.000	22.000	2.5083e-02
 7.000	22.250	2.5083e-02
 7.000	22.500	2.5083e-02
 7.000	22.750	2.5083e-02
 7.000	23.000	2.5083e-02
 7.000	23.250	2.5083e-02
 7.000	23.500	2.5083e-02
 7.000	23.750	2.5083e-02
 7.000	24.000	2.5083e-02
 7.250	17.000	5.2931e-02
 7.250	17.250	5.0160e-02
 7.250	17.500	4.9932e-02
 7.250	17.750	4.4656e-02
 7.250	18.000	3.8564e-02
 7.250	18.250	3.3177e-02
 7.250	18.500	2.9670e-02
 7.250	18.750	2.7412e-02
 7.250	19.000	2.6281e-02
 7.250	19.250	2.5683e-02
 7.250	19.500	2.5342e-02
 7.250	19.750	2.5197e-02
 7.250	20.000	2.5135e-02
 7.250	20.250	2.5108e-02
 7.250	20.500	2.5096e-02
 7.250	20.750	2.5089e-02
 7.250	21.000	2.5086e-02
 7.250	21.250	2.5084e-02
 7.250	21.500	2.5083e-02
 7.250	21.750	2.5083e-02
 7.250	22.000	2.5085e-02
 7.250	22.250	2.5083e-02
 7.250	22.500	2.5083e-02
 7.250	22.750	2.5083e-02
 7.250	23.000	2.5083e-02
 7.250	23.250	2.5084e-02
 7.250	23.500	2.5083e-02
 7.250	23.750	2.5084e-02
 7.250	24.000	2.5083e-02
 7.500	17.000	4.1016e-02
 7.500	17.250	4.9908e-02
 7.500	17.500	4.8995e-02
 7.500	17.750	4.9701e-02
 7.500	18.000	4.4557e-02
 7.500	18.250	3.8513e-02
 7.500	18.500	3.3143e-02
 7.500	18.750	2.9653e-02
 7.500	19.000	2.7405e-02
 7.500	19.250	2.6278e-02
 7.500	19.500	2.5682e-02
 7.500	19.750	2.5342e-02
 7.500	20.000	2.5197e-02
 7.500	20.250	2.5135e-02
 7.500	20.500	2.5108e-02
 7.500	20.750	2.5096e-02
 7.500	21.000	2.5089e-02
 7.500	21.250	2.5086e-02
 7.500	21.500	2.5084e-02
 7.500	21.750	2.5083e-02
 7.500	22.000	2.5083e-02
 7.500	22.250	2.5082e-02
 7.500	22.500	2.5082e-02
 7.500	22.750	2.5082e-02
 7.500	23.000	2.5082e-02
 7.500	23.250	2.5082e-02
 7.500	23.500	2.5082e-02
 7.500	23.750	2.5082e-02
 7.500	24.000	2.5082e-02
 7.750	17.000	2.9246e-02
 7.750	17.250	3.7910e-02
 7.750	17.500	4.7212e-02
 7.750	17.750	4.8064e-02
 7.750	18.000	4.9579e-02
 7.750	18.250	4.4521e-02
 7.750	18.500	3.8495e-02
 7.750	18.750	3.3124e-02
 7.750	19.000	2.9642e-02
 7.750	19.250	2.7401e-02
 7.750	19.500	2.6277e-02
 7.750	19.750	2.5682e-02
 7.750	20.000	2.5342e-02
 7.750	20.250	2.5197e-02
 7.750	20.500	2.5135e-02
 7.750	20.750	2.5108e-02
 7.750	21.000	2.5096e-02
 7.750	21.250	2.5089e-02
 7.750	21.500	2.5086e-02
 7.750	21.750	2.5084e-02
 7.750	22.000	2.5083e-02
 7.750	22.250	2.5083e-02
 7.750	22.500	2.5082e-02
 7.750	22.750	2.5082e-02
 7.750	23.000	2.5082e-02
 7.750	23.250	2.5082e-02
 7.750	23.500	2.5082e-02
 7.750	23.750	2.5082e-02
 7.750	24.000	2.5082e-02
 8.000	17.000	2.0678e-02
 8.000	17.250	2.6051e-02
 8.000	17.500	3.5142e-02
 8.000	17.750	4.4855e-02
 8.000	18.000	4.7328e-02
 8.000	18.250	4.9519e-02
 8.000	18.500	4.4528e-02
 8.000	18.750	3.8499e-02
 8.000	19.000	3.3115e-02
 8.000	19.250	2.9636e-02
 8.000	19.500	2.7398e-02
 8.000	19.750	2.6276e-02
 8.000	20.000	2.5681e-02
 8.000	20.250	2.5342e-02
 8.000	20.500	2.5197e-02
 8.000	20.750	2.5135e-02
 8.000	21.000	2.5108e-02
 8.000	21.250	2.5096e-02
 8.000	21.500	2.5089e-02
 8.000	21.750	2.5086e-02
 8.000	22.000	2.5084e-02
 8.000	22.250	2.5083e-02
 8.000	22.500	2.5082e-02
 8.000	22.750	2.5082e-02
 8.000	23.000	2.5082e-02
 8.000	23.250	2.5082e-02
 8.000	23.500	2.5082e-02
 8.000	23.750	2.5082e-02
 8.000	24.000	2.5084e-02
 8.250	17.000	1.5600e-02
 8.250	17.250	1.8349e-02
 8.250	17.500	2.4006e-02
 8.250	17.750	3.3450e-02
 8.250	18.000	4.3419e-02
 8.250	18.250	4.6858e-02
 8.250	18.500	4.9486e-02
 8.250	18.750	4.4560e-02
 8.250	19.000	3.8516e-02
 8.250	19.250	3.3111e-02
 8.250	19.500	2.9632e-02
 8.250	19.750	2.7397e-02
 8.250	20.000	2.6275e-02
 8.250	20.250	2.5681e-02
 8.250	20.500	2.5342e-02
 8.250	20.750	2.5197e-02
 8.250	21.000	2.5135e-02
 8.250	21.250	2.5108e-02
 8.250	21.500	2.5096e-02
 8.250	21.750	2.5089e-02
 8.250	22.000	2.5086e-02
 8.250	22.250	2.5084e-02
 8.250	22.500	2.5083e-02
 8.250	22.750	2.5083e-02
 8.250	23.000	2.5083e-02
 8.250	23.250	2.5082e-02
 8.250	23.500	2.5082e-02
 8.250	23.750	2.5082e-02
 8.250	24.000	2.5082e-02
 8.500	17.000	1.2541e-02
 8.500	17.250	1.3833e-02
 8.500	17.500	1.6814e-02
 8.500	17.750	2.2621e-02
 8.500	18.000	3.2382e-02
 8.500	18.250	4.2516e-02
 8.500	18.500	4.6532e-02
 8.500	18.750	4.9473e-02
 8.500	19.000	4.4613e-02
 8.500	19.250	3.8543e-02
 8.500	19.500	3.3110e-02
 8.500	19.750	2.9630e-02
 8.500	20.000	2.7396e-02
 8.500	20.250	2.6275e-02
 8.500	20.500	2.5681e-02
 8.500	20.750	2.5342e-02
 8.500	21.000	2.5197e-02
 8.500	21.250	2.5135e-02
 8.500	21.500	2.5108e-02
 8.500	21.750	2.5096e-02
 8.500	22.000	2.5089e-02
 8.500	22.250	2.5086e-02
 8.500	22.500	2.5084e-02
 8.500	22.750	2.5084e-02
 8.500	23.000	2.5083e-02
 8.500	23.250	2.5082e-02
 8.500	23.500	2.5082e-02
 8.500	23.750	2.5082e-02
 8.500	24.000	2.5082e-02
 8.750	17.000	1.0766e-02
 8.750	17.250	1.1237e-02
 8.750	17.500	1.2726e-02
 8.750	17.750	1.5855e-02
 8.750	18.000	2.1901e-02
 8.750	18.250	3.1902e-02
 8.750	18.500	4.1988e-02
 8.750	18.750	4.6326e-02
 8.750	19.000	4.9461e-02
 8.750	19.250	4.4678e-02
 8.750	19.500	3.8577e-02
 8.750	19.750	3.3112e-02
 8.750	20.000	2.9628e-02
 8.750	20.250	2.7395e-02
 8.750	20.500	2.6275e-02
 8.750	20.750	2.5681e-02
 8.750	21.000	2.5342e-02
 8.750	21.250	2.5197e-02
 8.750	21.500	2.5135e-02
 8.750	21.750	2.5108e-02
 8.750	22.000	2.5096e-02
 8.750	22.250	2.5089e-02
 8.750	22.500	2.5086e-02
 8.750	22.750	2.5084e-02
 8.750	23.000	2.5083e-02
 8.750	23.250	2.5083e-02
 8.750	23.500	2.5082e-02
 8.750	23.750	2.5082e-02
 8.750	24.000	2.5082e-02
 9.000	17.000	9.8320e-03
 9.000	17.250	9.8111e-03
 9.000	17.500	1.0459e-02
 9.000	17.750	1.2094e-02
 9.000	18.000	1.5439e-02
 9.000	18.250	2.1831e-02
 9.000	18.500	3.2164e-02
 9.000	18.750	4.1769e-02
 9.000	19.000	4.6163e-02
 9.000	19.250	4.9439e-02
 9.000	19.500	4.4742e-02
 9.000	19.750	3.8613e-02
 9.000	20.000	3.3114e-02
 9.000	20.250	2.9627e-02
 9.000	20.500	2.7394e-02
 9.000	20.750	2.6275e-02
 9.000	21.000	2.5681e-02
 9.000	21.250	2.5342e-02
 9.000	21.500	2.5197e-02
 9.000	21.750	2.5135e-02
 9.000	22.000	2.5108e-02
 9.000	22.250	2.5096e-02
 9.000	22.500	2.5089e-02
 9.000	22.750	2.5086e-02
 9.000	23.000	2.5084e-02
 9.000	23.250	2.5083e-02
 9.000	23.500	2.5082e-02
 9.000	23.750	2.5082e-02
 9.000	24.000	2.5083e-02
 9.250	17.000	9.4803e-03
 9.250	17.250	9.1098e-03
 9.250	17.500	9.2666e-03
 9.250	17.750	1.0088e-02
 9.250	18.000	1.1993e-02
 9.250	18.250	1.5749e-02
 9.250	18.500	2.2772e-02
 9.250	18.750	3.3447e-02
 9.250	19.000	4.1457e-02
 9.250	19.250	4.6011e-02
 9.250	19.500	4.9400e-02
 9.250	19.750	4.4799e-02
 9.250	20.000	3.8648e-02
 9.250	20.250	3.3117e-02
 9.250	20.500	2.9626e-02
 9.250	20.750	2.7394e-02
 9.250	21.000	2.6274e-02
 9.250	21.250	2.5681e-02
 9.250	21.500	2.5338e-02
 9.250	21.750	2.5192e-02
 9.250	22.000	2.5130e-02
 9.250	22.250	2.5104e-02
 9.250	22.500	2.5095e-02
 9.250	22.750	2.5089e-02
 9.250	23.000	2.5086e-02
 9.250	23.250	2.5084e-02
 9.250	23.500	2.5083e-02
 9.250	23.750	2.5082e-02
 9.250	24.000	2.5082e-02
 9.500	17.000	9.5626e-03
 9.500	17.250	8.8997e-03
 9.500	17.500	8.7314e-03
 9.500	17.750	9.1140e-03
 9.500	18.000	1.0227e-02
 9.500	18.250	1.2511e-02
 9.500	18.500	1.6901e-02
 9.500	18.750	2.4895e-02
 9.500	19.000	3.5499e-02
 9.500	19.250	4.1118e-02
 9.500	19.500	4.5838e-02
 9.500	19.750	4.9341e-02
 9.500	20.000	4.4836e-02
 9.500	20.250	3.8678e-02
 9.500	20.500	3.3120e-02
 9.500	20.750	2.9625e-02
 9.500	21.000	2.7389e-02
 9.500	21.250	2.6270e-02
 9.500	21.500	2.5676e-02
 9.500	21.750	2.5335e-02
 9.500	22.000	2.5189e-02
 9.500	22.250	2.5128e-02
 9.500	22.500	2.5101e-02
 9.500	22.750	2.5088e-02
 9.500	23.000	2.5082e-02
 9.500	23.250	2.5078e-02
 9.500	23.500	2.5077e-02
 9.500	23.750	2.5076e-02
 9.500	24.000	2.5076e-02
 9.750	17.000	1.0031e-02
 9.750	17.250	9.0471e-03
 9.750	17.500	8.6078e-03
 9.750	17.750	8.7173e-03
 9.750	18.000	9.4439e-03
 9.750	18.250	1.0945e-02
 9.750	18.500	1.3756e-02
 9.750	18.750	1.8939e-02
 9.750	19.000	2.7863e-02
 9.750	19.250	3.7227e-02
 9.750	19.500	4.0817e-02
 9.750	19.750	4.5640e-02
 9.750	20.000	4.9266e-02
 9.750	20.250	4.4847e-02
 9.750	20.500	3.8702e-02
 9.750	20.750	3.3122e-02
 9.750	21.000	2.9625e-02
 9.750	21.250	2.7390e-02
 9.750	21.500	2.6270e-02
 9.750	21.750	2.5676e-02
 9.750	22.000	2.5336e-02
 9.750	22.250	2.5189e-02
 9.750	22.500	2.5128e-02
 9.750	22.750	2.5101e-02
 9.750	23.000	2.5088e-02
 9.750	23.250	2.5082e-02
 9.750	23.500	2.5078e-02
 9.750	23.750	2.5076e-02
 9.750	24.000	2.5075e-02
10.000	17.000	1.0887e-02
10.000	17.250	9.5337e-03
10.000	17.500	8.7808e-03
10.000	17.750	8.6723e-03
10.000	18.000	9.2320e-03
10.000	18.250	1.0346e-02
10.000	18.500	1.2271e-02
10.000	18.750	1.5707e-02
10.000	19.000	2.1916e-02
10.000	19.250	3.1259e-02
10.000	19.500	3.7826e-02
10.000	19.750	4.0665e-02
10.000	20.000	4.5422e-02
10.000	20.250	4.9190e-02
10.000	20.500	4.4844e-02
10.000	20.750	3.8720e-02
10.000	21.000	3.3124e-02
10.000	21.250	2.9625e-02
10.000	21.500	2.7391e-02
10.000	21.750	2.6271e-02
10.000	22.000	2.5677e-02
10.000	22.250	2.5337e-02
10.000	22.500	2.5190e-02
10.000	22.750	2.5127e-02
10.000	23.000	2.5101e-02
10.000	23.250	2.5088e-02
10.000	23.500	2.5082e-02
10.000	23.750	2.5078e-02
10.000	24.000	2.5076e-02
10.250	17.000	1.2181e-02
10.250	17.250	1.0403e-02
10.250	17.500	9.3064e-03
10.250	17.750	8.9686e-03
10.250	18.000	9.4045e-03
10.250	18.250	1.0320e-02
10.250	18.500	1.1786e-02
10.250	18.750	1.4263e-02
10.250	19.000	1.8673e-02
10.250	19.250	2.5542e-02
10.250	19.500	3.3734e-02
10.250	19.750	3.8091e-02
10.250	20.000	4.0714e-02
10.250	20.250	4.5379e-02
10.250	20.500	4.9139e-02
10.250	20.750	4.4827e-02
10.250	21.000	3.8731e-02
10.250	21.250	3.3125e-02
10.250	21.500	2.9624e-02
10.250	21.750	2.7392e-02
10.250	22.000	2.6273e-02
10.250	22.250	2.5677e-02
10.250	22.500	2.5337e-02
10.250	22.750	2.5191e-02
10.250	23.000	2.5128e-02
10.250	23.250	2.5100e-02
10.250	23.500	2.5088e-02
10.250	23.750	2.5082e-02
10.250	24.000	2.5078e-02
10.500	17.000	1.3900e-02
10.500	17.250	1.1724e-02
10.500	17.500	1.0250e-02
10.500	17.750	9.6770e-03
10.500	18.000	9.9402e-03
10.500	18.250	1.0744e-02
10.500	18.500	1.1866e-02
10.500	18.750	1.3589e-02
10.500	19.000	1.6266e-02
10.500	19.250	2.0627e-02
10.500	19.500	2.7672e-02
10.500	19.750	3.4497e-02
10.500	20.000	3.8326e-02
10.500	20.250	4.1043e-02
10.500	20.500	4.5601e-02
10.500	20.750	4.9232e-02
10.500	21.000	4.4805e-02
10.500	21.250	3.8736e-02
10.500	21.500	3.3125e-02
10.500	21.750	2.9624e-02
10.500	22.000	2.7391e-02
10.500	22.250	2.6274e-02
10.500	22.500	2.5679e-02
10.500	22.750	2.5337e-02
10.500	23.000	2.5192e-02
10.500	23.250	2.5129e-02
10.500	23.500	2.5101e-02
10.500	23.750	2.5088e-02
10.500	24.000	2.5081e-02
10.750	17.000	1.6017e-02
10.750	17.250	1.3488e-02
10.750	17.500	1.1703e-02
10.750	17.750	1.0884e-02
10.750	18.000	1.0903e-02
10.750	18.250	1.1390e-02
10.750	18.500	1.2166e-02
10.750	18.750	1.3291e-02
10.750	19.000	1.4730e-02
10.750	19.250	1.7402e-02
10.750	19.500	2.2242e-02
10.750	19.750	2.9535e-02
10.750	20.000	3.5624e-02
10.750	20.250	3.8903e-02
10.750	20.500	4.1809e-02
10.750	20.750	4.6350e-02
10.750	21.000	4.9506e-02
10.750	21.250	4.4795e-02
10.750	21.500	3.8736e-02
10.750	21.750	3.3124e-02
10.750	22.000	2.9624e-02
10.750	22.250	2.7391e-02
10.750	22.500	2.6274e-02
10.750	22.750	2.5680e-02
10.750	23.000	2.5337e-02
10.750	23.250	2.5192e-02
10.750	23.500	2.5130e-02
10.750	23.750	2.5102e-02
10.750	24.000	2.5089e-02
11.000	17.000	1.8483e-02
11.000	17.250	1.5650e-02
11.000	17.500	1.3631e-02
11.000	17.750	1.2612e-02
11.000	18.000	1.2341e-02
11.000	18.250	1.2386e-02
11.000	18.500	1.2737e-02
11.000	18.750	1.3161e-02
11.000	19.000	1.3904e-02
11.000	19.250	1.5379e-02
11.000	19.500	1.8424e-02
11.000	19.750	2.3766e-02
11.000	20.000	3.1427e-02
11.000	20.250	3.6538e-02
11.000	20.500	4.0202e-02
11.000	20.750	4.3166e-02
11.000	21.000	4.7821e-02
11.000	21.250	5.0080e-02
11.000	21.500	4.4831e-02
11.000	21.750	3.8729e-02
11.000	22.000	3.3123e-02
11.000	22.250	2.9625e-02
11.000	22.500	2.7391e-02
11.000	22.750	2.6274e-02
11.000	23.000	2.5681e-02
11.000	23.250	2.5338e-02
11.000	23.500	2.5192e-02
11.000	23.750	2.5131e-02
11.000	24.000	2.5103e-02
11.250	17.000	2.1143e-02
11.250	17.250	1.8100e-02
11.250	17.500	1.5921e-02
11.250	17.750	1.4783e-02
11.250	18.000	1.4246e-02
11.250	18.250	1.3819e-02
11.250	18.500	1.3421e-02
11.250	18.750	1.3433e-02
11.250	19.000	1.3633e-02
11.250	19.250	1.4324e-02
11.250	19.500	1.6042e-02
11.250	19.750	1.9435e-02
11.250	20.000	2.5282e-02
11.250	20.250	3.3235e-02
11.250	20.500	3.7594e-02
11.250	20.750	4.1621e-02
11.250	21.000	4.5385e-02
11.250	21.250	5.0341e-02
11.250	21.500	5.1090e-02
11.250	21.750	4.4952e-02
11.250	22.000	3.8718e-02
11.250	22.250	3.3120e-02
11.250	22.500	2.9625e-02
11.250	22.750	2.7390e-02
11.250	23.000	2.6274e-02
11.250	23.250	2.5681e-02
11.250	23.500	2.5340e-02
11.250	23.750	2.5193e-02
11.250	24.000	2.5131e-02
11.500	17.000	2.3690e-02
11.500	17.250	2.0700e-02
11.500	17.500	1.8463e-02
11.500	17.750	1.7234e-02
11.500	18.000	1.6484e-02
11.500	18.250	1.5634e-02
11.500	18.500	1.4672e-02
11.500	18.750	1.4100e-02
11.500	19.000	1.3788e-02
11.500	19.250	1.3976e-02
11.500	19.500	1.4724e-02
11.500	19.750	1.6681e-02
11.500	20.000	2.0466e-02
11.500	20.250	2.6910e-02
11.500	20.500	3.5188e-02
11.500	20.750	3.9371e-02
11.500	21.000	4.4151e-02
11.500	21.250	4.8928e-02
11.500	21.500	5.4411e-02
11.500	21.750	5.2252e-02
11.500	22.000	4.5192e-02
11.500	22.250	3.8707e-02
11.500	22.500	3.3117e-02
11.500	22.750	2.9626e-02
11.500	23.000	2.7389e-02
11.500	23.250	2.6274e-02
11.500	23.500	2.5682e-02
11.500	23.750	2.5341e-02
11.500	24.000	2.5193e-02
11.750	17.000	2.5352e-02
11.750	17.250	2.2969e-02
11.750	17.500	2.0940e-02
11.750	17.750	1.9721e-02
11.750	18.000	1.8834e-02
11.750	18.250	1.7686e-02
11.750	18.500	1.6409e-02
11.750	18.750	1.5183e-02
11.750	19.000	1.4442e-02
11.750	19.250	1.4032e-02
11.750	19.500	1.4192e-02
11.750	19.750	1.5082e-02
11.750	20.000	1.7305e-02
11.750	20.250	2.1548e-02
11.750	20.500	2.8666e-02
11.750	20.750	3.6840e-02
11.750	21.000	4.1852e-02
11.750	21.250	4.8143e-02
11.750	21.500	5.4215e-02
11.750	21.750	5.9574e-02
11.750	22.000	5.3555e-02
11.750	22.250	4.5541e-02
11.750	22.500	3.8701e-02
11.750	22.750	3.3113e-02
11.750	23.000	2.9627e-02
11.750	23.250	2.7388e-02
11.750	23.500	2.6285e-02
11.750	23.750	2.5682e-02
11.750	24.000	2.5342e-02
12.000	17.000	2.3546e-02
12.000	17.250	2.3668e-02
12.000	17.500	2.2538e-02
12.000	17.750	2.1679e-02
12.000	18.000	2.0892e-02
12.000	18.250	1.9772e-02
12.000	18.500	1.8357e-02
12.000	18.750	1.6763e-02
12.000	19.000	1.5521e-02
12.000	19.250	1.4496e-02
12.000	19.500	1.4127e-02
12.000	19.750	1.4332e-02
12.000	20.000	1.5417e-02
12.000	20.250	1.7956e-02
12.000	20.500	2.2711e-02
12.000	20.750	3.0662e-02
12.000	21.000	4.0324e-02
12.000	21.250	4.6027e-02
12.000	21.500	5.4046e-02
12.000	21.750	6.1196e-02
12.000	22.000	6.4128e-02
12.000	22.250	5.4759e-02
12.000	22.500	4.5968e-02
12.000	22.750	3.8704e-02
12.000	23.000	3.3108e-02
12.000	23.250	2.9628e-02
12.000	23.500	2.7387e-02
12.000	23.750	2.6274e-02
12.000	24.000	2.5682e-02
12.250	17.000	1.4020e-02
12.250	17.250	1.8564e-02
12.250	17.500	2.1311e-02
12.250	17.750	2.2014e-02
12.250	18.000	2.2053e-02
12.250	18.250	2.1420e-02
12.250	18.500	2.0150e-02
12.250	18.750	1.8517e-02
12.250	19.000	1.6956e-02
12.250	19.250	1.5436e-02
12.250	19.500	1.4477e-02
12.250	19.750	1.4140e-02
12.250	20.000	1.4438e-02
12.250	20.250	1.5765e-02
12.250	20.500	1.8670e-02
12.250	20.750	2.4056e-02
12.250	21.000	3.3508e-02
12.250	21.250	4.4487e-02
12.250	21.500	5.1659e-02
12.250	21.750	6.1198e-02
12.250	22.000	6.9151e-02
12.250	22.250	6.7399e-02
12.250	22.500	5.6039e-02
12.250	22.750	4.6449e-02
12.250	23.000	3.8724e-02
12.250	23.250	3.3103e-02
12.250	23.500	2.9629e-02
12.250	23.750	2.7386e-02
12.250	24.000	2.6273e-02
12.500	17.000	1.2994e-02
12.500	17.250	1.3228e-02
12.500	17.500	1.3566e-02
12.500	17.750	1.8665e-02
12.500	18.000	2.1083e-02
12.500	18.250	2.1596e-02
12.500	18.500	2.1019e-02
12.500	18.750	1.9829e-02
12.500	19.000	1.8268e-02
12.500	19.250	1.6693e-02
12.500	19.500	1.5263e-02
12.500	19.750	1.4356e-02
12.500	20.000	1.4098e-02
12.500	20.250	1.4542e-02
12.500	20.500	1.6162e-02
12.500	20.750	1.9612e-02
12.500	21.000	2.6095e-02
12.500	21.250	3.7557e-02
12.500	21.500	5.0067e-02
12.500	21.750	5.9064e-02
12.500	22.000	7.0510e-02
12.500	22.250	7.6906e-02
12.500	22.500	7.0692e-02
12.500	22.750	5.7430e-02
12.500	23.000	4.6960e-02
12.500	23.250	3.8760e-02
12.500	23.500	3.3097e-02
12.500	23.750	2.9630e-02
12.500	24.000	2.7383e-02
12.750	17.000	1.2140e-02
12.750	17.250	1.2547e-02
12.750	17.500	1.2964e-02
12.750	17.750	1.3332e-02
12.750	18.000	1.3907e-02
12.750	18.250	1.8008e-02
12.750	18.500	1.9560e-02
12.750	18.750	1.9760e-02
12.750	19.000	1.9047e-02
12.750	19.250	1.7823e-02
12.750	19.500	1.6284e-02
12.750	19.750	1.4958e-02
12.750	20.000	1.4063e-02
12.750	20.250	1.3998e-02
12.750	20.500	1.4690e-02
12.750	20.750	1.6732e-02
12.750	21.000	2.0894e-02
12.750	21.250	2.8979e-02
12.750	21.500	4.2656e-02
12.750	21.750	5.7591e-02
12.750	22.000	6.8571e-02
12.750	22.250	8.0815e-02
12.750	22.500	8.4257e-02
12.750	22.750	7.3655e-02
12.750	23.000	5.8929e-02
12.750	23.250	4.7422e-02
12.750	23.500	3.8789e-02
12.750	23.750	3.3094e-02
12.750	24.000	2.9630e-02
13.000	17.000	2.1912e-02
13.000	17.250	1.3493e-02
13.000	17.500	1.2104e-02
13.000	17.750	1.2501e-02
13.000	18.000	1.2867e-02
13.000	18.250	1.3105e-02
13.000	18.500	1.3127e-02
13.000	18.750	1.5488e-02
13.000	19.000	1.7695e-02
13.000	19.250	1.7885e-02
13.000	19.500	1.7038e-02
13.000	19.750	1.5748e-02
13.000	20.000	1.4554e-02
13.000	20.250	1.3769e-02
13.000	20.500	1.3912e-02
13.000	20.750	1.4936e-02
13.000	21.000	1.7659e-02
13.000	21.250	2.2953e-02
13.000	21.500	3.2157e-02
13.000	21.750	4.9992e-02
13.000	22.000	6.7107e-02
13.000	22.250	7.7812e-02
13.000	22.500	8.9898e-02
13.000	22.750	9.0961e-02
13.000	23.000	7.6944e-02
13.000	23.250	6.0352e-02
13.000	23.500	4.7875e-02
13.000	23.750	3.8845e-02
13.000	24.000	3.3093e-02
13.250	17.000	2.0864e-02
13.250	17.250	1.8625e-02
13.250	17.500	1.1315e-02
13.250	17.750	1.1673e-02
13.250	18.000	1.2078e-02
13.250	18.250	1.2443e-02
13.250	18.500	1.2644e-02
13.250	18.750	1.2632e-02
13.250	19.000	1.2418e-02
13.250	19.250	1.4656e-02
13.250	19.500	1.6312e-02
13.250	19.750	1.6078e-02
13.250	20.000	1.5096e-02
13.250	20.250	1.4075e-02
13.250	20.500	1.3490e-02
13.250	20.750	1.3771e-02
13.250	21.000	1.5197e-02
13.250	21.250	1.8523e-02
13.250	21.500	2.4391e-02
13.250	21.750	3.6393e-02
13.250	22.000	5.6502e-02
13.250	22.250	7.3496e-02
13.250	22.500	8.6971e-02
13.250	22.750	9.7934e-02
13.250	23.000	9.7628e-02
13.250	23.250	7.9703e-02
13.250	23.500	6.1547e-02
13.250	23.750	4.8270e-02
13.250	24.000	3.8924e-02
13.500	17.000	1.9855e-02
13.500	17.250	1.8531e-02
13.500	17.500	1.0610e-02
13.500	17.750	1.0889e-02
13.500	18.000	1.1288e-02
13.500	18.250	1.1705e-02
13.500	18.500	1.2017e-02
13.500	18.750	1.2151e-02
13.500	19.000	1.2100e-02
13.500	19.250	1.1878e-02
13.500	19.500	1.1502e-02
13.500	19.750	1.4232e-02
13.500	20.000	1.4872e-02
13.500	20.250	1.4333e-02
13.500	20.500	1.3540e-02
13.500	20.750	1.3088e-02
13.500	21.000	1.3405e-02
13.500	21.250	1.5280e-02
13.500	21.500	1.8572e-02
13.500	21.750	2.4624e-02
13.500	22.000	3.7013e-02
13.500	22.250	6.1802e-02
13.500	22.500	8.1513e-02
13.500	22.750	9.5649e-02
13.500	23.000	1.0558e-01
13.500	23.250	1.0437e-01
13.500	23.500	8.2529e-02
13.500	23.750	6.3221e-02
13.500	24.000	4.8619e-02
13.750	17.000	1.8752e-02
13.750	17.250	1.7403e-02
13.750	17.500	1.0389e-02
13.750	17.750	1.0147e-02
13.750	18.000	1.0515e-02
13.750	18.250	1.0949e-02
13.750	18.500	1.1317e-02
13.750	18.750	1.1542e-02
13.750	19.000	1.1613e-02
13.750	19.250	1.1537e-02
13.750	19.500	1.1323e-02
13.750	19.750	1.0985e-02
13.750	20.000	1.1169e-02
13.750	20.250	1.3403e-02
13.750	20.500	1.3459e-02
13.750	20.750	1.3016e-02
13.750	21.000	1.2769e-02
13.750	21.250	1.3252e-02
13.750	21.500	1.4873e-02
13.750	21.750	1.8274e-02
13.750	22.000	2.5131e-02
13.750	22.250	4.0138e-02
13.750	22.500	7.0197e-02
13.750	22.750	9.3008e-02
13.750	23.000	1.0657e-01
13.750	23.250	1.1563e-01
13.750	23.500	1.1129e-01
13.750	23.750	8.5631e-02
13.750	24.000	6.4250e-02
14.000	17.000	1.7132e-02
14.000	17.250	1.7324e-02
14.000	17.500	1.1237e-02
14.000	17.750	9.4300e-03
14.000	18.000	9.7671e-03
14.000	18.250	1.0188e-02
14.000	18.500	1.0585e-02
14.000	18.750	1.0868e-02
14.000	19.000	1.1020e-02
14.000	19.250	1.1053e-02
14.000	19.500	1.0977e-02
14.000	19.750	1.0796e-02
14.000	20.000	1.0520e-02
14.000	20.250	1.0179e-02
14.000	20.500	1.1502e-02
14.000	20.750	1.2533e-02
14.000	21.000	1.2593e-02
14.000	21.250	1.2748e-02
14.000	21.500	1.3451e-02
14.000	21.750	1.5398e-02
14.000	22.000	1.9502e-02
14.000	22.250	2.8013e-02
14.000	22.500	4.7897e-02
14.000	22.750	8.5652e-02
14.000	23.000	1.0805e-01
14.000	23.250	1.2158e-01
14.000	23.500	1.2769e-01
14.000	23.750	1.1866e-01
14.000	24.000	8.8302e-02
