InwT 7500.00A  relative to Inci 1215.00A scaled to 1215A.
Hden   Phi(H)  Eq_Width (A)
 7.000	17.000	2.7472e-02
 7.000	17.250	1.7617e-02
 7.000	17.500	1.2590e-02
 7.000	17.750	1.0155e-02
 7.000	18.000	9.0300e-03
 7.000	18.250	8.4479e-03
 7.000	18.500	8.1260e-03
 7.000	18.750	7.9905e-03
 7.000	19.000	7.9219e-03
 7.000	19.250	7.8841e-03
 7.000	19.500	7.8694e-03
 7.000	19.750	7.8635e-03
 7.000	20.000	7.8611e-03
 7.000	20.250	7.8599e-03
 7.000	20.500	7.8593e-03
 7.000	20.750	7.8591e-03
 7.000	21.000	7.8590e-03
 7.000	21.250	7.8589e-03
 7.000	21.500	7.8589e-03
 7.000	21.750	7.8589e-03
 7.000	22.000	7.8589e-03
 7.000	22.250	7.8589e-03
 7.000	22.500	7.8589e-03
 7.000	22.750	7.8589e-03
 7.000	23.000	7.8590e-03
 7.000	23.250	7.8589e-03
 7.000	23.500	7.8589e-03
 7.000	23.750	7.8589e-03
 7.000	24.000	7.8589e-03
 7.250	17.000	4.2468e-02
 7.250	17.250	2.7390e-02
 7.250	17.500	1.7600e-02
 7.250	17.750	1.2583e-02
 7.250	18.000	1.0152e-02
 7.250	18.250	9.0294e-03
 7.250	18.500	8.4478e-03
 7.250	18.750	8.1260e-03
 7.250	19.000	7.9905e-03
 7.250	19.250	7.9219e-03
 7.250	19.500	7.8841e-03
 7.250	19.750	7.8694e-03
 7.250	20.000	7.8635e-03
 7.250	20.250	7.8611e-03
 7.250	20.500	7.8599e-03
 7.250	20.750	7.8593e-03
 7.250	21.000	7.8590e-03
 7.250	21.250	7.8589e-03
 7.250	21.500	7.8588e-03
 7.250	21.750	7.8588e-03
 7.250	22.000	7.8597e-03
 7.250	22.250	7.8588e-03
 7.250	22.500	7.8589e-03
 7.250	22.750	7.8589e-03
 7.250	23.000	7.8590e-03
 7.250	23.250	7.8593e-03
 7.250	23.500	7.8589e-03
 7.250	23.750	7.8593e-03
 7.250	24.000	7.8589e-03
 7.500	17.000	4.7561e-02
 7.500	17.250	4.2468e-02
 7.500	17.500	2.7323e-02
 7.500	17.750	1.7586e-02
 7.500	18.000	1.2575e-02
 7.500	18.250	1.0148e-02
 7.500	18.500	9.0285e-03
 7.500	18.750	8.4477e-03
 7.500	19.000	8.1259e-03
 7.500	19.250	7.9905e-03
 7.500	19.500	7.9219e-03
 7.500	19.750	7.8841e-03
 7.500	20.000	7.8694e-03
 7.500	20.250	7.8635e-03
 7.500	20.500	7.8611e-03
 7.500	20.750	7.8599e-03
 7.500	21.000	7.8593e-03
 7.500	21.250	7.8590e-03
 7.500	21.500	7.8588e-03
 7.500	21.750	7.8588e-03
 7.500	22.000	7.8588e-03
 7.500	22.250	7.8588e-03
 7.500	22.500	7.8588e-03
 7.500	22.750	7.8588e-03
 7.500	23.000	7.8588e-03
 7.500	23.250	7.8588e-03
 7.500	23.500	7.8588e-03
 7.500	23.750	7.8588e-03
 7.500	24.000	7.8588e-03
 7.750	17.000	5.1657e-02
 7.750	17.250	4.7996e-02
 7.750	17.500	4.2453e-02
 7.750	17.750	2.7271e-02
 7.750	18.000	1.7576e-02
 7.750	18.250	1.2567e-02
 7.750	18.500	1.0144e-02
 7.750	18.750	9.0274e-03
 7.750	19.000	8.4476e-03
 7.750	19.250	8.1259e-03
 7.750	19.500	7.9905e-03
 7.750	19.750	7.9219e-03
 7.750	20.000	7.8841e-03
 7.750	20.250	7.8694e-03
 7.750	20.500	7.8635e-03
 7.750	20.750	7.8610e-03
 7.750	21.000	7.8599e-03
 7.750	21.250	7.8593e-03
 7.750	21.500	7.8590e-03
 7.750	21.750	7.8588e-03
 7.750	22.000	7.8588e-03
 7.750	22.250	7.8588e-03
 7.750	22.500	7.8588e-03
 7.750	22.750	7.8587e-03
 7.750	23.000	7.8588e-03
 7.750	23.250	7.8587e-03
 7.750	23.500	7.8587e-03
 7.750	23.750	7.8587e-03
 7.750	24.000	7.8587e-03
 8.000	17.000	5.3522e-02
 8.000	17.250	5.2007e-02
 8.000	17.500	4.7983e-02
 8.000	17.750	4.2146e-02
 8.000	18.000	2.7226e-02
 8.000	18.250	1.7568e-02
 8.000	18.500	1.2559e-02
 8.000	18.750	1.0138e-02
 8.000	19.000	9.0262e-03
 8.000	19.250	8.4474e-03
 8.000	19.500	8.1258e-03
 8.000	19.750	7.9904e-03
 8.000	20.000	7.9219e-03
 8.000	20.250	7.8841e-03
 8.000	20.500	7.8694e-03
 8.000	20.750	7.8635e-03
 8.000	21.000	7.8611e-03
 8.000	21.250	7.8599e-03
 8.000	21.500	7.8593e-03
 8.000	21.750	7.8590e-03
 8.000	22.000	7.8588e-03
 8.000	22.250	7.8588e-03
 8.000	22.500	7.8587e-03
 8.000	22.750	7.8587e-03
 8.000	23.000	7.8587e-03
 8.000	23.250	7.8587e-03
 8.000	23.500	7.8587e-03
 8.000	23.750	7.8587e-03
 8.000	24.000	7.8594e-03
 8.250	17.000	5.5453e-02
 8.250	17.250	5.4539e-02
 8.250	17.500	5.2956e-02
 8.250	17.750	4.8455e-02
 8.250	18.000	4.2164e-02
 8.250	18.250	2.7199e-02
 8.250	18.500	1.7563e-02
 8.250	18.750	1.2550e-02
 8.250	19.000	1.0132e-02
 8.250	19.250	9.0247e-03
 8.250	19.500	8.4472e-03
 8.250	19.750	8.1258e-03
 8.250	20.000	7.9904e-03
 8.250	20.250	7.9219e-03
 8.250	20.500	7.8841e-03
 8.250	20.750	7.8694e-03
 8.250	21.000	7.8635e-03
 8.250	21.250	7.8611e-03
 8.250	21.500	7.8599e-03
 8.250	21.750	7.8593e-03
 8.250	22.000	7.8590e-03
 8.250	22.250	7.8588e-03
 8.250	22.500	7.8588e-03
 8.250	22.750	7.8588e-03
 8.250	23.000	7.8589e-03
 8.250	23.250	7.8588e-03
 8.250	23.500	7.8587e-03
 8.250	23.750	7.8587e-03
 8.250	24.000	7.8587e-03
 8.500	17.000	5.7443e-02
 8.500	17.250	5.6617e-02
 8.500	17.500	5.5909e-02
 8.500	17.750	5.4397e-02
 8.500	18.000	4.9305e-02
 8.500	18.250	4.2310e-02
 8.500	18.500	2.7181e-02
 8.500	18.750	1.7560e-02
 8.500	19.000	1.2540e-02
 8.500	19.250	1.0126e-02
 8.500	19.500	9.0230e-03
 8.500	19.750	8.4470e-03
 8.500	20.000	8.1257e-03
 8.500	20.250	7.9904e-03
 8.500	20.500	7.9219e-03
 8.500	20.750	7.8841e-03
 8.500	21.000	7.8694e-03
 8.500	21.250	7.8635e-03
 8.500	21.500	7.8611e-03
 8.500	21.750	7.8599e-03
 8.500	22.000	7.8593e-03
 8.500	22.250	7.8590e-03
 8.500	22.500	7.8588e-03
 8.500	22.750	7.8590e-03
 8.500	23.000	7.8587e-03
 8.500	23.250	7.8587e-03
 8.500	23.500	7.8587e-03
 8.500	23.750	7.8587e-03
 8.500	24.000	7.8587e-03
 8.750	17.000	5.9361e-02
 8.750	17.250	5.8775e-02
 8.750	17.500	5.8400e-02
 8.750	17.750	5.8255e-02
 8.750	18.000	5.6736e-02
 8.750	18.250	5.0869e-02
 8.750	18.500	4.2597e-02
 8.750	18.750	2.7167e-02
 8.750	19.000	1.7559e-02
 8.750	19.250	1.2530e-02
 8.750	19.500	1.0118e-02
 8.750	19.750	9.0212e-03
 8.750	20.000	8.4467e-03
 8.750	20.250	8.1257e-03
 8.750	20.500	7.9904e-03
 8.750	20.750	7.9219e-03
 8.750	21.000	7.8841e-03
 8.750	21.250	7.8694e-03
 8.750	21.500	7.8635e-03
 8.750	21.750	7.8610e-03
 8.750	22.000	7.8599e-03
 8.750	22.250	7.8593e-03
 8.750	22.500	7.8590e-03
 8.750	22.750	7.8588e-03
 8.750	23.000	7.8588e-03
 8.750	23.250	7.8587e-03
 8.750	23.500	7.8587e-03
 8.750	23.750	7.8587e-03
 8.750	24.000	7.8587e-03
 9.000	17.000	6.1048e-02
 9.000	17.250	6.0870e-02
 9.000	17.500	6.1010e-02
 9.000	17.750	6.1675e-02
 9.000	18.000	6.2694e-02
 9.000	18.250	6.1440e-02
 9.000	18.500	5.3861e-02
 9.000	18.750	4.3364e-02
 9.000	19.000	2.7154e-02
 9.000	19.250	1.7560e-02
 9.000	19.500	1.2520e-02
 9.000	19.750	1.0111e-02
 9.000	20.000	9.0194e-03
 9.000	20.250	8.4464e-03
 9.000	20.500	8.1256e-03
 9.000	20.750	7.9904e-03
 9.000	21.000	7.9219e-03
 9.000	21.250	7.8841e-03
 9.000	21.500	7.8694e-03
 9.000	21.750	7.8635e-03
 9.000	22.000	7.8610e-03
 9.000	22.250	7.8598e-03
 9.000	22.500	7.8593e-03
 9.000	22.750	7.8590e-03
 9.000	23.000	7.8588e-03
 9.000	23.250	7.8588e-03
 9.000	23.500	7.8587e-03
 9.000	23.750	7.8587e-03
 9.000	24.000	7.8589e-03
 9.250	17.000	6.2431e-02
 9.250	17.250	6.2761e-02
 9.250	17.500	6.3712e-02
 9.250	17.750	6.5590e-02
 9.250	18.000	6.8646e-02
 9.250	18.250	7.1487e-02
 9.250	18.500	6.9447e-02
 9.250	18.750	5.9436e-02
 9.250	19.000	4.3355e-02
 9.250	19.250	2.7136e-02
 9.250	19.500	1.7565e-02
 9.250	19.750	1.2512e-02
 9.250	20.000	1.0104e-02
 9.250	20.250	9.0176e-03
 9.250	20.500	8.4461e-03
 9.250	20.750	8.1255e-03
 9.250	21.000	7.9904e-03
 9.250	21.250	7.9219e-03
 9.250	21.500	7.8829e-03
 9.250	21.750	7.8681e-03
 9.250	22.000	7.8620e-03
 9.250	22.250	7.8597e-03
 9.250	22.500	7.8597e-03
 9.250	22.750	7.8591e-03
 9.250	23.000	7.8589e-03
 9.250	23.250	7.8588e-03
 9.250	23.500	7.8587e-03
 9.250	23.750	7.8587e-03
 9.250	24.000	7.8587e-03
 9.500	17.000	6.3713e-02
 9.500	17.250	6.4564e-02
 9.500	17.500	6.6407e-02
 9.500	17.750	6.9906e-02
 9.500	18.000	7.5542e-02
 9.500	18.250	8.2313e-02
 9.500	18.500	8.5727e-02
 9.500	18.750	8.0478e-02
 9.500	19.000	6.5716e-02
 9.500	19.250	4.3525e-02
 9.500	19.500	2.7108e-02
 9.500	19.750	1.7572e-02
 9.500	20.000	1.2506e-02
 9.500	20.250	1.0098e-02
 9.500	20.500	9.0160e-03
 9.500	20.750	8.4456e-03
 9.500	21.000	8.1242e-03
 9.500	21.250	7.9891e-03
 9.500	21.500	7.9204e-03
 9.500	21.750	7.8821e-03
 9.500	22.000	7.8670e-03
 9.500	22.250	7.8612e-03
 9.500	22.500	7.8586e-03
 9.500	22.750	7.8575e-03
 9.500	23.000	7.8570e-03
 9.500	23.250	7.8566e-03
 9.500	23.500	7.8567e-03
 9.500	23.750	7.8566e-03
 9.500	24.000	7.8565e-03
 9.750	17.000	6.4788e-02
 9.750	17.250	6.6187e-02
 9.750	17.500	6.9036e-02
 9.750	17.750	7.4548e-02
 9.750	18.000	8.3941e-02
 9.750	18.250	9.5019e-02
 9.750	18.500	1.0301e-01
 9.750	18.750	1.0342e-01
 9.750	19.000	9.2679e-02
 9.750	19.250	7.2026e-02
 9.750	19.500	4.3679e-02
 9.750	19.750	2.7051e-02
 9.750	20.000	1.7579e-02
 9.750	20.250	1.2504e-02
 9.750	20.500	1.0093e-02
 9.750	20.750	9.0148e-03
 9.750	21.000	8.4455e-03
 9.750	21.250	8.1244e-03
 9.750	21.500	7.9891e-03
 9.750	21.750	7.9205e-03
 9.750	22.000	7.8824e-03
 9.750	22.250	7.8671e-03
 9.750	22.500	7.8612e-03
 9.750	22.750	7.8587e-03
 9.750	23.000	7.8574e-03
 9.750	23.250	7.8569e-03
 9.750	23.500	7.8566e-03
 9.750	23.750	7.8565e-03
 9.750	24.000	7.8564e-03
10.000	17.000	6.5611e-02
10.000	17.250	6.7891e-02
10.000	17.500	7.2001e-02
10.000	17.750	8.0089e-02
10.000	18.000	9.4109e-02
10.000	18.250	1.0981e-01
10.000	18.500	1.2189e-01
10.000	18.750	1.2715e-01
10.000	19.000	1.2315e-01
10.000	19.250	1.0599e-01
10.000	19.500	7.3948e-02
10.000	19.750	4.3603e-02
10.000	20.000	2.6999e-02
10.000	20.250	1.7582e-02
10.000	20.500	1.2503e-02
10.000	20.750	1.0089e-02
10.000	21.000	9.0138e-03
10.000	21.250	8.4453e-03
10.000	21.500	8.1249e-03
10.000	21.750	7.9892e-03
10.000	22.000	7.9206e-03
10.000	22.250	7.8826e-03
10.000	22.500	7.8673e-03
10.000	22.750	7.8611e-03
10.000	23.000	7.8587e-03
10.000	23.250	7.8575e-03
10.000	23.500	7.8570e-03
10.000	23.750	7.8566e-03
10.000	24.000	7.8565e-03
10.250	17.000	6.6920e-02
10.250	17.250	6.9798e-02
10.250	17.500	7.5866e-02
10.250	17.750	8.7292e-02
10.250	18.000	1.0601e-01
10.250	18.250	1.2603e-01
10.250	18.500	1.4171e-01
10.250	18.750	1.5110e-01
10.250	19.000	1.5287e-01
10.250	19.250	1.4429e-01
10.250	19.500	1.2001e-01
10.250	19.750	7.3139e-02
10.250	20.000	4.3231e-02
10.250	20.250	2.6834e-02
10.250	20.500	1.7569e-02
10.250	20.750	1.2503e-02
10.250	21.000	1.0086e-02
10.250	21.250	9.0133e-03
10.250	21.500	8.4452e-03
10.250	21.750	8.1250e-03
10.250	22.000	7.9899e-03
10.250	22.250	7.9207e-03
10.250	22.500	7.8827e-03
10.250	22.750	7.8677e-03
10.250	23.000	7.8613e-03
10.250	23.250	7.8586e-03
10.250	23.500	7.8575e-03
10.250	23.750	7.8570e-03
10.250	24.000	7.8567e-03
10.500	17.000	6.8993e-02
10.500	17.250	7.2820e-02
10.500	17.500	8.1203e-02
10.500	17.750	9.7201e-02
10.500	18.000	1.2026e-01
10.500	18.250	1.4430e-01
10.500	18.500	1.6209e-01
10.500	18.750	1.7373e-01
10.500	19.000	1.7888e-01
10.500	19.250	1.7450e-01
10.500	19.500	1.5946e-01
10.500	19.750	1.2456e-01
10.500	20.000	7.2654e-02
10.500	20.250	4.2723e-02
10.500	20.500	2.6634e-02
10.500	20.750	1.7535e-02
10.500	21.000	1.2501e-02
10.500	21.250	1.0084e-02
10.500	21.500	9.0132e-03
10.500	21.750	8.4450e-03
10.500	22.000	8.1249e-03
10.500	22.250	7.9901e-03
10.500	22.500	7.9212e-03
10.500	22.750	7.8828e-03
10.500	23.000	7.8679e-03
10.500	23.250	7.8616e-03
10.500	23.500	7.8588e-03
10.500	23.750	7.8575e-03
10.500	24.000	7.8569e-03
10.750	17.000	7.2051e-02
10.750	17.250	7.7152e-02
10.750	17.500	8.9125e-02
10.750	17.750	1.0988e-01
10.750	18.000	1.3667e-01
10.750	18.250	1.6213e-01
10.750	18.500	1.8175e-01
10.750	18.750	1.9689e-01
10.750	19.000	2.0323e-01
10.750	19.250	2.0293e-01
10.750	19.500	1.9511e-01
10.750	19.750	1.7538e-01
10.750	20.000	1.3276e-01
10.750	20.250	7.1872e-02
10.750	20.500	4.2021e-02
10.750	20.750	2.6294e-02
10.750	21.000	1.7467e-02
10.750	21.250	1.2495e-02
10.750	21.500	1.0084e-02
10.750	21.750	9.0131e-03
10.750	22.000	8.4448e-03
10.750	22.250	8.1247e-03
10.750	22.500	7.9902e-03
10.750	22.750	7.9216e-03
10.750	23.000	7.8828e-03
10.750	23.250	7.8680e-03
10.750	23.500	7.8619e-03
10.750	23.750	7.8592e-03
10.750	24.000	7.8579e-03
11.000	17.000	7.6310e-02
11.000	17.250	8.2703e-02
11.000	17.500	9.8777e-02
11.000	17.750	1.2450e-01
11.000	18.000	1.5368e-01
11.000	18.250	1.8012e-01
11.000	18.500	2.0227e-01
11.000	18.750	2.1767e-01
11.000	19.000	2.2679e-01
11.000	19.250	2.2897e-01
11.000	19.500	2.2633e-01
11.000	19.750	2.1582e-01
11.000	20.000	1.9504e-01
11.000	20.250	1.3389e-01
11.000	20.500	7.0651e-02
11.000	20.750	4.1250e-02
11.000	21.000	2.5930e-02
11.000	21.250	1.7347e-02
11.000	21.500	1.2480e-02
11.000	21.750	1.0082e-02
11.000	22.000	9.0131e-03
11.000	22.250	8.4444e-03
11.000	22.500	8.1244e-03
11.000	22.750	7.9901e-03
11.000	23.000	7.9217e-03
11.000	23.250	7.8830e-03
11.000	23.500	7.8681e-03
11.000	23.750	7.8621e-03
11.000	24.000	7.8594e-03
11.250	17.000	8.1921e-02
11.250	17.250	8.9154e-02
11.250	17.500	1.0892e-01
11.250	17.750	1.3903e-01
11.250	18.000	1.7058e-01
11.250	18.250	1.9792e-01
11.250	18.500	2.2001e-01
11.250	18.750	2.3812e-01
11.250	19.000	2.4906e-01
11.250	19.250	2.5426e-01
11.250	19.500	2.5442e-01
11.250	19.750	2.4939e-01
11.250	20.000	2.3735e-01
11.250	20.250	2.1430e-01
11.250	20.500	1.3638e-01
11.250	20.750	7.0153e-02
11.250	21.000	4.0460e-02
11.250	21.250	2.5648e-02
11.250	21.500	1.7188e-02
11.250	21.750	1.2452e-02
11.250	22.000	1.0080e-02
11.250	22.250	9.0125e-03
11.250	22.500	8.4437e-03
11.250	22.750	8.1240e-03
11.250	23.000	7.9899e-03
11.250	23.250	7.9217e-03
11.250	23.500	7.8836e-03
11.250	23.750	7.8681e-03
11.250	24.000	7.8621e-03
11.500	17.000	8.9531e-02
11.500	17.250	9.6980e-02
11.500	17.500	1.1890e-01
11.500	17.750	1.5207e-01
11.500	18.000	1.8597e-01
11.500	18.250	2.1447e-01
11.500	18.500	2.3737e-01
11.500	18.750	2.5660e-01
11.500	19.000	2.6979e-01
11.500	19.250	2.7821e-01
11.500	19.500	2.8030e-01
11.500	19.750	2.7849e-01
11.500	20.000	2.7191e-01
11.500	20.250	2.5851e-01
11.500	20.500	2.3279e-01
11.500	20.750	1.3562e-01
11.500	21.000	6.9108e-02
11.500	21.250	3.9759e-02
11.500	21.500	2.5492e-02
11.500	21.750	1.7002e-02
11.500	22.000	1.2409e-02
11.500	22.250	1.0076e-02
11.500	22.500	9.0105e-03
11.500	22.750	8.4426e-03
11.500	23.000	8.1232e-03
11.500	23.250	7.9895e-03
11.500	23.500	7.9216e-03
11.500	23.750	7.8839e-03
11.500	24.000	7.8682e-03
11.750	17.000	9.9948e-02
11.750	17.250	1.0640e-01
11.750	17.500	1.2866e-01
11.750	17.750	1.6303e-01
11.750	18.000	1.9861e-01
11.750	18.250	2.2839e-01
11.750	18.500	2.5333e-01
11.750	18.750	2.7328e-01
11.750	19.000	2.8919e-01
11.750	19.250	2.9917e-01
11.750	19.500	3.0413e-01
11.750	19.750	3.0369e-01
11.750	20.000	3.0006e-01
11.750	20.250	2.9200e-01
11.750	20.500	2.7735e-01
11.750	20.750	2.4452e-01
11.750	21.000	1.3511e-01
11.750	21.250	6.7970e-02
11.750	21.500	3.9392e-02
11.750	21.750	2.5516e-02
11.750	22.000	1.6801e-02
11.750	22.250	1.2349e-02
11.750	22.500	1.0069e-02
11.750	22.750	9.0077e-03
11.750	23.000	8.4407e-03
11.750	23.250	8.1221e-03
11.750	23.500	7.9925e-03
11.750	23.750	7.9214e-03
11.750	24.000	7.8840e-03
12.000	17.000	1.1411e-01
12.000	17.250	1.1806e-01
12.000	17.500	1.3833e-01
12.000	17.750	1.7146e-01
12.000	18.000	2.0713e-01
12.000	18.250	2.3918e-01
12.000	18.500	2.6714e-01
12.000	18.750	2.8963e-01
12.000	19.000	3.0688e-01
12.000	19.250	3.1831e-01
12.000	19.500	3.2438e-01
12.000	19.750	3.2568e-01
12.000	20.000	3.2293e-01
12.000	20.250	3.1743e-01
12.000	20.500	3.0816e-01
12.000	20.750	2.9231e-01
12.000	21.000	2.5642e-01
12.000	21.250	1.3336e-01
12.000	21.500	6.6987e-02
12.000	21.750	3.9311e-02
12.000	22.000	2.5212e-02
12.000	22.250	1.6620e-02
12.000	22.500	1.2277e-02
12.000	22.750	1.0059e-02
12.000	23.000	9.0035e-03
12.000	23.250	8.4379e-03
12.000	23.500	8.1207e-03
12.000	23.750	7.9884e-03
12.000	24.000	7.9212e-03
12.250	17.000	1.3147e-01
12.250	17.250	1.3241e-01
12.250	17.500	1.4805e-01
12.250	17.750	1.7727e-01
12.250	18.000	2.1212e-01
12.250	18.250	2.4702e-01
12.250	18.500	2.7855e-01
12.250	18.750	3.0440e-01
12.250	19.000	3.2315e-01
12.250	19.250	3.3497e-01
12.250	19.500	3.4152e-01
12.250	19.750	3.4348e-01
12.250	20.000	3.4143e-01
12.250	20.250	3.3656e-01
12.250	20.500	3.2983e-01
12.250	20.750	3.1999e-01
12.250	21.000	3.0289e-01
12.250	21.250	2.5168e-01
12.250	21.500	1.3207e-01
12.250	21.750	6.6521e-02
12.250	22.000	3.9391e-02
12.250	22.250	2.4667e-02
12.250	22.500	1.6427e-02
12.250	22.750	1.2192e-02
12.250	23.000	1.0044e-02
12.250	23.250	8.9973e-03
12.250	23.500	8.4338e-03
12.250	23.750	8.1187e-03
12.250	24.000	7.9874e-03
12.500	17.000	1.4868e-01
12.500	17.250	1.4688e-01
12.500	17.500	1.5767e-01
12.500	17.750	1.8147e-01
12.500	18.000	2.1485e-01
12.500	18.250	2.5151e-01
12.500	18.500	2.8627e-01
12.500	18.750	3.1535e-01
12.500	19.000	3.3642e-01
12.500	19.250	3.4901e-01
12.500	19.500	3.5521e-01
12.500	19.750	3.5729e-01
12.500	20.000	3.5596e-01
12.500	20.250	3.5168e-01
12.500	20.500	3.4492e-01
12.500	20.750	3.3727e-01
12.500	21.000	3.2784e-01
12.500	21.250	3.0786e-01
12.500	21.500	2.4550e-01
12.500	21.750	1.2779e-01
12.500	22.000	6.5320e-02
12.500	22.250	3.9351e-02
12.500	22.500	2.4120e-02
12.500	22.750	1.6206e-02
12.500	23.000	1.2094e-02
12.500	23.250	1.0020e-02
12.500	23.500	8.9874e-03
12.500	23.750	8.4279e-03
12.500	24.000	8.1159e-03
12.750	17.000	1.4705e-01
12.750	17.250	1.5699e-01
12.750	17.500	1.6413e-01
12.750	17.750	1.8521e-01
12.750	18.000	2.1762e-01
12.750	18.250	2.5422e-01
12.750	18.500	2.9030e-01
12.750	18.750	3.2216e-01
12.750	19.000	3.4559e-01
12.750	19.250	3.6077e-01
12.750	19.500	3.6636e-01
12.750	19.750	3.6781e-01
12.750	20.000	3.6599e-01
12.750	20.250	3.6234e-01
12.750	20.500	3.5658e-01
12.750	20.750	3.4872e-01
12.750	21.000	3.4159e-01
12.750	21.250	3.3166e-01
12.750	21.500	3.0678e-01
12.750	21.750	2.2950e-01
12.750	22.000	1.2153e-01
12.750	22.250	6.4330e-02
12.750	22.500	3.8957e-02
12.750	22.750	2.3618e-02
12.750	23.000	1.5960e-02
12.750	23.250	1.1989e-02
12.750	23.500	9.9897e-03
12.750	23.750	8.9709e-03
12.750	24.000	8.4185e-03
13.000	17.000	9.2955e-02
13.000	17.250	1.2138e-01
13.000	17.500	1.6763e-01
13.000	17.750	1.9152e-01
13.000	18.000	2.2141e-01
13.000	18.250	2.5661e-01
13.000	18.500	2.9263e-01
13.000	18.750	3.2504e-01
13.000	19.000	3.5024e-01
13.000	19.250	3.6676e-01
13.000	19.500	3.7444e-01
13.000	19.750	3.7543e-01
13.000	20.000	3.7320e-01
13.000	20.250	3.6916e-01
13.000	20.500	3.6452e-01
13.000	20.750	3.5783e-01
13.000	21.000	3.5203e-01
13.000	21.250	3.4500e-01
13.000	21.500	3.3038e-01
13.000	21.750	3.0219e-01
13.000	22.000	2.1283e-01
13.000	22.250	1.1465e-01
13.000	22.500	6.3080e-02
13.000	22.750	3.7902e-02
13.000	23.000	2.3024e-02
13.000	23.250	1.5694e-02
13.000	23.500	1.1867e-02
13.000	23.750	9.9422e-03
13.000	24.000	8.9436e-03
13.250	17.000	9.1308e-02
13.250	17.250	1.0940e-01
13.250	17.500	1.4481e-01
13.250	17.750	1.8650e-01
13.250	18.000	2.2839e-01
13.250	18.250	2.6087e-01
13.250	18.500	2.9468e-01
13.250	18.750	3.2649e-01
13.250	19.000	3.5220e-01
13.250	19.250	3.6956e-01
13.250	19.500	3.7888e-01
13.250	19.750	3.8124e-01
13.250	20.000	3.7919e-01
13.250	20.250	3.7488e-01
13.250	20.500	3.6932e-01
13.250	20.750	3.6400e-01
13.250	21.000	3.5767e-01
13.250	21.250	3.5195e-01
13.250	21.500	3.4200e-01
13.250	21.750	3.3001e-01
13.250	22.000	2.8914e-01
13.250	22.250	1.9299e-01
13.250	22.500	1.0712e-01
13.250	22.750	6.0747e-02
13.250	23.000	3.6459e-02
13.250	23.250	2.2447e-02
13.250	23.500	1.5414e-02
13.250	23.750	1.1727e-02
13.250	24.000	9.8708e-03
13.500	17.000	8.9995e-02
13.500	17.250	1.0521e-01
13.500	17.500	1.3770e-01
13.500	17.750	1.8332e-01
13.500	18.000	2.2796e-01
13.500	18.250	2.6842e-01
13.500	18.500	2.9919e-01
13.500	18.750	3.2886e-01
13.500	19.000	3.5384e-01
13.500	19.250	3.7246e-01
13.500	19.500	3.8187e-01
13.500	19.750	3.8500e-01
13.500	20.000	3.8402e-01
13.500	20.250	3.7983e-01
13.500	20.500	3.7384e-01
13.500	20.750	3.6696e-01
13.500	21.000	3.5981e-01
13.500	21.250	3.5556e-01
13.500	21.500	3.4664e-01
13.500	21.750	3.3697e-01
13.500	22.000	3.1852e-01
13.500	22.250	2.6790e-01
13.500	22.500	1.7182e-01
13.500	22.750	9.8336e-02
13.500	23.000	5.6768e-02
13.500	23.250	3.4723e-02
13.500	23.500	2.1754e-02
13.500	23.750	1.5006e-02
13.500	24.000	1.1553e-02
13.750	17.000	8.8331e-02
13.750	17.250	1.0484e-01
13.750	17.500	1.3351e-01
13.750	17.750	1.7039e-01
13.750	18.000	2.2716e-01
13.750	18.250	2.6933e-01
13.750	18.500	3.0593e-01
13.750	18.750	3.3394e-01
13.750	19.000	3.5753e-01
13.750	19.250	3.7559e-01
13.750	19.500	3.8656e-01
13.750	19.750	3.9088e-01
13.750	20.000	3.9009e-01
13.750	20.250	3.8634e-01
13.750	20.500	3.8031e-01
13.750	20.750	3.7280e-01
13.750	21.000	3.6439e-01
13.750	21.250	3.5653e-01
13.750	21.500	3.4795e-01
13.750	21.750	3.4173e-01
13.750	22.000	3.3231e-01
13.750	22.250	3.0525e-01
13.750	22.500	2.4017e-01
13.750	22.750	1.5051e-01
13.750	23.000	8.7867e-02
13.750	23.250	5.2682e-02
13.750	23.500	3.2788e-02
13.750	23.750	2.0885e-02
13.750	24.000	1.4591e-02
14.000	17.000	8.7593e-02
14.000	17.250	1.0178e-01
14.000	17.500	1.2989e-01
14.000	17.750	1.6423e-01
14.000	18.000	2.1314e-01
14.000	18.250	2.7272e-01
14.000	18.500	3.1125e-01
14.000	18.750	3.4216e-01
14.000	19.000	3.6303e-01
14.000	19.250	3.8036e-01
14.000	19.500	3.9288e-01
14.000	19.750	3.9847e-01
14.000	20.000	3.9864e-01
14.000	20.250	3.9473e-01
14.000	20.500	3.8891e-01
14.000	20.750	3.8118e-01
14.000	21.000	3.7244e-01
14.000	21.250	3.6382e-01
14.000	21.500	3.5409e-01
14.000	21.750	3.4876e-01
14.000	22.000	3.4305e-01
14.000	22.250	3.2490e-01
14.000	22.500	2.8059e-01
14.000	22.750	2.0905e-01
14.000	23.000	1.3001e-01
14.000	23.250	7.8527e-02
14.000	23.500	4.8466e-02
14.000	23.750	3.0734e-02
14.000	24.000	1.9886e-02
