InwT 8329.68A  relative to Inci 1215.00A scaled to 1215A.
Hden   Phi(H)  Eq_Width (A)
 7.000	17.000	1.9557e-02
 7.000	17.250	1.4152e-02
 7.000	17.500	1.0431e-02
 7.000	17.750	8.4838e-03
 7.000	18.000	7.5217e-03
 7.000	18.250	7.0094e-03
 7.000	18.500	6.7199e-03
 7.000	18.750	6.5959e-03
 7.000	19.000	6.5330e-03
 7.000	19.250	6.4983e-03
 7.000	19.500	6.4848e-03
 7.000	19.750	6.4794e-03
 7.000	20.000	6.4771e-03
 7.000	20.250	6.4761e-03
 7.000	20.500	6.4756e-03
 7.000	20.750	6.4754e-03
 7.000	21.000	6.4752e-03
 7.000	21.250	6.4752e-03
 7.000	21.500	6.4752e-03
 7.000	21.750	6.4752e-03
 7.000	22.000	6.4752e-03
 7.000	22.250	6.4752e-03
 7.000	22.500	6.4752e-03
 7.000	22.750	6.4752e-03
 7.000	23.000	6.4752e-03
 7.000	23.250	6.4752e-03
 7.000	23.500	6.4752e-03
 7.000	23.750	6.4752e-03
 7.000	24.000	6.4752e-03
 7.250	17.000	2.7250e-02
 7.250	17.250	1.9550e-02
 7.250	17.500	1.4144e-02
 7.250	17.750	1.0427e-02
 7.250	18.000	8.4816e-03
 7.250	18.250	7.5212e-03
 7.250	18.500	7.0092e-03
 7.250	18.750	6.7199e-03
 7.250	19.000	6.5959e-03
 7.250	19.250	6.5330e-03
 7.250	19.500	6.4983e-03
 7.250	19.750	6.4848e-03
 7.250	20.000	6.4794e-03
 7.250	20.250	6.4771e-03
 7.250	20.500	6.4761e-03
 7.250	20.750	6.4756e-03
 7.250	21.000	6.4753e-03
 7.250	21.250	6.4751e-03
 7.250	21.500	6.4751e-03
 7.250	21.750	6.4751e-03
 7.250	22.000	6.4758e-03
 7.250	22.250	6.4751e-03
 7.250	22.500	6.4751e-03
 7.250	22.750	6.4752e-03
 7.250	23.000	6.4752e-03
 7.250	23.250	6.4755e-03
 7.250	23.500	6.4752e-03
 7.250	23.750	6.4755e-03
 7.250	24.000	6.4752e-03
 7.500	17.000	2.8055e-02
 7.500	17.250	2.7345e-02
 7.500	17.500	1.9544e-02
 7.500	17.750	1.4138e-02
 7.500	18.000	1.0422e-02
 7.500	18.250	8.4790e-03
 7.500	18.500	7.5206e-03
 7.500	18.750	7.0091e-03
 7.500	19.000	6.7198e-03
 7.500	19.250	6.5959e-03
 7.500	19.500	6.5330e-03
 7.500	19.750	6.4983e-03
 7.500	20.000	6.4848e-03
 7.500	20.250	6.4794e-03
 7.500	20.500	6.4771e-03
 7.500	20.750	6.4761e-03
 7.500	21.000	6.4756e-03
 7.500	21.250	6.4753e-03
 7.500	21.500	6.4751e-03
 7.500	21.750	6.4751e-03
 7.500	22.000	6.4751e-03
 7.500	22.250	6.4751e-03
 7.500	22.500	6.4751e-03
 7.500	22.750	6.4751e-03
 7.500	23.000	6.4751e-03
 7.500	23.250	6.4751e-03
 7.500	23.500	6.4751e-03
 7.500	23.750	6.4751e-03
 7.500	24.000	6.4751e-03
 7.750	17.000	2.8659e-02
 7.750	17.250	2.8325e-02
 7.750	17.500	2.7411e-02
 7.750	17.750	1.9540e-02
 7.750	18.000	1.4133e-02
 7.750	18.250	1.0418e-02
 7.750	18.500	8.4760e-03
 7.750	18.750	7.5198e-03
 7.750	19.000	7.0091e-03
 7.750	19.250	6.7198e-03
 7.750	19.500	6.5959e-03
 7.750	19.750	6.5330e-03
 7.750	20.000	6.4983e-03
 7.750	20.250	6.4848e-03
 7.750	20.500	6.4794e-03
 7.750	20.750	6.4771e-03
 7.750	21.000	6.4760e-03
 7.750	21.250	6.4756e-03
 7.750	21.500	6.4753e-03
 7.750	21.750	6.4751e-03
 7.750	22.000	6.4751e-03
 7.750	22.250	6.4751e-03
 7.750	22.500	6.4751e-03
 7.750	22.750	6.4750e-03
 7.750	23.000	6.4751e-03
 7.750	23.250	6.4750e-03
 7.750	23.500	6.4750e-03
 7.750	23.750	6.4750e-03
 7.750	24.000	6.4750e-03
 8.000	17.000	2.8449e-02
 8.000	17.250	2.8774e-02
 8.000	17.500	2.8284e-02
 8.000	17.750	2.7237e-02
 8.000	18.000	1.9525e-02
 8.000	18.250	1.4130e-02
 8.000	18.500	1.0413e-02
 8.000	18.750	8.4725e-03
 8.000	19.000	7.5188e-03
 8.000	19.250	7.0090e-03
 8.000	19.500	6.7198e-03
 8.000	19.750	6.5959e-03
 8.000	20.000	6.5330e-03
 8.000	20.250	6.4983e-03
 8.000	20.500	6.4848e-03
 8.000	20.750	6.4794e-03
 8.000	21.000	6.4771e-03
 8.000	21.250	6.4760e-03
 8.000	21.500	6.4756e-03
 8.000	21.750	6.4753e-03
 8.000	22.000	6.4751e-03
 8.000	22.250	6.4751e-03
 8.000	22.500	6.4751e-03
 8.000	22.750	6.4750e-03
 8.000	23.000	6.4750e-03
 8.000	23.250	6.4750e-03
 8.000	23.500	6.4750e-03
 8.000	23.750	6.4750e-03
 8.000	24.000	6.4756e-03
 8.250	17.000	2.8546e-02
 8.250	17.250	2.8921e-02
 8.250	17.500	2.9227e-02
 8.250	17.750	2.8541e-02
 8.250	18.000	2.7288e-02
 8.250	18.250	1.9526e-02
 8.250	18.500	1.4128e-02
 8.250	18.750	1.0409e-02
 8.250	19.000	8.4686e-03
 8.250	19.250	7.5178e-03
 8.250	19.500	7.0087e-03
 8.250	19.750	6.7198e-03
 8.250	20.000	6.5959e-03
 8.250	20.250	6.5330e-03
 8.250	20.500	6.4983e-03
 8.250	20.750	6.4848e-03
 8.250	21.000	6.4794e-03
 8.250	21.250	6.4771e-03
 8.250	21.500	6.4761e-03
 8.250	21.750	6.4756e-03
 8.250	22.000	6.4753e-03
 8.250	22.250	6.4751e-03
 8.250	22.500	6.4751e-03
 8.250	22.750	6.4751e-03
 8.250	23.000	6.4752e-03
 8.250	23.250	6.4751e-03
 8.250	23.500	6.4750e-03
 8.250	23.750	6.4750e-03
 8.250	24.000	6.4750e-03
 8.500	17.000	2.8815e-02
 8.500	17.250	2.9064e-02
 8.500	17.500	2.9532e-02
 8.500	17.750	2.9884e-02
 8.500	18.000	2.8970e-02
 8.500	18.250	2.7409e-02
 8.500	18.500	1.9528e-02
 8.500	18.750	1.4126e-02
 8.500	19.000	1.0403e-02
 8.500	19.250	8.4641e-03
 8.500	19.500	7.5165e-03
 8.500	19.750	7.0086e-03
 8.500	20.000	6.7197e-03
 8.500	20.250	6.5959e-03
 8.500	20.500	6.5330e-03
 8.500	20.750	6.4983e-03
 8.500	21.000	6.4848e-03
 8.500	21.250	6.4794e-03
 8.500	21.500	6.4771e-03
 8.500	21.750	6.4761e-03
 8.500	22.000	6.4756e-03
 8.500	22.250	6.4753e-03
 8.500	22.500	6.4751e-03
 8.500	22.750	6.4752e-03
 8.500	23.000	6.4751e-03
 8.500	23.250	6.4750e-03
 8.500	23.500	6.4750e-03
 8.500	23.750	6.4750e-03
 8.500	24.000	6.4750e-03
 8.750	17.000	2.9193e-02
 8.750	17.250	2.9398e-02
 8.750	17.500	2.9835e-02
 8.750	17.750	3.0547e-02
 8.750	18.000	3.0945e-02
 8.750	18.250	2.9755e-02
 8.750	18.500	2.7619e-02
 8.750	18.750	1.9531e-02
 8.750	19.000	1.4125e-02
 8.750	19.250	1.0397e-02
 8.750	19.500	8.4593e-03
 8.750	19.750	7.5152e-03
 8.750	20.000	7.0084e-03
 8.750	20.250	6.7196e-03
 8.750	20.500	6.5959e-03
 8.750	20.750	6.5330e-03
 8.750	21.000	6.4983e-03
 8.750	21.250	6.4848e-03
 8.750	21.500	6.4794e-03
 8.750	21.750	6.4771e-03
 8.750	22.000	6.4761e-03
 8.750	22.250	6.4756e-03
 8.750	22.500	6.4753e-03
 8.750	22.750	6.4751e-03
 8.750	23.000	6.4751e-03
 8.750	23.250	6.4751e-03
 8.750	23.500	6.4750e-03
 8.750	23.750	6.4750e-03
 8.750	24.000	6.4750e-03
 9.000	17.000	2.9613e-02
 9.000	17.250	2.9858e-02
 9.000	17.500	3.0357e-02
 9.000	17.750	3.1234e-02
 9.000	18.000	3.2462e-02
 9.000	18.250	3.3068e-02
 9.000	18.500	3.1288e-02
 9.000	18.750	2.8182e-02
 9.000	19.000	1.9532e-02
 9.000	19.250	1.4125e-02
 9.000	19.500	1.0391e-02
 9.000	19.750	8.4543e-03
 9.000	20.000	7.5138e-03
 9.000	20.250	7.0081e-03
 9.000	20.500	6.7196e-03
 9.000	20.750	6.5959e-03
 9.000	21.000	6.5330e-03
 9.000	21.250	6.4983e-03
 9.000	21.500	6.4848e-03
 9.000	21.750	6.4794e-03
 9.000	22.000	6.4771e-03
 9.000	22.250	6.4760e-03
 9.000	22.500	6.4756e-03
 9.000	22.750	6.4753e-03
 9.000	23.000	6.4751e-03
 9.000	23.250	6.4751e-03
 9.000	23.500	6.4751e-03
 9.000	23.750	6.4750e-03
 9.000	24.000	6.4751e-03
 9.250	17.000	3.0046e-02
 9.250	17.250	3.0380e-02
 9.250	17.500	3.1085e-02
 9.250	17.750	3.2297e-02
 9.250	18.000	3.4145e-02
 9.250	18.250	3.6192e-02
 9.250	18.500	3.6689e-02
 9.250	18.750	3.4227e-02
 9.250	19.000	2.8199e-02
 9.250	19.250	1.9529e-02
 9.250	19.500	1.4127e-02
 9.250	19.750	1.0387e-02
 9.250	20.000	8.4495e-03
 9.250	20.250	7.5125e-03
 9.250	20.500	7.0079e-03
 9.250	20.750	6.7195e-03
 9.250	21.000	6.5959e-03
 9.250	21.250	6.5330e-03
 9.250	21.500	6.4973e-03
 9.250	21.750	6.4837e-03
 9.250	22.000	6.4781e-03
 9.250	22.250	6.4760e-03
 9.250	22.500	6.4759e-03
 9.250	22.750	6.4754e-03
 9.250	23.000	6.4752e-03
 9.250	23.250	6.4751e-03
 9.250	23.500	6.4751e-03
 9.250	23.750	6.4750e-03
 9.250	24.000	6.4750e-03
 9.500	17.000	3.0578e-02
 9.500	17.250	3.1004e-02
 9.500	17.500	3.1964e-02
 9.500	17.750	3.3694e-02
 9.500	18.000	3.6363e-02
 9.500	18.250	3.9700e-02
 9.500	18.500	4.2175e-02
 9.500	18.750	4.1751e-02
 9.500	19.000	3.7813e-02
 9.500	19.250	2.8212e-02
 9.500	19.500	1.9520e-02
 9.500	19.750	1.4130e-02
 9.500	20.000	1.0383e-02
 9.500	20.250	8.4454e-03
 9.500	20.500	7.5114e-03
 9.500	20.750	7.0075e-03
 9.500	21.000	6.7184e-03
 9.500	21.250	6.5947e-03
 9.500	21.500	6.5318e-03
 9.500	21.750	6.4966e-03
 9.500	22.000	6.4828e-03
 9.500	22.250	6.4774e-03
 9.500	22.500	6.4751e-03
 9.500	22.750	6.4742e-03
 9.500	23.000	6.4737e-03
 9.500	23.250	6.4733e-03
 9.500	23.500	6.4734e-03
 9.500	23.750	6.4733e-03
 9.500	24.000	6.4733e-03
 9.750	17.000	3.1191e-02
 9.750	17.250	3.1692e-02
 9.750	17.500	3.2957e-02
 9.750	17.750	3.5365e-02
 9.750	18.000	3.9299e-02
 9.750	18.250	4.4046e-02
 9.750	18.500	4.7989e-02
 9.750	18.750	4.9597e-02
 9.750	19.000	4.7481e-02
 9.750	19.250	4.1933e-02
 9.750	19.500	2.8212e-02
 9.750	19.750	1.9503e-02
 9.750	20.000	1.4134e-02
 9.750	20.250	1.0382e-02
 9.750	20.500	8.4422e-03
 9.750	20.750	7.5104e-03
 9.750	21.000	7.0074e-03
 9.750	21.250	6.7185e-03
 9.750	21.500	6.5947e-03
 9.750	21.750	6.5319e-03
 9.750	22.000	6.4969e-03
 9.750	22.250	6.4829e-03
 9.750	22.500	6.4775e-03
 9.750	22.750	6.4751e-03
 9.750	23.000	6.4741e-03
 9.750	23.250	6.4736e-03
 9.750	23.500	6.4733e-03
 9.750	23.750	6.4732e-03
 9.750	24.000	6.4731e-03
10.000	17.000	3.1893e-02
10.000	17.250	3.2565e-02
10.000	17.500	3.4204e-02
10.000	17.750	3.7493e-02
10.000	18.000	4.3026e-02
10.000	18.250	4.9259e-02
10.000	18.500	5.4352e-02
10.000	18.750	5.7384e-02
10.000	19.000	5.7587e-02
10.000	19.250	5.3702e-02
10.000	19.500	4.3916e-02
10.000	19.750	2.8184e-02
10.000	20.000	1.9483e-02
10.000	20.250	1.4137e-02
10.000	20.500	1.0381e-02
10.000	20.750	8.4396e-03
10.000	21.000	7.5097e-03
10.000	21.250	7.0073e-03
10.000	21.500	6.7189e-03
10.000	21.750	6.5949e-03
10.000	22.000	6.5319e-03
10.000	22.250	6.4970e-03
10.000	22.500	6.4831e-03
10.000	22.750	6.4774e-03
10.000	23.000	6.4752e-03
10.000	23.250	6.4742e-03
10.000	23.500	6.4737e-03
10.000	23.750	6.4733e-03
10.000	24.000	6.4732e-03
10.250	17.000	3.3167e-02
10.250	17.250	3.3704e-02
10.250	17.500	3.5927e-02
10.250	17.750	4.0342e-02
10.250	18.000	4.7452e-02
10.250	18.250	5.5009e-02
10.250	18.500	6.1012e-02
10.250	18.750	6.4988e-02
10.250	19.000	6.6560e-02
10.250	19.250	6.5472e-02
10.250	19.500	6.0560e-02
10.250	19.750	4.3824e-02
10.250	20.000	2.8127e-02
10.250	20.250	1.9447e-02
10.250	20.500	1.4138e-02
10.250	20.750	1.0382e-02
10.250	21.000	8.4379e-03
10.250	21.250	7.5093e-03
10.250	21.500	7.0072e-03
10.250	21.750	6.7190e-03
10.250	22.000	6.5955e-03
10.250	22.250	6.5320e-03
10.250	22.500	6.4971e-03
10.250	22.750	6.4834e-03
10.250	23.000	6.4776e-03
10.250	23.250	6.4751e-03
10.250	23.500	6.4742e-03
10.250	23.750	6.4737e-03
10.250	24.000	6.4733e-03
10.500	17.000	3.5253e-02
10.500	17.250	3.5640e-02
10.500	17.500	3.8358e-02
10.500	17.750	4.4293e-02
10.500	18.000	5.2735e-02
10.500	18.250	6.1371e-02
10.500	18.500	6.7807e-02
10.500	18.750	7.2170e-02
10.500	19.000	7.4765e-02
10.500	19.250	7.5024e-02
10.500	19.500	7.2594e-02
10.500	19.750	6.5419e-02
10.500	20.000	4.3747e-02
10.500	20.250	2.8052e-02
10.500	20.500	1.9409e-02
10.500	20.750	1.4128e-02
10.500	21.000	1.0383e-02
10.500	21.250	8.4370e-03
10.500	21.500	7.5094e-03
10.500	21.750	7.0071e-03
10.500	22.000	6.7190e-03
10.500	22.250	6.5957e-03
10.500	22.500	6.5323e-03
10.500	22.750	6.4972e-03
10.500	23.000	6.4835e-03
10.500	23.250	6.4779e-03
10.500	23.500	6.4753e-03
10.500	23.750	6.4742e-03
10.500	24.000	6.4736e-03
10.750	17.000	3.8384e-02
10.750	17.250	3.8596e-02
10.750	17.500	4.2099e-02
10.750	17.750	4.9357e-02
10.750	18.000	5.8859e-02
10.750	18.250	6.7686e-02
10.750	18.500	7.4375e-02
10.750	18.750	7.9667e-02
10.750	19.000	8.2584e-02
10.750	19.250	8.3806e-02
10.750	19.500	8.3119e-02
10.750	19.750	7.9665e-02
10.750	20.000	7.0135e-02
10.750	20.250	4.3649e-02
10.750	20.500	2.7960e-02
10.750	20.750	1.9371e-02
10.750	21.000	1.4106e-02
10.750	21.250	1.0382e-02
10.750	21.500	8.4370e-03
10.750	21.750	7.5096e-03
10.750	22.000	7.0070e-03
10.750	22.250	6.7188e-03
10.750	22.500	6.5957e-03
10.750	22.750	6.5328e-03
10.750	23.000	6.4972e-03
10.750	23.250	6.4836e-03
10.750	23.500	6.4781e-03
10.750	23.750	6.4756e-03
10.750	24.000	6.4744e-03
11.000	17.000	4.2763e-02
11.000	17.250	4.2675e-02
11.000	17.500	4.6947e-02
11.000	17.750	5.5399e-02
11.000	18.000	6.5337e-02
11.000	18.250	7.4089e-02
11.000	18.500	8.1275e-02
11.000	18.750	8.6464e-02
11.000	19.000	8.9959e-02
11.000	19.250	9.1639e-02
11.000	19.500	9.2076e-02
11.000	19.750	9.0596e-02
11.000	20.000	8.6814e-02
11.000	20.250	7.1293e-02
11.000	20.500	4.3488e-02
11.000	20.750	2.7871e-02
11.000	21.000	1.9360e-02
11.000	21.250	1.4063e-02
11.000	21.500	1.0378e-02
11.000	21.750	8.4372e-03
11.000	22.000	7.5100e-03
11.000	22.250	7.0069e-03
11.000	22.500	6.7187e-03
11.000	22.750	6.5957e-03
11.000	23.000	6.5329e-03
11.000	23.250	6.4974e-03
11.000	23.500	6.4837e-03
11.000	23.750	6.4782e-03
11.000	24.000	6.4758e-03
11.250	17.000	4.8584e-02
11.250	17.250	4.7870e-02
11.250	17.500	5.2659e-02
11.250	17.750	6.1920e-02
11.250	18.000	7.2071e-02
11.250	18.250	8.0621e-02
11.250	18.500	8.7401e-02
11.250	18.750	9.3079e-02
11.250	19.000	9.6734e-02
11.250	19.250	9.8931e-02
11.250	19.500	9.9858e-02
11.250	19.750	9.9483e-02
11.250	20.000	9.7562e-02
11.250	20.250	9.3276e-02
11.250	20.500	7.1487e-02
11.250	20.750	4.3395e-02
11.250	21.000	2.7829e-02
11.250	21.250	1.9443e-02
11.250	21.500	1.3994e-02
11.250	21.750	1.0366e-02
11.250	22.000	8.4374e-03
11.250	22.250	7.5105e-03
11.250	22.500	7.0067e-03
11.250	22.750	6.7184e-03
11.250	23.000	6.5956e-03
11.250	23.250	6.5329e-03
11.250	23.500	6.4979e-03
11.250	23.750	6.4837e-03
11.250	24.000	6.4783e-03
11.500	17.000	5.6415e-02
11.500	17.250	5.4623e-02
11.500	17.500	5.9263e-02
11.500	17.750	6.8755e-02
11.500	18.000	7.8900e-02
11.500	18.250	8.7189e-02
11.500	18.500	9.3694e-02
11.500	18.750	9.9251e-02
11.500	19.000	1.0315e-01
11.500	19.250	1.0584e-01
11.500	19.500	1.0693e-01
11.500	19.750	1.0717e-01
11.500	20.000	1.0642e-01
11.500	20.250	1.0422e-01
11.500	20.500	9.9442e-02
11.500	20.750	7.1211e-02
11.500	21.000	4.3321e-02
11.500	21.250	2.7942e-02
11.500	21.500	1.9705e-02
11.500	21.750	1.3910e-02
11.500	22.000	1.0345e-02
11.500	22.250	8.4370e-03
11.500	22.500	7.5106e-03
11.500	22.750	7.0066e-03
11.500	23.000	6.7180e-03
11.500	23.250	6.5954e-03
11.500	23.500	6.5328e-03
11.500	23.750	6.4981e-03
11.500	24.000	6.4839e-03
11.750	17.000	6.7103e-02
11.750	17.250	6.3353e-02
11.750	17.500	6.7029e-02
11.750	17.750	7.6035e-02
11.750	18.000	8.5779e-02
11.750	18.250	9.3602e-02
11.750	18.500	1.0012e-01
11.750	18.750	1.0536e-01
11.750	19.000	1.0963e-01
11.750	19.250	1.1235e-01
11.750	19.500	1.1381e-01
11.750	19.750	1.1406e-01
11.750	20.000	1.1386e-01
11.750	20.250	1.1288e-01
11.750	20.500	1.1069e-01
11.750	20.750	1.0494e-01
11.750	21.000	7.0948e-02
11.750	21.250	4.3398e-02
11.750	21.500	2.8329e-02
11.750	21.750	2.0087e-02
11.750	22.000	1.3812e-02
11.750	22.250	1.0313e-02
11.750	22.500	8.4345e-03
11.750	22.750	7.5100e-03
11.750	23.000	7.0058e-03
11.750	23.250	6.7174e-03
11.750	23.500	6.5979e-03
11.750	23.750	6.5328e-03
11.750	24.000	6.4982e-03
12.000	17.000	8.1773e-02
12.000	17.250	7.4857e-02
12.000	17.500	7.6327e-02
12.000	17.750	8.3749e-02
12.000	18.000	9.2397e-02
12.000	18.250	1.0007e-01
12.000	18.500	1.0682e-01
12.000	18.750	1.1225e-01
12.000	19.000	1.1645e-01
12.000	19.250	1.1918e-01
12.000	19.500	1.2052e-01
12.000	19.750	1.2082e-01
12.000	20.000	1.2046e-01
12.000	20.250	1.1996e-01
12.000	20.500	1.1902e-01
12.000	20.750	1.1710e-01
12.000	21.000	1.1035e-01
12.000	21.250	7.0815e-02
12.000	21.500	4.3764e-02
12.000	21.750	2.8955e-02
12.000	22.000	2.0139e-02
12.000	22.250	1.3715e-02
12.000	22.500	1.0271e-02
12.000	22.750	8.4289e-03
12.000	23.000	7.5082e-03
12.000	23.250	7.0045e-03
12.000	23.500	6.7165e-03
12.000	23.750	6.5947e-03
12.000	24.000	6.5326e-03
12.250	17.000	1.0019e-01
12.250	17.250	8.9909e-02
12.250	17.500	8.7486e-02
12.250	17.750	9.1831e-02
12.250	18.000	9.9025e-02
12.250	18.250	1.0696e-01
12.250	18.500	1.1425e-01
12.250	18.750	1.2004e-01
12.250	19.000	1.2404e-01
12.250	19.250	1.2637e-01
12.250	19.500	1.2742e-01
12.250	19.750	1.2746e-01
12.250	20.000	1.2683e-01
12.250	20.250	1.2609e-01
12.250	20.500	1.2565e-01
12.250	20.750	1.2524e-01
12.250	21.000	1.2403e-01
12.250	21.250	1.1196e-01
12.250	21.500	7.1010e-02
12.250	21.750	4.4274e-02
12.250	22.000	2.9673e-02
12.250	22.250	1.9884e-02
12.250	22.500	1.3604e-02
12.250	22.750	1.0217e-02
12.250	23.000	8.4179e-03
12.250	23.250	7.5040e-03
12.250	23.500	7.0019e-03
12.250	23.750	6.7150e-03
12.250	24.000	6.5939e-03
12.500	17.000	1.1970e-01
12.500	17.250	1.0639e-01
12.500	17.500	1.0017e-01
12.500	17.750	1.0061e-01
12.500	18.000	1.0620e-01
12.500	18.250	1.1420e-01
12.500	18.500	1.2212e-01
12.500	18.750	1.2835e-01
12.500	19.000	1.3234e-01
12.500	19.250	1.3417e-01
12.500	19.500	1.3456e-01
12.500	19.750	1.3419e-01
12.500	20.000	1.3334e-01
12.500	20.250	1.3227e-01
12.500	20.500	1.3133e-01
12.500	20.750	1.3131e-01
12.500	21.000	1.3227e-01
12.500	21.250	1.3138e-01
12.500	21.500	1.1359e-01
12.500	21.750	7.1025e-02
12.500	22.000	4.4895e-02
12.500	22.250	3.0158e-02
12.500	22.500	1.9600e-02
12.500	22.750	1.3471e-02
12.500	23.000	1.0150e-02
12.500	23.250	8.3993e-03
12.500	23.500	7.4958e-03
12.500	23.750	6.9972e-03
12.500	24.000	6.7127e-03
12.750	17.000	1.2230e-01
12.750	17.250	1.2128e-01
12.750	17.500	1.1175e-01
12.750	17.750	1.1016e-01
12.750	18.000	1.1519e-01
12.750	18.250	1.2257e-01
12.750	18.500	1.3038e-01
12.750	18.750	1.3703e-01
12.750	19.000	1.4103e-01
12.750	19.250	1.4294e-01
12.750	19.500	1.4240e-01
12.750	19.750	1.4125e-01
12.750	20.000	1.3976e-01
12.750	20.250	1.3834e-01
12.750	20.500	1.3723e-01
12.750	20.750	1.3656e-01
12.750	21.000	1.3784e-01
12.750	21.250	1.4014e-01
12.750	21.500	1.3723e-01
12.750	21.750	1.1319e-01
12.750	22.000	7.1104e-02
12.750	22.250	4.5597e-02
12.750	22.500	3.0269e-02
12.750	22.750	1.9304e-02
12.750	23.000	1.3311e-02
12.750	23.250	1.0072e-02
12.750	23.500	8.3728e-03
12.750	23.750	7.4807e-03
12.750	24.000	6.9887e-03
13.000	17.000	6.9890e-02
13.000	17.250	8.9344e-02
13.000	17.500	1.2098e-01
13.000	17.750	1.2293e-01
13.000	18.000	1.2629e-01
13.000	18.250	1.3253e-01
13.000	18.500	1.3970e-01
13.000	18.750	1.4588e-01
13.000	19.000	1.4980e-01
13.000	19.250	1.5130e-01
13.000	19.500	1.5063e-01
13.000	19.750	1.4865e-01
13.000	20.000	1.4638e-01
13.000	20.250	1.4441e-01
13.000	20.500	1.4321e-01
13.000	20.750	1.4235e-01
13.000	21.000	1.4353e-01
13.000	21.250	1.4621e-01
13.000	21.500	1.4658e-01
13.000	21.750	1.4468e-01
13.000	22.000	1.1271e-01
13.000	22.250	7.0636e-02
13.000	22.500	4.5643e-02
13.000	22.750	2.9813e-02
13.000	23.000	1.8940e-02
13.000	23.250	1.3125e-02
13.000	23.500	9.9760e-03
13.000	23.750	8.3296e-03
13.000	24.000	7.4544e-03
13.250	17.000	7.0287e-02
13.250	17.250	8.0466e-02
13.250	17.500	1.0272e-01
13.250	17.750	1.2458e-01
13.250	18.000	1.4125e-01
13.250	18.250	1.4542e-01
13.250	18.500	1.5055e-01
13.250	18.750	1.5565e-01
13.250	19.000	1.5891e-01
13.250	19.250	1.5986e-01
13.250	19.500	1.5889e-01
13.250	19.750	1.5650e-01
13.250	20.000	1.5371e-01
13.250	20.250	1.5106e-01
13.250	20.500	1.4898e-01
13.250	20.750	1.4815e-01
13.250	21.000	1.4833e-01
13.250	21.250	1.5074e-01
13.250	21.500	1.5205e-01
13.250	21.750	1.5638e-01
13.250	22.000	1.4857e-01
13.250	22.250	1.0921e-01
13.250	22.500	6.9144e-02
13.250	22.750	4.4624e-02
13.250	23.000	2.9005e-02
13.250	23.250	1.8536e-02
13.250	23.500	1.2908e-02
13.250	23.750	9.8581e-03
13.250	24.000	8.2633e-03
13.500	17.000	7.0899e-02
13.500	17.250	7.9235e-02
13.500	17.500	1.0014e-01
13.500	17.750	1.2790e-01
13.500	18.000	1.4923e-01
13.500	18.250	1.6238e-01
13.500	18.500	1.6486e-01
13.500	18.750	1.6765e-01
13.500	19.000	1.6942e-01
13.500	19.250	1.6991e-01
13.500	19.500	1.6773e-01
13.500	19.750	1.6463e-01
13.500	20.000	1.6134e-01
13.500	20.250	1.5815e-01
13.500	20.500	1.5541e-01
13.500	20.750	1.5340e-01
13.500	21.000	1.5243e-01
13.500	21.250	1.5448e-01
13.500	21.500	1.5498e-01
13.500	21.750	1.5832e-01
13.500	22.000	1.6058e-01
13.500	22.250	1.4765e-01
13.500	22.500	1.0369e-01
13.500	22.750	6.5925e-02
13.500	23.000	4.2396e-02
13.500	23.250	2.7904e-02
13.500	23.500	1.8024e-02
13.500	23.750	1.2600e-02
13.500	24.000	9.7038e-03
13.750	17.000	7.0942e-02
13.750	17.250	8.1667e-02
13.750	17.500	1.0018e-01
13.750	17.750	1.2137e-01
13.750	18.000	1.5674e-01
13.750	18.250	1.7329e-01
13.750	18.500	1.8227e-01
13.750	18.750	1.8314e-01
13.750	19.000	1.8272e-01
13.750	19.250	1.8135e-01
13.750	19.500	1.7858e-01
13.750	19.750	1.7474e-01
13.750	20.000	1.7042e-01
13.750	20.250	1.6650e-01
13.750	20.500	1.6311e-01
13.750	20.750	1.6035e-01
13.750	21.000	1.5829e-01
13.750	21.250	1.5772e-01
13.750	21.500	1.5733e-01
13.750	21.750	1.6097e-01
13.750	22.000	1.6654e-01
13.750	22.250	1.6610e-01
13.750	22.500	1.4221e-01
13.750	22.750	9.6463e-02
13.750	23.000	6.1287e-02
13.750	23.250	4.0092e-02
13.750	23.500	2.6565e-02
13.750	23.750	1.7357e-02
13.750	24.000	1.2244e-02
14.000	17.000	7.1703e-02
14.000	17.250	8.0938e-02
14.000	17.500	1.0067e-01
14.000	17.750	1.2101e-01
14.000	18.000	1.5063e-01
14.000	18.250	1.8642e-01
14.000	18.500	1.9835e-01
14.000	18.750	2.0231e-01
14.000	19.000	1.9868e-01
14.000	19.250	1.9518e-01
14.000	19.500	1.9165e-01
14.000	19.750	1.8683e-01
14.000	20.000	1.8166e-01
14.000	20.250	1.7651e-01
14.000	20.500	1.7225e-01
14.000	20.750	1.6870e-01
14.000	21.000	1.6602e-01
14.000	21.250	1.6464e-01
14.000	21.500	1.6293e-01
14.000	21.750	1.6612e-01
14.000	22.000	1.7266e-01
14.000	22.250	1.7738e-01
14.000	22.500	1.6689e-01
14.000	22.750	1.3285e-01
14.000	23.000	8.7817e-02
14.000	23.250	5.6671e-02
14.000	23.500	3.7491e-02
14.000	23.750	2.5049e-02
14.000	24.000	1.6532e-02
