InwC 2392.03A  relative to Inci 1215.00A scaled to 1215A.
Hden   Phi(H)  Eq_Width (A)
 7.000	17.000	2.1515e-02
 7.000	17.250	2.2347e-02
 7.000	17.500	2.2357e-02
 7.000	17.750	2.2367e-02
 7.000	18.000	2.2379e-02
 7.000	18.250	2.2389e-02
 7.000	18.500	2.2395e-02
 7.000	18.750	2.2398e-02
 7.000	19.000	2.2400e-02
 7.000	19.250	2.2402e-02
 7.000	19.500	2.2403e-02
 7.000	19.750	2.2403e-02
 7.000	20.000	2.2403e-02
 7.000	20.250	2.2404e-02
 7.000	20.500	2.2404e-02
 7.000	20.750	2.2404e-02
 7.000	21.000	2.2404e-02
 7.000	21.250	2.2404e-02
 7.000	21.500	2.2404e-02
 7.000	21.750	2.2404e-02
 7.000	22.000	2.2404e-02
 7.000	22.250	2.2404e-02
 7.000	22.500	2.2404e-02
 7.000	22.750	2.2404e-02
 7.000	23.000	2.2405e-02
 7.000	23.250	2.2404e-02
 7.000	23.500	2.2404e-02
 7.000	23.750	2.2404e-02
 7.000	24.000	2.2404e-02
 7.250	17.000	2.0084e-02
 7.250	17.250	2.1521e-02
 7.250	17.500	2.2347e-02
 7.250	17.750	2.2357e-02
 7.250	18.000	2.2367e-02
 7.250	18.250	2.2379e-02
 7.250	18.500	2.2389e-02
 7.250	18.750	2.2395e-02
 7.250	19.000	2.2398e-02
 7.250	19.250	2.2400e-02
 7.250	19.500	2.2402e-02
 7.250	19.750	2.2403e-02
 7.250	20.000	2.2403e-02
 7.250	20.250	2.2403e-02
 7.250	20.500	2.2403e-02
 7.250	20.750	2.2404e-02
 7.250	21.000	2.2404e-02
 7.250	21.250	2.2404e-02
 7.250	21.500	2.2404e-02
 7.250	21.750	2.2404e-02
 7.250	22.000	2.2406e-02
 7.250	22.250	2.2404e-02
 7.250	22.500	2.2404e-02
 7.250	22.750	2.2404e-02
 7.250	23.000	2.2405e-02
 7.250	23.250	2.2405e-02
 7.250	23.500	2.2404e-02
 7.250	23.750	2.2405e-02
 7.250	24.000	2.2404e-02
 7.500	17.000	1.4848e-02
 7.500	17.250	2.0145e-02
 7.500	17.500	2.1526e-02
 7.500	17.750	2.2347e-02
 7.500	18.000	2.2357e-02
 7.500	18.250	2.2367e-02
 7.500	18.500	2.2379e-02
 7.500	18.750	2.2389e-02
 7.500	19.000	2.2395e-02
 7.500	19.250	2.2398e-02
 7.500	19.500	2.2400e-02
 7.500	19.750	2.2402e-02
 7.500	20.000	2.2403e-02
 7.500	20.250	2.2403e-02
 7.500	20.500	2.2403e-02
 7.500	20.750	2.2403e-02
 7.500	21.000	2.2404e-02
 7.500	21.250	2.2404e-02
 7.500	21.500	2.2404e-02
 7.500	21.750	2.2404e-02
 7.500	22.000	2.2404e-02
 7.500	22.250	2.2404e-02
 7.500	22.500	2.2404e-02
 7.500	22.750	2.2404e-02
 7.500	23.000	2.2404e-02
 7.500	23.250	2.2404e-02
 7.500	23.500	2.2404e-02
 7.500	23.750	2.2404e-02
 7.500	24.000	2.2404e-02
 7.750	17.000	1.0903e-02
 7.750	17.250	1.4975e-02
 7.750	17.500	2.0186e-02
 7.750	17.750	2.1530e-02
 7.750	18.000	2.2347e-02
 7.750	18.250	2.2357e-02
 7.750	18.500	2.2367e-02
 7.750	18.750	2.2379e-02
 7.750	19.000	2.2389e-02
 7.750	19.250	2.2395e-02
 7.750	19.500	2.2398e-02
 7.750	19.750	2.2400e-02
 7.750	20.000	2.2402e-02
 7.750	20.250	2.2403e-02
 7.750	20.500	2.2403e-02
 7.750	20.750	2.2403e-02
 7.750	21.000	2.2403e-02
 7.750	21.250	2.2404e-02
 7.750	21.500	2.2403e-02
 7.750	21.750	2.2404e-02
 7.750	22.000	2.2404e-02
 7.750	22.250	2.2404e-02
 7.750	22.500	2.2404e-02
 7.750	22.750	2.2404e-02
 7.750	23.000	2.2404e-02
 7.750	23.250	2.2404e-02
 7.750	23.500	2.2404e-02
 7.750	23.750	2.2404e-02
 7.750	24.000	2.2404e-02
 8.000	17.000	7.8472e-03
 8.000	17.250	1.0983e-02
 8.000	17.500	1.4988e-02
 8.000	17.750	2.0107e-02
 8.000	18.000	2.1524e-02
 8.000	18.250	2.2346e-02
 8.000	18.500	2.2357e-02
 8.000	18.750	2.2367e-02
 8.000	19.000	2.2379e-02
 8.000	19.250	2.2389e-02
 8.000	19.500	2.2395e-02
 8.000	19.750	2.2398e-02
 8.000	20.000	2.2400e-02
 8.000	20.250	2.2402e-02
 8.000	20.500	2.2403e-02
 8.000	20.750	2.2403e-02
 8.000	21.000	2.2403e-02
 8.000	21.250	2.2403e-02
 8.000	21.500	2.2403e-02
 8.000	21.750	2.2403e-02
 8.000	22.000	2.2404e-02
 8.000	22.250	2.2404e-02
 8.000	22.500	2.2404e-02
 8.000	22.750	2.2404e-02
 8.000	23.000	2.2404e-02
 8.000	23.250	2.2404e-02
 8.000	23.500	2.2404e-02
 8.000	23.750	2.2404e-02
 8.000	24.000	2.2406e-02
 8.250	17.000	5.7255e-03
 8.250	17.250	7.9630e-03
 8.250	17.500	1.1123e-02
 8.250	17.750	1.5083e-02
 8.250	18.000	2.0128e-02
 8.250	18.250	2.1525e-02
 8.250	18.500	2.2346e-02
 8.250	18.750	2.2357e-02
 8.250	19.000	2.2368e-02
 8.250	19.250	2.2379e-02
 8.250	19.500	2.2389e-02
 8.250	19.750	2.2395e-02
 8.250	20.000	2.2398e-02
 8.250	20.250	2.2400e-02
 8.250	20.500	2.2402e-02
 8.250	20.750	2.2403e-02
 8.250	21.000	2.2403e-02
 8.250	21.250	2.2403e-02
 8.250	21.500	2.2403e-02
 8.250	21.750	2.2403e-02
 8.250	22.000	2.2403e-02
 8.250	22.250	2.2403e-02
 8.250	22.500	2.2403e-02
 8.250	22.750	2.2404e-02
 8.250	23.000	2.2404e-02
 8.250	23.250	2.2404e-02
 8.250	23.500	2.2404e-02
 8.250	23.750	2.2404e-02
 8.250	24.000	2.2404e-02
 8.500	17.000	4.2603e-03
 8.500	17.250	5.8129e-03
 8.500	17.500	8.0965e-03
 8.500	17.750	1.1307e-02
 8.500	18.000	1.5228e-02
 8.500	18.250	2.0171e-02
 8.500	18.500	2.1525e-02
 8.500	18.750	2.2345e-02
 8.500	19.000	2.2357e-02
 8.500	19.250	2.2368e-02
 8.500	19.500	2.2379e-02
 8.500	19.750	2.2389e-02
 8.500	20.000	2.2395e-02
 8.500	20.250	2.2398e-02
 8.500	20.500	2.2400e-02
 8.500	20.750	2.2402e-02
 8.500	21.000	2.2403e-02
 8.500	21.250	2.2403e-02
 8.500	21.500	2.2403e-02
 8.500	21.750	2.2403e-02
 8.500	22.000	2.2403e-02
 8.500	22.250	2.2403e-02
 8.500	22.500	2.2404e-02
 8.500	22.750	2.2404e-02
 8.500	23.000	2.2404e-02
 8.500	23.250	2.2403e-02
 8.500	23.500	2.2403e-02
 8.500	23.750	2.2404e-02
 8.500	24.000	2.2404e-02
 8.750	17.000	3.2417e-03
 8.750	17.250	4.3229e-03
 8.750	17.500	5.9240e-03
 8.750	17.750	8.2934e-03
 8.750	18.000	1.1552e-02
 8.750	18.250	1.5469e-02
 8.750	18.500	2.0240e-02
 8.750	18.750	2.1521e-02
 8.750	19.000	2.2343e-02
 8.750	19.250	2.2357e-02
 8.750	19.500	2.2368e-02
 8.750	19.750	2.2379e-02
 8.750	20.000	2.2389e-02
 8.750	20.250	2.2395e-02
 8.750	20.500	2.2398e-02
 8.750	20.750	2.2400e-02
 8.750	21.000	2.2402e-02
 8.750	21.250	2.2403e-02
 8.750	21.500	2.2403e-02
 8.750	21.750	2.2403e-02
 8.750	22.000	2.2403e-02
 8.750	22.250	2.2403e-02
 8.750	22.500	2.2403e-02
 8.750	22.750	2.2404e-02
 8.750	23.000	2.2404e-02
 8.750	23.250	2.2403e-02
 8.750	23.500	2.2404e-02
 8.750	23.750	2.2403e-02
 8.750	24.000	2.2404e-02
 9.000	17.000	2.5244e-03
 9.000	17.250	3.2830e-03
 9.000	17.500	4.4092e-03
 9.000	17.750	6.0981e-03
 9.000	18.000	8.6156e-03
 9.000	18.250	1.2017e-02
 9.000	18.500	1.5915e-02
 9.000	18.750	2.0451e-02
 9.000	19.000	2.1511e-02
 9.000	19.250	2.2340e-02
 9.000	19.500	2.2356e-02
 9.000	19.750	2.2368e-02
 9.000	20.000	2.2379e-02
 9.000	20.250	2.2389e-02
 9.000	20.500	2.2395e-02
 9.000	20.750	2.2398e-02
 9.000	21.000	2.2400e-02
 9.000	21.250	2.2402e-02
 9.000	21.500	2.2403e-02
 9.000	21.750	2.2403e-02
 9.000	22.000	2.2403e-02
 9.000	22.250	2.2403e-02
 9.000	22.500	2.2403e-02
 9.000	22.750	2.2403e-02
 9.000	23.000	2.2404e-02
 9.000	23.250	2.2403e-02
 9.000	23.500	2.2404e-02
 9.000	23.750	2.2403e-02
 9.000	24.000	2.2404e-02
 9.250	17.000	2.0168e-03
 9.250	17.250	2.5512e-03
 9.250	17.500	3.3489e-03
 9.250	17.750	4.5621e-03
 9.250	18.000	6.4344e-03
 9.250	18.250	9.1844e-03
 9.250	18.500	1.2735e-02
 9.250	18.750	1.6779e-02
 9.250	19.000	2.0415e-02
 9.250	19.250	2.1493e-02
 9.250	19.500	2.2335e-02
 9.250	19.750	2.2355e-02
 9.250	20.000	2.2368e-02
 9.250	20.250	2.2379e-02
 9.250	20.500	2.2389e-02
 9.250	20.750	2.2395e-02
 9.250	21.000	2.2398e-02
 9.250	21.250	2.2400e-02
 9.250	21.500	2.2399e-02
 9.250	21.750	2.2399e-02
 9.250	22.000	2.2399e-02
 9.250	22.250	2.2400e-02
 9.250	22.500	2.2403e-02
 9.250	22.750	2.2403e-02
 9.250	23.000	2.2403e-02
 9.250	23.250	2.2403e-02
 9.250	23.500	2.2403e-02
 9.250	23.750	2.2403e-02
 9.250	24.000	2.2403e-02
 9.500	17.000	1.6583e-03
 9.500	17.250	2.0340e-03
 9.500	17.500	2.5988e-03
 9.500	17.750	3.4788e-03
 9.500	18.000	4.8745e-03
 9.500	18.250	7.0137e-03
 9.500	18.500	9.9802e-03
 9.500	18.750	1.3631e-02
 9.500	19.000	1.7747e-02
 9.500	19.250	2.0370e-02
 9.500	19.500	2.1462e-02
 9.500	19.750	2.2327e-02
 9.500	20.000	2.2354e-02
 9.500	20.250	2.2367e-02
 9.500	20.500	2.2379e-02
 9.500	20.750	2.2388e-02
 9.500	21.000	2.2391e-02
 9.500	21.250	2.2394e-02
 9.500	21.500	2.2396e-02
 9.500	21.750	2.2396e-02
 9.500	22.000	2.2396e-02
 9.500	22.250	2.2396e-02
 9.500	22.500	2.2397e-02
 9.500	22.750	2.2397e-02
 9.500	23.000	2.2397e-02
 9.500	23.250	2.2397e-02
 9.500	23.500	2.2397e-02
 9.500	23.750	2.2397e-02
 9.500	24.000	2.2397e-02
 9.750	17.000	1.4044e-03
 9.750	17.250	1.6673e-03
 9.750	17.500	2.0668e-03
 9.750	17.750	2.7035e-03
 9.750	18.000	3.7534e-03
 9.750	18.250	5.3901e-03
 9.750	18.500	7.7147e-03
 9.750	18.750	1.0771e-02
 9.750	19.000	1.4526e-02
 9.750	19.250	1.8887e-02
 9.750	19.500	2.0334e-02
 9.750	19.750	2.1420e-02
 9.750	20.000	2.2314e-02
 9.750	20.250	2.2351e-02
 9.750	20.500	2.2367e-02
 9.750	20.750	2.2379e-02
 9.750	21.000	2.2388e-02
 9.750	21.250	2.2392e-02
 9.750	21.500	2.2394e-02
 9.750	21.750	2.2396e-02
 9.750	22.000	2.2397e-02
 9.750	22.250	2.2396e-02
 9.750	22.500	2.2397e-02
 9.750	22.750	2.2397e-02
 9.750	23.000	2.2396e-02
 9.750	23.250	2.2397e-02
 9.750	23.500	2.2397e-02
 9.750	23.750	2.2397e-02
 9.750	24.000	2.2397e-02
10.000	17.000	1.2243e-03
10.000	17.250	1.4084e-03
10.000	17.500	1.6907e-03
10.000	17.750	2.1523e-03
10.000	18.000	2.9428e-03
10.000	18.250	4.1760e-03
10.000	18.500	5.9271e-03
10.000	18.750	8.3076e-03
10.000	19.000	1.1468e-02
10.000	19.250	1.5536e-02
10.000	19.500	1.9385e-02
10.000	19.750	2.0316e-02
10.000	20.000	2.1379e-02
10.000	20.250	2.2295e-02
10.000	20.500	2.2347e-02
10.000	20.750	2.2366e-02
10.000	21.000	2.2378e-02
10.000	21.250	2.2389e-02
10.000	21.500	2.2394e-02
10.000	21.750	2.2394e-02
10.000	22.000	2.2396e-02
10.000	22.250	2.2398e-02
10.000	22.500	2.2397e-02
10.000	22.750	2.2396e-02
10.000	23.000	2.2397e-02
10.000	23.250	2.2397e-02
10.000	23.500	2.2397e-02
10.000	23.750	2.2397e-02
10.000	24.000	2.2397e-02
10.250	17.000	1.0969e-03
10.250	17.250	1.2257e-03
10.250	17.500	1.4248e-03
10.250	17.750	1.7604e-03
10.250	18.000	2.3467e-03
10.250	18.250	3.2568e-03
10.250	18.500	4.5448e-03
10.250	18.750	6.3065e-03
10.250	19.000	8.7286e-03
10.250	19.250	1.2206e-02
10.250	19.500	1.6809e-02
10.250	19.750	1.9491e-02
10.250	20.000	2.0301e-02
10.250	20.250	2.1337e-02
10.250	20.500	2.2271e-02
10.250	20.750	2.2340e-02
10.250	21.000	2.2364e-02
10.250	21.250	2.2378e-02
10.250	21.500	2.2388e-02
10.250	21.750	2.2394e-02
10.250	22.000	2.2396e-02
10.250	22.250	2.2397e-02
10.250	22.500	2.2398e-02
10.250	22.750	2.2398e-02
10.250	23.000	2.2397e-02
10.250	23.250	2.2396e-02
10.250	23.500	2.2397e-02
10.250	23.750	2.2397e-02
10.250	24.000	2.2397e-02
10.500	17.000	1.0069e-03
10.500	17.250	1.0965e-03
10.500	17.500	1.2374e-03
10.500	17.750	1.4818e-03
10.500	18.000	1.9105e-03
10.500	18.250	2.5835e-03
10.500	18.500	3.5189e-03
10.500	18.750	4.8310e-03
10.500	19.000	6.7230e-03
10.500	19.250	9.3748e-03
10.500	19.500	1.3077e-02
10.500	19.750	1.7532e-02
10.500	20.000	1.9449e-02
10.500	20.250	2.0287e-02
10.500	20.500	2.1307e-02
10.500	20.750	2.2243e-02
10.500	21.000	2.2330e-02
10.500	21.250	2.2361e-02
10.500	21.500	2.2377e-02
10.500	21.750	2.2388e-02
10.500	22.000	2.2394e-02
10.500	22.250	2.2397e-02
10.500	22.500	2.2398e-02
10.500	22.750	2.2398e-02
10.500	23.000	2.2399e-02
10.500	23.250	2.2398e-02
10.500	23.500	2.2397e-02
10.500	23.750	2.2397e-02
10.500	24.000	2.2396e-02
10.750	17.000	9.4313e-04
10.750	17.250	1.0049e-03
10.750	17.500	1.1043e-03
10.750	17.750	1.2805e-03
10.750	18.000	1.5929e-03
10.750	18.250	2.0805e-03
10.750	18.500	2.7743e-03
10.750	18.750	3.7949e-03
10.750	19.000	5.1969e-03
10.750	19.250	7.1723e-03
10.750	19.500	9.9600e-03
10.750	19.750	1.3812e-02
10.750	20.000	1.8226e-02
10.750	20.250	1.9432e-02
10.750	20.500	2.0278e-02
10.750	20.750	2.1296e-02
10.750	21.000	2.2217e-02
10.750	21.250	2.2318e-02
10.750	21.500	2.2357e-02
10.750	21.750	2.2375e-02
10.750	22.000	2.2387e-02
10.750	22.250	2.2394e-02
10.750	22.500	2.2397e-02
10.750	22.750	2.2400e-02
10.750	23.000	2.2399e-02
10.750	23.250	2.2399e-02
10.750	23.500	2.2399e-02
10.750	23.750	2.2398e-02
10.750	24.000	2.2398e-02
11.000	17.000	8.9720e-04
11.000	17.250	9.3893e-04
11.000	17.500	1.0075e-03
11.000	17.750	1.1341e-03
11.000	18.000	1.3600e-03
11.000	18.250	1.7131e-03
11.000	18.500	2.2425e-03
11.000	18.750	2.9886e-03
11.000	19.000	4.0315e-03
11.000	19.250	5.4697e-03
11.000	19.500	7.5256e-03
11.000	19.750	1.0407e-02
11.000	20.000	1.4467e-02
11.000	20.250	1.8440e-02
11.000	20.500	1.9465e-02
11.000	20.750	2.0277e-02
11.000	21.000	2.1315e-02
11.000	21.250	2.2196e-02
11.000	21.500	2.2304e-02
11.000	21.750	2.2352e-02
11.000	22.000	2.2372e-02
11.000	22.250	2.2386e-02
11.000	22.500	2.2394e-02
11.000	22.750	2.2397e-02
11.000	23.000	2.2400e-02
11.000	23.250	2.2399e-02
11.000	23.500	2.2399e-02
11.000	23.750	2.2399e-02
11.000	24.000	2.2399e-02
11.250	17.000	8.6354e-04
11.250	17.250	8.9021e-04
11.250	17.500	9.3671e-04
11.250	17.750	1.0263e-03
11.250	18.000	1.1883e-03
11.250	18.250	1.4457e-03
11.250	18.500	1.8267e-03
11.250	18.750	2.3870e-03
11.250	19.000	3.1472e-03
11.250	19.250	4.2018e-03
11.250	19.500	5.6863e-03
11.250	19.750	7.7770e-03
11.250	20.000	1.0739e-02
11.250	20.250	1.4927e-02
11.250	20.500	1.8353e-02
11.250	20.750	1.9449e-02
11.250	21.000	2.0313e-02
11.250	21.250	2.1392e-02
11.250	21.500	2.2166e-02
11.250	21.750	2.2290e-02
11.250	22.000	2.2345e-02
11.250	22.250	2.2369e-02
11.250	22.500	2.2385e-02
11.250	22.750	2.2394e-02
11.250	23.000	2.2397e-02
11.250	23.250	2.2400e-02
11.250	23.500	2.2401e-02
11.250	23.750	2.2399e-02
11.250	24.000	2.2399e-02
11.500	17.000	8.3901e-04
11.500	17.250	8.5473e-04
11.500	17.500	8.8510e-04
11.500	17.750	9.4724e-04
11.500	18.000	1.0626e-03
11.500	18.250	1.2494e-03
11.500	18.500	1.5258e-03
11.500	18.750	1.9309e-03
11.500	19.000	2.4872e-03
11.500	19.250	3.2673e-03
11.500	19.500	4.3336e-03
11.500	19.750	5.8404e-03
11.500	20.000	7.9718e-03
11.500	20.250	1.0993e-02
11.500	20.500	1.5293e-02
11.500	20.750	1.8262e-02
11.500	21.000	1.9454e-02
11.500	21.250	2.0396e-02
11.500	21.500	2.1561e-02
11.500	21.750	2.2146e-02
11.500	22.000	2.2277e-02
11.500	22.250	2.2337e-02
11.500	22.500	2.2365e-02
11.500	22.750	2.2383e-02
11.500	23.000	2.2393e-02
11.500	23.250	2.2397e-02
11.500	23.500	2.2400e-02
11.500	23.750	2.2402e-02
11.500	24.000	2.2400e-02
11.750	17.000	8.2198e-04
11.750	17.250	8.2930e-04
11.750	17.500	8.4782e-04
11.750	17.750	8.9004e-04
11.750	18.000	9.7160e-04
11.750	18.250	1.1039e-03
11.750	18.500	1.3035e-03
11.750	18.750	1.5905e-03
11.750	19.000	2.0025e-03
11.750	19.250	2.5689e-03
11.750	19.500	3.3536e-03
11.750	19.750	4.4342e-03
11.750	20.000	5.9609e-03
11.750	20.250	8.1131e-03
11.750	20.500	1.1202e-02
11.750	20.750	1.5513e-02
11.750	21.000	1.8176e-02
11.750	21.250	1.9530e-02
11.750	21.500	2.0572e-02
11.750	21.750	2.1797e-02
11.750	22.000	2.2125e-02
11.750	22.250	2.2263e-02
11.750	22.500	2.2330e-02
11.750	22.750	2.2361e-02
11.750	23.000	2.2381e-02
11.750	23.250	2.2393e-02
11.750	23.500	2.2406e-02
11.750	23.750	2.2400e-02
11.750	24.000	2.2402e-02
12.000	17.000	8.1111e-04
12.000	17.250	8.1226e-04
12.000	17.500	8.2181e-04
12.000	17.750	8.4947e-04
12.000	18.000	9.0543e-04
12.000	18.250	9.9835e-04
12.000	18.500	1.1412e-03
12.000	18.750	1.3482e-03
12.000	19.000	1.6470e-03
12.000	19.250	2.0603e-03
12.000	19.500	2.6322e-03
12.000	19.750	3.4218e-03
12.000	20.000	4.5141e-03
12.000	20.250	6.0553e-03
12.000	20.500	8.2345e-03
12.000	20.750	1.1395e-02
12.000	21.000	1.5794e-02
12.000	21.250	1.8169e-02
12.000	21.500	1.9667e-02
12.000	21.750	2.0833e-02
12.000	22.000	2.1911e-02
12.000	22.250	2.2116e-02
12.000	22.500	2.2249e-02
12.000	22.750	2.2323e-02
12.000	23.000	2.2356e-02
12.000	23.250	2.2379e-02
12.000	23.500	2.2392e-02
12.000	23.750	2.2396e-02
12.000	24.000	2.2400e-02
12.250	17.000	8.0461e-04
12.250	17.250	8.0247e-04
12.250	17.500	8.0576e-04
12.250	17.750	8.2239e-04
12.250	18.000	8.5984e-04
12.250	18.250	9.2519e-04
12.250	18.500	1.0266e-03
12.250	18.750	1.1761e-03
12.250	19.000	1.3914e-03
12.250	19.250	1.6916e-03
12.250	19.500	2.1067e-03
12.250	19.750	2.6820e-03
12.250	20.000	3.4755e-03
12.250	20.250	4.5783e-03
12.250	20.500	6.1400e-03
12.250	20.750	8.3731e-03
12.250	21.000	1.1638e-02
12.250	21.250	1.5739e-02
12.250	21.500	1.8207e-02
12.250	21.750	1.9859e-02
12.250	22.000	2.1125e-02
12.250	22.250	2.1904e-02
12.250	22.500	2.2100e-02
12.250	22.750	2.2236e-02
12.250	23.000	2.2314e-02
12.250	23.250	2.2352e-02
12.250	23.500	2.2377e-02
12.250	23.750	2.2391e-02
12.250	24.000	2.2396e-02
12.500	17.000	7.9868e-04
12.500	17.250	7.9835e-04
12.500	17.500	7.9868e-04
12.500	17.750	8.0765e-04
12.500	18.000	8.3119e-04
12.500	18.250	8.7490e-04
12.500	18.500	9.4568e-04
12.500	18.750	1.0523e-03
12.500	19.000	1.2068e-03
12.500	19.250	1.4248e-03
12.500	19.500	1.7259e-03
12.500	19.750	2.1425e-03
12.500	20.000	2.7228e-03
12.500	20.250	3.5272e-03
12.500	20.500	4.6404e-03
12.500	20.750	6.2298e-03
12.500	21.000	8.5572e-03
12.500	21.250	1.1961e-02
12.500	21.500	1.5855e-02
12.500	21.750	1.8363e-02
12.500	22.000	2.0128e-02
12.500	22.250	2.1361e-02
12.500	22.500	2.1901e-02
12.500	22.750	2.2087e-02
12.500	23.000	2.2225e-02
12.500	23.250	2.2306e-02
12.500	23.500	2.2347e-02
12.500	23.750	2.2374e-02
12.500	24.000	2.2390e-02
12.750	17.000	5.9103e-04
12.750	17.250	7.9860e-04
12.750	17.500	7.9770e-04
12.750	17.750	8.0165e-04
12.750	18.000	8.1490e-04
12.750	18.250	8.4206e-04
12.750	18.500	8.8947e-04
12.750	18.750	9.6436e-04
12.750	19.000	1.0744e-03
12.750	19.250	1.2325e-03
12.750	19.500	1.4506e-03
12.750	19.750	1.7533e-03
12.750	20.000	2.1712e-03
12.750	20.250	2.7564e-03
12.750	20.500	3.5708e-03
12.750	20.750	4.6986e-03
12.750	21.000	6.3540e-03
12.750	21.250	8.7993e-03
12.750	21.500	1.2198e-02
12.750	21.750	1.6076e-02
12.750	22.000	1.8625e-02
12.750	22.250	2.0405e-02
12.750	22.500	2.1530e-02
12.750	22.750	2.1897e-02
12.750	23.000	2.2079e-02
12.750	23.250	2.2214e-02
12.750	23.500	2.2295e-02
12.750	23.750	2.2340e-02
12.750	24.000	2.2370e-02
13.000	17.000	9.9835e-05
13.000	17.250	2.4420e-04
13.000	17.500	7.3276e-04
13.000	17.750	7.9959e-04
13.000	18.000	8.0626e-04
13.000	18.250	8.2181e-04
13.000	18.500	8.5185e-04
13.000	18.750	9.0214e-04
13.000	19.000	9.7918e-04
13.000	19.250	1.0910e-03
13.000	19.500	1.2493e-03
13.000	19.750	1.4679e-03
13.000	20.000	1.7702e-03
13.000	20.250	2.1891e-03
13.000	20.500	2.7816e-03
13.000	20.750	3.6053e-03
13.000	21.000	4.7956e-03
13.000	21.250	6.5344e-03
13.000	21.500	8.9649e-03
13.000	21.750	1.2704e-02
13.000	22.000	1.6435e-02
13.000	22.250	1.8886e-02
13.000	22.500	2.0565e-02
13.000	22.750	2.1591e-02
13.000	23.000	2.1890e-02
13.000	23.250	2.2070e-02
13.000	23.500	2.2202e-02
13.000	23.750	2.2284e-02
13.000	24.000	2.2331e-02
13.250	17.000	6.0823e-05
13.250	17.250	1.1712e-04
13.250	17.500	2.8477e-04
13.250	17.750	5.4230e-04
13.250	18.000	8.0255e-04
13.250	18.250	8.1086e-04
13.250	18.500	8.2790e-04
13.250	18.750	8.5975e-04
13.250	19.000	9.1144e-04
13.250	19.250	9.8930e-04
13.250	19.500	1.1022e-03
13.250	19.750	1.2591e-03
13.250	20.000	1.4787e-03
13.250	20.250	1.7832e-03
13.250	20.500	2.2052e-03
13.250	20.750	2.8037e-03
13.250	21.000	3.6477e-03
13.250	21.250	4.8805e-03
13.250	21.500	6.5996e-03
13.250	21.750	9.3224e-03
13.250	22.000	1.3156e-02
13.250	22.250	1.6631e-02
13.250	22.500	1.9045e-02
13.250	22.750	2.0590e-02
13.250	23.000	2.1597e-02
13.250	23.250	2.1875e-02
13.250	23.500	2.2055e-02
13.250	23.750	2.2186e-02
13.250	24.000	2.2268e-02
13.500	17.000	3.7119e-05
13.500	17.250	6.8560e-05
13.500	17.500	1.6173e-04
13.500	17.750	3.6823e-04
13.500	18.000	6.1119e-04
13.500	18.250	8.0584e-04
13.500	18.500	8.1490e-04
13.500	18.750	8.3300e-04
13.500	19.000	8.6551e-04
13.500	19.250	9.1860e-04
13.500	19.500	9.9564e-04
13.500	19.750	1.1073e-03
13.500	20.000	1.2638e-03
13.500	20.250	1.4811e-03
13.500	20.500	1.7845e-03
13.500	20.750	2.2075e-03
13.500	21.000	2.8050e-03
13.500	21.250	3.6789e-03
13.500	21.500	4.8686e-03
13.500	21.750	6.6751e-03
13.500	22.000	9.4449e-03
13.500	22.250	1.3488e-02
13.500	22.500	1.6748e-02
13.500	22.750	1.8992e-02
13.500	23.000	2.0483e-02
13.500	23.250	2.1553e-02
13.500	23.500	2.1845e-02
13.500	23.750	2.2031e-02
13.500	24.000	2.2162e-02
13.750	17.000	2.2058e-05
13.750	17.250	4.4527e-05
13.750	17.500	9.7449e-05
13.750	17.750	1.9498e-04
13.750	18.000	4.4831e-04
13.750	18.250	6.4288e-04
13.750	18.500	8.0831e-04
13.750	18.750	8.1811e-04
13.750	19.000	8.3663e-04
13.750	19.250	8.6938e-04
13.750	19.500	9.2140e-04
13.750	19.750	9.9852e-04
13.750	20.000	1.1084e-03
13.750	20.250	1.2628e-03
13.750	20.500	1.4779e-03
13.750	20.750	1.7792e-03
13.750	21.000	2.2002e-03
13.750	21.250	2.7993e-03
13.750	21.500	3.6137e-03
13.750	21.750	4.8332e-03
13.750	22.000	6.6587e-03
13.750	22.250	9.5296e-03
13.750	22.500	1.3763e-02
13.750	22.750	1.6820e-02
13.750	23.000	1.8892e-02
13.750	23.250	2.0392e-02
13.750	23.500	2.1474e-02
13.750	23.750	2.1789e-02
13.750	24.000	2.1989e-02
14.000	17.000	1.3333e-05
14.000	17.250	2.6008e-05
14.000	17.500	5.9588e-05
14.000	17.750	1.1835e-04
14.000	18.000	2.4576e-04
14.000	18.250	5.1992e-04
14.000	18.500	6.9243e-04
14.000	18.750	8.1037e-04
14.000	19.000	8.1984e-04
14.000	19.250	8.3811e-04
14.000	19.500	8.7078e-04
14.000	19.750	9.2173e-04
14.000	20.000	9.9720e-04
14.000	20.250	1.1042e-03
14.000	20.500	1.2551e-03
14.000	20.750	1.4652e-03
14.000	21.000	1.7602e-03
14.000	21.250	2.1749e-03
14.000	21.500	2.7323e-03
14.000	21.750	3.5467e-03
14.000	22.000	4.7152e-03
14.000	22.250	6.4709e-03
14.000	22.500	9.4992e-03
14.000	22.750	1.4061e-02
14.000	23.000	1.6767e-02
14.000	23.250	1.8779e-02
14.000	23.500	2.0277e-02
14.000	23.750	2.1374e-02
14.000	24.000	2.1697e-02
