InwT 1064.34A  relative to Inci 1215.00A scaled to 1215A.
Hden   Phi(H)  Eq_Width (A)
 7.000	17.000	3.8670e-02
 7.000	17.250	3.8434e-02
 7.000	17.500	3.5293e-02
 7.000	17.750	3.1966e-02
 7.000	18.000	2.9178e-02
 7.000	18.250	2.7391e-02
 7.000	18.500	2.6252e-02
 7.000	18.750	2.5690e-02
 7.000	19.000	2.5394e-02
 7.000	19.250	2.5226e-02
 7.000	19.500	2.5154e-02
 7.000	19.750	2.5124e-02
 7.000	20.000	2.5111e-02
 7.000	20.250	2.5105e-02
 7.000	20.500	2.5102e-02
 7.000	20.750	2.5100e-02
 7.000	21.000	2.5100e-02
 7.000	21.250	2.5099e-02
 7.000	21.500	2.5099e-02
 7.000	21.750	2.5099e-02
 7.000	22.000	2.5099e-02
 7.000	22.250	2.5099e-02
 7.000	22.500	2.5099e-02
 7.000	22.750	2.5099e-02
 7.000	23.000	2.5099e-02
 7.000	23.250	2.5099e-02
 7.000	23.500	2.5099e-02
 7.000	23.750	2.5099e-02
 7.000	24.000	2.5099e-02
 7.250	17.000	3.9362e-02
 7.250	17.250	3.8019e-02
 7.250	17.500	3.8237e-02
 7.250	17.750	3.5198e-02
 7.250	18.000	3.1919e-02
 7.250	18.250	2.9151e-02
 7.250	18.500	2.7378e-02
 7.250	18.750	2.6248e-02
 7.250	19.000	2.5688e-02
 7.250	19.250	2.5393e-02
 7.250	19.500	2.5226e-02
 7.250	19.750	2.5154e-02
 7.250	20.000	2.5124e-02
 7.250	20.250	2.5111e-02
 7.250	20.500	2.5105e-02
 7.250	20.750	2.5102e-02
 7.250	21.000	2.5100e-02
 7.250	21.250	2.5099e-02
 7.250	21.500	2.5099e-02
 7.250	21.750	2.5099e-02
 7.250	22.000	2.5101e-02
 7.250	22.250	2.5099e-02
 7.250	22.500	2.5099e-02
 7.250	22.750	2.5099e-02
 7.250	23.000	2.5099e-02
 7.250	23.250	2.5100e-02
 7.250	23.500	2.5099e-02
 7.250	23.750	2.5100e-02
 7.250	24.000	2.5099e-02
 7.500	17.000	3.4385e-02
 7.500	17.250	3.7868e-02
 7.500	17.500	3.7473e-02
 7.500	17.750	3.8129e-02
 7.500	18.000	3.5151e-02
 7.500	18.250	3.1894e-02
 7.500	18.500	2.9135e-02
 7.500	18.750	2.7370e-02
 7.500	19.000	2.6245e-02
 7.500	19.250	2.5687e-02
 7.500	19.500	2.5393e-02
 7.500	19.750	2.5226e-02
 7.500	20.000	2.5154e-02
 7.500	20.250	2.5124e-02
 7.500	20.500	2.5111e-02
 7.500	20.750	2.5105e-02
 7.500	21.000	2.5102e-02
 7.500	21.250	2.5100e-02
 7.500	21.500	2.5099e-02
 7.500	21.750	2.5099e-02
 7.500	22.000	2.5099e-02
 7.500	22.250	2.5099e-02
 7.500	22.500	2.5099e-02
 7.500	22.750	2.5098e-02
 7.500	23.000	2.5099e-02
 7.500	23.250	2.5099e-02
 7.500	23.500	2.5099e-02
 7.500	23.750	2.5099e-02
 7.500	24.000	2.5099e-02
 7.750	17.000	2.6621e-02
 7.750	17.250	3.2597e-02
 7.750	17.500	3.6544e-02
 7.750	17.750	3.7037e-02
 7.750	18.000	3.8072e-02
 7.750	18.250	3.5134e-02
 7.750	18.500	3.1884e-02
 7.750	18.750	2.9126e-02
 7.750	19.000	2.7365e-02
 7.750	19.250	2.6243e-02
 7.750	19.500	2.5686e-02
 7.750	19.750	2.5393e-02
 7.750	20.000	2.5226e-02
 7.750	20.250	2.5154e-02
 7.750	20.500	2.5124e-02
 7.750	20.750	2.5111e-02
 7.750	21.000	2.5105e-02
 7.750	21.250	2.5102e-02
 7.750	21.500	2.5100e-02
 7.750	21.750	2.5099e-02
 7.750	22.000	2.5099e-02
 7.750	22.250	2.5099e-02
 7.750	22.500	2.5099e-02
 7.750	22.750	2.5098e-02
 7.750	23.000	2.5099e-02
 7.750	23.250	2.5098e-02
 7.750	23.500	2.5098e-02
 7.750	23.750	2.5098e-02
 7.750	24.000	2.5098e-02
 8.000	17.000	2.0104e-02
 8.000	17.250	2.4447e-02
 8.000	17.500	3.0963e-02
 8.000	17.750	3.5456e-02
 8.000	18.000	3.6684e-02
 8.000	18.250	3.8044e-02
 8.000	18.500	3.5137e-02
 8.000	18.750	3.1885e-02
 8.000	19.000	2.9121e-02
 8.000	19.250	2.7362e-02
 8.000	19.500	2.6241e-02
 8.000	19.750	2.5686e-02
 8.000	20.000	2.5393e-02
 8.000	20.250	2.5226e-02
 8.000	20.500	2.5154e-02
 8.000	20.750	2.5124e-02
 8.000	21.000	2.5111e-02
 8.000	21.250	2.5105e-02
 8.000	21.500	2.5102e-02
 8.000	21.750	2.5100e-02
 8.000	22.000	2.5099e-02
 8.000	22.250	2.5099e-02
 8.000	22.500	2.5098e-02
 8.000	22.750	2.5098e-02
 8.000	23.000	2.5098e-02
 8.000	23.250	2.5098e-02
 8.000	23.500	2.5098e-02
 8.000	23.750	2.5098e-02
 8.000	24.000	2.5101e-02
 8.250	17.000	1.5881e-02
 8.250	17.250	1.8371e-02
 8.250	17.500	2.3030e-02
 8.250	17.750	2.9948e-02
 8.250	18.000	3.4743e-02
 8.250	18.250	3.6465e-02
 8.250	18.500	3.8030e-02
 8.250	18.750	3.5151e-02
 8.250	19.000	3.1893e-02
 8.250	19.250	2.9119e-02
 8.250	19.500	2.7360e-02
 8.250	19.750	2.6241e-02
 8.250	20.000	2.5685e-02
 8.250	20.250	2.5393e-02
 8.250	20.500	2.5226e-02
 8.250	20.750	2.5154e-02
 8.250	21.000	2.5124e-02
 8.250	21.250	2.5111e-02
 8.250	21.500	2.5105e-02
 8.250	21.750	2.5102e-02
 8.250	22.000	2.5100e-02
 8.250	22.250	2.5099e-02
 8.250	22.500	2.5099e-02
 8.250	22.750	2.5099e-02
 8.250	23.000	2.5099e-02
 8.250	23.250	2.5098e-02
 8.250	23.500	2.5098e-02
 8.250	23.750	2.5098e-02
 8.250	24.000	2.5098e-02
 8.500	17.000	1.3213e-02
 8.500	17.250	1.4491e-02
 8.500	17.500	1.7190e-02
 8.500	17.750	2.2024e-02
 8.500	18.000	2.9264e-02
 8.500	18.250	3.4258e-02
 8.500	18.500	3.6313e-02
 8.500	18.750	3.8023e-02
 8.500	19.000	3.5176e-02
 8.500	19.250	3.1904e-02
 8.500	19.500	2.9119e-02
 8.500	19.750	2.7359e-02
 8.500	20.000	2.6240e-02
 8.500	20.250	2.5685e-02
 8.500	20.500	2.5392e-02
 8.500	20.750	2.5226e-02
 8.500	21.000	2.5154e-02
 8.500	21.250	2.5124e-02
 8.500	21.500	2.5111e-02
 8.500	21.750	2.5105e-02
 8.500	22.000	2.5102e-02
 8.500	22.250	2.5100e-02
 8.500	22.500	2.5099e-02
 8.500	22.750	2.5100e-02
 8.500	23.000	2.5098e-02
 8.500	23.250	2.5098e-02
 8.500	23.500	2.5098e-02
 8.500	23.750	2.5098e-02
 8.500	24.000	2.5098e-02
 8.750	17.000	1.1626e-02
 8.750	17.250	1.2151e-02
 8.750	17.500	1.3587e-02
 8.750	17.750	1.6413e-02
 8.750	18.000	2.1437e-02
 8.750	18.250	2.8899e-02
 8.750	18.500	3.3919e-02
 8.750	18.750	3.6216e-02
 8.750	19.000	3.8018e-02
 8.750	19.250	3.5207e-02
 8.750	19.500	3.1919e-02
 8.750	19.750	2.9119e-02
 8.750	20.000	2.7358e-02
 8.750	20.250	2.6240e-02
 8.750	20.500	2.5685e-02
 8.750	20.750	2.5392e-02
 8.750	21.000	2.5226e-02
 8.750	21.250	2.5154e-02
 8.750	21.500	2.5124e-02
 8.750	21.750	2.5111e-02
 8.750	22.000	2.5105e-02
 8.750	22.250	2.5102e-02
 8.750	22.500	2.5100e-02
 8.750	22.750	2.5099e-02
 8.750	23.000	2.5099e-02
 8.750	23.250	2.5098e-02
 8.750	23.500	2.5098e-02
 8.750	23.750	2.5098e-02
 8.750	24.000	2.5098e-02
 9.000	17.000	1.0779e-02
 9.000	17.250	1.0833e-02
 9.000	17.500	1.1496e-02
 9.000	17.750	1.3048e-02
 9.000	18.000	1.6040e-02
 9.000	18.250	2.1333e-02
 9.000	18.500	2.8983e-02
 9.000	18.750	3.3574e-02
 9.000	19.000	3.6137e-02
 9.000	19.250	3.8006e-02
 9.000	19.500	3.5237e-02
 9.000	19.750	3.1935e-02
 9.000	20.000	2.9120e-02
 9.000	20.250	2.7357e-02
 9.000	20.500	2.6239e-02
 9.000	20.750	2.5685e-02
 9.000	21.000	2.5392e-02
 9.000	21.250	2.5226e-02
 9.000	21.500	2.5154e-02
 9.000	21.750	2.5124e-02
 9.000	22.000	2.5111e-02
 9.000	22.250	2.5105e-02
 9.000	22.500	2.5102e-02
 9.000	22.750	2.5100e-02
 9.000	23.000	2.5099e-02
 9.000	23.250	2.5099e-02
 9.000	23.500	2.5098e-02
 9.000	23.750	2.5098e-02
 9.000	24.000	2.5099e-02
 9.250	17.000	1.0448e-02
 9.250	17.250	1.0166e-02
 9.250	17.500	1.0364e-02
 9.250	17.750	1.1178e-02
 9.250	18.000	1.2971e-02
 9.250	18.250	1.6304e-02
 9.250	18.500	2.2024e-02
 9.250	18.750	2.9684e-02
 9.250	19.000	3.3404e-02
 9.250	19.250	3.6059e-02
 9.250	19.500	3.7986e-02
 9.250	19.750	3.5263e-02
 9.250	20.000	3.1951e-02
 9.250	20.250	2.9121e-02
 9.250	20.500	2.7357e-02
 9.250	20.750	2.6239e-02
 9.250	21.000	2.5685e-02
 9.250	21.250	2.5392e-02
 9.250	21.500	2.5222e-02
 9.250	21.750	2.5150e-02
 9.250	22.000	2.5119e-02
 9.250	22.250	2.5107e-02
 9.250	22.500	2.5104e-02
 9.250	22.750	2.5101e-02
 9.250	23.000	2.5100e-02
 9.250	23.250	2.5099e-02
 9.250	23.500	2.5099e-02
 9.250	23.750	2.5098e-02
 9.250	24.000	2.5098e-02
 9.500	17.000	1.0505e-02
 9.500	17.250	9.9444e-03
 9.500	17.500	9.8367e-03
 9.500	17.750	1.0254e-02
 9.500	18.000	1.1341e-02
 9.500	18.250	1.3451e-02
 9.500	18.500	1.7264e-02
 9.500	18.750	2.3646e-02
 9.500	19.000	3.0836e-02
 9.500	19.250	3.3218e-02
 9.500	19.500	3.5966e-02
 9.500	19.750	3.7956e-02
 9.500	20.000	3.5280e-02
 9.500	20.250	3.1964e-02
 9.500	20.500	2.9122e-02
 9.500	20.750	2.7356e-02
 9.500	21.000	2.6235e-02
 9.500	21.250	2.5681e-02
 9.500	21.500	2.5388e-02
 9.500	21.750	2.5219e-02
 9.500	22.000	2.5147e-02
 9.500	22.250	2.5117e-02
 9.500	22.500	2.5103e-02
 9.500	22.750	2.5097e-02
 9.500	23.000	2.5094e-02
 9.500	23.250	2.5093e-02
 9.500	23.500	2.5092e-02
 9.500	23.750	2.5092e-02
 9.500	24.000	2.5092e-02
 9.750	17.000	1.0892e-02
 9.750	17.250	1.0040e-02
 9.750	17.500	9.6838e-03
 9.750	17.750	9.8573e-03
 9.750	18.000	1.0610e-02
 9.750	18.250	1.2044e-02
 9.750	18.500	1.4585e-02
 9.750	18.750	1.8982e-02
 9.750	19.000	2.5916e-02
 9.750	19.250	3.1410e-02
 9.750	19.500	3.3051e-02
 9.750	19.750	3.5857e-02
 9.750	20.000	3.7918e-02
 9.750	20.250	3.5285e-02
 9.750	20.500	3.1974e-02
 9.750	20.750	2.9122e-02
 9.750	21.000	2.7356e-02
 9.750	21.250	2.6236e-02
 9.750	21.500	2.5681e-02
 9.750	21.750	2.5388e-02
 9.750	22.000	2.5220e-02
 9.750	22.250	2.5147e-02
 9.750	22.500	2.5117e-02
 9.750	22.750	2.5104e-02
 9.750	23.000	2.5097e-02
 9.750	23.250	2.5094e-02
 9.750	23.500	2.5092e-02
 9.750	23.750	2.5092e-02
 9.750	24.000	2.5091e-02
10.000	17.000	1.1606e-02
10.000	17.250	1.0425e-02
10.000	17.500	9.7831e-03
10.000	17.750	9.7691e-03
10.000	18.000	1.0407e-02
10.000	18.250	1.1523e-02
10.000	18.500	1.3320e-02
10.000	18.750	1.6353e-02
10.000	19.000	2.1511e-02
10.000	19.250	2.8428e-02
10.000	19.500	3.1353e-02
10.000	19.750	3.2969e-02
10.000	20.000	3.5735e-02
10.000	20.250	3.7878e-02
10.000	20.500	3.5284e-02
10.000	20.750	3.1982e-02
10.000	21.000	2.9123e-02
10.000	21.250	2.7356e-02
10.000	21.500	2.6237e-02
10.000	21.750	2.5681e-02
10.000	22.000	2.5388e-02
10.000	22.250	2.5221e-02
10.000	22.500	2.5148e-02
10.000	22.750	2.5117e-02
10.000	23.000	2.5104e-02
10.000	23.250	2.5097e-02
10.000	23.500	2.5094e-02
10.000	23.750	2.5093e-02
10.000	24.000	2.5092e-02
10.250	17.000	1.2677e-02
10.250	17.250	1.1130e-02
10.250	17.500	1.0197e-02
10.250	17.750	9.9997e-03
10.250	18.000	1.0563e-02
10.250	18.250	1.1535e-02
10.250	18.500	1.2943e-02
10.250	18.750	1.5214e-02
10.250	19.000	1.9071e-02
10.250	19.250	2.4530e-02
10.250	19.500	2.9818e-02
10.250	19.750	3.1515e-02
10.250	20.000	3.3002e-02
10.250	20.250	3.5707e-02
10.250	20.500	3.7850e-02
10.250	20.750	3.5274e-02
10.250	21.000	3.1987e-02
10.250	21.250	2.9124e-02
10.250	21.500	2.7356e-02
10.250	21.750	2.6238e-02
10.250	22.000	2.5683e-02
10.250	22.250	2.5389e-02
10.250	22.500	2.5221e-02
10.250	22.750	2.5149e-02
10.250	23.000	2.5117e-02
10.250	23.250	2.5103e-02
10.250	23.500	2.5097e-02
10.250	23.750	2.5094e-02
10.250	24.000	2.5093e-02
10.500	17.000	1.4077e-02
10.500	17.250	1.2210e-02
10.500	17.500	1.0968e-02
10.500	17.750	1.0604e-02
10.500	18.000	1.1048e-02
10.500	18.250	1.1927e-02
10.500	18.500	1.3053e-02
10.500	18.750	1.4635e-02
10.500	19.000	1.6963e-02
10.500	19.250	2.0729e-02
10.500	19.500	2.6241e-02
10.500	19.750	3.0045e-02
10.500	20.000	3.1650e-02
10.500	20.250	3.3188e-02
10.500	20.500	3.5823e-02
10.500	20.750	3.7893e-02
10.500	21.000	3.5263e-02
10.500	21.250	3.1989e-02
10.500	21.500	2.9124e-02
10.500	21.750	2.7356e-02
10.500	22.000	2.6238e-02
10.500	22.250	2.5684e-02
10.500	22.500	2.5390e-02
10.500	22.750	2.5221e-02
10.500	23.000	2.5150e-02
10.500	23.250	2.5118e-02
10.500	23.500	2.5104e-02
10.500	23.750	2.5097e-02
10.500	24.000	2.5094e-02
10.750	17.000	1.5754e-02
10.750	17.250	1.3629e-02
10.750	17.500	1.2165e-02
10.750	17.750	1.1645e-02
10.750	18.000	1.1889e-02
10.750	18.250	1.2455e-02
10.750	18.500	1.3246e-02
10.750	18.750	1.4163e-02
10.750	19.000	1.5513e-02
10.750	19.250	1.7948e-02
10.750	19.500	2.2089e-02
10.750	19.750	2.7643e-02
10.750	20.000	3.0210e-02
10.750	20.250	3.1974e-02
10.750	20.500	3.3613e-02
10.750	20.750	3.6226e-02
10.750	21.000	3.8026e-02
10.750	21.250	3.5257e-02
10.750	21.500	3.1989e-02
10.750	21.750	2.9124e-02
10.750	22.000	2.7356e-02
10.750	22.250	2.6238e-02
10.750	22.500	2.5685e-02
10.750	22.750	2.5392e-02
10.750	23.000	2.5221e-02
10.750	23.250	2.5150e-02
10.750	23.500	2.5119e-02
10.750	23.750	2.5105e-02
10.750	24.000	2.5098e-02
11.000	17.000	1.7637e-02
11.000	17.250	1.5325e-02
11.000	17.500	1.3735e-02
11.000	17.750	1.3106e-02
11.000	18.000	1.3090e-02
11.000	18.250	1.3213e-02
11.000	18.500	1.3482e-02
11.000	18.750	1.3906e-02
11.000	19.000	1.4650e-02
11.000	19.250	1.6121e-02
11.000	19.500	1.8855e-02
11.000	19.750	2.3357e-02
11.000	20.000	2.8797e-02
11.000	20.250	3.0585e-02
11.000	20.500	3.2702e-02
11.000	20.750	3.4358e-02
11.000	21.000	3.7021e-02
11.000	21.250	3.8307e-02
11.000	21.500	3.5273e-02
11.000	21.750	3.1985e-02
11.000	22.000	2.9123e-02
11.000	22.250	2.7356e-02
11.000	22.500	2.6237e-02
11.000	22.750	2.5685e-02
11.000	23.000	2.5392e-02
11.000	23.250	2.5222e-02
11.000	23.500	2.5150e-02
11.000	23.750	2.5120e-02
11.000	24.000	2.5106e-02
11.250	17.000	1.9587e-02
11.250	17.250	1.7181e-02
11.250	17.500	1.5548e-02
11.250	17.750	1.4884e-02
11.250	18.000	1.4625e-02
11.250	18.250	1.4270e-02
11.250	18.500	1.3920e-02
11.250	18.750	1.3908e-02
11.250	19.000	1.4257e-02
11.250	19.250	1.5040e-02
11.250	19.500	1.6691e-02
11.250	19.750	1.9720e-02
11.250	20.000	2.4539e-02
11.250	20.250	2.9769e-02
11.250	20.500	3.1158e-02
11.250	20.750	3.3474e-02
11.250	21.000	3.5572e-02
11.250	21.250	3.8391e-02
11.250	21.500	3.8800e-02
11.250	21.750	3.5329e-02
11.250	22.000	3.1980e-02
11.250	22.250	2.9122e-02
11.250	22.500	2.7356e-02
11.250	22.750	2.6237e-02
11.250	23.000	2.5685e-02
11.250	23.250	2.5393e-02
11.250	23.500	2.5224e-02
11.250	23.750	2.5150e-02
11.250	24.000	2.5120e-02
11.500	17.000	2.1421e-02
11.500	17.250	1.9091e-02
11.500	17.500	1.7489e-02
11.500	17.750	1.6808e-02
11.500	18.000	1.6354e-02
11.500	18.250	1.5610e-02
11.500	18.500	1.4787e-02
11.500	18.750	1.4281e-02
11.500	19.000	1.4180e-02
11.500	19.250	1.4507e-02
11.500	19.500	1.5370e-02
11.500	19.750	1.7223e-02
11.500	20.000	2.0563e-02
11.500	20.250	2.5701e-02
11.500	20.500	3.0658e-02
11.500	20.750	3.2124e-02
11.500	21.000	3.4862e-02
11.500	21.250	3.7516e-02
11.500	21.500	4.0623e-02
11.500	21.750	3.9365e-02
11.500	22.000	3.5440e-02
11.500	22.250	3.1974e-02
11.500	22.500	2.9120e-02
11.500	22.750	2.7357e-02
11.500	23.000	2.6237e-02
11.500	23.250	2.5685e-02
11.500	23.500	2.5393e-02
11.500	23.750	2.5225e-02
11.500	24.000	2.5151e-02
11.750	17.000	2.2812e-02
11.750	17.250	2.0794e-02
11.750	17.500	1.9368e-02
11.750	17.750	1.8713e-02
11.750	18.000	1.8137e-02
11.750	18.250	1.7182e-02
11.750	18.500	1.6067e-02
11.750	18.750	1.5063e-02
11.750	19.000	1.4455e-02
11.750	19.250	1.4321e-02
11.750	19.500	1.4661e-02
11.750	19.750	1.5640e-02
11.750	20.000	1.7723e-02
11.750	20.250	2.1396e-02
11.750	20.500	2.6869e-02
11.750	20.750	3.1297e-02
11.750	21.000	3.3475e-02
11.750	21.250	3.7061e-02
11.750	21.500	4.0421e-02
11.750	21.750	4.3448e-02
11.750	22.000	3.9993e-02
11.750	22.250	3.5602e-02
11.750	22.500	3.1971e-02
11.750	22.750	2.9118e-02
11.750	23.000	2.7357e-02
11.750	23.250	2.6236e-02
11.750	23.500	2.5696e-02
11.750	23.750	2.5393e-02
11.750	24.000	2.5226e-02
12.000	17.000	2.3227e-02
12.000	17.250	2.1849e-02
12.000	17.500	2.0837e-02
12.000	17.750	2.0358e-02
12.000	18.000	1.9800e-02
12.000	18.250	1.8819e-02
12.000	18.500	1.7545e-02
12.000	18.750	1.6205e-02
12.000	19.000	1.5113e-02
12.000	19.250	1.4442e-02
12.000	19.500	1.4339e-02
12.000	19.750	1.4739e-02
12.000	20.000	1.5885e-02
12.000	20.250	1.8231e-02
12.000	20.500	2.2240e-02
12.000	20.750	2.8127e-02
12.000	21.000	3.2733e-02
12.000	21.250	3.5781e-02
12.000	21.500	4.0310e-02
12.000	21.750	4.4254e-02
12.000	22.000	4.5843e-02
12.000	22.250	4.0567e-02
12.000	22.500	3.5799e-02
12.000	22.750	3.1971e-02
12.000	23.000	2.9116e-02
12.000	23.250	2.7358e-02
12.000	23.500	2.6236e-02
12.000	23.750	2.5685e-02
12.000	24.000	2.5393e-02
12.250	17.000	2.2322e-02
12.250	17.250	2.1828e-02
12.250	17.500	2.1512e-02
12.250	17.750	2.1473e-02
12.250	18.000	2.1118e-02
12.250	18.250	2.0215e-02
12.250	18.500	1.8916e-02
12.250	18.750	1.7470e-02
12.250	19.000	1.6083e-02
12.250	19.250	1.4958e-02
12.250	19.500	1.4341e-02
12.250	19.750	1.4294e-02
12.250	20.000	1.4786e-02
12.250	20.250	1.6134e-02
12.250	20.500	1.8769e-02
12.250	20.750	2.3193e-02
12.250	21.000	2.9899e-02
12.250	21.250	3.4882e-02
12.250	21.500	3.8891e-02
12.250	21.750	4.4225e-02
12.250	22.000	4.8596e-02
12.250	22.250	4.7460e-02
12.250	22.500	4.1175e-02
12.250	22.750	3.6018e-02
12.250	23.000	3.1978e-02
12.250	23.250	2.9114e-02
12.250	23.500	2.7358e-02
12.250	23.750	2.6235e-02
12.250	24.000	2.5684e-02
12.500	17.000	2.1207e-02
12.500	17.250	2.1222e-02
12.500	17.500	2.1507e-02
12.500	17.750	2.1835e-02
12.500	18.000	2.1697e-02
12.500	18.250	2.0997e-02
12.500	18.500	1.9888e-02
12.500	18.750	1.8578e-02
12.500	19.000	1.7161e-02
12.500	19.250	1.5795e-02
12.500	19.500	1.4725e-02
12.500	19.750	1.4170e-02
12.500	20.000	1.4215e-02
12.500	20.250	1.4836e-02
12.500	20.500	1.6432e-02
12.500	20.750	1.9481e-02
12.500	21.000	2.4672e-02
12.500	21.250	3.2431e-02
12.500	21.500	3.7844e-02
12.500	21.750	4.2977e-02
12.500	22.000	4.9322e-02
12.500	22.250	5.2764e-02
12.500	22.500	4.9074e-02
12.500	22.750	4.1837e-02
12.500	23.000	3.6252e-02
12.500	23.250	3.1992e-02
12.500	23.500	2.9111e-02
12.500	23.750	2.7358e-02
12.500	24.000	2.6233e-02
12.750	17.000	2.0590e-02
12.750	17.250	2.0835e-02
12.750	17.500	2.1102e-02
12.750	17.750	2.1297e-02
12.750	18.000	2.1316e-02
12.750	18.250	2.0996e-02
12.750	18.500	2.0283e-02
12.750	18.750	1.9291e-02
12.750	19.000	1.8079e-02
12.750	19.250	1.6746e-02
12.750	19.500	1.5427e-02
12.750	19.750	1.4425e-02
12.750	20.000	1.3939e-02
12.750	20.250	1.4090e-02
12.750	20.500	1.4927e-02
12.750	20.750	1.6867e-02
12.750	21.000	2.0520e-02
12.750	21.250	2.6832e-02
12.750	21.500	3.5653e-02
12.750	21.750	4.2052e-02
12.750	22.000	4.8227e-02
12.750	22.250	5.4945e-02
12.750	22.500	5.6639e-02
12.750	22.750	5.0512e-02
12.750	23.000	4.2543e-02
12.750	23.250	3.6460e-02
12.750	23.500	3.2002e-02
12.750	23.750	2.9108e-02
12.750	24.000	2.7358e-02
13.000	17.000	1.8983e-02
13.000	17.250	1.9705e-02
13.000	17.500	1.9924e-02
13.000	17.750	2.0166e-02
13.000	18.000	2.0350e-02
13.000	18.250	2.0338e-02
13.000	18.500	2.0034e-02
13.000	18.750	1.9438e-02
13.000	19.000	1.8574e-02
13.000	19.250	1.7472e-02
13.000	19.500	1.6213e-02
13.000	19.750	1.4983e-02
13.000	20.000	1.4050e-02
13.000	20.250	1.3654e-02
13.000	20.500	1.4012e-02
13.000	20.750	1.5107e-02
13.000	21.000	1.7679e-02
13.000	21.250	2.2242e-02
13.000	21.500	2.9284e-02
13.000	21.750	4.0169e-02
13.000	22.000	4.7398e-02
13.000	22.250	5.3288e-02
13.000	22.500	5.9808e-02
13.000	22.750	6.0060e-02
13.000	23.000	5.2106e-02
13.000	23.250	4.3211e-02
13.000	23.500	3.6663e-02
13.000	23.750	3.2024e-02
13.000	24.000	2.9106e-02
13.250	17.000	1.7874e-02
13.250	17.250	1.8486e-02
13.250	17.500	1.8748e-02
13.250	17.750	1.8931e-02
13.250	18.000	1.9186e-02
13.250	18.250	1.9383e-02
13.250	18.500	1.9363e-02
13.250	18.750	1.9074e-02
13.250	19.000	1.8535e-02
13.250	19.250	1.7762e-02
13.250	19.500	1.6769e-02
13.250	19.750	1.5629e-02
13.250	20.000	1.4510e-02
13.250	20.250	1.3656e-02
13.250	20.500	1.3352e-02
13.250	20.750	1.3855e-02
13.250	21.000	1.5343e-02
13.250	21.250	1.8483e-02
13.250	21.500	2.3541e-02
13.250	21.750	3.2583e-02
13.250	22.000	4.3876e-02
13.250	22.250	5.0880e-02
13.250	22.500	5.8236e-02
13.250	22.750	6.3971e-02
13.250	23.000	6.3392e-02
13.250	23.250	5.3427e-02
13.250	23.500	4.3765e-02
13.250	23.750	3.6839e-02
13.250	24.000	3.2055e-02
13.500	17.000	1.6679e-02
13.500	17.250	1.7308e-02
13.500	17.500	1.7586e-02
13.500	17.750	1.7705e-02
13.500	18.000	1.7971e-02
13.500	18.250	1.8266e-02
13.500	18.500	1.8433e-02
13.500	18.750	1.8377e-02
13.500	19.000	1.8089e-02
13.500	19.250	1.7577e-02
13.500	19.500	1.6861e-02
13.500	19.750	1.5972e-02
13.500	20.000	1.4965e-02
13.500	20.250	1.3977e-02
13.500	20.500	1.3226e-02
13.500	20.750	1.3002e-02
13.500	21.000	1.3535e-02
13.500	21.250	1.5440e-02
13.500	21.500	1.8554e-02
13.500	21.750	2.3739e-02
13.500	22.000	3.2865e-02
13.500	22.250	4.6439e-02
13.500	22.500	5.5232e-02
13.500	22.750	6.2789e-02
13.500	23.000	6.7773e-02
13.500	23.250	6.6700e-02
13.500	23.500	5.4772e-02
13.500	23.750	4.4547e-02
13.500	24.000	3.6990e-02
13.750	17.000	1.5275e-02
13.750	17.250	1.6178e-02
13.750	17.500	1.6453e-02
13.750	17.750	1.6530e-02
13.750	18.000	1.6756e-02
13.750	18.250	1.7097e-02
13.750	18.500	1.7366e-02
13.750	18.750	1.7461e-02
13.750	19.000	1.7361e-02
13.750	19.250	1.7073e-02
13.750	19.500	1.6597e-02
13.750	19.750	1.5951e-02
13.750	20.000	1.5177e-02
13.750	20.250	1.4330e-02
13.750	20.500	1.3514e-02
13.750	20.750	1.2918e-02
13.750	21.000	1.2791e-02
13.750	21.250	1.3415e-02
13.750	21.500	1.5099e-02
13.750	21.750	1.8295e-02
13.750	22.000	2.4163e-02
13.750	22.250	3.4873e-02
13.750	22.500	5.0573e-02
13.750	22.750	6.1459e-02
13.750	23.000	6.8436e-02
13.750	23.250	7.2845e-02
13.750	23.500	7.0050e-02
13.750	23.750	5.6239e-02
13.750	24.000	4.5012e-02
14.000	17.000	1.3654e-02
14.000	17.250	1.4840e-02
14.000	17.500	1.5334e-02
14.000	17.750	1.5385e-02
14.000	18.000	1.5578e-02
14.000	18.250	1.5913e-02
14.000	18.500	1.6239e-02
14.000	18.750	1.6430e-02
14.000	19.000	1.6458e-02
14.000	19.250	1.6332e-02
14.000	19.500	1.6063e-02
14.000	19.750	1.5650e-02
14.000	20.000	1.5103e-02
14.000	20.250	1.4462e-02
14.000	20.500	1.3804e-02
14.000	20.750	1.3212e-02
14.000	21.000	1.2854e-02
14.000	21.250	1.2990e-02
14.000	21.500	1.3759e-02
14.000	21.750	1.5726e-02
14.000	22.000	1.9571e-02
14.000	22.250	2.6724e-02
14.000	22.500	3.9858e-02
14.000	22.750	5.8553e-02
14.000	23.000	6.9568e-02
14.000	23.250	7.6267e-02
14.000	23.500	7.8925e-02
14.000	23.750	7.3619e-02
14.000	24.000	5.7476e-02
