nFnu 960.000A  relative to Inci 1215.00A scaled to 1215A.
Hden   Phi(H)  Eq_Width (A)
 7.000	17.000	4.7791e-02
 7.000	17.250	4.6417e-02
 7.000	17.500	4.3044e-02
 7.000	17.750	3.8188e-02
 7.000	18.000	3.3175e-02
 7.000	18.250	2.9747e-02
 7.000	18.500	2.7458e-02
 7.000	18.750	2.6271e-02
 7.000	19.000	2.5639e-02
 7.000	19.250	2.5278e-02
 7.000	19.500	2.5123e-02
 7.000	19.750	2.5057e-02
 7.000	20.000	2.5029e-02
 7.000	20.250	2.5015e-02
 7.000	20.500	2.5008e-02
 7.000	20.750	2.5005e-02
 7.000	21.000	2.5003e-02
 7.000	21.250	2.5002e-02
 7.000	21.500	2.5002e-02
 7.000	21.750	2.5001e-02
 7.000	22.000	2.5001e-02
 7.000	22.250	2.5001e-02
 7.000	22.500	2.5001e-02
 7.000	22.750	2.5001e-02
 7.000	23.000	2.5001e-02
 7.000	23.250	2.5001e-02
 7.000	23.500	2.5001e-02
 7.000	23.750	2.5001e-02
 7.000	24.000	2.5001e-02
 7.250	17.000	5.0216e-02
 7.250	17.250	4.6106e-02
 7.250	17.500	4.5898e-02
 7.250	17.750	4.2805e-02
 7.250	18.000	3.8071e-02
 7.250	18.250	3.3109e-02
 7.250	18.500	2.9714e-02
 7.250	18.750	2.7447e-02
 7.250	19.000	2.6266e-02
 7.250	19.250	2.5637e-02
 7.250	19.500	2.5277e-02
 7.250	19.750	2.5123e-02
 7.250	20.000	2.5057e-02
 7.250	20.250	2.5028e-02
 7.250	20.500	2.5015e-02
 7.250	20.750	2.5008e-02
 7.250	21.000	2.5005e-02
 7.250	21.250	2.5003e-02
 7.250	21.500	2.5002e-02
 7.250	21.750	2.5001e-02
 7.250	22.000	2.5004e-02
 7.250	22.250	2.5001e-02
 7.250	22.500	2.5001e-02
 7.250	22.750	2.5001e-02
 7.250	23.000	2.5001e-02
 7.250	23.250	2.5002e-02
 7.250	23.500	2.5001e-02
 7.250	23.750	2.5002e-02
 7.250	24.000	2.5001e-02
 7.500	17.000	3.8840e-02
 7.500	17.250	4.6645e-02
 7.500	17.500	4.4704e-02
 7.500	17.750	4.5605e-02
 7.500	18.000	4.2685e-02
 7.500	18.250	3.8013e-02
 7.500	18.500	3.3070e-02
 7.500	18.750	2.9694e-02
 7.500	19.000	2.7439e-02
 7.500	19.250	2.6263e-02
 7.500	19.500	2.5636e-02
 7.500	19.750	2.5277e-02
 7.500	20.000	2.5123e-02
 7.500	20.250	2.5057e-02
 7.500	20.500	2.5028e-02
 7.500	20.750	2.5015e-02
 7.500	21.000	2.5008e-02
 7.500	21.250	2.5005e-02
 7.500	21.500	2.5003e-02
 7.500	21.750	2.5002e-02
 7.500	22.000	2.5001e-02
 7.500	22.250	2.5001e-02
 7.500	22.500	2.5001e-02
 7.500	22.750	2.5000e-02
 7.500	23.000	2.5001e-02
 7.500	23.250	2.5001e-02
 7.500	23.500	2.5001e-02
 7.500	23.750	2.5001e-02
 7.500	24.000	2.5001e-02
 7.750	17.000	2.7466e-02
 7.750	17.250	3.5241e-02
 7.750	17.500	4.3475e-02
 7.750	17.750	4.3588e-02
 7.750	18.000	4.5448e-02
 7.750	18.250	4.2641e-02
 7.750	18.500	3.7996e-02
 7.750	18.750	3.3049e-02
 7.750	19.000	2.9681e-02
 7.750	19.250	2.7434e-02
 7.750	19.500	2.6261e-02
 7.750	19.750	2.5636e-02
 7.750	20.000	2.5277e-02
 7.750	20.250	2.5123e-02
 7.750	20.500	2.5057e-02
 7.750	20.750	2.5028e-02
 7.750	21.000	2.5015e-02
 7.750	21.250	2.5008e-02
 7.750	21.500	2.5005e-02
 7.750	21.750	2.5003e-02
 7.750	22.000	2.5001e-02
 7.750	22.250	2.5001e-02
 7.750	22.500	2.5001e-02
 7.750	22.750	2.5000e-02
 7.750	23.000	2.5001e-02
 7.750	23.250	2.5000e-02
 7.750	23.500	2.5000e-02
 7.750	23.750	2.5000e-02
 7.750	24.000	2.5000e-02
 8.000	17.000	1.9065e-02
 8.000	17.250	2.3901e-02
 8.000	17.500	3.2124e-02
 8.000	17.750	4.0786e-02
 8.000	18.000	4.2735e-02
 8.000	18.250	4.5368e-02
 8.000	18.500	4.2648e-02
 8.000	18.750	3.8005e-02
 8.000	19.000	3.3039e-02
 8.000	19.250	2.9674e-02
 8.000	19.500	2.7431e-02
 8.000	19.750	2.6260e-02
 8.000	20.000	2.5635e-02
 8.000	20.250	2.5277e-02
 8.000	20.500	2.5123e-02
 8.000	20.750	2.5057e-02
 8.000	21.000	2.5028e-02
 8.000	21.250	2.5015e-02
 8.000	21.500	2.5008e-02
 8.000	21.750	2.5004e-02
 8.000	22.000	2.5003e-02
 8.000	22.250	2.5001e-02
 8.000	22.500	2.5001e-02
 8.000	22.750	2.5000e-02
 8.000	23.000	2.5000e-02
 8.000	23.250	2.5000e-02
 8.000	23.500	2.5000e-02
 8.000	23.750	2.5000e-02
 8.000	24.000	2.5003e-02
 8.250	17.000	1.3968e-02
 8.250	17.250	1.6455e-02
 8.250	17.500	2.1585e-02
 8.250	17.750	3.0167e-02
 8.250	18.000	3.9098e-02
 8.250	18.250	4.2173e-02
 8.250	18.500	4.5325e-02
 8.250	18.750	4.2686e-02
 8.250	19.000	3.8031e-02
 8.250	19.250	3.3036e-02
 8.250	19.500	2.9670e-02
 8.250	19.750	2.7429e-02
 8.250	20.000	2.6259e-02
 8.250	20.250	2.5635e-02
 8.250	20.500	2.5277e-02
 8.250	20.750	2.5123e-02
 8.250	21.000	2.5057e-02
 8.250	21.250	2.5028e-02
 8.250	21.500	2.5015e-02
 8.250	21.750	2.5008e-02
 8.250	22.000	2.5004e-02
 8.250	22.250	2.5003e-02
 8.250	22.500	2.5001e-02
 8.250	22.750	2.5001e-02
 8.250	23.000	2.5001e-02
 8.250	23.250	2.5001e-02
 8.250	23.500	2.5000e-02
 8.250	23.750	2.5000e-02
 8.250	24.000	2.5000e-02
 8.500	17.000	1.0765e-02
 8.500	17.250	1.2014e-02
 8.500	17.500	1.4740e-02
 8.500	17.750	2.0020e-02
 8.500	18.000	2.8923e-02
 8.500	18.250	3.8027e-02
 8.500	18.500	4.1786e-02
 8.500	18.750	4.5306e-02
 8.500	19.000	4.2750e-02
 8.500	19.250	3.8070e-02
 8.500	19.500	3.3038e-02
 8.500	19.750	2.9667e-02
 8.500	20.000	2.7428e-02
 8.500	20.250	2.6259e-02
 8.500	20.500	2.5635e-02
 8.500	20.750	2.5277e-02
 8.500	21.000	2.5123e-02
 8.500	21.250	2.5057e-02
 8.500	21.500	2.5028e-02
 8.500	21.750	2.5015e-02
 8.500	22.000	2.5008e-02
 8.500	22.250	2.5004e-02
 8.500	22.500	2.5003e-02
 8.500	22.750	2.5002e-02
 8.500	23.000	2.5001e-02
 8.500	23.250	2.5000e-02
 8.500	23.500	2.5000e-02
 8.500	23.750	2.5000e-02
 8.500	24.000	2.5000e-02
 8.750	17.000	8.7305e-03
 8.750	17.250	9.3504e-03
 8.750	17.500	1.0793e-02
 8.750	17.750	1.3665e-02
 8.750	18.000	1.9184e-02
 8.750	18.250	2.8321e-02
 8.750	18.500	3.7386e-02
 8.750	18.750	4.1544e-02
 8.750	19.000	4.5293e-02
 8.750	19.250	4.2827e-02
 8.750	19.500	3.8118e-02
 8.750	19.750	3.3042e-02
 8.750	20.000	2.9666e-02
 8.750	20.250	2.7427e-02
 8.750	20.500	2.6259e-02
 8.750	20.750	2.5635e-02
 8.750	21.000	2.5277e-02
 8.750	21.250	2.5123e-02
 8.750	21.500	2.5057e-02
 8.750	21.750	2.5028e-02
 8.750	22.000	2.5015e-02
 8.750	22.250	2.5008e-02
 8.750	22.500	2.5004e-02
 8.750	22.750	2.5002e-02
 8.750	23.000	2.5001e-02
 8.750	23.250	2.5001e-02
 8.750	23.500	2.5000e-02
 8.750	23.750	2.5000e-02
 8.750	24.000	2.5000e-02
 9.000	17.000	7.4129e-03
 9.000	17.250	7.7226e-03
 9.000	17.500	8.5037e-03
 9.000	17.750	1.0085e-02
 9.000	18.000	1.3164e-02
 9.000	18.250	1.9006e-02
 9.000	18.500	2.8455e-02
 9.000	18.750	3.7076e-02
 9.000	19.000	4.1364e-02
 9.000	19.250	4.5270e-02
 9.000	19.500	4.2905e-02
 9.000	19.750	3.8168e-02
 9.000	20.000	3.3048e-02
 9.000	20.250	2.9665e-02
 9.000	20.500	2.7426e-02
 9.000	20.750	2.6258e-02
 9.000	21.000	2.5635e-02
 9.000	21.250	2.5277e-02
 9.000	21.500	2.5123e-02
 9.000	21.750	2.5057e-02
 9.000	22.000	2.5028e-02
 9.000	22.250	2.5015e-02
 9.000	22.500	2.5008e-02
 9.000	22.750	2.5004e-02
 9.000	23.000	2.5002e-02
 9.000	23.250	2.5001e-02
 9.000	23.500	2.5001e-02
 9.000	23.750	2.5000e-02
 9.000	24.000	2.5001e-02
 9.250	17.000	6.5373e-03
 9.250	17.250	6.6788e-03
 9.250	17.500	7.1374e-03
 9.250	17.750	8.0711e-03
 9.250	18.000	9.8983e-03
 9.250	18.250	1.3356e-02
 9.250	18.500	1.9780e-02
 9.250	18.750	2.9557e-02
 9.250	19.000	3.6744e-02
 9.250	19.250	4.1210e-02
 9.250	19.500	4.5231e-02
 9.250	19.750	4.2973e-02
 9.250	20.000	3.8218e-02
 9.250	20.250	3.3054e-02
 9.250	20.500	2.9665e-02
 9.250	20.750	2.7426e-02
 9.250	21.000	2.6258e-02
 9.250	21.250	2.5635e-02
 9.250	21.500	2.5273e-02
 9.250	21.750	2.5118e-02
 9.250	22.000	2.5052e-02
 9.250	22.250	2.5024e-02
 9.250	22.500	2.5014e-02
 9.250	22.750	2.5007e-02
 9.250	23.000	2.5004e-02
 9.250	23.250	2.5002e-02
 9.250	23.500	2.5001e-02
 9.250	23.750	2.5001e-02
 9.250	24.000	2.5000e-02
 9.500	17.000	5.9512e-03
 9.500	17.250	5.9758e-03
 9.500	17.500	6.2782e-03
 9.500	17.750	6.9204e-03
 9.500	18.000	8.1012e-03
 9.500	18.250	1.0264e-02
 9.500	18.500	1.4309e-02
 9.500	18.750	2.1654e-02
 9.500	19.000	3.1387e-02
 9.500	19.250	3.6474e-02
 9.500	19.500	4.1049e-02
 9.500	19.750	4.5173e-02
 9.500	20.000	4.3019e-02
 9.500	20.250	3.8260e-02
 9.500	20.500	3.3060e-02
 9.500	20.750	2.9663e-02
 9.500	21.000	2.7421e-02
 9.500	21.250	2.6254e-02
 9.500	21.500	2.5630e-02
 9.500	21.750	2.5270e-02
 9.500	22.000	2.5115e-02
 9.500	22.250	2.5050e-02
 9.500	22.500	2.5021e-02
 9.500	22.750	2.5007e-02
 9.500	23.000	2.5001e-02
 9.500	23.250	2.4997e-02
 9.500	23.500	2.4996e-02
 9.500	23.750	2.4995e-02
 9.500	24.000	2.4994e-02
 9.750	17.000	5.6133e-03
 9.750	17.250	5.4850e-03
 9.750	17.500	5.6774e-03
 9.750	17.750	6.1830e-03
 9.750	18.000	7.0866e-03
 9.750	18.250	8.6036e-03
 9.750	18.500	1.1259e-02
 9.750	18.750	1.6065e-02
 9.750	19.000	2.4319e-02
 9.750	19.250	3.2877e-02
 9.750	19.500	3.6254e-02
 9.750	19.750	4.0869e-02
 9.750	20.000	4.5097e-02
 9.750	20.250	4.3034e-02
 9.750	20.500	3.8294e-02
 9.750	20.750	3.3064e-02
 9.750	21.000	2.9664e-02
 9.750	21.250	2.7422e-02
 9.750	21.500	2.6254e-02
 9.750	21.750	2.5630e-02
 9.750	22.000	2.5271e-02
 9.750	22.250	2.5115e-02
 9.750	22.500	2.5050e-02
 9.750	22.750	2.5021e-02
 9.750	23.000	2.5007e-02
 9.750	23.250	2.5000e-02
 9.750	23.500	2.4997e-02
 9.750	23.750	2.4995e-02
 9.750	24.000	2.4994e-02
10.000	17.000	5.5156e-03
10.000	17.250	5.1877e-03
10.000	17.500	5.2208e-03
10.000	17.750	5.6295e-03
10.000	18.000	6.4484e-03
10.000	18.250	7.6788e-03
10.000	18.500	9.5982e-03
10.000	18.750	1.2862e-02
10.000	19.000	1.8657e-02
10.000	19.250	2.7360e-02
10.000	19.500	3.3283e-02
10.000	19.750	3.6136e-02
10.000	20.000	4.0687e-02
10.000	20.250	4.5020e-02
10.000	20.500	4.3033e-02
10.000	20.750	3.8320e-02
10.000	21.000	3.3068e-02
10.000	21.250	2.9664e-02
10.000	21.500	2.7423e-02
10.000	21.750	2.6255e-02
10.000	22.000	2.5630e-02
10.000	22.250	2.5272e-02
10.000	22.500	2.5116e-02
10.000	22.750	2.5050e-02
10.000	23.000	2.5021e-02
10.000	23.250	2.5008e-02
10.000	23.500	2.5001e-02
10.000	23.750	2.4997e-02
10.000	24.000	2.4995e-02
10.250	17.000	5.6663e-03
10.250	17.250	5.1138e-03
10.250	17.500	4.9551e-03
10.250	17.750	5.2343e-03
10.250	18.000	5.9847e-03
10.250	18.250	7.0896e-03
10.250	18.500	8.6565e-03
10.250	18.750	1.1116e-02
10.250	19.000	1.5313e-02
10.250	19.250	2.1805e-02
10.250	19.500	2.9547e-02
10.250	19.750	3.3435e-02
10.250	20.000	3.6147e-02
10.250	20.250	4.0638e-02
10.250	20.500	4.4969e-02
10.250	20.750	4.3013e-02
10.250	21.000	3.8336e-02
10.250	21.250	3.3070e-02
10.250	21.500	2.9663e-02
10.250	21.750	2.7424e-02
10.250	22.000	2.6257e-02
10.250	22.250	2.5631e-02
10.250	22.500	2.5272e-02
10.250	22.750	2.5117e-02
10.250	23.000	2.5050e-02
10.250	23.250	2.5021e-02
10.250	23.500	2.5007e-02
10.250	23.750	2.5001e-02
10.250	24.000	2.4997e-02
10.500	17.000	6.0193e-03
10.500	17.250	5.2835e-03
10.500	17.500	4.9167e-03
10.500	17.750	5.0372e-03
10.500	18.000	5.6512e-03
10.500	18.250	6.6590e-03
10.500	18.500	8.0016e-03
10.500	18.750	9.8674e-03
10.500	19.000	1.2600e-02
10.500	19.250	1.6936e-02
10.500	19.500	2.3727e-02
10.500	19.750	3.0308e-02
10.500	20.000	3.3604e-02
10.500	20.250	3.6368e-02
10.500	20.500	4.0812e-02
10.500	20.750	4.5062e-02
10.500	21.000	4.2988e-02
10.500	21.250	3.8343e-02
10.500	21.500	3.3069e-02
10.500	21.750	2.9663e-02
10.500	22.000	2.7424e-02
10.500	22.250	2.6258e-02
10.500	22.500	2.5633e-02
10.500	22.750	2.5272e-02
10.500	23.000	2.5118e-02
10.500	23.250	2.5051e-02
10.500	23.500	2.5022e-02
10.500	23.750	2.5007e-02
10.500	24.000	2.5000e-02
10.750	17.000	6.5179e-03
10.750	17.250	5.6533e-03
10.750	17.500	5.1321e-03
10.750	17.750	5.0863e-03
10.750	18.000	5.4963e-03
10.750	18.250	6.2621e-03
10.750	18.500	7.3514e-03
10.750	18.750	8.7469e-03
10.750	19.000	1.0586e-02
10.750	19.250	1.3497e-02
10.750	19.500	1.8333e-02
10.750	19.750	2.5447e-02
10.750	20.000	3.1263e-02
10.750	20.250	3.4023e-02
10.750	20.500	3.6921e-02
10.750	20.750	4.1421e-02
10.750	21.000	4.5340e-02
10.750	21.250	4.2977e-02
10.750	21.500	3.8342e-02
10.750	21.750	3.3068e-02
10.750	22.000	2.9663e-02
10.750	22.250	2.7423e-02
10.750	22.500	2.6258e-02
10.750	22.750	2.5634e-02
10.750	23.000	2.5273e-02
10.750	23.250	2.5118e-02
10.750	23.500	2.5052e-02
10.750	23.750	2.5023e-02
10.750	24.000	2.5008e-02
11.000	17.000	7.1053e-03
11.000	17.250	6.1647e-03
11.000	17.500	5.5499e-03
11.000	17.750	5.3750e-03
11.000	18.000	5.5677e-03
11.000	18.250	6.0143e-03
11.000	18.500	6.7590e-03
11.000	18.750	7.7519e-03
11.000	19.000	9.0846e-03
11.000	19.250	1.1070e-02
11.000	19.500	1.4337e-02
11.000	19.750	1.9667e-02
11.000	20.000	2.7107e-02
11.000	20.250	3.1941e-02
11.000	20.500	3.4946e-02
11.000	20.750	3.7948e-02
11.000	21.000	4.2649e-02
11.000	21.250	4.5928e-02
11.000	21.500	4.3019e-02
11.000	21.750	3.8333e-02
11.000	22.000	3.3064e-02
11.000	22.250	2.9663e-02
11.000	22.500	2.7423e-02
11.000	22.750	2.6258e-02
11.000	23.000	2.5635e-02
11.000	23.250	2.5273e-02
11.000	23.500	2.5119e-02
11.000	23.750	2.5053e-02
11.000	24.000	2.5023e-02
11.250	17.000	7.6990e-03
11.250	17.250	6.7458e-03
11.250	17.500	6.0828e-03
11.250	17.750	5.8308e-03
11.250	18.000	5.8499e-03
11.250	18.250	5.9943e-03
11.250	18.500	6.3081e-03
11.250	18.750	6.9762e-03
11.250	19.000	7.9505e-03
11.250	19.250	9.3475e-03
11.250	19.500	1.1551e-02
11.250	19.750	1.5162e-02
11.250	20.000	2.0966e-02
11.250	20.250	2.8651e-02
11.250	20.500	3.2813e-02
11.250	20.750	3.6055e-02
11.250	21.000	3.9682e-02
11.250	21.250	4.4790e-02
11.250	21.500	4.6967e-02
11.250	21.750	4.3158e-02
11.250	22.000	3.8318e-02
11.250	22.250	3.3059e-02
11.250	22.500	2.9663e-02
11.250	22.750	2.7422e-02
11.250	23.000	2.6258e-02
11.250	23.250	2.5635e-02
11.250	23.500	2.5275e-02
11.250	23.750	2.5119e-02
11.250	24.000	2.5053e-02
11.500	17.000	8.1805e-03
11.500	17.250	7.3205e-03
11.500	17.500	6.6601e-03
11.500	17.750	6.3587e-03
11.500	18.000	6.2566e-03
11.500	18.250	6.1807e-03
11.500	18.500	6.1845e-03
11.500	18.750	6.4772e-03
11.500	19.000	7.0910e-03
11.500	19.250	8.0982e-03
11.500	19.500	9.5926e-03
11.500	19.750	1.2014e-02
11.500	20.000	1.5983e-02
11.500	20.250	2.2310e-02
11.500	20.500	3.0244e-02
11.500	20.750	3.4158e-02
11.500	21.000	3.7989e-02
11.500	21.250	4.2503e-02
11.500	21.500	4.8261e-02
11.500	21.750	4.8189e-02
11.500	22.000	4.3439e-02
11.500	22.250	3.8301e-02
11.500	22.500	3.3052e-02
11.500	22.750	2.9663e-02
11.500	23.000	2.7421e-02
11.500	23.250	2.6258e-02
11.500	23.500	2.5636e-02
11.500	23.750	2.5276e-02
11.500	24.000	2.5119e-02
11.750	17.000	8.3214e-03
11.750	17.250	7.7323e-03
11.750	17.500	7.1734e-03
11.750	17.750	6.8740e-03
11.750	18.000	6.7120e-03
11.750	18.250	6.5156e-03
11.750	18.500	6.3372e-03
11.750	18.750	6.2802e-03
11.750	19.000	6.5449e-03
11.750	19.250	7.1582e-03
11.750	19.500	8.1956e-03
11.750	19.750	9.8105e-03
11.750	20.000	1.2462e-02
11.750	20.250	1.6824e-02
11.750	20.500	2.3724e-02
11.750	20.750	3.1591e-02
11.750	21.000	3.6069e-02
11.750	21.250	4.1062e-02
11.750	21.500	4.6786e-02
11.750	21.750	5.2746e-02
11.750	22.000	4.9584e-02
11.750	22.250	4.3852e-02
11.750	22.500	3.8292e-02
11.750	22.750	3.3043e-02
11.750	23.000	2.9663e-02
11.750	23.250	2.7421e-02
11.750	23.500	2.6269e-02
11.750	23.750	2.5636e-02
11.750	24.000	2.5277e-02
12.000	17.000	7.5406e-03
12.000	17.250	7.6579e-03
12.000	17.500	7.4081e-03
12.000	17.750	7.2402e-03
12.000	18.000	7.1145e-03
12.000	18.250	6.9002e-03
12.000	18.500	6.6212e-03
12.000	18.750	6.3576e-03
12.000	19.000	6.3107e-03
12.000	19.250	6.5193e-03
12.000	19.500	7.1724e-03
12.000	19.750	8.2633e-03
12.000	20.000	1.0023e-02
12.000	20.250	1.2931e-02
12.000	20.500	1.7710e-02
12.000	20.750	2.5304e-02
12.000	21.000	3.4234e-02
12.000	21.250	3.9220e-02
12.000	21.500	4.5654e-02
12.000	21.750	5.2533e-02
12.000	22.000	5.6928e-02
12.000	22.250	5.0912e-02
12.000	22.500	4.4366e-02
12.000	22.750	3.8298e-02
12.000	23.000	3.3034e-02
12.000	23.250	2.9663e-02
12.000	23.500	2.7420e-02
12.000	23.750	2.6258e-02
12.000	24.000	2.5636e-02
12.250	17.000	5.0115e-03
12.250	17.250	6.2251e-03
12.250	17.500	6.9373e-03
12.250	17.750	7.2066e-03
12.250	18.000	7.2863e-03
12.250	18.250	7.1592e-03
12.250	18.500	6.8784e-03
12.250	18.750	6.5541e-03
12.250	19.000	6.3240e-03
12.250	19.250	6.2273e-03
12.250	19.500	6.4800e-03
12.250	19.750	7.1681e-03
12.250	20.000	8.3270e-03
12.250	20.250	1.0256e-02
12.250	20.500	1.3447e-02
12.250	20.750	1.8721e-02
12.250	21.000	2.7486e-02
12.250	21.250	3.7412e-02
12.250	21.500	4.3536e-02
12.250	21.750	5.1381e-02
12.250	22.000	5.9202e-02
12.250	22.250	6.0219e-02
12.250	22.500	5.2350e-02
12.250	22.750	4.4953e-02
12.250	23.000	3.8326e-02
12.250	23.250	3.3025e-02
12.250	23.500	2.9663e-02
12.250	23.750	2.7418e-02
12.250	24.000	2.6257e-02
12.500	17.000	4.2733e-03
12.500	17.250	4.6418e-03
12.500	17.500	4.9930e-03
12.500	17.750	6.2806e-03
12.500	18.000	6.8783e-03
12.500	18.250	7.0168e-03
12.500	18.500	6.9031e-03
12.500	18.750	6.6759e-03
12.500	19.000	6.4015e-03
12.500	19.250	6.1914e-03
12.500	19.500	6.1353e-03
12.500	19.750	6.4210e-03
12.500	20.000	7.1577e-03
12.500	20.250	8.4072e-03
12.500	20.500	1.0539e-02
12.500	20.750	1.4119e-02
12.500	21.000	2.0210e-02
12.500	21.250	3.0550e-02
12.500	21.500	4.1667e-02
12.500	21.750	4.9241e-02
12.500	22.000	5.8822e-02
12.500	22.250	6.5924e-02
12.500	22.500	6.3613e-02
12.500	22.750	5.3923e-02
12.500	23.000	4.5589e-02
12.500	23.250	3.8378e-02
12.500	23.500	3.3016e-02
12.500	23.750	2.9662e-02
12.500	24.000	2.7416e-02
12.750	17.000	3.7200e-03
12.750	17.250	4.0879e-03
12.750	17.500	4.4328e-03
12.750	17.750	4.7115e-03
12.750	18.000	5.0094e-03
12.750	18.250	6.0010e-03
12.750	18.500	6.4030e-03
12.750	18.750	6.5040e-03
12.750	19.000	6.4119e-03
12.750	19.250	6.2385e-03
12.750	19.500	6.0429e-03
12.750	19.750	6.0211e-03
12.750	20.000	6.3211e-03
12.750	20.250	7.1349e-03
12.750	20.500	8.5286e-03
12.750	20.750	1.0936e-02
12.750	21.000	1.5031e-02
12.750	21.250	2.2300e-02
12.750	21.500	3.4378e-02
12.750	21.750	4.7418e-02
12.750	22.000	5.6568e-02
12.750	22.250	6.7160e-02
12.750	22.500	7.2551e-02
12.750	22.750	6.6777e-02
12.750	23.000	5.5659e-02
12.750	23.250	4.6178e-02
12.750	23.500	3.8423e-02
12.750	23.750	3.3012e-02
12.750	24.000	2.9661e-02
13.000	17.000	5.5542e-03
13.000	17.250	3.9677e-03
13.000	17.500	3.8316e-03
13.000	17.750	4.0952e-03
13.000	18.000	4.3616e-03
13.000	18.250	4.6012e-03
13.000	18.500	4.7719e-03
13.000	18.750	5.4289e-03
13.000	19.000	5.9858e-03
13.000	19.250	6.1019e-03
13.000	19.500	6.0123e-03
13.000	19.750	5.8753e-03
13.000	20.000	5.8844e-03
13.000	20.250	6.2191e-03
13.000	20.500	7.1393e-03
13.000	20.750	8.7105e-03
13.000	21.000	1.1560e-02
13.000	21.250	1.6431e-02
13.000	21.500	2.4582e-02
13.000	21.750	3.9902e-02
13.000	22.000	5.4673e-02
13.000	22.250	6.3859e-02
13.000	22.500	7.4871e-02
13.000	22.750	7.8909e-02
13.000	23.000	7.0307e-02
13.000	23.250	5.7332e-02
13.000	23.500	4.6763e-02
13.000	23.750	3.8506e-02
13.000	24.000	3.3014e-02
13.250	17.000	5.2653e-03
13.250	17.250	4.8698e-03
13.250	17.500	3.4204e-03
13.250	17.750	3.6207e-03
13.250	18.000	3.8696e-03
13.250	18.250	4.1410e-03
13.250	18.500	4.3756e-03
13.250	18.750	4.5455e-03
13.250	19.000	4.6502e-03
13.250	19.250	5.2841e-03
13.250	19.500	5.7255e-03
13.250	19.750	5.7669e-03
13.250	20.000	5.6974e-03
13.250	20.250	5.7398e-03
13.250	20.500	6.1231e-03
13.250	20.750	7.0986e-03
13.250	21.000	8.8949e-03
13.250	21.250	1.2115e-02
13.250	21.500	1.7395e-02
13.250	21.750	2.7583e-02
13.250	22.000	4.4939e-02
13.250	22.250	5.9824e-02
13.250	22.500	7.1293e-02
13.250	22.750	8.2147e-02
13.250	23.000	8.5474e-02
13.250	23.250	7.3383e-02
13.250	23.500	5.8785e-02
13.250	23.750	4.7286e-02
13.250	24.000	3.8623e-02
13.500	17.000	5.1175e-03
13.500	17.250	4.8196e-03
13.500	17.500	3.1568e-03
13.500	17.750	3.2907e-03
13.500	18.000	3.5008e-03
13.500	18.250	3.7527e-03
13.500	18.500	3.9977e-03
13.500	18.750	4.1997e-03
13.500	19.000	4.3529e-03
13.500	19.250	4.4561e-03
13.500	19.500	4.5091e-03
13.500	19.750	5.2427e-03
13.500	20.000	5.4724e-03
13.500	20.250	5.4953e-03
13.500	20.500	5.5806e-03
13.500	20.750	5.9830e-03
13.500	21.000	6.9370e-03
13.500	21.250	8.9576e-03
13.500	21.500	1.2159e-02
13.500	21.750	1.7602e-02
13.500	22.000	2.8224e-02
13.500	22.250	4.9202e-02
13.500	22.500	6.6167e-02
13.500	22.750	7.8729e-02
13.500	23.000	8.9532e-02
13.500	23.250	9.2363e-02
13.500	23.500	7.6562e-02
13.500	23.750	6.0761e-02
13.500	24.000	4.7759e-02
13.750	17.000	5.0800e-03
13.750	17.250	4.6646e-03
13.750	17.500	3.1163e-03
13.750	17.750	3.0800e-03
13.750	18.000	3.2383e-03
13.750	18.250	3.4570e-03
13.750	18.500	3.6802e-03
13.750	18.750	3.8784e-03
13.750	19.000	4.0441e-03
13.750	19.250	4.1793e-03
13.750	19.500	4.2790e-03
13.750	19.750	4.3416e-03
13.750	20.000	4.5301e-03
13.750	20.250	5.1426e-03
13.750	20.500	5.2998e-03
13.750	20.750	5.4650e-03
13.750	21.000	5.8992e-03
13.750	21.250	6.8783e-03
13.750	21.500	8.7315e-03
13.750	21.750	1.1957e-02
13.750	22.000	1.7907e-02
13.750	22.250	3.0453e-02
13.750	22.500	5.5591e-02
13.750	22.750	7.5114e-02
13.750	23.000	8.8189e-02
13.750	23.250	9.9008e-02
13.750	23.500	9.9661e-02
13.750	23.750	8.0077e-02
13.750	24.000	6.2065e-02
14.000	17.000	5.0626e-03
14.000	17.250	4.8659e-03
14.000	17.500	3.4138e-03
14.000	17.750	2.9544e-03
14.000	18.000	3.0661e-03
14.000	18.250	3.2379e-03
14.000	18.500	3.4319e-03
14.000	18.750	3.6092e-03
14.000	19.000	3.7648e-03
14.000	19.250	3.9036e-03
14.000	19.500	4.0279e-03
14.000	19.750	4.1301e-03
14.000	20.000	4.2086e-03
14.000	20.250	4.2702e-03
14.000	20.500	4.7430e-03
14.000	20.750	5.1417e-03
14.000	21.000	5.4451e-03
14.000	21.250	6.0067e-03
14.000	21.500	7.0515e-03
14.000	21.750	9.0321e-03
14.000	22.000	1.2640e-02
14.000	22.250	1.9678e-02
14.000	22.500	3.5847e-02
14.000	22.750	6.6707e-02
14.000	23.000	8.6680e-02
14.000	23.250	1.0102e-01
14.000	23.500	1.1044e-01
14.000	23.750	1.0746e-01
14.000	24.000	8.3220e-02
