InwC 880.000A  relative to Inci 1215.00A scaled to 1215A.
Hden   Phi(H)  Eq_Width (A)
 7.000	17.000	5.5790e-03
 7.000	17.250	1.1201e-02
 7.000	17.500	1.7228e-02
 7.000	17.750	2.0593e-02
 7.000	18.000	2.2203e-02
 7.000	18.250	2.3572e-02
 7.000	18.500	2.4468e-02
 7.000	18.750	2.4708e-02
 7.000	19.000	2.4810e-02
 7.000	19.250	2.4853e-02
 7.000	19.500	2.4862e-02
 7.000	19.750	2.4863e-02
 7.000	20.000	2.4864e-02
 7.000	20.250	2.4864e-02
 7.000	20.500	2.4864e-02
 7.000	20.750	2.4865e-02
 7.000	21.000	2.4865e-02
 7.000	21.250	2.4865e-02
 7.000	21.500	2.4865e-02
 7.000	21.750	2.4865e-02
 7.000	22.000	2.4865e-02
 7.000	22.250	2.4865e-02
 7.000	22.500	2.4865e-02
 7.000	22.750	2.4865e-02
 7.000	23.000	2.4865e-02
 7.000	23.250	2.4865e-02
 7.000	23.500	2.4865e-02
 7.000	23.750	2.4865e-02
 7.000	24.000	2.4865e-02
 7.250	17.000	2.6559e-03
 7.250	17.250	5.6118e-03
 7.250	17.500	1.1255e-02
 7.250	17.750	1.7286e-02
 7.250	18.000	2.0615e-02
 7.250	18.250	2.2209e-02
 7.250	18.500	2.3574e-02
 7.250	18.750	2.4468e-02
 7.250	19.000	2.4708e-02
 7.250	19.250	2.4810e-02
 7.250	19.500	2.4853e-02
 7.250	19.750	2.4862e-02
 7.250	20.000	2.4863e-02
 7.250	20.250	2.4864e-02
 7.250	20.500	2.4864e-02
 7.250	20.750	2.4864e-02
 7.250	21.000	2.4864e-02
 7.250	21.250	2.4864e-02
 7.250	21.500	2.4865e-02
 7.250	21.750	2.4865e-02
 7.250	22.000	2.4867e-02
 7.250	22.250	2.4865e-02
 7.250	22.500	2.4865e-02
 7.250	22.750	2.4865e-02
 7.250	23.000	2.4865e-02
 7.250	23.250	2.4866e-02
 7.250	23.500	2.4865e-02
 7.250	23.750	2.4866e-02
 7.250	24.000	2.4865e-02
 7.500	17.000	1.3485e-03
 7.500	17.250	2.6656e-03
 7.500	17.500	5.6359e-03
 7.500	17.750	1.1307e-02
 7.500	18.000	1.7346e-02
 7.500	18.250	2.0643e-02
 7.500	18.500	2.2220e-02
 7.500	18.750	2.3577e-02
 7.500	19.000	2.4469e-02
 7.500	19.250	2.4708e-02
 7.500	19.500	2.4810e-02
 7.500	19.750	2.4853e-02
 7.500	20.000	2.4862e-02
 7.500	20.250	2.4863e-02
 7.500	20.500	2.4864e-02
 7.500	20.750	2.4864e-02
 7.500	21.000	2.4864e-02
 7.500	21.250	2.4864e-02
 7.500	21.500	2.4864e-02
 7.500	21.750	2.4864e-02
 7.500	22.000	2.4865e-02
 7.500	22.250	2.4865e-02
 7.500	22.500	2.4865e-02
 7.500	22.750	2.4865e-02
 7.500	23.000	2.4865e-02
 7.500	23.250	2.4865e-02
 7.500	23.500	2.4865e-02
 7.500	23.750	2.4865e-02
 7.500	24.000	2.4865e-02
 7.750	17.000	7.0288e-04
 7.750	17.250	1.3528e-03
 7.750	17.500	2.6731e-03
 7.750	17.750	5.6559e-03
 7.750	18.000	1.1357e-02
 7.750	18.250	1.7414e-02
 7.750	18.500	2.0677e-02
 7.750	18.750	2.2233e-02
 7.750	19.000	2.3581e-02
 7.750	19.250	2.4470e-02
 7.750	19.500	2.4709e-02
 7.750	19.750	2.4810e-02
 7.750	20.000	2.4853e-02
 7.750	20.250	2.4862e-02
 7.750	20.500	2.4863e-02
 7.750	20.750	2.4864e-02
 7.750	21.000	2.4864e-02
 7.750	21.250	2.4864e-02
 7.750	21.500	2.4864e-02
 7.750	21.750	2.4864e-02
 7.750	22.000	2.4864e-02
 7.750	22.250	2.4864e-02
 7.750	22.500	2.4865e-02
 7.750	22.750	2.4864e-02
 7.750	23.000	2.4865e-02
 7.750	23.250	2.4865e-02
 7.750	23.500	2.4865e-02
 7.750	23.750	2.4865e-02
 7.750	24.000	2.4865e-02
 8.000	17.000	3.6757e-04
 8.000	17.250	7.0239e-04
 8.000	17.500	1.3514e-03
 8.000	17.750	2.6719e-03
 8.000	18.000	5.6635e-03
 8.000	18.250	1.1404e-02
 8.000	18.500	1.7492e-02
 8.000	18.750	2.0720e-02
 8.000	19.000	2.2249e-02
 8.000	19.250	2.3586e-02
 8.000	19.500	2.4471e-02
 8.000	19.750	2.4709e-02
 8.000	20.000	2.4810e-02
 8.000	20.250	2.4853e-02
 8.000	20.500	2.4862e-02
 8.000	20.750	2.4863e-02
 8.000	21.000	2.4864e-02
 8.000	21.250	2.4864e-02
 8.000	21.500	2.4864e-02
 8.000	21.750	2.4864e-02
 8.000	22.000	2.4864e-02
 8.000	22.250	2.4864e-02
 8.000	22.500	2.4864e-02
 8.000	22.750	2.4864e-02
 8.000	23.000	2.4864e-02
 8.000	23.250	2.4864e-02
 8.000	23.500	2.4864e-02
 8.000	23.750	2.4864e-02
 8.000	24.000	2.4867e-02
 8.250	17.000	1.9284e-04
 8.250	17.250	3.6765e-04
 8.250	17.500	7.0272e-04
 8.250	17.750	1.3519e-03
 8.250	18.000	2.6744e-03
 8.250	18.250	5.6735e-03
 8.250	18.500	1.1445e-02
 8.250	18.750	1.7574e-02
 8.250	19.000	2.0766e-02
 8.250	19.250	2.2270e-02
 8.250	19.500	2.3593e-02
 8.250	19.750	2.4473e-02
 8.250	20.000	2.4709e-02
 8.250	20.250	2.4810e-02
 8.250	20.500	2.4854e-02
 8.250	20.750	2.4862e-02
 8.250	21.000	2.4863e-02
 8.250	21.250	2.4864e-02
 8.250	21.500	2.4864e-02
 8.250	21.750	2.4864e-02
 8.250	22.000	2.4864e-02
 8.250	22.250	2.4864e-02
 8.250	22.500	2.4864e-02
 8.250	22.750	2.4865e-02
 8.250	23.000	2.4865e-02
 8.250	23.250	2.4865e-02
 8.250	23.500	2.4864e-02
 8.250	23.750	2.4864e-02
 8.250	24.000	2.4864e-02
 8.500	17.000	1.0148e-04
 8.500	17.250	1.9259e-04
 8.500	17.500	3.6733e-04
 8.500	17.750	7.0247e-04
 8.500	18.000	1.3527e-03
 8.500	18.250	2.6740e-03
 8.500	18.500	5.6769e-03
 8.500	18.750	1.1491e-02
 8.500	19.000	1.7668e-02
 8.500	19.250	2.0818e-02
 8.500	19.500	2.2293e-02
 8.500	19.750	2.3601e-02
 8.500	20.000	2.4475e-02
 8.500	20.250	2.4710e-02
 8.500	20.500	2.4810e-02
 8.500	20.750	2.4854e-02
 8.500	21.000	2.4862e-02
 8.500	21.250	2.4863e-02
 8.500	21.500	2.4864e-02
 8.500	21.750	2.4864e-02
 8.500	22.000	2.4864e-02
 8.500	22.250	2.4864e-02
 8.500	22.500	2.4864e-02
 8.500	22.750	2.4865e-02
 8.500	23.000	2.4864e-02
 8.500	23.250	2.4864e-02
 8.500	23.500	2.4864e-02
 8.500	23.750	2.4864e-02
 8.500	24.000	2.4864e-02
 8.750	17.000	5.3992e-05
 8.750	17.250	1.0132e-04
 8.750	17.500	1.9243e-04
 8.750	17.750	3.6724e-04
 8.750	18.000	7.0321e-04
 8.750	18.250	1.3545e-03
 8.750	18.500	2.6756e-03
 8.750	18.750	5.6805e-03
 8.750	19.000	1.1537e-02
 8.750	19.250	1.7770e-02
 8.750	19.500	2.0876e-02
 8.750	19.750	2.2319e-02
 8.750	20.000	2.3611e-02
 8.750	20.250	2.4478e-02
 8.750	20.500	2.4711e-02
 8.750	20.750	2.4811e-02
 8.750	21.000	2.4854e-02
 8.750	21.250	2.4862e-02
 8.750	21.500	2.4863e-02
 8.750	21.750	2.4864e-02
 8.750	22.000	2.4864e-02
 8.750	22.250	2.4864e-02
 8.750	22.500	2.4864e-02
 8.750	22.750	2.4864e-02
 8.750	23.000	2.4864e-02
 8.750	23.250	2.4864e-02
 8.750	23.500	2.4864e-02
 8.750	23.750	2.4864e-02
 8.750	24.000	2.4864e-02
 9.000	17.000	2.8971e-05
 9.000	17.250	5.3992e-05
 9.000	17.500	1.0132e-04
 9.000	17.750	1.9276e-04
 9.000	18.000	3.6872e-04
 9.000	18.250	7.0642e-04
 9.000	18.500	1.3607e-03
 9.000	18.750	2.6860e-03
 9.000	19.000	5.6901e-03
 9.000	19.250	1.1579e-02
 9.000	19.500	1.7870e-02
 9.000	19.750	2.0936e-02
 9.000	20.000	2.2346e-02
 9.000	20.250	2.3622e-02
 9.000	20.500	2.4481e-02
 9.000	20.750	2.4712e-02
 9.000	21.000	2.4811e-02
 9.000	21.250	2.4854e-02
 9.000	21.500	2.4862e-02
 9.000	21.750	2.4863e-02
 9.000	22.000	2.4864e-02
 9.000	22.250	2.4864e-02
 9.000	22.500	2.4864e-02
 9.000	22.750	2.4864e-02
 9.000	23.000	2.4864e-02
 9.000	23.250	2.4864e-02
 9.000	23.500	2.4864e-02
 9.000	23.750	2.4864e-02
 9.000	24.000	2.4865e-02
 9.250	17.000	1.5473e-05
 9.250	17.250	2.8971e-05
 9.250	17.500	5.4156e-05
 9.250	17.750	1.0206e-04
 9.250	18.000	1.9440e-04
 9.250	18.250	3.7160e-04
 9.250	18.500	7.1177e-04
 9.250	18.750	1.3723e-03
 9.250	19.000	2.7065e-03
 9.250	19.250	5.7199e-03
 9.250	19.500	1.1620e-02
 9.250	19.750	1.7973e-02
 9.250	20.000	2.0996e-02
 9.250	20.250	2.2375e-02
 9.250	20.500	2.3634e-02
 9.250	20.750	2.4485e-02
 9.250	21.000	2.4714e-02
 9.250	21.250	2.4812e-02
 9.250	21.500	2.4850e-02
 9.250	21.750	2.4857e-02
 9.250	22.000	2.4859e-02
 9.250	22.250	2.4860e-02
 9.250	22.500	2.4863e-02
 9.250	22.750	2.4864e-02
 9.250	23.000	2.4864e-02
 9.250	23.250	2.4864e-02
 9.250	23.500	2.4864e-02
 9.250	23.750	2.4864e-02
 9.250	24.000	2.4864e-02
 9.500	17.000	8.1481e-06
 9.500	17.250	1.5556e-05
 9.500	17.500	2.9383e-05
 9.500	17.750	5.5062e-05
 9.500	18.000	1.0362e-04
 9.500	18.250	1.9704e-04
 9.500	18.500	3.7663e-04
 9.500	18.750	7.2296e-04
 9.500	19.000	1.3971e-03
 9.500	19.250	2.7599e-03
 9.500	19.500	5.7979e-03
 9.500	19.750	1.1671e-02
 9.500	20.000	1.8060e-02
 9.500	20.250	2.1054e-02
 9.500	20.500	2.2404e-02
 9.500	20.750	2.3638e-02
 9.500	21.000	2.4479e-02
 9.500	21.250	2.4709e-02
 9.500	21.500	2.4807e-02
 9.500	21.750	2.4847e-02
 9.500	22.000	2.4854e-02
 9.500	22.250	2.4856e-02
 9.500	22.500	2.4856e-02
 9.500	22.750	2.4857e-02
 9.500	23.000	2.4857e-02
 9.500	23.250	2.4857e-02
 9.500	23.500	2.4858e-02
 9.500	23.750	2.4858e-02
 9.500	24.000	2.4858e-02
 9.750	17.000	4.1152e-06
 9.750	17.250	8.2305e-06
 9.750	17.500	1.5885e-05
 9.750	17.750	3.0206e-05
 9.750	18.000	5.6543e-05
 9.750	18.250	1.0601e-04
 9.750	18.500	2.0165e-04
 9.750	18.750	3.8650e-04
 9.750	19.000	7.4650e-04
 9.750	19.250	1.4531e-03
 9.750	19.500	2.8807e-03
 9.750	19.750	5.9654e-03
 9.750	20.000	1.1757e-02
 9.750	20.250	1.8130e-02
 9.750	20.500	2.1105e-02
 9.750	20.750	2.2431e-02
 9.750	21.000	2.3658e-02
 9.750	21.250	2.4486e-02
 9.750	21.500	2.4710e-02
 9.750	21.750	2.4808e-02
 9.750	22.000	2.4848e-02
 9.750	22.250	2.4854e-02
 9.750	22.500	2.4856e-02
 9.750	22.750	2.4856e-02
 9.750	23.000	2.4856e-02
 9.750	23.250	2.4857e-02
 9.750	23.500	2.4857e-02
 9.750	23.750	2.4857e-02
 9.750	24.000	2.4857e-02
10.000	17.000	1.8930e-06
10.000	17.250	4.1975e-06
10.000	17.500	8.4774e-06
10.000	17.750	1.6543e-05
10.000	18.000	3.1276e-05
10.000	18.250	5.8436e-05
10.000	18.500	1.0988e-04
10.000	18.750	2.1021e-04
10.000	19.000	4.0749e-04
10.000	19.250	7.9819e-04
10.000	19.500	1.5693e-03
10.000	19.750	3.1104e-03
10.000	20.000	6.3488e-03
10.000	20.250	1.1928e-02
10.000	20.500	1.8212e-02
10.000	20.750	2.1172e-02
10.000	21.000	2.2462e-02
10.000	21.250	2.3675e-02
10.000	21.500	2.4495e-02
10.000	21.750	2.4713e-02
10.000	22.000	2.4809e-02
10.000	22.250	2.4849e-02
10.000	22.500	2.4855e-02
10.000	22.750	2.4856e-02
10.000	23.000	2.4857e-02
10.000	23.250	2.4857e-02
10.000	23.500	2.4857e-02
10.000	23.750	2.4857e-02
10.000	24.000	2.4857e-02
10.250	17.000	9.0535e-07
10.250	17.250	1.8930e-06
10.250	17.500	4.3621e-06
10.250	17.750	8.8889e-06
10.250	18.000	1.7366e-05
10.250	18.250	3.2840e-05
10.250	18.500	6.1811e-05
10.250	18.750	1.1761e-04
10.250	19.000	2.2889e-04
10.250	19.250	4.5202e-04
10.250	19.500	8.9868e-04
10.250	19.750	1.7495e-03
10.250	20.000	3.4653e-03
10.250	20.250	6.8581e-03
10.250	20.500	1.2300e-02
10.250	20.750	1.8317e-02
10.250	21.000	2.1228e-02
10.250	21.250	2.2494e-02
10.250	21.500	2.3692e-02
10.250	21.750	2.4503e-02
10.250	22.000	2.4719e-02
10.250	22.250	2.4810e-02
10.250	22.500	2.4850e-02
10.250	22.750	2.4856e-02
10.250	23.000	2.4857e-02
10.250	23.250	2.4856e-02
10.250	23.500	2.4857e-02
10.250	23.750	2.4857e-02
10.250	24.000	2.4857e-02
10.500	17.000	1.0000e-07
10.500	17.250	9.8765e-07
10.500	17.500	2.0576e-06
10.500	17.750	4.6914e-06
10.500	18.000	9.4650e-06
10.500	18.250	1.8601e-05
10.500	18.500	3.5885e-05
10.500	18.750	6.8971e-05
10.500	19.000	1.3432e-04
10.500	19.250	2.6642e-04
10.500	19.500	5.3267e-04
10.500	19.750	1.0612e-03
10.500	20.000	2.0461e-03
10.500	20.250	3.9552e-03
10.500	20.500	7.5174e-03
10.500	20.750	1.2778e-02
10.500	21.000	1.8475e-02
10.500	21.250	2.1290e-02
10.500	21.500	2.2526e-02
10.500	21.750	2.3712e-02
10.500	22.000	2.4510e-02
10.500	22.250	2.4723e-02
10.500	22.500	2.4813e-02
10.500	22.750	2.4850e-02
10.500	23.000	2.4857e-02
10.500	23.250	2.4858e-02
10.500	23.500	2.4857e-02
10.500	23.750	2.4857e-02
10.500	24.000	2.4857e-02
10.750	17.000	1.0000e-07
10.750	17.250	1.0000e-07
10.750	17.500	1.0700e-06
10.750	17.750	2.3045e-06
10.750	18.000	5.0206e-06
10.750	18.250	1.0617e-05
10.750	18.500	2.1399e-05
10.750	18.750	4.2469e-05
10.750	19.000	8.3539e-05
10.750	19.250	1.6502e-04
10.750	19.500	3.2881e-04
10.750	19.750	6.5564e-04
10.750	20.000	1.2952e-03
10.750	20.250	2.4331e-03
10.750	20.500	4.5481e-03
10.750	20.750	8.2503e-03
10.750	21.000	1.3511e-02
10.750	21.250	1.8723e-02
10.750	21.500	2.1369e-02
10.750	21.750	2.2571e-02
10.750	22.000	2.3736e-02
10.750	22.250	2.4518e-02
10.750	22.500	2.4727e-02
10.750	22.750	2.4816e-02
10.750	23.000	2.4851e-02
10.750	23.250	2.4857e-02
10.750	23.500	2.4858e-02
10.750	23.750	2.4858e-02
10.750	24.000	2.4858e-02
11.000	17.000	1.0000e-07
11.000	17.250	1.0000e-07
11.000	17.500	1.0000e-07
11.000	17.750	1.1523e-06
11.000	18.000	2.6337e-06
11.000	18.250	6.0082e-06
11.000	18.500	1.3169e-05
11.000	18.750	2.7325e-05
11.000	19.000	5.4568e-05
11.000	19.250	1.0733e-04
11.000	19.500	2.1078e-04
11.000	19.750	4.1605e-04
11.000	20.000	8.1885e-04
11.000	20.250	1.5540e-03
11.000	20.500	2.8771e-03
11.000	20.750	5.2200e-03
11.000	21.000	9.0558e-03
11.000	21.250	1.4339e-02
11.000	21.500	1.9039e-02
11.000	21.750	2.1481e-02
11.000	22.000	2.2634e-02
11.000	22.250	2.3767e-02
11.000	22.500	2.4529e-02
11.000	22.750	2.4732e-02
11.000	23.000	2.4818e-02
11.000	23.250	2.4852e-02
11.000	23.500	2.4858e-02
11.000	23.750	2.4859e-02
11.000	24.000	2.4859e-02
11.250	17.000	1.0000e-07
11.250	17.250	1.0000e-07
11.250	17.500	1.0000e-07
11.250	17.750	1.0000e-07
11.250	18.000	1.3992e-06
11.250	18.250	3.3745e-06
11.250	18.500	7.9835e-06
11.250	18.750	1.7695e-05
11.250	19.000	3.6379e-05
11.250	19.250	7.1605e-05
11.250	19.500	1.3877e-04
11.250	19.750	2.6905e-04
11.250	20.000	5.2412e-04
11.250	20.250	1.0170e-03
11.250	20.500	1.8993e-03
11.250	20.750	3.4269e-03
11.250	21.000	5.9573e-03
11.250	21.250	9.9902e-03
11.250	21.500	1.5051e-02
11.250	21.750	1.9417e-02
11.250	22.000	2.1632e-02
11.250	22.250	2.2721e-02
11.250	22.500	2.3810e-02
11.250	22.750	2.4543e-02
11.250	23.000	2.4738e-02
11.250	23.250	2.4821e-02
11.250	23.500	2.4855e-02
11.250	23.750	2.4858e-02
11.250	24.000	2.4859e-02
11.500	17.000	1.0000e-07
11.500	17.250	1.0000e-07
11.500	17.500	1.0000e-07
11.500	17.750	1.0000e-07
11.500	18.000	1.0000e-07
11.500	18.250	1.8107e-06
11.500	18.500	4.6091e-06
11.500	18.750	1.0864e-05
11.500	19.000	2.3621e-05
11.500	19.250	4.7243e-05
11.500	19.500	9.1276e-05
11.500	19.750	1.7498e-04
11.500	20.000	3.3588e-04
11.500	20.250	6.4519e-04
11.500	20.500	1.2337e-03
11.500	20.750	2.2617e-03
11.500	21.000	4.0057e-03
11.500	21.250	6.7610e-03
11.500	21.500	1.0999e-02
11.500	21.750	1.5877e-02
11.500	22.000	1.9792e-02
11.500	22.250	2.1818e-02
11.500	22.500	2.2843e-02
11.500	22.750	2.3867e-02
11.500	23.000	2.4563e-02
11.500	23.250	2.4747e-02
11.500	23.500	2.4825e-02
11.500	23.750	2.4857e-02
11.500	24.000	2.4859e-02
11.750	17.000	1.0000e-07
11.750	17.250	1.0000e-07
11.750	17.500	1.0000e-07
11.750	17.750	1.0000e-07
11.750	18.000	1.0000e-07
11.750	18.250	9.8765e-07
11.750	18.500	2.4691e-06
11.750	18.750	6.1728e-06
11.750	19.000	1.4156e-05
11.750	19.250	2.9794e-05
11.750	19.500	5.8436e-05
11.750	19.750	1.1136e-04
11.750	20.000	2.1226e-04
11.750	20.250	4.0568e-04
11.750	20.500	7.7210e-04
11.750	20.750	1.4573e-03
11.750	21.000	2.6495e-03
11.750	21.250	4.6272e-03
11.750	21.500	7.6719e-03
11.750	21.750	1.2171e-02
11.750	22.000	1.6639e-02
11.750	22.250	2.0148e-02
11.750	22.500	2.1997e-02
11.750	22.750	2.2981e-02
11.750	23.000	2.3942e-02
11.750	23.250	2.4590e-02
11.750	23.500	2.4770e-02
11.750	23.750	2.4830e-02
11.750	24.000	2.4858e-02
12.000	17.000	1.0000e-07
12.000	17.250	1.0000e-07
12.000	17.500	1.0000e-07
12.000	17.750	1.0000e-07
12.000	18.000	1.0000e-07
12.000	18.250	1.0000e-07
12.000	18.500	1.3169e-06
12.000	18.750	3.2099e-06
12.000	19.000	7.7366e-06
12.000	19.250	1.7284e-05
12.000	19.500	3.5638e-05
12.000	19.750	6.8724e-05
12.000	20.000	1.3053e-04
12.000	20.250	2.4881e-04
12.000	20.500	4.7432e-04
12.000	20.750	8.9663e-04
12.000	21.000	1.6843e-03
12.000	21.250	3.0590e-03
12.000	21.500	5.2733e-03
12.000	21.750	8.6238e-03
12.000	22.000	1.3084e-02
12.000	22.250	1.7197e-02
12.000	22.500	2.0451e-02
12.000	22.750	2.2163e-02
12.000	23.000	2.3117e-02
12.000	23.250	2.4027e-02
12.000	23.500	2.4623e-02
12.000	23.750	2.4774e-02
12.000	24.000	2.4835e-02
12.250	17.000	1.0000e-07
12.250	17.250	1.0000e-07
12.250	17.500	1.0000e-07
12.250	17.750	1.0000e-07
12.250	18.000	1.0000e-07
12.250	18.250	1.0000e-07
12.250	18.500	1.0000e-07
12.250	18.750	1.6461e-06
12.250	19.000	3.8683e-06
12.250	19.250	9.1358e-06
12.250	19.500	2.0000e-05
12.250	19.750	4.0576e-05
12.250	20.000	7.8025e-05
12.250	20.250	1.4848e-04
12.250	20.500	2.8370e-04
12.250	20.750	5.4041e-04
12.250	21.000	1.0230e-03
12.250	21.250	1.9083e-03
12.250	21.500	3.4574e-03
12.250	21.750	5.9398e-03
12.250	22.000	9.5226e-03
12.250	22.250	1.3811e-02
12.250	22.500	1.7698e-02
12.250	22.750	2.0693e-02
12.250	23.000	2.2299e-02
12.250	23.250	2.3233e-02
12.250	23.500	2.4111e-02
12.250	23.750	2.4659e-02
12.250	24.000	2.4788e-02
12.500	17.000	1.0000e-07
12.500	17.250	1.0000e-07
12.500	17.500	1.0000e-07
12.500	17.750	1.0000e-07
12.500	18.000	1.0000e-07
12.500	18.250	1.0000e-07
12.500	18.500	1.0000e-07
12.500	18.750	1.0000e-07
12.500	19.000	1.8930e-06
12.500	19.250	4.4444e-06
12.500	19.500	1.0206e-05
12.500	19.750	2.2222e-05
12.500	20.000	4.4856e-05
12.500	20.250	8.6337e-05
12.500	20.500	1.6551e-04
12.500	20.750	3.1835e-04
12.500	21.000	6.0938e-04
12.500	21.250	1.1500e-03
12.500	21.500	2.1227e-03
12.500	21.750	3.8480e-03
12.500	22.000	6.5618e-03
12.500	22.250	1.0300e-02
12.500	22.500	1.4418e-02
12.500	22.750	1.8090e-02
12.500	23.000	2.0868e-02
12.500	23.250	2.2396e-02
12.500	23.500	2.3331e-02
12.500	23.750	2.4186e-02
12.500	24.000	2.4692e-02
12.750	17.000	1.0000e-07
12.750	17.250	1.0000e-07
12.750	17.500	1.0000e-07
12.750	17.750	1.0000e-07
12.750	18.000	1.0000e-07
12.750	18.250	1.0000e-07
12.750	18.500	1.0000e-07
12.750	18.750	1.0000e-07
12.750	19.000	9.0535e-07
12.750	19.250	2.0576e-06
12.750	19.500	4.7737e-06
12.750	19.750	1.0947e-05
12.750	20.000	2.3868e-05
12.750	20.250	4.8395e-05
12.750	20.500	9.4239e-05
12.750	20.750	1.8263e-04
12.750	21.000	3.5399e-04
12.750	21.250	6.7934e-04
12.750	21.500	1.2658e-03
12.750	21.750	2.3371e-03
12.750	22.000	4.2253e-03
12.750	22.250	7.1240e-03
12.750	22.500	1.0937e-02
12.750	22.750	1.4894e-02
12.750	23.000	1.8384e-02
12.750	23.250	2.0985e-02
12.750	23.500	2.2467e-02
12.750	23.750	2.3408e-02
12.750	24.000	2.4247e-02
13.000	17.000	1.0000e-07
13.000	17.250	1.0000e-07
13.000	17.500	1.0000e-07
13.000	17.750	1.0000e-07
13.000	18.000	1.0000e-07
13.000	18.250	1.0000e-07
13.000	18.500	1.0000e-07
13.000	18.750	1.0000e-07
13.000	19.000	1.0000e-07
13.000	19.250	9.8765e-07
13.000	19.500	2.1399e-06
13.000	19.750	4.9383e-06
13.000	20.000	1.1358e-05
13.000	20.250	2.4938e-05
13.000	20.500	5.1770e-05
13.000	20.750	1.0198e-04
13.000	21.000	2.0107e-04
13.000	21.250	3.9177e-04
13.000	21.500	7.4008e-04
13.000	21.750	1.3852e-03
13.000	22.000	2.5486e-03
13.000	22.250	4.5673e-03
13.000	22.500	7.5938e-03
13.000	22.750	1.1426e-02
13.000	23.000	1.5272e-02
13.000	23.250	1.8583e-02
13.000	23.500	2.1054e-02
13.000	23.750	2.2510e-02
13.000	24.000	2.3467e-02
13.250	17.000	1.0000e-07
13.250	17.250	1.0000e-07
13.250	17.500	1.0000e-07
13.250	17.750	1.0000e-07
13.250	18.000	1.0000e-07
13.250	18.250	1.0000e-07
13.250	18.500	1.0000e-07
13.250	18.750	1.0000e-07
13.250	19.000	1.0000e-07
13.250	19.250	1.0000e-07
13.250	19.500	9.8765e-07
13.250	19.750	2.1399e-06
13.250	20.000	4.9383e-06
13.250	20.250	1.1440e-05
13.250	20.500	2.5597e-05
13.250	20.750	5.3827e-05
13.250	21.000	1.0856e-04
13.250	21.250	2.1588e-04
13.250	21.500	4.1737e-04
13.250	21.750	8.0321e-04
13.250	22.000	1.4906e-03
13.250	22.250	2.7268e-03
13.250	22.500	4.8811e-03
13.250	22.750	7.9972e-03
13.250	23.000	1.1830e-02
13.250	23.250	1.5546e-02
13.250	23.500	1.8748e-02
13.250	23.750	2.1089e-02
13.250	24.000	2.2539e-02
13.500	17.000	1.0000e-07
13.500	17.250	1.0000e-07
13.500	17.500	1.0000e-07
13.500	17.750	1.0000e-07
13.500	18.000	1.0000e-07
13.500	18.250	1.0000e-07
13.500	18.500	1.0000e-07
13.500	18.750	1.0000e-07
13.500	19.000	1.0000e-07
13.500	19.250	1.0000e-07
13.500	19.500	1.0000e-07
13.500	19.750	9.8765e-07
13.500	20.000	2.1399e-06
13.500	20.250	4.9383e-06
13.500	20.500	1.1440e-05
13.500	20.750	2.5761e-05
13.500	21.000	5.4239e-05
13.500	21.250	1.1276e-04
13.500	21.500	2.2313e-04
13.500	21.750	4.3490e-04
13.500	22.000	8.3918e-04
13.500	22.250	1.5860e-03
13.500	22.500	2.9237e-03
13.500	22.750	5.1722e-03
13.500	23.000	8.3638e-03
13.500	23.250	1.2201e-02
13.500	23.500	1.5786e-02
13.500	23.750	1.8889e-02
13.500	24.000	2.1116e-02
13.750	17.000	1.0000e-07
13.750	17.250	1.0000e-07
13.750	17.500	1.0000e-07
13.750	17.750	1.0000e-07
13.750	18.000	1.0000e-07
13.750	18.250	1.0000e-07
13.750	18.500	1.0000e-07
13.750	18.750	1.0000e-07
13.750	19.000	1.0000e-07
13.750	19.250	1.0000e-07
13.750	19.500	1.0000e-07
13.750	19.750	1.0000e-07
13.750	20.000	1.0700e-06
13.750	20.250	2.2222e-06
13.750	20.500	5.0206e-06
13.750	20.750	1.1605e-05
13.750	21.000	2.6091e-05
13.750	21.250	5.4979e-05
13.750	21.500	1.1226e-04
13.750	21.750	2.2486e-04
13.750	22.000	4.4798e-04
13.750	22.250	8.7959e-04
13.750	22.500	1.6937e-03
13.750	22.750	3.1616e-03
13.750	23.000	5.4808e-03
13.750	23.250	8.7955e-03
13.750	23.500	1.2603e-02
13.750	23.750	1.6032e-02
13.750	24.000	1.9015e-02
14.000	17.000	1.0000e-07
14.000	17.250	1.0000e-07
14.000	17.500	1.0000e-07
14.000	17.750	1.0000e-07
14.000	18.000	1.0000e-07
14.000	18.250	1.0000e-07
14.000	18.500	1.0000e-07
14.000	18.750	1.0000e-07
14.000	19.000	1.0000e-07
14.000	19.250	1.0000e-07
14.000	19.500	1.0000e-07
14.000	19.750	1.0000e-07
14.000	20.000	1.0000e-07
14.000	20.250	1.1523e-06
14.000	20.500	2.3868e-06
14.000	20.750	5.2675e-06
14.000	21.000	1.2099e-05
14.000	21.250	2.7078e-05
14.000	21.500	5.6626e-05
14.000	21.750	1.1473e-04
14.000	22.000	2.3004e-04
14.000	22.250	4.6469e-04
14.000	22.500	9.3045e-04
14.000	22.750	1.8170e-03
14.000	23.000	3.3803e-03
14.000	23.250	5.8692e-03
14.000	23.500	9.2826e-03
14.000	23.750	1.3030e-02
14.000	24.000	1.6313e-02
