InwT 1410.00A  relative to Inci 1215.00A scaled to 1215A.
Hden   Phi(H)  Eq_Width (A)
 7.000	17.000	4.8400e-02
 7.000	17.250	4.5313e-02
 7.000	17.500	3.7313e-02
 7.000	17.750	3.1943e-02
 7.000	18.000	2.8748e-02
 7.000	18.250	2.6936e-02
 7.000	18.500	2.5880e-02
 7.000	18.750	2.5406e-02
 7.000	19.000	2.5161e-02
 7.000	19.250	2.5023e-02
 7.000	19.500	2.4966e-02
 7.000	19.750	2.4942e-02
 7.000	20.000	2.4931e-02
 7.000	20.250	2.4927e-02
 7.000	20.500	2.4924e-02
 7.000	20.750	2.4923e-02
 7.000	21.000	2.4922e-02
 7.000	21.250	2.4922e-02
 7.000	21.500	2.4922e-02
 7.000	21.750	2.4922e-02
 7.000	22.000	2.4922e-02
 7.000	22.250	2.4922e-02
 7.000	22.500	2.4922e-02
 7.000	22.750	2.4922e-02
 7.000	23.000	2.4922e-02
 7.000	23.250	2.4922e-02
 7.000	23.500	2.4922e-02
 7.000	23.750	2.4922e-02
 7.000	24.000	2.4922e-02
 7.250	17.000	5.1208e-02
 7.250	17.250	4.8134e-02
 7.250	17.500	4.5208e-02
 7.250	17.750	3.7255e-02
 7.250	18.000	3.1912e-02
 7.250	18.250	2.8733e-02
 7.250	18.500	2.6929e-02
 7.250	18.750	2.5878e-02
 7.250	19.000	2.5405e-02
 7.250	19.250	2.5161e-02
 7.250	19.500	2.5023e-02
 7.250	19.750	2.4966e-02
 7.250	20.000	2.4942e-02
 7.250	20.250	2.4931e-02
 7.250	20.500	2.4927e-02
 7.250	20.750	2.4924e-02
 7.250	21.000	2.4923e-02
 7.250	21.250	2.4922e-02
 7.250	21.500	2.4922e-02
 7.250	21.750	2.4922e-02
 7.250	22.000	2.4924e-02
 7.250	22.250	2.4922e-02
 7.250	22.500	2.4922e-02
 7.250	22.750	2.4922e-02
 7.250	23.000	2.4922e-02
 7.250	23.250	2.4923e-02
 7.250	23.500	2.4922e-02
 7.250	23.750	2.4923e-02
 7.250	24.000	2.4922e-02
 7.500	17.000	5.4701e-02
 7.500	17.250	5.0527e-02
 7.500	17.500	4.7908e-02
 7.500	17.750	4.5150e-02
 7.500	18.000	3.7222e-02
 7.500	18.250	3.1893e-02
 7.500	18.500	2.8723e-02
 7.500	18.750	2.6924e-02
 7.500	19.000	2.5876e-02
 7.500	19.250	2.5404e-02
 7.500	19.500	2.5160e-02
 7.500	19.750	2.5023e-02
 7.500	20.000	2.4966e-02
 7.500	20.250	2.4942e-02
 7.500	20.500	2.4931e-02
 7.500	20.750	2.4926e-02
 7.500	21.000	2.4924e-02
 7.500	21.250	2.4923e-02
 7.500	21.500	2.4922e-02
 7.500	21.750	2.4922e-02
 7.500	22.000	2.4922e-02
 7.500	22.250	2.4921e-02
 7.500	22.500	2.4921e-02
 7.500	22.750	2.4921e-02
 7.500	23.000	2.4921e-02
 7.500	23.250	2.4922e-02
 7.500	23.500	2.4922e-02
 7.500	23.750	2.4922e-02
 7.500	24.000	2.4922e-02
 7.750	17.000	5.7903e-02
 7.750	17.250	5.3775e-02
 7.750	17.500	4.9911e-02
 7.750	17.750	4.7729e-02
 7.750	18.000	4.5119e-02
 7.750	18.250	3.7204e-02
 7.750	18.500	3.1880e-02
 7.750	18.750	2.8716e-02
 7.750	19.000	2.6922e-02
 7.750	19.250	2.5875e-02
 7.750	19.500	2.5404e-02
 7.750	19.750	2.5160e-02
 7.750	20.000	2.5023e-02
 7.750	20.250	2.4966e-02
 7.750	20.500	2.4942e-02
 7.750	20.750	2.4931e-02
 7.750	21.000	2.4926e-02
 7.750	21.250	2.4924e-02
 7.750	21.500	2.4923e-02
 7.750	21.750	2.4922e-02
 7.750	22.000	2.4922e-02
 7.750	22.250	2.4921e-02
 7.750	22.500	2.4921e-02
 7.750	22.750	2.4921e-02
 7.750	23.000	2.4922e-02
 7.750	23.250	2.4921e-02
 7.750	23.500	2.4921e-02
 7.750	23.750	2.4921e-02
 7.750	24.000	2.4921e-02
 8.000	17.000	5.9994e-02
 8.000	17.250	5.6695e-02
 8.000	17.500	5.2854e-02
 8.000	17.750	4.9306e-02
 8.000	18.000	4.7527e-02
 8.000	18.250	4.5103e-02
 8.000	18.500	3.7196e-02
 8.000	18.750	3.1871e-02
 8.000	19.000	2.8711e-02
 8.000	19.250	2.6920e-02
 8.000	19.500	2.5875e-02
 8.000	19.750	2.5404e-02
 8.000	20.000	2.5160e-02
 8.000	20.250	2.5023e-02
 8.000	20.500	2.4966e-02
 8.000	20.750	2.4942e-02
 8.000	21.000	2.4931e-02
 8.000	21.250	2.4926e-02
 8.000	21.500	2.4924e-02
 8.000	21.750	2.4923e-02
 8.000	22.000	2.4922e-02
 8.000	22.250	2.4922e-02
 8.000	22.500	2.4921e-02
 8.000	22.750	2.4921e-02
 8.000	23.000	2.4921e-02
 8.000	23.250	2.4921e-02
 8.000	23.500	2.4921e-02
 8.000	23.750	2.4921e-02
 8.000	24.000	2.4924e-02
 8.250	17.000	6.1369e-02
 8.250	17.250	5.9116e-02
 8.250	17.500	5.5903e-02
 8.250	17.750	5.2262e-02
 8.250	18.000	4.8976e-02
 8.250	18.250	4.7447e-02
 8.250	18.500	4.5093e-02
 8.250	18.750	3.7193e-02
 8.250	19.000	3.1864e-02
 8.250	19.250	2.8707e-02
 8.250	19.500	2.6918e-02
 8.250	19.750	2.5874e-02
 8.250	20.000	2.5404e-02
 8.250	20.250	2.5160e-02
 8.250	20.500	2.5023e-02
 8.250	20.750	2.4966e-02
 8.250	21.000	2.4942e-02
 8.250	21.250	2.4931e-02
 8.250	21.500	2.4926e-02
 8.250	21.750	2.4924e-02
 8.250	22.000	2.4923e-02
 8.250	22.250	2.4922e-02
 8.250	22.500	2.4922e-02
 8.250	22.750	2.4922e-02
 8.250	23.000	2.4922e-02
 8.250	23.250	2.4921e-02
 8.250	23.500	2.4921e-02
 8.250	23.750	2.4921e-02
 8.250	24.000	2.4921e-02
 8.500	17.000	6.2123e-02
 8.500	17.250	6.0682e-02
 8.500	17.500	5.8444e-02
 8.500	17.750	5.5192e-02
 8.500	18.000	5.1727e-02
 8.500	18.250	4.8729e-02
 8.500	18.500	4.7397e-02
 8.500	18.750	4.5088e-02
 8.500	19.000	3.7194e-02
 8.500	19.250	3.1858e-02
 8.500	19.500	2.8703e-02
 8.500	19.750	2.6917e-02
 8.500	20.000	2.5874e-02
 8.500	20.250	2.5403e-02
 8.500	20.500	2.5160e-02
 8.500	20.750	2.5023e-02
 8.500	21.000	2.4966e-02
 8.500	21.250	2.4942e-02
 8.500	21.500	2.4931e-02
 8.500	21.750	2.4926e-02
 8.500	22.000	2.4924e-02
 8.500	22.250	2.4923e-02
 8.500	22.500	2.4922e-02
 8.500	22.750	2.4922e-02
 8.500	23.000	2.4921e-02
 8.500	23.250	2.4921e-02
 8.500	23.500	2.4921e-02
 8.500	23.750	2.4921e-02
 8.500	24.000	2.4921e-02
 8.750	17.000	6.2502e-02
 8.750	17.250	6.1628e-02
 8.750	17.500	6.0167e-02
 8.750	17.750	5.7799e-02
 8.750	18.000	5.4519e-02
 8.750	18.250	5.1148e-02
 8.750	18.500	4.8541e-02
 8.750	18.750	4.7368e-02
 8.750	19.000	4.5082e-02
 8.750	19.250	3.7197e-02
 8.750	19.500	3.1852e-02
 8.750	19.750	2.8700e-02
 8.750	20.000	2.6917e-02
 8.750	20.250	2.5873e-02
 8.750	20.500	2.5403e-02
 8.750	20.750	2.5160e-02
 8.750	21.000	2.5023e-02
 8.750	21.250	2.4966e-02
 8.750	21.500	2.4942e-02
 8.750	21.750	2.4931e-02
 8.750	22.000	2.4926e-02
 8.750	22.250	2.4924e-02
 8.750	22.500	2.4923e-02
 8.750	22.750	2.4922e-02
 8.750	23.000	2.4922e-02
 8.750	23.250	2.4921e-02
 8.750	23.500	2.4921e-02
 8.750	23.750	2.4921e-02
 8.750	24.000	2.4921e-02
 9.000	17.000	6.2577e-02
 9.000	17.250	6.2178e-02
 9.000	17.500	6.1278e-02
 9.000	17.750	5.9680e-02
 9.000	18.000	5.7070e-02
 9.000	18.250	5.3541e-02
 9.000	18.500	5.0389e-02
 9.000	18.750	4.8235e-02
 9.000	19.000	4.7333e-02
 9.000	19.250	4.5073e-02
 9.000	19.500	3.7200e-02
 9.000	19.750	3.1847e-02
 9.000	20.000	2.8697e-02
 9.000	20.250	2.6916e-02
 9.000	20.500	2.5873e-02
 9.000	20.750	2.5403e-02
 9.000	21.000	2.5160e-02
 9.000	21.250	2.5023e-02
 9.000	21.500	2.4966e-02
 9.000	21.750	2.4942e-02
 9.000	22.000	2.4931e-02
 9.000	22.250	2.4926e-02
 9.000	22.500	2.4924e-02
 9.000	22.750	2.4923e-02
 9.000	23.000	2.4922e-02
 9.000	23.250	2.4922e-02
 9.000	23.500	2.4921e-02
 9.000	23.750	2.4921e-02
 9.000	24.000	2.4922e-02
 9.250	17.000	6.2330e-02
 9.250	17.250	6.2360e-02
 9.250	17.500	6.1967e-02
 9.250	17.750	6.0938e-02
 9.250	18.000	5.9005e-02
 9.250	18.250	5.5954e-02
 9.250	18.500	5.2287e-02
 9.250	18.750	4.9445e-02
 9.250	19.000	4.7997e-02
 9.250	19.250	4.7279e-02
 9.250	19.500	4.5059e-02
 9.250	19.750	3.7202e-02
 9.250	20.000	3.1841e-02
 9.250	20.250	2.8694e-02
 9.250	20.500	2.6915e-02
 9.250	20.750	2.5873e-02
 9.250	21.000	2.5403e-02
 9.250	21.250	2.5160e-02
 9.250	21.500	2.5019e-02
 9.250	21.750	2.4961e-02
 9.250	22.000	2.4937e-02
 9.250	22.250	2.4927e-02
 9.250	22.500	2.4926e-02
 9.250	22.750	2.4923e-02
 9.250	23.000	2.4922e-02
 9.250	23.250	2.4922e-02
 9.250	23.500	2.4921e-02
 9.250	23.750	2.4921e-02
 9.250	24.000	2.4921e-02
 9.500	17.000	6.1736e-02
 9.500	17.250	6.2140e-02
 9.500	17.500	6.2234e-02
 9.500	17.750	6.1771e-02
 9.500	18.000	6.0408e-02
 9.500	18.250	5.7947e-02
 9.500	18.500	5.4591e-02
 9.500	18.750	5.1118e-02
 9.500	19.000	4.9010e-02
 9.500	19.250	4.7579e-02
 9.500	19.500	4.7184e-02
 9.500	19.750	4.5040e-02
 9.500	20.000	3.7203e-02
 9.500	20.250	3.1837e-02
 9.500	20.500	2.8691e-02
 9.500	20.750	2.6913e-02
 9.500	21.000	2.5869e-02
 9.500	21.250	2.5399e-02
 9.500	21.500	2.5155e-02
 9.500	21.750	2.5017e-02
 9.500	22.000	2.4958e-02
 9.500	22.250	2.4934e-02
 9.500	22.500	2.4924e-02
 9.500	22.750	2.4919e-02
 9.500	23.000	2.4916e-02
 9.500	23.250	2.4915e-02
 9.500	23.500	2.4915e-02
 9.500	23.750	2.4915e-02
 9.500	24.000	2.4915e-02
 9.750	17.000	6.0801e-02
 9.750	17.250	6.1481e-02
 9.750	17.500	6.2017e-02
 9.750	17.750	6.2115e-02
 9.750	18.000	6.1368e-02
 9.750	18.250	5.9593e-02
 9.750	18.500	5.6820e-02
 9.750	18.750	5.3430e-02
 9.750	19.000	5.0405e-02
 9.750	19.250	4.9079e-02
 9.750	19.500	4.7174e-02
 9.750	19.750	4.7063e-02
 9.750	20.000	4.5015e-02
 9.750	20.250	3.7201e-02
 9.750	20.500	3.1833e-02
 9.750	20.750	2.8689e-02
 9.750	21.000	2.6913e-02
 9.750	21.250	2.5869e-02
 9.750	21.500	2.5399e-02
 9.750	21.750	2.5156e-02
 9.750	22.000	2.5018e-02
 9.750	22.250	2.4958e-02
 9.750	22.500	2.4934e-02
 9.750	22.750	2.4924e-02
 9.750	23.000	2.4919e-02
 9.750	23.250	2.4916e-02
 9.750	23.500	2.4915e-02
 9.750	23.750	2.4914e-02
 9.750	24.000	2.4914e-02
10.000	17.000	5.9583e-02
10.000	17.250	6.0407e-02
10.000	17.500	6.1253e-02
10.000	17.750	6.1882e-02
10.000	18.000	6.1856e-02
10.000	18.250	6.0857e-02
10.000	18.500	5.8727e-02
10.000	18.750	5.5758e-02
10.000	19.000	5.2521e-02
10.000	19.250	5.0161e-02
10.000	19.500	4.9613e-02
10.000	19.750	4.6999e-02
10.000	20.000	4.6879e-02
10.000	20.250	4.4989e-02
10.000	20.500	3.7198e-02
10.000	20.750	3.1830e-02
10.000	21.000	2.8688e-02
10.000	21.250	2.6913e-02
10.000	21.500	2.5871e-02
10.000	21.750	2.5400e-02
10.000	22.000	2.5156e-02
10.000	22.250	2.5018e-02
10.000	22.500	2.4959e-02
10.000	22.750	2.4934e-02
10.000	23.000	2.4924e-02
10.000	23.250	2.4919e-02
10.000	23.500	2.4917e-02
10.000	23.750	2.4915e-02
10.000	24.000	2.4914e-02
10.250	17.000	5.8515e-02
10.250	17.250	5.9072e-02
10.250	17.500	6.0072e-02
10.250	17.750	6.1096e-02
10.250	18.000	6.1759e-02
10.250	18.250	6.1535e-02
10.250	18.500	6.0115e-02
10.250	18.750	5.7688e-02
10.250	19.000	5.4674e-02
10.250	19.250	5.1785e-02
10.250	19.500	5.0073e-02
10.250	19.750	5.0067e-02
10.250	20.000	4.7134e-02
10.250	20.250	4.6866e-02
10.250	20.500	4.4967e-02
10.250	20.750	3.7193e-02
10.250	21.000	3.1827e-02
10.250	21.250	2.8687e-02
10.250	21.500	2.6913e-02
10.250	21.750	2.5872e-02
10.250	22.000	2.5402e-02
10.250	22.250	2.5156e-02
10.250	22.500	2.5019e-02
10.250	22.750	2.4960e-02
10.250	23.000	2.4935e-02
10.250	23.250	2.4924e-02
10.250	23.500	2.4919e-02
10.250	23.750	2.4916e-02
10.250	24.000	2.4915e-02
10.500	17.000	5.7742e-02
10.500	17.250	5.7937e-02
10.500	17.500	5.8687e-02
10.500	17.750	5.9936e-02
10.500	18.000	6.1000e-02
10.500	18.250	6.1283e-02
10.500	18.500	6.0570e-02
10.500	18.750	5.8869e-02
10.500	19.000	5.6534e-02
10.500	19.250	5.4028e-02
10.500	19.500	5.1675e-02
10.500	19.750	5.0646e-02
10.500	20.000	5.0289e-02
10.500	20.250	4.7540e-02
10.500	20.500	4.7033e-02
10.500	20.750	4.4983e-02
10.500	21.000	3.7187e-02
10.500	21.250	3.1826e-02
10.500	21.500	2.8687e-02
10.500	21.750	2.6913e-02
10.500	22.000	2.5872e-02
10.500	22.250	2.5403e-02
10.500	22.500	2.5158e-02
10.500	22.750	2.5019e-02
10.500	23.000	2.4961e-02
10.500	23.250	2.4936e-02
10.500	23.500	2.4924e-02
10.500	23.750	2.4919e-02
10.500	24.000	2.4916e-02
10.750	17.000	5.7332e-02
10.750	17.250	5.7211e-02
10.750	17.500	5.7598e-02
10.750	17.750	5.8587e-02
10.750	18.000	5.9613e-02
10.750	18.250	6.0097e-02
10.750	18.500	5.9875e-02
10.750	18.750	5.8909e-02
10.750	19.000	5.7514e-02
10.750	19.250	5.5685e-02
10.750	19.500	5.3519e-02
10.750	19.750	5.1455e-02
10.750	20.000	5.0733e-02
10.750	20.250	5.0860e-02
10.750	20.500	4.8360e-02
10.750	20.750	4.7616e-02
10.750	21.000	4.5043e-02
10.750	21.250	3.7182e-02
10.750	21.500	3.1825e-02
10.750	21.750	2.8688e-02
10.750	22.000	2.6913e-02
10.750	22.250	2.5872e-02
10.750	22.500	2.5403e-02
10.750	22.750	2.5160e-02
10.750	23.000	2.5019e-02
10.750	23.250	2.4961e-02
10.750	23.500	2.4937e-02
10.750	23.750	2.4925e-02
10.750	24.000	2.4920e-02
11.000	17.000	5.7224e-02
11.000	17.250	5.6930e-02
11.000	17.500	5.6941e-02
11.000	17.750	5.7298e-02
11.000	18.000	5.7793e-02
11.000	18.250	5.8066e-02
11.000	18.500	5.8087e-02
11.000	18.750	5.7972e-02
11.000	19.000	5.7495e-02
11.000	19.250	5.6571e-02
11.000	19.500	5.5018e-02
11.000	19.750	5.3025e-02
11.000	20.000	5.0859e-02
11.000	20.250	5.1728e-02
11.000	20.500	5.2385e-02
11.000	20.750	4.9644e-02
11.000	21.000	4.8685e-02
11.000	21.250	4.5171e-02
11.000	21.500	3.7182e-02
11.000	21.750	3.1825e-02
11.000	22.000	2.8689e-02
11.000	22.250	2.6913e-02
11.000	22.500	2.5871e-02
11.000	22.750	2.5403e-02
11.000	23.000	2.5160e-02
11.000	23.250	2.5020e-02
11.000	23.500	2.4961e-02
11.000	23.750	2.4937e-02
11.000	24.000	2.4926e-02
11.250	17.000	5.7386e-02
11.250	17.250	5.6985e-02
11.250	17.500	5.6593e-02
11.250	17.750	5.6231e-02
11.250	18.000	5.5878e-02
11.250	18.250	5.5584e-02
11.250	18.500	5.5690e-02
11.250	18.750	5.6130e-02
11.250	19.000	5.6544e-02
11.250	19.250	5.6470e-02
11.250	19.500	5.5773e-02
11.250	19.750	5.4430e-02
11.250	20.000	5.2538e-02
11.250	20.250	5.0497e-02
11.250	20.500	5.2010e-02
11.250	20.750	5.3459e-02
11.250	21.000	5.1594e-02
11.250	21.250	5.0469e-02
11.250	21.500	4.5392e-02
11.250	21.750	3.7190e-02
11.250	22.000	3.1824e-02
11.250	22.250	2.8691e-02
11.250	22.500	2.6914e-02
11.250	22.750	2.5871e-02
11.250	23.000	2.5403e-02
11.250	23.250	2.5160e-02
11.250	23.500	2.5022e-02
11.250	23.750	2.4962e-02
11.250	24.000	2.4937e-02
11.500	17.000	5.7842e-02
11.500	17.250	5.7224e-02
11.500	17.500	5.6410e-02
11.500	17.750	5.5351e-02
11.500	18.000	5.4108e-02
11.500	18.250	5.3139e-02
11.500	18.500	5.3080e-02
11.500	18.750	5.3793e-02
11.500	19.000	5.4864e-02
11.500	19.250	5.5550e-02
11.500	19.500	5.5685e-02
11.500	19.750	5.5212e-02
11.500	20.000	5.4108e-02
11.500	20.250	5.2352e-02
11.500	20.500	5.0568e-02
11.500	20.750	5.3517e-02
11.500	21.000	5.5838e-02
11.500	21.250	5.4662e-02
11.500	21.500	5.3449e-02
11.500	21.750	4.5618e-02
11.500	22.000	3.7208e-02
11.500	22.250	3.1824e-02
11.500	22.500	2.8693e-02
11.500	22.750	2.6915e-02
11.500	23.000	2.5870e-02
11.500	23.250	2.5403e-02
11.500	23.500	2.5160e-02
11.500	23.750	2.5023e-02
11.500	24.000	2.4962e-02
11.750	17.000	5.8600e-02
11.750	17.250	5.7541e-02
11.750	17.500	5.6209e-02
11.750	17.750	5.4476e-02
11.750	18.000	5.2506e-02
11.750	18.250	5.1123e-02
11.750	18.500	5.0773e-02
11.750	18.750	5.1409e-02
11.750	19.000	5.2691e-02
11.750	19.250	5.4051e-02
11.750	19.500	5.4917e-02
11.750	19.750	5.5244e-02
11.750	20.000	5.5054e-02
11.750	20.250	5.4175e-02
11.750	20.500	5.2648e-02
11.750	20.750	5.1439e-02
11.750	21.000	5.5563e-02
11.750	21.250	5.9705e-02
11.750	21.500	5.9168e-02
11.750	21.750	5.7079e-02
11.750	22.000	4.5840e-02
11.750	22.250	3.7229e-02
11.750	22.500	3.1823e-02
11.750	22.750	2.8696e-02
11.750	23.000	2.6917e-02
11.750	23.250	2.5870e-02
11.750	23.500	2.5414e-02
11.750	23.750	2.5160e-02
11.750	24.000	2.5023e-02
12.000	17.000	5.9535e-02
12.000	17.250	5.7838e-02
12.000	17.500	5.5809e-02
12.000	17.750	5.3373e-02
12.000	18.000	5.1029e-02
12.000	18.250	4.9579e-02
12.000	18.500	4.9027e-02
12.000	18.750	4.9368e-02
12.000	19.000	5.0472e-02
12.000	19.250	5.2102e-02
12.000	19.500	5.3643e-02
12.000	19.750	5.4690e-02
12.000	20.000	5.5282e-02
12.000	20.250	5.5400e-02
12.000	20.500	5.4800e-02
12.000	20.750	5.3641e-02
12.000	21.000	5.3537e-02
12.000	21.250	5.9869e-02
12.000	21.500	6.5395e-02
12.000	21.750	6.5048e-02
12.000	22.000	5.9450e-02
12.000	22.250	4.6007e-02
12.000	22.500	3.7246e-02
12.000	22.750	3.1819e-02
12.000	23.000	2.8699e-02
12.000	23.250	2.6918e-02
12.000	23.500	2.5869e-02
12.000	23.750	2.5403e-02
12.000	24.000	2.5160e-02
12.250	17.000	6.0164e-02
12.250	17.250	5.7760e-02
12.250	17.500	5.4877e-02
12.250	17.750	5.1860e-02
12.250	18.000	4.9579e-02
12.250	18.250	4.8295e-02
12.250	18.500	4.7815e-02
12.250	18.750	4.7940e-02
12.250	19.000	4.8662e-02
12.250	19.250	5.0087e-02
12.250	19.500	5.1961e-02
12.250	19.750	5.3668e-02
12.250	20.000	5.4934e-02
12.250	20.250	5.5863e-02
12.250	20.500	5.6324e-02
12.250	20.750	5.6251e-02
12.250	21.000	5.6442e-02
12.250	21.250	5.8313e-02
12.250	21.500	6.5566e-02
12.250	21.750	7.1831e-02
12.250	22.000	7.1509e-02
12.250	22.250	6.0261e-02
12.250	22.500	4.6156e-02
12.250	22.750	3.7255e-02
12.250	23.000	3.1810e-02
12.250	23.250	2.8700e-02
12.250	23.500	2.6919e-02
12.250	23.750	2.5868e-02
12.250	24.000	2.5402e-02
12.500	17.000	5.9240e-02
12.500	17.250	5.6357e-02
12.500	17.500	5.2960e-02
12.500	17.750	4.9933e-02
12.500	18.000	4.8030e-02
12.500	18.250	4.7137e-02
12.500	18.500	4.6874e-02
12.500	18.750	4.7019e-02
12.500	19.000	4.7520e-02
12.500	19.250	4.8521e-02
12.500	19.500	5.0188e-02
12.500	19.750	5.2271e-02
12.500	20.000	5.4205e-02
12.500	20.250	5.5713e-02
12.500	20.500	5.7041e-02
12.500	20.750	5.8292e-02
12.500	21.000	5.9659e-02
12.500	21.250	6.1599e-02
12.500	21.500	6.5058e-02
12.500	21.750	7.3459e-02
12.500	22.000	8.0664e-02
12.500	22.250	7.7065e-02
12.500	22.500	6.0978e-02
12.500	22.750	4.6322e-02
12.500	23.000	3.7256e-02
12.500	23.250	3.1798e-02
12.500	23.500	2.8700e-02
12.500	23.750	2.6920e-02
12.500	24.000	2.5866e-02
12.750	17.000	4.3693e-02
12.750	17.250	5.2774e-02
12.750	17.500	4.9911e-02
12.750	17.750	4.7809e-02
12.750	18.000	4.6570e-02
12.750	18.250	4.5988e-02
12.750	18.500	4.5939e-02
12.750	18.750	4.6253e-02
12.750	19.000	4.6796e-02
12.750	19.250	4.7611e-02
12.750	19.500	4.8859e-02
12.750	19.750	5.0736e-02
12.750	20.000	5.2984e-02
12.750	20.250	5.5158e-02
12.750	20.500	5.7157e-02
12.750	20.750	5.9221e-02
12.750	21.000	6.1647e-02
12.750	21.250	6.5268e-02
12.750	21.500	6.8964e-02
12.750	21.750	7.5162e-02
12.750	22.000	8.4180e-02
12.750	22.250	9.0366e-02
12.750	22.500	8.1431e-02
12.750	22.750	6.1499e-02
12.750	23.000	4.6456e-02
12.750	23.250	3.7239e-02
12.750	23.500	3.1783e-02
12.750	23.750	2.8697e-02
12.750	24.000	2.6920e-02
13.000	17.000	1.1776e-02
13.000	17.250	2.0012e-02
13.000	17.500	4.3646e-02
13.000	17.750	4.5735e-02
13.000	18.000	4.5065e-02
13.000	18.250	4.4740e-02
13.000	18.500	4.4886e-02
13.000	18.750	4.5395e-02
13.000	19.000	4.6133e-02
13.000	19.250	4.7029e-02
13.000	19.500	4.8110e-02
13.000	19.750	4.9621e-02
13.000	20.000	5.1670e-02
13.000	20.250	5.4142e-02
13.000	20.500	5.6946e-02
13.000	20.750	5.9581e-02
13.000	21.000	6.3179e-02
13.000	21.250	6.7664e-02
13.000	21.500	7.2299e-02
13.000	21.750	7.9735e-02
13.000	22.000	8.8263e-02
13.000	22.250	9.4439e-02
13.000	22.500	9.7582e-02
13.000	22.750	8.4186e-02
13.000	23.000	6.2078e-02
13.000	23.250	4.6564e-02
13.000	23.500	3.7217e-02
13.000	23.750	3.1764e-02
13.000	24.000	2.8690e-02
13.250	17.000	8.8333e-03
13.250	17.250	1.2063e-02
13.250	17.500	2.0970e-02
13.250	17.750	3.2649e-02
13.250	18.000	4.3261e-02
13.250	18.250	4.3201e-02
13.250	18.500	4.3555e-02
13.250	18.750	4.4293e-02
13.250	19.000	4.5286e-02
13.250	19.250	4.6393e-02
13.250	19.500	4.7617e-02
13.250	19.750	4.9029e-02
13.250	20.000	5.0787e-02
13.250	20.250	5.3029e-02
13.250	20.500	5.5830e-02
13.250	20.750	5.9152e-02
13.250	21.000	6.2954e-02
13.250	21.250	6.8030e-02
13.250	21.500	7.3299e-02
13.250	21.750	8.2149e-02
13.250	22.000	8.9046e-02
13.250	22.250	9.6858e-02
13.250	22.500	1.0377e-01
13.250	22.750	1.0189e-01
13.250	23.000	8.6184e-02
13.250	23.250	6.2438e-02
13.250	23.500	4.6606e-02
13.250	23.750	3.7186e-02
13.250	24.000	3.1739e-02
13.500	17.000	7.0788e-03
13.500	17.250	8.9805e-03
13.500	17.500	1.4370e-02
13.500	17.750	2.4228e-02
13.500	18.000	3.4046e-02
13.500	18.250	4.1407e-02
13.500	18.500	4.1911e-02
13.500	18.750	4.2818e-02
13.500	19.000	4.4087e-02
13.500	19.250	4.5509e-02
13.500	19.500	4.6973e-02
13.500	19.750	4.8543e-02
13.500	20.000	5.0348e-02
13.500	20.250	5.2482e-02
13.500	20.500	5.5018e-02
13.500	20.750	5.8059e-02
13.500	21.000	6.1383e-02
13.500	21.250	6.6413e-02
13.500	21.500	7.0676e-02
13.500	21.750	7.5464e-02
13.500	22.000	8.3251e-02
13.500	22.250	9.6349e-02
13.500	22.500	1.0703e-01
13.500	22.750	1.1023e-01
13.500	23.000	1.0377e-01
13.500	23.250	8.7629e-02
13.500	23.500	6.2773e-02
13.500	23.750	4.6717e-02
13.500	24.000	3.7141e-02
13.750	17.000	5.9622e-03
13.750	17.250	7.6089e-03
13.750	17.500	1.0977e-02
13.750	17.750	1.6016e-02
13.750	18.000	2.6868e-02
13.750	18.250	3.3980e-02
13.750	18.500	4.0078e-02
13.750	18.750	4.1082e-02
13.750	19.000	4.2492e-02
13.750	19.250	4.4210e-02
13.750	19.500	4.6046e-02
13.750	19.750	4.7918e-02
13.750	20.000	4.9932e-02
13.750	20.250	5.2245e-02
13.750	20.500	5.4909e-02
13.750	20.750	5.7894e-02
13.750	21.000	6.1094e-02
13.750	21.250	6.4507e-02
13.750	21.500	6.8154e-02
13.750	21.750	7.2245e-02
13.750	22.000	7.8437e-02
13.750	22.250	8.9812e-02
13.750	22.500	1.0852e-01
13.750	22.750	1.2011e-01
13.750	23.000	1.1660e-01
13.750	23.250	1.0767e-01
13.750	23.500	8.8804e-02
13.750	23.750	6.3100e-02
13.750	24.000	4.6683e-02
14.000	17.000	5.3573e-03
14.000	17.250	6.4431e-03
14.000	17.500	9.0294e-03
14.000	17.750	1.2421e-02
14.000	18.000	1.8454e-02
14.000	18.250	2.8769e-02
14.000	18.500	3.4659e-02
14.000	18.750	3.9193e-02
14.000	19.000	4.0656e-02
14.000	19.250	4.2519e-02
14.000	19.500	4.4682e-02
14.000	19.750	4.6962e-02
14.000	20.000	4.9315e-02
14.000	20.250	5.1881e-02
14.000	20.500	5.4817e-02
14.000	20.750	5.8111e-02
14.000	21.000	6.1696e-02
14.000	21.250	6.5513e-02
14.000	21.500	6.8821e-02
14.000	21.750	7.2889e-02
14.000	22.000	7.8233e-02
14.000	22.250	8.7181e-02
14.000	22.500	1.0405e-01
14.000	22.750	1.3142e-01
14.000	23.000	1.3590e-01
14.000	23.250	1.2642e-01
14.000	23.500	1.1247e-01
14.000	23.750	9.0304e-02
14.000	24.000	6.3234e-02
