InwT 5100.00A  relative to Inci 1215.00A scaled to 1215A.
Hden   Phi(H)  Eq_Width (A)
 7.000	17.000	3.4180e-02
 7.000	17.250	2.5501e-02
 7.000	17.500	1.9494e-02
 7.000	17.750	1.6441e-02
 7.000	18.000	1.4980e-02
 7.000	18.250	1.4216e-02
 7.000	18.500	1.3790e-02
 7.000	18.750	1.3609e-02
 7.000	19.000	1.3516e-02
 7.000	19.250	1.3465e-02
 7.000	19.500	1.3445e-02
 7.000	19.750	1.3437e-02
 7.000	20.000	1.3434e-02
 7.000	20.250	1.3432e-02
 7.000	20.500	1.3431e-02
 7.000	20.750	1.3431e-02
 7.000	21.000	1.3431e-02
 7.000	21.250	1.3431e-02
 7.000	21.500	1.3431e-02
 7.000	21.750	1.3431e-02
 7.000	22.000	1.3431e-02
 7.000	22.250	1.3431e-02
 7.000	22.500	1.3431e-02
 7.000	22.750	1.3431e-02
 7.000	23.000	1.3431e-02
 7.000	23.250	1.3431e-02
 7.000	23.500	1.3431e-02
 7.000	23.750	1.3431e-02
 7.000	24.000	1.3431e-02
 7.250	17.000	4.6267e-02
 7.250	17.250	3.4155e-02
 7.250	17.500	2.5483e-02
 7.250	17.750	1.9485e-02
 7.250	18.000	1.6436e-02
 7.250	18.250	1.4979e-02
 7.250	18.500	1.4215e-02
 7.250	18.750	1.3790e-02
 7.250	19.000	1.3609e-02
 7.250	19.250	1.3516e-02
 7.250	19.500	1.3465e-02
 7.250	19.750	1.3445e-02
 7.250	20.000	1.3437e-02
 7.250	20.250	1.3434e-02
 7.250	20.500	1.3432e-02
 7.250	20.750	1.3431e-02
 7.250	21.000	1.3431e-02
 7.250	21.250	1.3431e-02
 7.250	21.500	1.3431e-02
 7.250	21.750	1.3431e-02
 7.250	22.000	1.3432e-02
 7.250	22.250	1.3431e-02
 7.250	22.500	1.3431e-02
 7.250	22.750	1.3431e-02
 7.250	23.000	1.3431e-02
 7.250	23.250	1.3431e-02
 7.250	23.500	1.3431e-02
 7.250	23.750	1.3431e-02
 7.250	24.000	1.3431e-02
 7.500	17.000	4.6700e-02
 7.500	17.250	4.6402e-02
 7.500	17.500	3.4135e-02
 7.500	17.750	2.5469e-02
 7.500	18.000	1.9476e-02
 7.500	18.250	1.6431e-02
 7.500	18.500	1.4978e-02
 7.500	18.750	1.4215e-02
 7.500	19.000	1.3790e-02
 7.500	19.250	1.3609e-02
 7.500	19.500	1.3516e-02
 7.500	19.750	1.3465e-02
 7.500	20.000	1.3445e-02
 7.500	20.250	1.3437e-02
 7.500	20.500	1.3434e-02
 7.500	20.750	1.3432e-02
 7.500	21.000	1.3431e-02
 7.500	21.250	1.3431e-02
 7.500	21.500	1.3431e-02
 7.500	21.750	1.3431e-02
 7.500	22.000	1.3431e-02
 7.500	22.250	1.3430e-02
 7.500	22.500	1.3430e-02
 7.500	22.750	1.3430e-02
 7.500	23.000	1.3431e-02
 7.500	23.250	1.3431e-02
 7.500	23.500	1.3431e-02
 7.500	23.750	1.3431e-02
 7.500	24.000	1.3431e-02
 7.750	17.000	4.6969e-02
 7.750	17.250	4.7119e-02
 7.750	17.500	4.6492e-02
 7.750	17.750	3.4121e-02
 7.750	18.000	2.5458e-02
 7.750	18.250	1.9467e-02
 7.750	18.500	1.6426e-02
 7.750	18.750	1.4976e-02
 7.750	19.000	1.4215e-02
 7.750	19.250	1.3790e-02
 7.750	19.500	1.3609e-02
 7.750	19.750	1.3516e-02
 7.750	20.000	1.3465e-02
 7.750	20.250	1.3445e-02
 7.750	20.500	1.3437e-02
 7.750	20.750	1.3434e-02
 7.750	21.000	1.3432e-02
 7.750	21.250	1.3431e-02
 7.750	21.500	1.3431e-02
 7.750	21.750	1.3431e-02
 7.750	22.000	1.3430e-02
 7.750	22.250	1.3430e-02
 7.750	22.500	1.3431e-02
 7.750	22.750	1.3430e-02
 7.750	23.000	1.3431e-02
 7.750	23.250	1.3430e-02
 7.750	23.500	1.3430e-02
 7.750	23.750	1.3430e-02
 7.750	24.000	1.3430e-02
 8.000	17.000	4.6052e-02
 8.000	17.250	4.7126e-02
 8.000	17.500	4.7028e-02
 8.000	17.750	4.6182e-02
 8.000	18.000	3.4087e-02
 8.000	18.250	2.5451e-02
 8.000	18.500	1.9458e-02
 8.000	18.750	1.6420e-02
 8.000	19.000	1.4975e-02
 8.000	19.250	1.4215e-02
 8.000	19.500	1.3790e-02
 8.000	19.750	1.3609e-02
 8.000	20.000	1.3516e-02
 8.000	20.250	1.3465e-02
 8.000	20.500	1.3445e-02
 8.000	20.750	1.3437e-02
 8.000	21.000	1.3434e-02
 8.000	21.250	1.3432e-02
 8.000	21.500	1.3431e-02
 8.000	21.750	1.3431e-02
 8.000	22.000	1.3431e-02
 8.000	22.250	1.3430e-02
 8.000	22.500	1.3430e-02
 8.000	22.750	1.3430e-02
 8.000	23.000	1.3430e-02
 8.000	23.250	1.3430e-02
 8.000	23.500	1.3430e-02
 8.000	23.750	1.3430e-02
 8.000	24.000	1.3432e-02
 8.250	17.000	4.5724e-02
 8.250	17.250	4.6789e-02
 8.250	17.500	4.7842e-02
 8.250	17.750	4.7435e-02
 8.250	18.000	4.6257e-02
 8.250	18.250	3.4086e-02
 8.250	18.500	2.5446e-02
 8.250	18.750	1.9449e-02
 8.250	19.000	1.6413e-02
 8.250	19.250	1.4973e-02
 8.250	19.500	1.4214e-02
 8.250	19.750	1.3790e-02
 8.250	20.000	1.3609e-02
 8.250	20.250	1.3516e-02
 8.250	20.500	1.3465e-02
 8.250	20.750	1.3445e-02
 8.250	21.000	1.3437e-02
 8.250	21.250	1.3434e-02
 8.250	21.500	1.3432e-02
 8.250	21.750	1.3431e-02
 8.250	22.000	1.3431e-02
 8.250	22.250	1.3431e-02
 8.250	22.500	1.3430e-02
 8.250	22.750	1.3431e-02
 8.250	23.000	1.3431e-02
 8.250	23.250	1.3430e-02
 8.250	23.500	1.3430e-02
 8.250	23.750	1.3430e-02
 8.250	24.000	1.3430e-02
 8.500	17.000	4.5692e-02
 8.500	17.250	4.6536e-02
 8.500	17.500	4.7756e-02
 8.500	17.750	4.8888e-02
 8.500	18.000	4.8125e-02
 8.500	18.250	4.6450e-02
 8.500	18.500	3.4089e-02
 8.500	18.750	2.5443e-02
 8.500	19.000	1.9439e-02
 8.500	19.250	1.6405e-02
 8.500	19.500	1.4971e-02
 8.500	19.750	1.4214e-02
 8.500	20.000	1.3790e-02
 8.500	20.250	1.3608e-02
 8.500	20.500	1.3516e-02
 8.500	20.750	1.3465e-02
 8.500	21.000	1.3445e-02
 8.500	21.250	1.3437e-02
 8.500	21.500	1.3434e-02
 8.500	21.750	1.3432e-02
 8.500	22.000	1.3431e-02
 8.500	22.250	1.3431e-02
 8.500	22.500	1.3431e-02
 8.500	22.750	1.3431e-02
 8.500	23.000	1.3430e-02
 8.500	23.250	1.3430e-02
 8.500	23.500	1.3430e-02
 8.500	23.750	1.3430e-02
 8.500	24.000	1.3430e-02
 8.750	17.000	4.5796e-02
 8.750	17.250	4.6607e-02
 8.750	17.500	4.7749e-02
 8.750	17.750	4.9360e-02
 8.750	18.000	5.0578e-02
 8.750	18.250	4.9390e-02
 8.750	18.500	4.6791e-02
 8.750	18.750	3.4093e-02
 8.750	19.000	2.5441e-02
 8.750	19.250	1.9427e-02
 8.750	19.500	1.6396e-02
 8.750	19.750	1.4969e-02
 8.750	20.000	1.4214e-02
 8.750	20.250	1.3790e-02
 8.750	20.500	1.3608e-02
 8.750	20.750	1.3516e-02
 8.750	21.000	1.3465e-02
 8.750	21.250	1.3445e-02
 8.750	21.500	1.3437e-02
 8.750	21.750	1.3434e-02
 8.750	22.000	1.3432e-02
 8.750	22.250	1.3431e-02
 8.750	22.500	1.3431e-02
 8.750	22.750	1.3431e-02
 8.750	23.000	1.3430e-02
 8.750	23.250	1.3430e-02
 8.750	23.500	1.3430e-02
 8.750	23.750	1.3430e-02
 8.750	24.000	1.3430e-02
 9.000	17.000	4.5872e-02
 9.000	17.250	4.6837e-02
 9.000	17.500	4.8107e-02
 9.000	17.750	4.9943e-02
 9.000	18.000	5.2375e-02
 9.000	18.250	5.3946e-02
 9.000	18.500	5.1855e-02
 9.000	18.750	4.7707e-02
 9.000	19.000	3.4095e-02
 9.000	19.250	2.5442e-02
 9.000	19.500	1.9417e-02
 9.000	19.750	1.6388e-02
 9.000	20.000	1.4966e-02
 9.000	20.250	1.4213e-02
 9.000	20.500	1.3790e-02
 9.000	20.750	1.3608e-02
 9.000	21.000	1.3516e-02
 9.000	21.250	1.3465e-02
 9.000	21.500	1.3445e-02
 9.000	21.750	1.3437e-02
 9.000	22.000	1.3434e-02
 9.000	22.250	1.3432e-02
 9.000	22.500	1.3431e-02
 9.000	22.750	1.3431e-02
 9.000	23.000	1.3431e-02
 9.000	23.250	1.3430e-02
 9.000	23.500	1.3430e-02
 9.000	23.750	1.3430e-02
 9.000	24.000	1.3431e-02
 9.250	17.000	4.5817e-02
 9.250	17.250	4.7069e-02
 9.250	17.500	4.8743e-02
 9.250	17.750	5.1120e-02
 9.250	18.000	5.4471e-02
 9.250	18.250	5.8207e-02
 9.250	18.500	5.9659e-02
 9.250	18.750	5.6587e-02
 9.250	19.000	4.7713e-02
 9.250	19.250	3.4090e-02
 9.250	19.500	2.5446e-02
 9.250	19.750	1.9408e-02
 9.250	20.000	1.6379e-02
 9.250	20.250	1.4964e-02
 9.250	20.500	1.4213e-02
 9.250	20.750	1.3790e-02
 9.250	21.000	1.3608e-02
 9.250	21.250	1.3516e-02
 9.250	21.500	1.3463e-02
 9.250	21.750	1.3443e-02
 9.250	22.000	1.3434e-02
 9.250	22.250	1.3431e-02
 9.250	22.500	1.3432e-02
 9.250	22.750	1.3431e-02
 9.250	23.000	1.3431e-02
 9.250	23.250	1.3430e-02
 9.250	23.500	1.3430e-02
 9.250	23.750	1.3430e-02
 9.250	24.000	1.3430e-02
 9.500	17.000	4.5699e-02
 9.500	17.250	4.7306e-02
 9.500	17.500	4.9515e-02
 9.500	17.750	5.2759e-02
 9.500	18.000	5.7375e-02
 9.500	18.250	6.3050e-02
 9.500	18.500	6.7510e-02
 9.500	18.750	6.7627e-02
 9.500	19.000	6.2358e-02
 9.500	19.250	4.7705e-02
 9.500	19.500	3.4071e-02
 9.500	19.750	2.5452e-02
 9.500	20.000	1.9402e-02
 9.500	20.250	1.6372e-02
 9.500	20.500	1.4962e-02
 9.500	20.750	1.4212e-02
 9.500	21.000	1.3787e-02
 9.500	21.250	1.3606e-02
 9.500	21.500	1.3514e-02
 9.500	21.750	1.3462e-02
 9.500	22.000	1.3441e-02
 9.500	22.250	1.3433e-02
 9.500	22.500	1.3430e-02
 9.500	22.750	1.3428e-02
 9.500	23.000	1.3427e-02
 9.500	23.250	1.3427e-02
 9.500	23.500	1.3427e-02
 9.500	23.750	1.3427e-02
 9.500	24.000	1.3427e-02
 9.750	17.000	4.5399e-02
 9.750	17.250	4.7421e-02
 9.750	17.500	5.0300e-02
 9.750	17.750	5.4701e-02
 9.750	18.000	6.1290e-02
 9.750	18.250	6.9114e-02
 9.750	18.500	7.5782e-02
 9.750	18.750	7.8988e-02
 9.750	19.000	7.6607e-02
 9.750	19.250	6.9000e-02
 9.750	19.500	4.7675e-02
 9.750	19.750	3.4034e-02
 9.750	20.000	2.5459e-02
 9.750	20.250	1.9399e-02
 9.750	20.500	1.6367e-02
 9.750	20.750	1.4961e-02
 9.750	21.000	1.4212e-02
 9.750	21.250	1.3788e-02
 9.750	21.500	1.3606e-02
 9.750	21.750	1.3514e-02
 9.750	22.000	1.3462e-02
 9.750	22.250	1.3441e-02
 9.750	22.500	1.3433e-02
 9.750	22.750	1.3430e-02
 9.750	23.000	1.3428e-02
 9.750	23.250	1.3427e-02
 9.750	23.500	1.3427e-02
 9.750	23.750	1.3427e-02
 9.750	24.000	1.3426e-02
10.000	17.000	4.4824e-02
10.000	17.250	4.7512e-02
10.000	17.500	5.1245e-02
10.000	17.750	5.7154e-02
10.000	18.000	6.6249e-02
10.000	18.250	7.6355e-02
10.000	18.500	8.4748e-02
10.000	18.750	9.0073e-02
10.000	19.000	9.1201e-02
10.000	19.250	8.6282e-02
10.000	19.500	7.2159e-02
10.000	19.750	4.7596e-02
10.000	20.000	3.3978e-02
10.000	20.250	2.5464e-02
10.000	20.500	1.9399e-02
10.000	20.750	1.6362e-02
10.000	21.000	1.4960e-02
10.000	21.250	1.4212e-02
10.000	21.500	1.3789e-02
10.000	21.750	1.3607e-02
10.000	22.000	1.3514e-02
10.000	22.250	1.3463e-02
10.000	22.500	1.3442e-02
10.000	22.750	1.3433e-02
10.000	23.000	1.3430e-02
10.000	23.250	1.3428e-02
10.000	23.500	1.3427e-02
10.000	23.750	1.3427e-02
10.000	24.000	1.3427e-02
10.250	17.000	4.4638e-02
10.250	17.250	4.7587e-02
10.250	17.500	5.2593e-02
10.250	17.750	6.0431e-02
10.250	18.000	7.2005e-02
10.250	18.250	8.4168e-02
10.250	18.500	9.3939e-02
10.250	18.750	1.0065e-01
10.250	19.000	1.0374e-01
10.250	19.250	1.0306e-01
10.250	19.500	9.6995e-02
10.250	19.750	7.1960e-02
10.250	20.000	4.7460e-02
10.250	20.250	3.3897e-02
10.250	20.500	2.5459e-02
10.250	20.750	1.9399e-02
10.250	21.000	1.6359e-02
10.250	21.250	1.4959e-02
10.250	21.500	1.4212e-02
10.250	21.750	1.3789e-02
10.250	22.000	1.3608e-02
10.250	22.250	1.3514e-02
10.250	22.500	1.3463e-02
10.250	22.750	1.3442e-02
10.250	23.000	1.3433e-02
10.250	23.250	1.3429e-02
10.250	23.500	1.3428e-02
10.250	23.750	1.3427e-02
10.250	24.000	1.3427e-02
10.500	17.000	4.5105e-02
10.500	17.250	4.8379e-02
10.500	17.500	5.4557e-02
10.500	17.750	6.4971e-02
10.500	18.000	7.8662e-02
10.500	18.250	9.2474e-02
10.500	18.500	1.0301e-01
10.500	18.750	1.1038e-01
10.500	19.000	1.1513e-01
10.500	19.250	1.1654e-01
10.500	19.500	1.1408e-01
10.500	19.750	1.0487e-01
10.500	20.000	7.1762e-02
10.500	20.250	4.7298e-02
10.500	20.500	3.3815e-02
10.500	20.750	2.5436e-02
10.500	21.000	1.9400e-02
10.500	21.250	1.6358e-02
10.500	21.500	1.4959e-02
10.500	21.750	1.4212e-02
10.500	22.000	1.3789e-02
10.500	22.250	1.3608e-02
10.500	22.500	1.3515e-02
10.500	22.750	1.3463e-02
10.500	23.000	1.3443e-02
10.500	23.250	1.3434e-02
10.500	23.500	1.3430e-02
10.500	23.750	1.3428e-02
10.500	24.000	1.3427e-02
10.750	17.000	4.6449e-02
10.750	17.250	5.0095e-02
10.750	17.500	5.7926e-02
10.750	17.750	7.0603e-02
10.750	18.000	8.6034e-02
10.750	18.250	1.0028e-01
10.750	18.500	1.1138e-01
10.750	18.750	1.2032e-01
10.750	19.000	1.2585e-01
10.750	19.250	1.2877e-01
10.750	19.500	1.2883e-01
10.750	19.750	1.2499e-01
10.750	20.000	1.1226e-01
10.750	20.250	7.1485e-02
10.750	20.500	4.7108e-02
10.750	20.750	3.3726e-02
10.750	21.000	2.5384e-02
10.750	21.250	1.9397e-02
10.750	21.500	1.6358e-02
10.750	21.750	1.4960e-02
10.750	22.000	1.4212e-02
10.750	22.250	1.3789e-02
10.750	22.500	1.3608e-02
10.750	22.750	1.3516e-02
10.750	23.000	1.3463e-02
10.750	23.250	1.3443e-02
10.750	23.500	1.3434e-02
10.750	23.750	1.3430e-02
10.750	24.000	1.3429e-02
11.000	17.000	4.8753e-02
11.000	17.250	5.2768e-02
11.000	17.500	6.2239e-02
11.000	17.750	7.6960e-02
11.000	18.000	9.3227e-02
11.000	18.250	1.0764e-01
11.000	18.500	1.1971e-01
11.000	18.750	1.2899e-01
11.000	19.000	1.3565e-01
11.000	19.250	1.3947e-01
11.000	19.500	1.4121e-01
11.000	19.750	1.4010e-01
11.000	20.000	1.3577e-01
11.000	20.250	1.1409e-01
11.000	20.500	7.1235e-02
11.000	20.750	4.6935e-02
11.000	21.000	3.3686e-02
11.000	21.250	2.5288e-02
11.000	21.500	1.9386e-02
11.000	21.750	1.6358e-02
11.000	22.000	1.4960e-02
11.000	22.250	1.4212e-02
11.000	22.500	1.3788e-02
11.000	22.750	1.3608e-02
11.000	23.000	1.3516e-02
11.000	23.250	1.3464e-02
11.000	23.500	1.3443e-02
11.000	23.750	1.3435e-02
11.000	24.000	1.3431e-02
11.250	17.000	5.1964e-02
11.250	17.250	5.6202e-02
11.250	17.500	6.7000e-02
11.250	17.750	8.3134e-02
11.250	18.000	9.9962e-02
11.250	18.250	1.1447e-01
11.250	18.500	1.2656e-01
11.250	18.750	1.3687e-01
11.250	19.000	1.4417e-01
11.250	19.250	1.4904e-01
11.250	19.500	1.5171e-01
11.250	19.750	1.5223e-01
11.250	20.000	1.5045e-01
11.250	20.250	1.4543e-01
11.250	20.500	1.1425e-01
11.250	20.750	7.1049e-02
11.250	21.000	4.6848e-02
11.250	21.250	3.3808e-02
11.250	21.500	2.5147e-02
11.250	21.750	1.9362e-02
11.250	22.000	1.6358e-02
11.250	22.250	1.4961e-02
11.250	22.500	1.4212e-02
11.250	22.750	1.3788e-02
11.250	23.000	1.3608e-02
11.250	23.250	1.3516e-02
11.250	23.500	1.3465e-02
11.250	23.750	1.3443e-02
11.250	24.000	1.3435e-02
11.500	17.000	5.6270e-02
11.500	17.250	6.0569e-02
11.500	17.500	7.1968e-02
11.500	17.750	8.8749e-02
11.500	18.000	1.0587e-01
11.500	18.250	1.2055e-01
11.500	18.500	1.3288e-01
11.500	18.750	1.4356e-01
11.500	19.000	1.5170e-01
11.500	19.250	1.5763e-01
11.500	19.500	1.6089e-01
11.500	19.750	1.6252e-01
11.500	20.000	1.6248e-01
11.500	20.250	1.6031e-01
11.500	20.500	1.5466e-01
11.500	20.750	1.1382e-01
11.500	21.000	7.0962e-02
11.500	21.250	4.7040e-02
11.500	21.500	3.4237e-02
11.500	21.750	2.4981e-02
11.500	22.000	1.9322e-02
11.500	22.250	1.6356e-02
11.500	22.500	1.4961e-02
11.500	22.750	1.4211e-02
11.500	23.000	1.3787e-02
11.500	23.250	1.3608e-02
11.500	23.500	1.3516e-02
11.500	23.750	1.3465e-02
11.500	24.000	1.3443e-02
11.750	17.000	6.1869e-02
11.750	17.250	6.5818e-02
11.750	17.500	7.7103e-02
11.750	17.750	9.3759e-02
11.750	18.000	1.1079e-01
11.750	18.250	1.2555e-01
11.750	18.500	1.3856e-01
11.750	18.750	1.4958e-01
11.750	19.000	1.5873e-01
11.750	19.250	1.6529e-01
11.750	19.500	1.6947e-01
11.750	19.750	1.7147e-01
11.750	20.000	1.7246e-01
11.750	20.250	1.7214e-01
11.750	20.500	1.7007e-01
11.750	20.750	1.6337e-01
11.750	21.000	1.1352e-01
11.750	21.250	7.1184e-02
11.750	21.500	4.7698e-02
11.750	21.750	3.4891e-02
11.750	22.000	2.4794e-02
11.750	22.250	1.9264e-02
11.750	22.500	1.6353e-02
11.750	22.750	1.4961e-02
11.750	23.000	1.4210e-02
11.750	23.250	1.3787e-02
11.750	23.500	1.3613e-02
11.750	23.750	1.3516e-02
11.750	24.000	1.3465e-02
12.000	17.000	6.8878e-02
12.000	17.250	7.2020e-02
12.000	17.500	8.2240e-02
12.000	17.750	9.7775e-02
12.000	18.000	1.1421e-01
12.000	18.250	1.2956e-01
12.000	18.500	1.4373e-01
12.000	18.750	1.5591e-01
12.000	19.000	1.6568e-01
12.000	19.250	1.7296e-01
12.000	19.500	1.7751e-01
12.000	19.750	1.8002e-01
12.000	20.000	1.8112e-01
12.000	20.250	1.8174e-01
12.000	20.500	1.8160e-01
12.000	20.750	1.8014e-01
12.000	21.000	1.7205e-01
12.000	21.250	1.1364e-01
12.000	21.500	7.1854e-02
12.000	21.750	4.8833e-02
12.000	22.000	3.4953e-02
12.000	22.250	2.4619e-02
12.000	22.500	1.9191e-02
12.000	22.750	1.6345e-02
12.000	23.000	1.4959e-02
12.000	23.250	1.4209e-02
12.000	23.500	1.3786e-02
12.000	23.750	1.3607e-02
12.000	24.000	1.3516e-02
12.250	17.000	7.6414e-02
12.250	17.250	7.8842e-02
12.250	17.500	8.6887e-02
12.250	17.750	1.0020e-01
12.250	18.000	1.1613e-01
12.250	18.250	1.3290e-01
12.250	18.500	1.4888e-01
12.250	18.750	1.6255e-01
12.250	19.000	1.7299e-01
12.250	19.250	1.8054e-01
12.250	19.500	1.8543e-01
12.250	19.750	1.8813e-01
12.250	20.000	1.8931e-01
12.250	20.250	1.8992e-01
12.250	20.500	1.9078e-01
12.250	20.750	1.9166e-01
12.250	21.000	1.9172e-01
12.250	21.250	1.7580e-01
12.250	21.500	1.1420e-01
12.250	21.750	7.2919e-02
12.250	22.000	5.0178e-02
12.250	22.250	3.4483e-02
12.250	22.500	2.4429e-02
12.250	22.750	1.9103e-02
12.250	23.000	1.6332e-02
12.250	23.250	1.4955e-02
12.250	23.500	1.4207e-02
12.250	23.750	1.3784e-02
12.250	24.000	1.3606e-02
12.500	17.000	8.1973e-02
12.500	17.250	8.3908e-02
12.500	17.500	8.9881e-02
12.500	17.750	1.0091e-01
12.500	18.000	1.1684e-01
12.500	18.250	1.3537e-01
12.500	18.500	1.5350e-01
12.500	18.750	1.6890e-01
12.500	19.000	1.8052e-01
12.500	19.250	1.8821e-01
12.500	19.500	1.9306e-01
12.500	19.750	1.9597e-01
12.500	20.000	1.9744e-01
12.500	20.250	1.9804e-01
12.500	20.500	1.9851e-01
12.500	20.750	2.0027e-01
12.500	21.000	2.0373e-01
12.500	21.250	2.0492e-01
12.500	21.500	1.7943e-01
12.500	21.750	1.1496e-01
12.500	22.000	7.4310e-02
12.500	22.250	5.1151e-02
12.500	22.500	3.3997e-02
12.500	22.750	2.4213e-02
12.500	23.000	1.9001e-02
12.500	23.250	1.6310e-02
12.500	23.500	1.4948e-02
12.500	23.750	1.4202e-02
12.500	24.000	1.3781e-02
12.750	17.000	7.5234e-02
12.750	17.250	8.2840e-02
12.750	17.500	8.8486e-02
12.750	17.750	1.0019e-01
12.750	18.000	1.1780e-01
12.750	18.250	1.3756e-01
12.750	18.500	1.5713e-01
12.750	18.750	1.7440e-01
12.750	19.000	1.8732e-01
12.750	19.250	1.9631e-01
12.750	19.500	2.0090e-01
12.750	19.750	2.0363e-01
12.750	20.000	2.0504e-01
12.750	20.250	2.0573e-01
12.750	20.500	2.0646e-01
12.750	20.750	2.0761e-01
12.750	21.000	2.1182e-01
12.750	21.250	2.1807e-01
12.750	21.500	2.1563e-01
12.750	21.750	1.8124e-01
12.750	22.000	1.1619e-01
12.750	22.250	7.6036e-02
12.750	22.500	5.1514e-02
12.750	22.750	3.3538e-02
12.750	23.000	2.3971e-02
12.750	23.250	1.8893e-02
12.750	23.500	1.6283e-02
12.750	23.750	1.4935e-02
12.750	24.000	1.4195e-02
13.000	17.000	4.9564e-02
13.000	17.250	6.3759e-02
13.000	17.500	8.6599e-02
13.000	17.750	1.0168e-01
13.000	18.000	1.1955e-01
13.000	18.250	1.3981e-01
13.000	18.500	1.6027e-01
13.000	18.750	1.7852e-01
13.000	19.000	1.9274e-01
13.000	19.250	2.0263e-01
13.000	19.500	2.0823e-01
13.000	19.750	2.1092e-01
13.000	20.000	2.1214e-01
13.000	20.250	2.1299e-01
13.000	20.500	2.1425e-01
13.000	20.750	2.1561e-01
13.000	21.000	2.2008e-01
13.000	21.250	2.2718e-01
13.000	21.500	2.2989e-01
13.000	21.750	2.3109e-01
13.000	22.000	1.8358e-01
13.000	22.250	1.1683e-01
13.000	22.500	7.6791e-02
13.000	22.750	5.0919e-02
13.000	23.000	3.3002e-02
13.000	23.250	2.3712e-02
13.000	23.500	1.8771e-02
13.000	23.750	1.6239e-02
13.000	24.000	1.4912e-02
13.250	17.000	4.8965e-02
13.250	17.250	5.8467e-02
13.250	17.500	7.6496e-02
13.250	17.750	9.8898e-02
13.250	18.000	1.2276e-01
13.250	18.250	1.4281e-01
13.250	18.500	1.6315e-01
13.250	18.750	1.8191e-01
13.250	19.000	1.9709e-01
13.250	19.250	2.0775e-01
13.250	19.500	2.1434e-01
13.250	19.750	2.1781e-01
13.250	20.000	2.1941e-01
13.250	20.250	2.2020e-01
13.250	20.500	2.2105e-01
13.250	20.750	2.2321e-01
13.250	21.000	2.2664e-01
13.250	21.250	2.3374e-01
13.250	21.500	2.3811e-01
13.250	21.750	2.4941e-01
13.250	22.000	2.4235e-01
13.250	22.250	1.8140e-01
13.250	22.500	1.1606e-01
13.250	22.750	7.5763e-02
13.250	23.000	4.9810e-02
13.250	23.250	3.2481e-02
13.250	23.500	2.3443e-02
13.250	23.750	1.8636e-02
13.250	24.000	1.6174e-02
13.500	17.000	4.8803e-02
13.500	17.250	5.6938e-02
13.500	17.500	7.3630e-02
13.500	17.750	9.7803e-02
13.500	18.000	1.2279e-01
13.500	18.250	1.4715e-01
13.500	18.500	1.6698e-01
13.500	18.750	1.8565e-01
13.500	19.000	2.0129e-01
13.500	19.250	2.1317e-01
13.500	19.500	2.2002e-01
13.500	19.750	2.2381e-01
13.500	20.000	2.2605e-01
13.500	20.250	2.2724e-01
13.500	20.500	2.2805e-01
13.500	20.750	2.2926e-01
13.500	21.000	2.3153e-01
13.500	21.250	2.3850e-01
13.500	21.500	2.4184e-01
13.500	21.750	2.5148e-01
13.500	22.000	2.6131e-01
13.500	22.250	2.4756e-01
13.500	22.500	1.7631e-01
13.500	22.750	1.1250e-01
13.500	23.000	7.2665e-02
13.500	23.250	4.8332e-02
13.500	23.500	3.1863e-02
13.500	23.750	2.3059e-02
13.500	24.000	1.8475e-02
13.750	17.000	4.8787e-02
13.750	17.250	5.7314e-02
13.750	17.500	7.2379e-02
13.750	17.750	9.2736e-02
13.750	18.000	1.2317e-01
13.750	18.250	1.4828e-01
13.750	18.500	1.7133e-01
13.750	18.750	1.9029e-01
13.750	19.000	2.0620e-01
13.750	19.250	2.1864e-01
13.750	19.500	2.2689e-01
13.750	19.750	2.3147e-01
13.750	20.000	2.3367e-01
13.750	20.250	2.3512e-01
13.750	20.500	2.3617e-01
13.750	20.750	2.3715e-01
13.750	21.000	2.3855e-01
13.750	21.250	2.4193e-01
13.750	21.500	2.4425e-01
13.750	21.750	2.5465e-01
13.750	22.000	2.7018e-01
13.750	22.250	2.7911e-01
13.750	22.500	2.4734e-01
13.750	22.750	1.6866e-01
13.750	23.000	1.0650e-01
13.750	23.250	6.9856e-02
13.750	23.500	4.6649e-02
13.750	23.750	3.1089e-02
13.750	24.000	2.2677e-02
14.000	17.000	4.9438e-02
14.000	17.250	5.6896e-02
14.000	17.500	7.1615e-02
14.000	17.750	9.0932e-02
14.000	18.000	1.1815e-01
14.000	18.250	1.5082e-01
14.000	18.500	1.7507e-01
14.000	18.750	1.9598e-01
14.000	19.000	2.1152e-01
14.000	19.250	2.2466e-01
14.000	19.500	2.3464e-01
14.000	19.750	2.4056e-01
14.000	20.000	2.4338e-01
14.000	20.250	2.4452e-01
14.000	20.500	2.4552e-01
14.000	20.750	2.4649e-01
14.000	21.000	2.4787e-01
14.000	21.250	2.5083e-01
14.000	21.500	2.5158e-01
14.000	21.750	2.6172e-01
14.000	22.000	2.7929e-01
14.000	22.250	2.9810e-01
14.000	22.500	2.9457e-01
14.000	22.750	2.4230e-01
14.000	23.000	1.5921e-01
14.000	23.250	1.0131e-01
14.000	23.500	6.6956e-02
14.000	23.750	4.4955e-02
14.000	24.000	3.0200e-02
