InwC 1073.86A  relative to Inci 1215.00A scaled to 1215A.
Hden   Phi(H)  Eq_Width (A)
 7.000	17.000	2.4210e-02
 7.000	17.250	2.5040e-02
 7.000	17.500	2.5051e-02
 7.000	17.750	2.5063e-02
 7.000	18.000	2.5075e-02
 7.000	18.250	2.5087e-02
 7.000	18.500	2.5093e-02
 7.000	18.750	2.5096e-02
 7.000	19.000	2.5099e-02
 7.000	19.250	2.5102e-02
 7.000	19.500	2.5102e-02
 7.000	19.750	2.5103e-02
 7.000	20.000	2.5103e-02
 7.000	20.250	2.5103e-02
 7.000	20.500	2.5103e-02
 7.000	20.750	2.5103e-02
 7.000	21.000	2.5103e-02
 7.000	21.250	2.5104e-02
 7.000	21.500	2.5104e-02
 7.000	21.750	2.5104e-02
 7.000	22.000	2.5104e-02
 7.000	22.250	2.5104e-02
 7.000	22.500	2.5104e-02
 7.000	22.750	2.5104e-02
 7.000	23.000	2.5104e-02
 7.000	23.250	2.5104e-02
 7.000	23.500	2.5104e-02
 7.000	23.750	2.5104e-02
 7.000	24.000	2.5104e-02
 7.250	17.000	2.4116e-02
 7.250	17.250	2.4215e-02
 7.250	17.500	2.5040e-02
 7.250	17.750	2.5051e-02
 7.250	18.000	2.5063e-02
 7.250	18.250	2.5075e-02
 7.250	18.500	2.5087e-02
 7.250	18.750	2.5093e-02
 7.250	19.000	2.5096e-02
 7.250	19.250	2.5099e-02
 7.250	19.500	2.5102e-02
 7.250	19.750	2.5102e-02
 7.250	20.000	2.5103e-02
 7.250	20.250	2.5103e-02
 7.250	20.500	2.5103e-02
 7.250	20.750	2.5103e-02
 7.250	21.000	2.5103e-02
 7.250	21.250	2.5103e-02
 7.250	21.500	2.5103e-02
 7.250	21.750	2.5103e-02
 7.250	22.000	2.5106e-02
 7.250	22.250	2.5104e-02
 7.250	22.500	2.5104e-02
 7.250	22.750	2.5104e-02
 7.250	23.000	2.5104e-02
 7.250	23.250	2.5105e-02
 7.250	23.500	2.5104e-02
 7.250	23.750	2.5105e-02
 7.250	24.000	2.5104e-02
 7.500	17.000	3.0300e-02
 7.500	17.250	2.4036e-02
 7.500	17.500	2.4220e-02
 7.500	17.750	2.5040e-02
 7.500	18.000	2.5051e-02
 7.500	18.250	2.5063e-02
 7.500	18.500	2.5075e-02
 7.500	18.750	2.5087e-02
 7.500	19.000	2.5093e-02
 7.500	19.250	2.5096e-02
 7.500	19.500	2.5099e-02
 7.500	19.750	2.5102e-02
 7.500	20.000	2.5102e-02
 7.500	20.250	2.5103e-02
 7.500	20.500	2.5103e-02
 7.500	20.750	2.5103e-02
 7.500	21.000	2.5103e-02
 7.500	21.250	2.5103e-02
 7.500	21.500	2.5103e-02
 7.500	21.750	2.5103e-02
 7.500	22.000	2.5103e-02
 7.500	22.250	2.5103e-02
 7.500	22.500	2.5103e-02
 7.500	22.750	2.5103e-02
 7.500	23.000	2.5103e-02
 7.500	23.250	2.5103e-02
 7.500	23.500	2.5103e-02
 7.500	23.750	2.5104e-02
 7.500	24.000	2.5104e-02
 7.750	17.000	3.5588e-02
 7.750	17.250	3.0064e-02
 7.750	17.500	2.3978e-02
 7.750	17.750	2.4224e-02
 7.750	18.000	2.5040e-02
 7.750	18.250	2.5051e-02
 7.750	18.500	2.5063e-02
 7.750	18.750	2.5075e-02
 7.750	19.000	2.5087e-02
 7.750	19.250	2.5093e-02
 7.750	19.500	2.5096e-02
 7.750	19.750	2.5099e-02
 7.750	20.000	2.5102e-02
 7.750	20.250	2.5102e-02
 7.750	20.500	2.5103e-02
 7.750	20.750	2.5103e-02
 7.750	21.000	2.5103e-02
 7.750	21.250	2.5103e-02
 7.750	21.500	2.5103e-02
 7.750	21.750	2.5103e-02
 7.750	22.000	2.5103e-02
 7.750	22.250	2.5103e-02
 7.750	22.500	2.5103e-02
 7.750	22.750	2.5103e-02
 7.750	23.000	2.5104e-02
 7.750	23.250	2.5103e-02
 7.750	23.500	2.5103e-02
 7.750	23.750	2.5103e-02
 7.750	24.000	2.5103e-02
 8.000	17.000	3.9829e-02
 8.000	17.250	3.5376e-02
 8.000	17.500	2.9966e-02
 8.000	17.750	2.4056e-02
 8.000	18.000	2.4220e-02
 8.000	18.250	2.5040e-02
 8.000	18.500	2.5052e-02
 8.000	18.750	2.5063e-02
 8.000	19.000	2.5075e-02
 8.000	19.250	2.5087e-02
 8.000	19.500	2.5093e-02
 8.000	19.750	2.5096e-02
 8.000	20.000	2.5099e-02
 8.000	20.250	2.5102e-02
 8.000	20.500	2.5102e-02
 8.000	20.750	2.5103e-02
 8.000	21.000	2.5103e-02
 8.000	21.250	2.5103e-02
 8.000	21.500	2.5103e-02
 8.000	21.750	2.5103e-02
 8.000	22.000	2.5103e-02
 8.000	22.250	2.5103e-02
 8.000	22.500	2.5103e-02
 8.000	22.750	2.5103e-02
 8.000	23.000	2.5103e-02
 8.000	23.250	2.5103e-02
 8.000	23.500	2.5103e-02
 8.000	23.750	2.5103e-02
 8.000	24.000	2.5106e-02
 8.250	17.000	4.2620e-02
 8.250	17.250	3.9557e-02
 8.250	17.500	3.5054e-02
 8.250	17.750	2.9738e-02
 8.250	18.000	2.4013e-02
 8.250	18.250	2.4223e-02
 8.250	18.500	2.5040e-02
 8.250	18.750	2.5052e-02
 8.250	19.000	2.5063e-02
 8.250	19.250	2.5075e-02
 8.250	19.500	2.5087e-02
 8.250	19.750	2.5093e-02
 8.250	20.000	2.5096e-02
 8.250	20.250	2.5099e-02
 8.250	20.500	2.5102e-02
 8.250	20.750	2.5102e-02
 8.250	21.000	2.5103e-02
 8.250	21.250	2.5103e-02
 8.250	21.500	2.5103e-02
 8.250	21.750	2.5103e-02
 8.250	22.000	2.5103e-02
 8.250	22.250	2.5103e-02
 8.250	22.500	2.5103e-02
 8.250	22.750	2.5103e-02
 8.250	23.000	2.5104e-02
 8.250	23.250	2.5103e-02
 8.250	23.500	2.5103e-02
 8.250	23.750	2.5103e-02
 8.250	24.000	2.5103e-02
 8.500	17.000	4.4255e-02
 8.500	17.250	4.2368e-02
 8.500	17.500	3.9214e-02
 8.500	17.750	3.4604e-02
 8.500	18.000	2.9381e-02
 8.500	18.250	2.3920e-02
 8.500	18.500	2.4225e-02
 8.500	18.750	2.5040e-02
 8.500	19.000	2.5052e-02
 8.500	19.250	2.5063e-02
 8.500	19.500	2.5076e-02
 8.500	19.750	2.5087e-02
 8.500	20.000	2.5093e-02
 8.500	20.250	2.5096e-02
 8.500	20.500	2.5099e-02
 8.500	20.750	2.5102e-02
 8.500	21.000	2.5102e-02
 8.500	21.250	2.5103e-02
 8.500	21.500	2.5103e-02
 8.500	21.750	2.5103e-02
 8.500	22.000	2.5103e-02
 8.500	22.250	2.5103e-02
 8.500	22.500	2.5103e-02
 8.500	22.750	2.5104e-02
 8.500	23.000	2.5103e-02
 8.500	23.250	2.5103e-02
 8.500	23.500	2.5103e-02
 8.500	23.750	2.5103e-02
 8.500	24.000	2.5103e-02
 8.750	17.000	4.5013e-02
 8.750	17.250	4.4010e-02
 8.750	17.500	4.2016e-02
 8.750	17.750	3.8667e-02
 8.750	18.000	3.3955e-02
 8.750	18.250	2.8804e-02
 8.750	18.500	2.3777e-02
 8.750	18.750	2.4227e-02
 8.750	19.000	2.5040e-02
 8.750	19.250	2.5052e-02
 8.750	19.500	2.5063e-02
 8.750	19.750	2.5076e-02
 8.750	20.000	2.5087e-02
 8.750	20.250	2.5093e-02
 8.750	20.500	2.5096e-02
 8.750	20.750	2.5099e-02
 8.750	21.000	2.5102e-02
 8.750	21.250	2.5102e-02
 8.750	21.500	2.5103e-02
 8.750	21.750	2.5103e-02
 8.750	22.000	2.5103e-02
 8.750	22.250	2.5103e-02
 8.750	22.500	2.5103e-02
 8.750	22.750	2.5103e-02
 8.750	23.000	2.5103e-02
 8.750	23.250	2.5103e-02
 8.750	23.500	2.5103e-02
 8.750	23.750	2.5103e-02
 8.750	24.000	2.5103e-02
 9.000	17.000	4.5075e-02
 9.000	17.250	4.4767e-02
 9.000	17.500	4.3650e-02
 9.000	17.750	4.1441e-02
 9.000	18.000	3.7778e-02
 9.000	18.250	3.2792e-02
 9.000	18.500	2.7825e-02
 9.000	18.750	2.3429e-02
 9.000	19.000	2.4227e-02
 9.000	19.250	2.5039e-02
 9.000	19.500	2.5052e-02
 9.000	19.750	2.5063e-02
 9.000	20.000	2.5076e-02
 9.000	20.250	2.5087e-02
 9.000	20.500	2.5093e-02
 9.000	20.750	2.5096e-02
 9.000	21.000	2.5099e-02
 9.000	21.250	2.5102e-02
 9.000	21.500	2.5102e-02
 9.000	21.750	2.5103e-02
 9.000	22.000	2.5103e-02
 9.000	22.250	2.5103e-02
 9.000	22.500	2.5103e-02
 9.000	22.750	2.5103e-02
 9.000	23.000	2.5103e-02
 9.000	23.250	2.5103e-02
 9.000	23.500	2.5103e-02
 9.000	23.750	2.5103e-02
 9.000	24.000	2.5104e-02
 9.250	17.000	4.4554e-02
 9.250	17.250	4.4818e-02
 9.250	17.500	4.4389e-02
 9.250	17.750	4.3039e-02
 9.250	18.000	4.0414e-02
 9.250	18.250	3.6301e-02
 9.250	18.500	3.1123e-02
 9.250	18.750	2.6232e-02
 9.250	19.000	2.3408e-02
 9.250	19.250	2.4224e-02
 9.250	19.500	2.5039e-02
 9.250	19.750	2.5052e-02
 9.250	20.000	2.5063e-02
 9.250	20.250	2.5076e-02
 9.250	20.500	2.5087e-02
 9.250	20.750	2.5093e-02
 9.250	21.000	2.5096e-02
 9.250	21.250	2.5099e-02
 9.250	21.500	2.5098e-02
 9.250	21.750	2.5098e-02
 9.250	22.000	2.5098e-02
 9.250	22.250	2.5098e-02
 9.250	22.500	2.5102e-02
 9.250	22.750	2.5102e-02
 9.250	23.000	2.5103e-02
 9.250	23.250	2.5103e-02
 9.250	23.500	2.5103e-02
 9.250	23.750	2.5103e-02
 9.250	24.000	2.5103e-02
 9.500	17.000	4.3525e-02
 9.500	17.250	4.4263e-02
 9.500	17.500	4.4400e-02
 9.500	17.750	4.3734e-02
 9.500	18.000	4.1957e-02
 9.500	18.250	3.8811e-02
 9.500	18.500	3.4339e-02
 9.500	18.750	2.9235e-02
 9.500	19.000	2.4818e-02
 9.500	19.250	2.3402e-02
 9.500	19.500	2.4217e-02
 9.500	19.750	2.5038e-02
 9.500	20.000	2.5052e-02
 9.500	20.250	2.5064e-02
 9.500	20.500	2.5076e-02
 9.500	20.750	2.5086e-02
 9.500	21.000	2.5089e-02
 9.500	21.250	2.5092e-02
 9.500	21.500	2.5095e-02
 9.500	21.750	2.5095e-02
 9.500	22.000	2.5095e-02
 9.500	22.250	2.5095e-02
 9.500	22.500	2.5095e-02
 9.500	22.750	2.5095e-02
 9.500	23.000	2.5095e-02
 9.500	23.250	2.5095e-02
 9.500	23.500	2.5096e-02
 9.500	23.750	2.5096e-02
 9.500	24.000	2.5096e-02
 9.750	17.000	4.2060e-02
 9.750	17.250	4.3186e-02
 9.750	17.500	4.3794e-02
 9.750	17.750	4.3672e-02
 9.750	18.000	4.2562e-02
 9.750	18.250	4.0278e-02
 9.750	18.500	3.6833e-02
 9.750	18.750	3.2331e-02
 9.750	19.000	2.7522e-02
 9.750	19.250	2.3495e-02
 9.750	19.500	2.3400e-02
 9.750	19.750	2.4204e-02
 9.750	20.000	2.5036e-02
 9.750	20.250	2.5051e-02
 9.750	20.500	2.5064e-02
 9.750	20.750	2.5076e-02
 9.750	21.000	2.5086e-02
 9.750	21.250	2.5090e-02
 9.750	21.500	2.5092e-02
 9.750	21.750	2.5095e-02
 9.750	22.000	2.5096e-02
 9.750	22.250	2.5095e-02
 9.750	22.500	2.5095e-02
 9.750	22.750	2.5095e-02
 9.750	23.000	2.5095e-02
 9.750	23.250	2.5095e-02
 9.750	23.500	2.5095e-02
 9.750	23.750	2.5095e-02
 9.750	24.000	2.5095e-02
10.000	17.000	4.0215e-02
10.000	17.250	4.1650e-02
10.000	17.500	4.2618e-02
10.000	17.750	4.2906e-02
10.000	18.000	4.2294e-02
10.000	18.250	4.0791e-02
10.000	18.500	3.8376e-02
10.000	18.750	3.4931e-02
10.000	19.000	3.0515e-02
10.000	19.250	2.5966e-02
10.000	19.500	2.2923e-02
10.000	19.750	2.3403e-02
10.000	20.000	2.4191e-02
10.000	20.250	2.5033e-02
10.000	20.500	2.5051e-02
10.000	20.750	2.5064e-02
10.000	21.000	2.5076e-02
10.000	21.250	2.5087e-02
10.000	21.500	2.5092e-02
10.000	21.750	2.5093e-02
10.000	22.000	2.5095e-02
10.000	22.250	2.5097e-02
10.000	22.500	2.5096e-02
10.000	22.750	2.5095e-02
10.000	23.000	2.5095e-02
10.000	23.250	2.5095e-02
10.000	23.500	2.5095e-02
10.000	23.750	2.5095e-02
10.000	24.000	2.5095e-02
10.250	17.000	3.8019e-02
10.250	17.250	3.9696e-02
10.250	17.500	4.0932e-02
10.250	17.750	4.1488e-02
10.250	18.000	4.1241e-02
10.250	18.250	4.0444e-02
10.250	18.500	3.9007e-02
10.250	18.750	3.6681e-02
10.250	19.000	3.3271e-02
10.250	19.250	2.8907e-02
10.250	19.500	2.4357e-02
10.250	19.750	2.2949e-02
10.250	20.000	2.3408e-02
10.250	20.250	2.4180e-02
10.250	20.500	2.5030e-02
10.250	20.750	2.5050e-02
10.250	21.000	2.5064e-02
10.250	21.250	2.5076e-02
10.250	21.500	2.5087e-02
10.250	21.750	2.5093e-02
10.250	22.000	2.5095e-02
10.250	22.250	2.5095e-02
10.250	22.500	2.5097e-02
10.250	22.750	2.5097e-02
10.250	23.000	2.5096e-02
10.250	23.250	2.5095e-02
10.250	23.500	2.5095e-02
10.250	23.750	2.5095e-02
10.250	24.000	2.5095e-02
10.500	17.000	3.5446e-02
10.500	17.250	3.7352e-02
10.500	17.500	3.8747e-02
10.500	17.750	3.9429e-02
10.500	18.000	3.9422e-02
10.500	18.250	3.9144e-02
10.500	18.500	3.8692e-02
10.500	18.750	3.7531e-02
10.500	19.000	3.5430e-02
10.500	19.250	3.2242e-02
10.500	19.500	2.7935e-02
10.500	19.750	2.3587e-02
10.500	20.000	2.2959e-02
10.500	20.250	2.3414e-02
10.500	20.500	2.4176e-02
10.500	20.750	2.5025e-02
10.500	21.000	2.5048e-02
10.500	21.250	2.5063e-02
10.500	21.500	2.5076e-02
10.500	21.750	2.5087e-02
10.500	22.000	2.5093e-02
10.500	22.250	2.5096e-02
10.500	22.500	2.5097e-02
10.500	22.750	2.5097e-02
10.500	23.000	2.5097e-02
10.500	23.250	2.5097e-02
10.500	23.500	2.5096e-02
10.500	23.750	2.5095e-02
10.500	24.000	2.5095e-02
10.750	17.000	3.2452e-02
10.750	17.250	3.4568e-02
10.750	17.500	3.6061e-02
10.750	17.750	3.6751e-02
10.750	18.000	3.6897e-02
10.750	18.250	3.7126e-02
10.750	18.500	3.7481e-02
10.750	18.750	3.7309e-02
10.750	19.000	3.6494e-02
10.750	19.250	3.4593e-02
10.750	19.500	3.1361e-02
10.750	19.750	2.6958e-02
10.750	20.000	2.2717e-02
10.750	20.250	2.2971e-02
10.750	20.500	2.3425e-02
10.750	20.750	2.4190e-02
10.750	21.000	2.5021e-02
10.750	21.250	2.5047e-02
10.750	21.500	2.5063e-02
10.750	21.750	2.5076e-02
10.750	22.000	2.5087e-02
10.750	22.250	2.5093e-02
10.750	22.500	2.5096e-02
10.750	22.750	2.5099e-02
10.750	23.000	2.5097e-02
10.750	23.250	2.5098e-02
10.750	23.500	2.5097e-02
10.750	23.750	2.5097e-02
10.750	24.000	2.5096e-02
11.000	17.000	2.8882e-02
11.000	17.250	3.1301e-02
11.000	17.500	3.2849e-02
11.000	17.750	3.3495e-02
11.000	18.000	3.3772e-02
11.000	18.250	3.4398e-02
11.000	18.500	3.5252e-02
11.000	18.750	3.6122e-02
11.000	19.000	3.6379e-02
11.000	19.250	3.5759e-02
11.000	19.500	3.3868e-02
11.000	19.750	3.0548e-02
11.000	20.000	2.5830e-02
11.000	20.250	2.2583e-02
11.000	20.500	2.2992e-02
11.000	20.750	2.3443e-02
11.000	21.000	2.4230e-02
11.000	21.250	2.5017e-02
11.000	21.500	2.5045e-02
11.000	21.750	2.5062e-02
11.000	22.000	2.5076e-02
11.000	22.250	2.5087e-02
11.000	22.500	2.5093e-02
11.000	22.750	2.5096e-02
11.000	23.000	2.5099e-02
11.000	23.250	2.5098e-02
11.000	23.500	2.5098e-02
11.000	23.750	2.5098e-02
11.000	24.000	2.5098e-02
11.250	17.000	2.4534e-02
11.250	17.250	2.7418e-02
11.250	17.500	2.9055e-02
11.250	17.750	2.9667e-02
11.250	18.000	3.0100e-02
11.250	18.250	3.1033e-02
11.250	18.500	3.2404e-02
11.250	18.750	3.3847e-02
11.250	19.000	3.5110e-02
11.250	19.250	3.5597e-02
11.250	19.500	3.5049e-02
11.250	19.750	3.3153e-02
11.250	20.000	2.9702e-02
11.250	20.250	2.4773e-02
11.250	20.500	2.2613e-02
11.250	20.750	2.3005e-02
11.250	21.000	2.3484e-02
11.250	21.250	2.4328e-02
11.250	21.500	2.5011e-02
11.250	21.750	2.5043e-02
11.250	22.000	2.5061e-02
11.250	22.250	2.5075e-02
11.250	22.500	2.5086e-02
11.250	22.750	2.5093e-02
11.250	23.000	2.5096e-02
11.250	23.250	2.5099e-02
11.250	23.500	2.5100e-02
11.250	23.750	2.5098e-02
11.250	24.000	2.5098e-02
11.500	17.000	1.9332e-02
11.500	17.250	2.2654e-02
11.500	17.500	2.4550e-02
11.500	17.750	2.5252e-02
11.500	18.000	2.5897e-02
11.500	18.250	2.7163e-02
11.500	18.500	2.8922e-02
11.500	18.750	3.0814e-02
11.500	19.000	3.2705e-02
11.500	19.250	3.4162e-02
11.500	19.500	3.4805e-02
11.500	19.750	3.4327e-02
11.500	20.000	3.2431e-02
11.500	20.250	2.8829e-02
11.500	20.500	2.3758e-02
11.500	20.750	2.2610e-02
11.500	21.000	2.3030e-02
11.500	21.250	2.3573e-02
11.500	21.500	2.4524e-02
11.500	21.750	2.5006e-02
11.500	22.000	2.5040e-02
11.500	22.250	2.5060e-02
11.500	22.500	2.5075e-02
11.500	22.750	2.5086e-02
11.500	23.000	2.5093e-02
11.500	23.250	2.5096e-02
11.500	23.500	2.5099e-02
11.500	23.750	2.5101e-02
11.500	24.000	2.5099e-02
11.750	17.000	1.3718e-02
11.750	17.250	1.7089e-02
11.750	17.500	1.9261e-02
11.750	17.750	2.0259e-02
11.750	18.000	2.1271e-02
11.750	18.250	2.2979e-02
11.750	18.500	2.4994e-02
11.750	18.750	2.7201e-02
11.750	19.000	2.9431e-02
11.750	19.250	3.1544e-02
11.750	19.500	3.3196e-02
11.750	19.750	3.3980e-02
11.750	20.000	3.3593e-02
11.750	20.250	3.1684e-02
11.750	20.500	2.7954e-02
11.750	20.750	2.2900e-02
11.750	21.000	2.2603e-02
11.750	21.250	2.3096e-02
11.750	21.500	2.3742e-02
11.750	21.750	2.4793e-02
11.750	22.000	2.4998e-02
11.750	22.250	2.5036e-02
11.750	22.500	2.5059e-02
11.750	22.750	2.5074e-02
11.750	23.000	2.5086e-02
11.750	23.250	2.5093e-02
11.750	23.500	2.5107e-02
11.750	23.750	2.5099e-02
11.750	24.000	2.5101e-02
12.000	17.000	8.5013e-03
12.000	17.250	1.1349e-02
12.000	17.500	1.3534e-02
12.000	17.750	1.5009e-02
12.000	18.000	1.6603e-02
12.000	18.250	1.8573e-02
12.000	18.500	2.0707e-02
12.000	18.750	2.3030e-02
12.000	19.000	2.5474e-02
12.000	19.250	2.7988e-02
12.000	19.500	3.0350e-02
12.000	19.750	3.2207e-02
12.000	20.000	3.3146e-02
12.000	20.250	3.2851e-02
12.000	20.500	3.0933e-02
12.000	20.750	2.7077e-02
12.000	21.000	2.2015e-02
12.000	21.250	2.2637e-02
12.000	21.500	2.3208e-02
12.000	21.750	2.3996e-02
12.000	22.000	2.4929e-02
12.000	22.250	2.4991e-02
12.000	22.500	2.5032e-02
12.000	22.750	2.5057e-02
12.000	23.000	2.5073e-02
12.000	23.250	2.5085e-02
12.000	23.500	2.5093e-02
12.000	23.750	2.5096e-02
12.000	24.000	2.5099e-02
12.250	17.000	4.7020e-03
12.250	17.250	6.6088e-03
12.250	17.500	8.4367e-03
12.250	17.750	1.0194e-02
12.250	18.000	1.2088e-02
12.250	18.250	1.4020e-02
12.250	18.500	1.6101e-02
12.250	18.750	1.8443e-02
12.250	19.000	2.1014e-02
12.250	19.250	2.3797e-02
12.250	19.500	2.6588e-02
12.250	19.750	2.9188e-02
12.250	20.000	3.1219e-02
12.250	20.250	3.2297e-02
12.250	20.500	3.2089e-02
12.250	20.750	3.0165e-02
12.250	21.000	2.6176e-02
12.250	21.250	2.1876e-02
12.250	21.500	2.2692e-02
12.250	21.750	2.3358e-02
12.250	22.000	2.4286e-02
12.250	22.250	2.4924e-02
12.250	22.500	2.4983e-02
12.250	22.750	2.5027e-02
12.250	23.000	2.5054e-02
12.250	23.250	2.5072e-02
12.250	23.500	2.5085e-02
12.250	23.750	2.5093e-02
12.250	24.000	2.5096e-02
12.500	17.000	2.6538e-03
12.500	17.250	3.8286e-03
12.500	17.500	5.1342e-03
12.500	17.750	6.5363e-03
12.500	18.000	8.0184e-03
12.500	18.250	9.6389e-03
12.500	18.500	1.1500e-02
12.500	18.750	1.3748e-02
12.500	19.000	1.6347e-02
12.500	19.250	1.9215e-02
12.500	19.500	2.2246e-02
12.500	19.750	2.5258e-02
12.500	20.000	2.8030e-02
12.500	20.250	3.0188e-02
12.500	20.500	3.1412e-02
12.500	20.750	3.1296e-02
12.500	21.000	2.9320e-02
12.500	21.250	2.5270e-02
12.500	21.500	2.1772e-02
12.500	21.750	2.2790e-02
12.500	22.000	2.3563e-02
12.500	22.250	2.4527e-02
12.500	22.500	2.4918e-02
12.500	22.750	2.4979e-02
12.500	23.000	2.5022e-02
12.500	23.250	2.5051e-02
12.500	23.500	2.5071e-02
12.500	23.750	2.5084e-02
12.500	24.000	2.5093e-02
12.750	17.000	1.6782e-03
12.750	17.250	2.4114e-03
12.750	17.500	3.1885e-03
12.750	17.750	3.9440e-03
12.750	18.000	4.8178e-03
12.750	18.250	5.9493e-03
12.750	18.500	7.4319e-03
12.750	18.750	9.3469e-03
12.750	19.000	1.1746e-02
12.750	19.250	1.4540e-02
12.750	19.500	1.7604e-02
12.750	19.750	2.0789e-02
12.750	20.000	2.3930e-02
12.750	20.250	2.6832e-02
12.750	20.500	2.9114e-02
12.750	20.750	3.0463e-02
12.750	21.000	3.0380e-02
12.750	21.250	2.8385e-02
12.750	21.500	2.4562e-02
12.750	21.750	2.1925e-02
12.750	22.000	2.2931e-02
12.750	22.250	2.3799e-02
12.750	22.500	2.4703e-02
12.750	22.750	2.4912e-02
12.750	23.000	2.4973e-02
12.750	23.250	2.5018e-02
12.750	23.500	2.5048e-02
12.750	23.750	2.5069e-02
12.750	24.000	2.5083e-02
13.000	17.000	1.0230e-03
13.000	17.250	1.4439e-03
13.000	17.500	1.8402e-03
13.000	17.750	2.2523e-03
13.000	18.000	2.7667e-03
13.000	18.250	3.4723e-03
13.000	18.500	4.4515e-03
13.000	18.750	5.8207e-03
13.000	19.000	7.7080e-03
13.000	19.250	1.0134e-02
13.000	19.500	1.2978e-02
13.000	19.750	1.6099e-02
13.000	20.000	1.9349e-02
13.000	20.250	2.2566e-02
13.000	20.500	2.5569e-02
13.000	20.750	2.7933e-02
13.000	21.000	2.9326e-02
13.000	21.250	2.9287e-02
13.000	21.500	2.7517e-02
13.000	21.750	2.3618e-02
13.000	22.000	2.2173e-02
13.000	22.250	2.3062e-02
13.000	22.500	2.3963e-02
13.000	22.750	2.4767e-02
13.000	23.000	2.4909e-02
13.000	23.250	2.4970e-02
13.000	23.500	2.5014e-02
13.000	23.750	2.5044e-02
13.000	24.000	2.5066e-02
13.250	17.000	6.4519e-04
13.250	17.250	8.9819e-04
13.250	17.500	1.1227e-03
13.250	17.750	1.3185e-03
13.250	18.000	1.5952e-03
13.250	18.250	2.0200e-03
13.250	18.500	2.6300e-03
13.250	18.750	3.5016e-03
13.250	19.000	4.7418e-03
13.250	19.250	6.4812e-03
13.250	19.500	8.7780e-03
13.250	19.750	1.1567e-02
13.250	20.000	1.4649e-02
13.250	20.250	1.7884e-02
13.250	20.500	2.1129e-02
13.250	20.750	2.4163e-02
13.250	21.000	2.6545e-02
13.250	21.250	2.7954e-02
13.250	21.500	2.8142e-02
13.250	21.750	2.6132e-02
13.250	22.000	2.2721e-02
13.250	22.250	2.2273e-02
13.250	22.500	2.3152e-02
13.250	22.750	2.4014e-02
13.250	23.000	2.4781e-02
13.250	23.250	2.4905e-02
13.250	23.500	2.4967e-02
13.250	23.750	2.5010e-02
13.250	24.000	2.5041e-02
13.500	17.000	4.2774e-04
13.500	17.250	5.7638e-04
13.500	17.500	7.0749e-04
13.500	17.750	8.0716e-04
13.500	18.000	9.5720e-04
13.500	18.250	1.1937e-03
13.500	18.500	1.5532e-03
13.500	18.750	2.0798e-03
13.500	19.000	2.8514e-03
13.500	19.250	3.9629e-03
13.500	19.500	5.5153e-03
13.500	19.750	7.5970e-03
13.500	20.000	1.0188e-02
13.500	20.250	1.3150e-02
13.500	20.500	1.6306e-02
13.500	20.750	1.9505e-02
13.500	21.000	2.2483e-02
13.500	21.250	2.4824e-02
13.500	21.500	2.6393e-02
13.500	21.750	2.6285e-02
13.500	22.000	2.4351e-02
13.500	22.250	2.1861e-02
13.500	22.500	2.2309e-02
13.500	22.750	2.3141e-02
13.500	23.000	2.3941e-02
13.500	23.250	2.4763e-02
13.500	23.500	2.4899e-02
13.500	23.750	2.4961e-02
13.500	24.000	2.5005e-02
13.750	17.000	2.9827e-04
13.750	17.250	3.9070e-04
13.750	17.500	4.6955e-04
13.750	17.750	5.3053e-04
13.750	18.000	6.0642e-04
13.750	18.250	7.3877e-04
13.750	18.500	9.4066e-04
13.750	18.750	1.2432e-03
13.750	19.000	1.6978e-03
13.750	19.250	2.3747e-03
13.750	19.500	3.3569e-03
13.750	19.750	4.7223e-03
13.750	20.000	6.5508e-03
13.750	20.250	8.8812e-03
13.750	20.500	1.1640e-02
13.750	20.750	1.4614e-02
13.750	21.000	1.7604e-02
13.750	21.250	2.0425e-02
13.750	21.500	2.2842e-02
13.750	21.750	2.3944e-02
13.750	22.000	2.3647e-02
13.750	22.250	2.2046e-02
13.750	22.500	2.1211e-02
13.750	22.750	2.2326e-02
13.750	23.000	2.3075e-02
13.750	23.250	2.3919e-02
13.750	23.500	2.4737e-02
13.750	23.750	2.4887e-02
13.750	24.000	2.4952e-02
14.000	17.000	2.1794e-04
14.000	17.250	2.8058e-04
14.000	17.500	3.3251e-04
14.000	17.750	3.6864e-04
14.000	18.000	4.1235e-04
14.000	18.250	4.8263e-04
14.000	18.500	5.9621e-04
14.000	18.750	7.6617e-04
14.000	19.000	1.0258e-03
14.000	19.250	1.4188e-03
14.000	19.500	2.0058e-03
14.000	19.750	2.8618e-03
14.000	20.000	4.0569e-03
14.000	20.250	5.6578e-03
14.000	20.500	7.6880e-03
14.000	20.750	1.0122e-02
14.000	21.000	1.2800e-02
14.000	21.250	1.5494e-02
14.000	21.500	1.8277e-02
14.000	21.750	1.9988e-02
14.000	22.000	2.0668e-02
14.000	22.250	2.0347e-02
14.000	22.500	1.9740e-02
14.000	22.750	2.0951e-02
14.000	23.000	2.2309e-02
14.000	23.250	2.3056e-02
14.000	23.500	2.3923e-02
14.000	23.750	2.4738e-02
14.000	24.000	2.4867e-02
