InwT 608.160A  relative to Inci 1215.00A scaled to 1215A.
Hden   Phi(H)  Eq_Width (A)
 7.000	17.000	7.1474e-02
 7.000	17.250	8.1857e-02
 7.000	17.500	6.6328e-02
 7.000	17.750	4.6691e-02
 7.000	18.000	3.4773e-02
 7.000	18.250	2.8706e-02
 7.000	18.500	2.5726e-02
 7.000	18.750	2.4726e-02
 7.000	19.000	2.4246e-02
 7.000	19.250	2.3987e-02
 7.000	19.500	2.3878e-02
 7.000	19.750	2.3831e-02
 7.000	20.000	2.3810e-02
 7.000	20.250	2.3800e-02
 7.000	20.500	2.3795e-02
 7.000	20.750	2.3793e-02
 7.000	21.000	2.3791e-02
 7.000	21.250	2.3791e-02
 7.000	21.500	2.3790e-02
 7.000	21.750	2.3790e-02
 7.000	22.000	2.3790e-02
 7.000	22.250	2.3790e-02
 7.000	22.500	2.3790e-02
 7.000	22.750	2.3790e-02
 7.000	23.000	2.3790e-02
 7.000	23.250	2.3790e-02
 7.000	23.500	2.3790e-02
 7.000	23.750	2.3790e-02
 7.000	24.000	2.3790e-02
 7.250	17.000	5.3671e-02
 7.250	17.250	7.1323e-02
 7.250	17.500	8.1505e-02
 7.250	17.750	6.6043e-02
 7.250	18.000	4.6493e-02
 7.250	18.250	3.4681e-02
 7.250	18.500	2.8664e-02
 7.250	18.750	2.5711e-02
 7.250	19.000	2.4720e-02
 7.250	19.250	2.4244e-02
 7.250	19.500	2.3987e-02
 7.250	19.750	2.3878e-02
 7.250	20.000	2.3831e-02
 7.250	20.250	2.3810e-02
 7.250	20.500	2.3800e-02
 7.250	20.750	2.3795e-02
 7.250	21.000	2.3792e-02
 7.250	21.250	2.3791e-02
 7.250	21.500	2.3790e-02
 7.250	21.750	2.3790e-02
 7.250	22.000	2.3792e-02
 7.250	22.250	2.3790e-02
 7.250	22.500	2.3790e-02
 7.250	22.750	2.3790e-02
 7.250	23.000	2.3790e-02
 7.250	23.250	2.3791e-02
 7.250	23.500	2.3790e-02
 7.250	23.750	2.3791e-02
 7.250	24.000	2.3790e-02
 7.500	17.000	4.1595e-02
 7.500	17.250	5.3755e-02
 7.500	17.500	7.1327e-02
 7.500	17.750	8.1362e-02
 7.500	18.000	6.5895e-02
 7.500	18.250	4.6356e-02
 7.500	18.500	3.4617e-02
 7.500	18.750	2.8637e-02
 7.500	19.000	2.5700e-02
 7.500	19.250	2.4716e-02
 7.500	19.500	2.4243e-02
 7.500	19.750	2.3987e-02
 7.500	20.000	2.3878e-02
 7.500	20.250	2.3831e-02
 7.500	20.500	2.3810e-02
 7.500	20.750	2.3800e-02
 7.500	21.000	2.3795e-02
 7.500	21.250	2.3792e-02
 7.500	21.500	2.3791e-02
 7.500	21.750	2.3790e-02
 7.500	22.000	2.3790e-02
 7.500	22.250	2.3790e-02
 7.500	22.500	2.3790e-02
 7.500	22.750	2.3789e-02
 7.500	23.000	2.3790e-02
 7.500	23.250	2.3790e-02
 7.500	23.500	2.3790e-02
 7.500	23.750	2.3790e-02
 7.500	24.000	2.3790e-02
 7.750	17.000	3.3223e-02
 7.750	17.250	4.1784e-02
 7.750	17.500	5.3874e-02
 7.750	17.750	7.1408e-02
 7.750	18.000	8.1339e-02
 7.750	18.250	6.5837e-02
 7.750	18.500	4.6254e-02
 7.750	18.750	3.4572e-02
 7.750	19.000	2.8620e-02
 7.750	19.250	2.5694e-02
 7.750	19.500	2.4713e-02
 7.750	19.750	2.4242e-02
 7.750	20.000	2.3987e-02
 7.750	20.250	2.3878e-02
 7.750	20.500	2.3831e-02
 7.750	20.750	2.3810e-02
 7.750	21.000	2.3800e-02
 7.750	21.250	2.3795e-02
 7.750	21.500	2.3792e-02
 7.750	21.750	2.3791e-02
 7.750	22.000	2.3790e-02
 7.750	22.250	2.3790e-02
 7.750	22.500	2.3790e-02
 7.750	22.750	2.3789e-02
 7.750	23.000	2.3790e-02
 7.750	23.250	2.3789e-02
 7.750	23.500	2.3789e-02
 7.750	23.750	2.3789e-02
 7.750	24.000	2.3789e-02
 8.000	17.000	2.6762e-02
 8.000	17.250	3.3232e-02
 8.000	17.500	4.1715e-02
 8.000	17.750	5.3771e-02
 8.000	18.000	7.1356e-02
 8.000	18.250	8.1380e-02
 8.000	18.500	6.5839e-02
 8.000	18.750	4.6174e-02
 8.000	19.000	3.4538e-02
 8.000	19.250	2.8611e-02
 8.000	19.500	2.5691e-02
 8.000	19.750	2.4712e-02
 8.000	20.000	2.4241e-02
 8.000	20.250	2.3987e-02
 8.000	20.500	2.3878e-02
 8.000	20.750	2.3831e-02
 8.000	21.000	2.3810e-02
 8.000	21.250	2.3800e-02
 8.000	21.500	2.3795e-02
 8.000	21.750	2.3792e-02
 8.000	22.000	2.3791e-02
 8.000	22.250	2.3790e-02
 8.000	22.500	2.3790e-02
 8.000	22.750	2.3789e-02
 8.000	23.000	2.3789e-02
 8.000	23.250	2.3789e-02
 8.000	23.500	2.3789e-02
 8.000	23.750	2.3789e-02
 8.000	24.000	2.3792e-02
 8.250	17.000	2.1858e-02
 8.250	17.250	2.6902e-02
 8.250	17.500	3.3345e-02
 8.250	17.750	4.1792e-02
 8.250	18.000	5.3830e-02
 8.250	18.250	7.1413e-02
 8.250	18.500	8.1431e-02
 8.250	18.750	6.5873e-02
 8.250	19.000	4.6100e-02
 8.250	19.250	3.4509e-02
 8.250	19.500	2.8605e-02
 8.250	19.750	2.5689e-02
 8.250	20.000	2.4711e-02
 8.250	20.250	2.4241e-02
 8.250	20.500	2.3986e-02
 8.250	20.750	2.3878e-02
 8.250	21.000	2.3831e-02
 8.250	21.250	2.3810e-02
 8.250	21.500	2.3800e-02
 8.250	21.750	2.3795e-02
 8.250	22.000	2.3792e-02
 8.250	22.250	2.3791e-02
 8.250	22.500	2.3790e-02
 8.250	22.750	2.3790e-02
 8.250	23.000	2.3790e-02
 8.250	23.250	2.3789e-02
 8.250	23.500	2.3789e-02
 8.250	23.750	2.3789e-02
 8.250	24.000	2.3789e-02
 8.500	17.000	1.8077e-02
 8.500	17.250	2.1954e-02
 8.500	17.500	2.6986e-02
 8.500	17.750	3.3400e-02
 8.500	18.000	4.1830e-02
 8.500	18.250	5.3824e-02
 8.500	18.500	7.1415e-02
 8.500	18.750	8.1517e-02
 8.500	19.000	6.5934e-02
 8.500	19.250	4.6028e-02
 8.500	19.500	3.4483e-02
 8.500	19.750	2.8602e-02
 8.500	20.000	2.5688e-02
 8.500	20.250	2.4711e-02
 8.500	20.500	2.4241e-02
 8.500	20.750	2.3986e-02
 8.500	21.000	2.3878e-02
 8.500	21.250	2.3831e-02
 8.500	21.500	2.3810e-02
 8.500	21.750	2.3800e-02
 8.500	22.000	2.3795e-02
 8.500	22.250	2.3792e-02
 8.500	22.500	2.3791e-02
 8.500	22.750	2.3791e-02
 8.500	23.000	2.3790e-02
 8.500	23.250	2.3789e-02
 8.500	23.500	2.3789e-02
 8.500	23.750	2.3789e-02
 8.500	24.000	2.3789e-02
 8.750	17.000	1.5153e-02
 8.750	17.250	1.8162e-02
 8.750	17.500	2.2020e-02
 8.750	17.750	2.7036e-02
 8.750	18.000	3.3457e-02
 8.750	18.250	4.1869e-02
 8.750	18.500	5.3823e-02
 8.750	18.750	7.1388e-02
 8.750	19.000	8.1599e-02
 8.750	19.250	6.6009e-02
 8.750	19.500	4.5953e-02
 8.750	19.750	3.4459e-02
 8.750	20.000	2.8600e-02
 8.750	20.250	2.5687e-02
 8.750	20.500	2.4711e-02
 8.750	20.750	2.4241e-02
 8.750	21.000	2.3986e-02
 8.750	21.250	2.3878e-02
 8.750	21.500	2.3831e-02
 8.750	21.750	2.3810e-02
 8.750	22.000	2.3800e-02
 8.750	22.250	2.3795e-02
 8.750	22.500	2.3792e-02
 8.750	22.750	2.3791e-02
 8.750	23.000	2.3790e-02
 8.750	23.250	2.3790e-02
 8.750	23.500	2.3789e-02
 8.750	23.750	2.3789e-02
 8.750	24.000	2.3789e-02
 9.000	17.000	1.2689e-02
 9.000	17.250	1.5309e-02
 9.000	17.500	1.8291e-02
 9.000	17.750	2.2129e-02
 9.000	18.000	2.7137e-02
 9.000	18.250	3.3551e-02
 9.000	18.500	4.1966e-02
 9.000	18.750	5.3940e-02
 9.000	19.000	7.1350e-02
 9.000	19.250	8.1662e-02
 9.000	19.500	6.6086e-02
 9.000	19.750	4.5878e-02
 9.000	20.000	3.4436e-02
 9.000	20.250	2.8599e-02
 9.000	20.500	2.5688e-02
 9.000	20.750	2.4711e-02
 9.000	21.000	2.4241e-02
 9.000	21.250	2.3986e-02
 9.000	21.500	2.3878e-02
 9.000	21.750	2.3831e-02
 9.000	22.000	2.3810e-02
 9.000	22.250	2.3800e-02
 9.000	22.500	2.3795e-02
 9.000	22.750	2.3792e-02
 9.000	23.000	2.3791e-02
 9.000	23.250	2.3790e-02
 9.000	23.500	2.3790e-02
 9.000	23.750	2.3789e-02
 9.000	24.000	2.3790e-02
 9.250	17.000	1.0343e-02
 9.250	17.250	1.2934e-02
 9.250	17.500	1.5575e-02
 9.250	17.750	1.8560e-02
 9.250	18.000	2.2369e-02
 9.250	18.250	2.7349e-02
 9.250	18.500	3.3767e-02
 9.250	18.750	4.2274e-02
 9.250	19.000	5.4250e-02
 9.250	19.250	7.1378e-02
 9.250	19.500	8.1704e-02
 9.250	19.750	6.6175e-02
 9.250	20.000	4.5808e-02
 9.250	20.250	3.4415e-02
 9.250	20.500	2.8599e-02
 9.250	20.750	2.5688e-02
 9.250	21.000	2.4711e-02
 9.250	21.250	2.4241e-02
 9.250	21.500	2.3983e-02
 9.250	21.750	2.3874e-02
 9.250	22.000	2.3826e-02
 9.250	22.250	2.3806e-02
 9.250	22.500	2.3799e-02
 9.250	22.750	2.3794e-02
 9.250	23.000	2.3792e-02
 9.250	23.250	2.3791e-02
 9.250	23.500	2.3790e-02
 9.250	23.750	2.3789e-02
 9.250	24.000	2.3789e-02
 9.500	17.000	7.9696e-03
 9.500	17.250	1.0664e-02
 9.500	17.500	1.3370e-02
 9.500	17.750	1.6067e-02
 9.500	18.000	1.9011e-02
 9.500	18.250	2.2772e-02
 9.500	18.500	2.7767e-02
 9.500	18.750	3.4334e-02
 9.500	19.000	4.3075e-02
 9.500	19.250	5.5170e-02
 9.500	19.500	7.1617e-02
 9.500	19.750	8.1764e-02
 9.500	20.000	6.6250e-02
 9.500	20.250	4.5751e-02
 9.500	20.500	3.4400e-02
 9.500	20.750	2.8597e-02
 9.500	21.000	2.5683e-02
 9.500	21.250	2.4707e-02
 9.500	21.500	2.4237e-02
 9.500	21.750	2.3980e-02
 9.500	22.000	2.3871e-02
 9.500	22.250	2.3824e-02
 9.500	22.500	2.3803e-02
 9.500	22.750	2.3793e-02
 9.500	23.000	2.3788e-02
 9.500	23.250	2.3785e-02
 9.500	23.500	2.3784e-02
 9.500	23.750	2.3784e-02
 9.500	24.000	2.3783e-02
 9.750	17.000	5.6157e-03
 9.750	17.250	8.2681e-03
 9.750	17.500	1.1181e-02
 9.750	17.750	1.4051e-02
 9.750	18.000	1.6767e-02
 9.750	18.250	1.9695e-02
 9.750	18.500	2.3531e-02
 9.750	18.750	2.8732e-02
 9.750	19.000	3.5669e-02
 9.750	19.250	4.4887e-02
 9.750	19.500	5.6952e-02
 9.750	19.750	7.2277e-02
 9.750	20.000	8.1909e-02
 9.750	20.250	6.6320e-02
 9.750	20.500	4.5711e-02
 9.750	20.750	3.4391e-02
 9.750	21.000	2.8601e-02
 9.750	21.250	2.5685e-02
 9.750	21.500	2.4708e-02
 9.750	21.750	2.4237e-02
 9.750	22.000	2.3981e-02
 9.750	22.250	2.3871e-02
 9.750	22.500	2.3824e-02
 9.750	22.750	2.3803e-02
 9.750	23.000	2.3793e-02
 9.750	23.250	2.3788e-02
 9.750	23.500	2.3785e-02
 9.750	23.750	2.3784e-02
 9.750	24.000	2.3783e-02
10.000	17.000	3.3684e-03
10.000	17.250	5.8214e-03
10.000	17.500	8.7494e-03
10.000	17.750	1.1912e-02
10.000	18.000	1.4931e-02
10.000	18.250	1.7746e-02
10.000	18.500	2.0858e-02
10.000	18.750	2.5022e-02
10.000	19.000	3.0729e-02
10.000	19.250	3.8264e-02
10.000	19.500	4.8006e-02
10.000	19.750	5.9646e-02
10.000	20.000	7.3818e-02
10.000	20.250	8.2301e-02
10.000	20.500	6.6413e-02
10.000	20.750	4.5702e-02
10.000	21.000	3.4391e-02
10.000	21.250	2.8605e-02
10.000	21.500	2.5689e-02
10.000	21.750	2.4709e-02
10.000	22.000	2.4238e-02
10.000	22.250	2.3982e-02
10.000	22.500	2.3872e-02
10.000	22.750	2.3823e-02
10.000	23.000	2.3803e-02
10.000	23.250	2.3793e-02
10.000	23.500	2.3788e-02
10.000	23.750	2.3785e-02
10.000	24.000	2.3784e-02
10.250	17.000	1.9240e-03
10.250	17.250	3.4989e-03
10.250	17.500	6.1852e-03
10.250	17.750	9.3919e-03
10.250	18.000	1.2842e-02
10.250	18.250	1.6182e-02
10.250	18.500	1.9381e-02
10.250	18.750	2.3015e-02
10.250	19.000	2.7752e-02
10.250	19.250	3.4093e-02
10.250	19.500	4.2398e-02
10.250	19.750	5.2081e-02
10.250	20.000	6.3273e-02
10.250	20.250	7.6100e-02
10.250	20.500	8.3262e-02
10.250	20.750	6.6555e-02
10.250	21.000	4.5710e-02
10.250	21.250	3.4401e-02
10.250	21.500	2.8612e-02
10.250	21.750	2.5692e-02
10.250	22.000	2.4713e-02
10.250	22.250	2.4238e-02
10.250	22.500	2.3982e-02
10.250	22.750	2.3873e-02
10.250	23.000	2.3824e-02
10.250	23.250	2.3803e-02
10.250	23.500	2.3793e-02
10.250	23.750	2.3788e-02
10.250	24.000	2.3785e-02
10.500	17.000	1.0784e-03
10.500	17.250	1.9892e-03
10.500	17.500	3.7299e-03
10.500	17.750	6.6924e-03
10.500	18.000	1.0286e-02
10.500	18.250	1.4252e-02
10.500	18.500	1.8188e-02
10.500	18.750	2.2028e-02
10.500	19.000	2.6271e-02
10.500	19.250	3.1659e-02
10.500	19.500	3.8763e-02
10.500	19.750	4.7976e-02
10.500	20.000	5.8154e-02
10.500	20.250	6.8087e-02
10.500	20.500	7.9336e-02
10.500	20.750	8.4642e-02
10.500	21.000	6.6783e-02
10.500	21.250	4.5746e-02
10.500	21.500	3.4424e-02
10.500	21.750	2.8621e-02
10.500	22.000	2.5694e-02
10.500	22.250	2.4715e-02
10.500	22.500	2.4240e-02
10.500	22.750	2.3983e-02
10.500	23.000	2.3873e-02
10.500	23.250	2.3825e-02
10.500	23.500	2.3803e-02
10.500	23.750	2.3793e-02
10.500	24.000	2.3788e-02
10.750	17.000	6.4996e-04
10.750	17.250	1.1141e-03
10.750	17.500	2.1273e-03
10.750	17.750	4.1706e-03
10.750	18.000	7.4739e-03
10.750	18.250	1.1744e-02
10.750	18.500	1.6411e-02
10.750	18.750	2.0977e-02
10.750	19.000	2.5379e-02
10.750	19.250	3.0256e-02
10.750	19.500	3.6426e-02
10.750	19.750	4.4462e-02
10.750	20.000	5.4639e-02
10.750	20.250	6.5298e-02
10.750	20.500	7.4270e-02
10.750	20.750	8.3934e-02
10.750	21.000	8.6827e-02
10.750	21.250	6.7143e-02
10.750	21.500	4.5818e-02
10.750	21.750	3.4464e-02
10.750	22.000	2.8635e-02
10.750	22.250	2.5697e-02
10.750	22.500	2.4716e-02
10.750	22.750	2.4243e-02
10.750	23.000	2.3983e-02
10.750	23.250	2.3874e-02
10.750	23.500	2.3826e-02
10.750	23.750	2.3804e-02
10.750	24.000	2.3794e-02
11.000	17.000	4.3506e-04
11.000	17.250	6.7358e-04
11.000	17.500	1.1917e-03
11.000	17.750	2.4011e-03
11.000	18.000	4.8285e-03
11.000	18.250	8.6613e-03
11.000	18.500	1.3639e-02
11.000	18.750	1.8933e-02
11.000	19.000	2.3955e-02
11.000	19.250	2.8929e-02
11.000	19.500	3.4622e-02
11.000	19.750	4.1851e-02
11.000	20.000	5.0990e-02
11.000	20.250	6.1800e-02
11.000	20.500	7.4062e-02
11.000	20.750	8.2132e-02
11.000	21.000	9.0150e-02
11.000	21.250	8.9485e-02
11.000	21.500	6.7591e-02
11.000	21.750	4.5942e-02
11.000	22.000	3.4526e-02
11.000	22.250	2.8655e-02
11.000	22.500	2.5700e-02
11.000	22.750	2.4719e-02
11.000	23.000	2.4244e-02
11.000	23.250	2.3984e-02
11.000	23.500	2.3874e-02
11.000	23.750	2.3827e-02
11.000	24.000	2.3805e-02
11.250	17.000	3.1095e-04
11.250	17.250	4.5070e-04
11.250	17.500	7.2288e-04
11.250	17.750	1.3556e-03
11.250	18.000	2.8193e-03
11.250	18.250	5.6184e-03
11.250	18.500	9.9849e-03
11.250	18.750	1.5557e-02
11.250	19.000	2.1281e-02
11.250	19.250	2.6779e-02
11.250	19.500	3.2574e-02
11.250	19.750	3.9456e-02
11.250	20.000	4.8014e-02
11.250	20.250	5.8513e-02
11.250	20.500	7.0516e-02
11.250	20.750	8.3793e-02
11.250	21.000	9.2063e-02
11.250	21.250	9.8473e-02
11.250	21.500	9.2274e-02
11.250	21.750	6.8097e-02
11.250	22.000	4.6113e-02
11.250	22.250	3.4615e-02
11.250	22.500	2.8684e-02
11.250	22.750	2.5705e-02
11.250	23.000	2.4721e-02
11.250	23.250	2.4245e-02
11.250	23.500	2.3986e-02
11.250	23.750	2.3874e-02
11.250	24.000	2.3827e-02
11.500	17.000	2.3202e-04
11.500	17.250	3.2551e-04
11.500	17.500	4.8724e-04
11.500	17.750	8.2016e-04
11.500	18.000	1.5939e-03
11.500	18.250	3.2481e-03
11.500	18.500	6.3242e-03
11.500	18.750	1.1174e-02
11.500	19.000	1.7272e-02
11.500	19.250	2.3403e-02
11.500	19.500	2.9587e-02
11.500	19.750	3.6593e-02
11.500	20.000	4.4997e-02
11.500	20.250	5.5088e-02
11.500	20.500	6.7059e-02
11.500	20.750	8.0483e-02
11.500	21.000	9.5873e-02
11.500	21.250	1.0483e-01
11.500	21.500	1.0960e-01
11.500	21.750	9.5211e-02
11.500	22.000	6.8532e-02
11.500	22.250	4.6319e-02
11.500	22.500	3.4733e-02
11.500	22.750	2.8729e-02
11.500	23.000	2.5712e-02
11.500	23.250	2.4725e-02
11.500	23.500	2.4247e-02
11.500	23.750	2.3987e-02
11.500	24.000	2.3875e-02
11.750	17.000	1.7679e-04
11.750	17.250	2.4543e-04
11.750	17.500	3.5481e-04
11.750	17.750	5.4864e-04
11.750	18.000	9.5045e-04
11.750	18.250	1.8135e-03
11.750	18.500	3.5723e-03
11.750	18.750	6.9032e-03
11.750	19.000	1.2234e-02
11.750	19.250	1.8855e-02
11.750	19.500	2.5555e-02
11.750	19.750	3.2756e-02
11.750	20.000	4.1319e-02
11.750	20.250	5.1464e-02
11.750	20.500	6.3275e-02
11.750	20.750	7.6836e-02
11.750	21.000	9.2456e-02
11.750	21.250	1.1131e-01
11.750	21.500	1.2105e-01
11.750	21.750	1.2231e-01
11.750	22.000	9.7859e-02
11.750	22.250	6.8835e-02
11.750	22.500	4.6500e-02
11.750	22.750	3.4868e-02
11.750	23.000	2.8783e-02
11.750	23.250	2.5722e-02
11.750	23.500	2.4740e-02
11.750	23.750	2.4249e-02
11.750	24.000	2.3988e-02
12.000	17.000	1.3671e-04
12.000	17.250	1.9037e-04
12.000	17.500	2.7078e-04
12.000	17.750	3.9959e-04
12.000	18.000	6.2815e-04
12.000	18.250	1.0802e-03
12.000	18.500	1.9749e-03
12.000	18.750	3.8062e-03
12.000	19.000	7.4381e-03
12.000	19.250	1.3330e-02
12.000	19.500	2.0570e-02
12.000	19.750	2.8089e-02
12.000	20.000	3.6693e-02
12.000	20.250	4.7101e-02
12.000	20.500	5.9153e-02
12.000	20.750	7.2751e-02
12.000	21.000	8.9058e-02
12.000	21.250	1.0841e-01
12.000	21.500	1.3069e-01
12.000	21.750	1.3987e-01
12.000	22.000	1.3272e-01
12.000	22.250	9.9544e-02
12.000	22.500	6.8923e-02
12.000	22.750	4.6633e-02
12.000	23.000	3.5003e-02
12.000	23.250	2.8844e-02
12.000	23.500	2.5734e-02
12.000	23.750	2.4735e-02
12.000	24.000	2.4251e-02
12.250	17.000	1.0856e-04
12.250	17.250	1.5160e-04
12.250	17.500	2.1251e-04
12.250	17.750	3.0815e-04
12.250	18.000	4.5811e-04
12.250	18.250	7.2362e-04
12.250	18.500	1.2054e-03
12.250	18.750	2.1262e-03
12.250	19.000	4.0821e-03
12.250	19.250	8.1154e-03
12.250	19.500	1.4708e-02
12.250	19.750	2.2695e-02
12.250	20.000	3.1340e-02
12.250	20.250	4.1715e-02
12.250	20.500	5.4128e-02
12.250	20.750	6.8387e-02
12.250	21.000	8.5478e-02
12.250	21.250	1.0486e-01
12.250	21.500	1.2725e-01
12.250	21.750	1.5191e-01
12.250	22.000	1.5933e-01
12.250	22.250	1.3956e-01
12.250	22.500	1.0084e-01
12.250	22.750	6.8769e-02
12.250	23.000	4.6686e-02
12.250	23.250	3.5122e-02
12.250	23.500	2.8906e-02
12.250	23.750	2.5746e-02
12.250	24.000	2.4740e-02
12.500	17.000	8.5597e-05
12.500	17.250	1.2444e-04
12.500	17.500	1.7342e-04
12.500	17.750	2.4667e-04
12.500	18.000	3.5918e-04
12.500	18.250	5.3893e-04
12.500	18.500	8.4436e-04
12.500	18.750	1.3625e-03
12.500	19.000	2.3607e-03
12.500	19.250	4.5520e-03
12.500	19.500	9.1572e-03
12.500	19.750	1.6557e-02
12.500	20.000	2.5541e-02
12.500	20.250	3.5588e-02
12.500	20.500	4.8004e-02
12.500	20.750	6.3123e-02
12.500	21.000	8.1219e-02
12.500	21.250	1.0227e-01
12.500	21.500	1.2427e-01
12.500	21.750	1.5033e-01
12.500	22.000	1.7757e-01
12.500	22.250	1.7675e-01
12.500	22.500	1.4524e-01
12.500	22.750	1.0174e-01
12.500	23.000	6.8357e-02
12.500	23.250	4.6643e-02
12.500	23.500	3.5224e-02
12.500	23.750	2.8963e-02
12.500	24.000	2.5755e-02
12.750	17.000	6.6420e-05
12.750	17.250	9.9506e-05
12.750	17.500	1.4362e-04
12.750	17.750	2.0700e-04
12.750	18.000	2.9770e-04
12.750	18.250	4.3457e-04
12.750	18.500	6.5588e-04
12.750	18.750	1.0130e-03
12.750	19.000	1.6049e-03
12.750	19.250	2.7677e-03
12.750	19.500	5.3224e-03
12.750	19.750	1.0589e-02
12.750	20.000	1.8812e-02
12.750	20.250	2.8956e-02
12.750	20.500	4.0974e-02
12.750	20.750	5.5993e-02
12.750	21.000	7.4699e-02
12.750	21.250	9.7920e-02
12.750	21.500	1.2226e-01
12.750	21.750	1.4910e-01
12.750	22.000	1.7832e-01
12.750	22.250	2.0353e-01
12.750	22.500	1.9190e-01
12.750	22.750	1.4908e-01
12.750	23.000	1.0196e-01
12.750	23.250	6.7760e-02
12.750	23.500	4.6565e-02
12.750	23.750	3.5289e-02
12.750	24.000	2.9008e-02
13.000	17.000	5.0947e-05
13.000	17.250	7.8683e-05
13.000	17.500	1.1827e-04
13.000	17.750	1.7185e-04
13.000	18.000	2.5136e-04
13.000	18.250	3.6938e-04
13.000	18.500	5.5095e-04
13.000	18.750	8.3029e-04
13.000	19.000	1.2646e-03
13.000	19.250	1.9936e-03
13.000	19.500	3.3713e-03
13.000	19.750	6.3700e-03
13.000	20.000	1.2235e-02
13.000	20.250	2.1348e-02
13.000	20.500	3.3400e-02
13.000	20.750	4.7615e-02
13.000	21.000	6.6813e-02
13.000	21.250	9.0469e-02
13.000	21.500	1.1623e-01
13.000	21.750	1.4786e-01
13.000	22.000	1.7857e-01
13.000	22.250	2.0506e-01
13.000	22.500	2.2477e-01
13.000	22.750	2.0465e-01
13.000	23.000	1.5248e-01
13.000	23.250	1.0168e-01
13.000	23.500	6.7014e-02
13.000	23.750	4.6365e-02
13.000	24.000	3.5303e-02
13.250	17.000	3.8272e-05
13.250	17.250	6.1235e-05
13.250	17.500	9.5391e-05
13.250	17.750	1.4370e-04
13.250	18.000	2.1374e-04
13.250	18.250	3.2148e-04
13.250	18.500	4.8469e-04
13.250	18.750	7.2979e-04
13.250	19.000	1.0929e-03
13.250	19.250	1.6505e-03
13.250	19.500	2.5686e-03
13.250	19.750	4.2519e-03
13.250	20.000	7.6226e-03
13.250	20.250	1.3961e-02
13.250	20.500	2.4056e-02
13.250	20.750	3.7684e-02
13.250	21.000	5.4977e-02
13.250	21.250	7.7870e-02
13.250	21.500	1.0372e-01
13.250	21.750	1.3888e-01
13.250	22.000	1.7045e-01
13.250	22.250	2.0092e-01
13.250	22.500	2.3171e-01
13.250	22.750	2.4292e-01
13.250	23.000	2.1590e-01
13.250	23.250	1.5401e-01
13.250	23.500	1.0088e-01
13.250	23.750	6.6167e-02
13.250	24.000	4.6056e-02
13.500	17.000	2.8807e-05
13.500	17.250	4.7160e-05
13.500	17.500	7.6955e-05
13.500	17.750	1.1942e-04
13.500	18.000	1.8305e-04
13.500	18.250	2.8099e-04
13.500	18.500	4.3531e-04
13.500	18.750	6.6790e-04
13.500	19.000	1.0064e-03
13.500	19.250	1.4958e-03
13.500	19.500	2.2419e-03
13.500	19.750	3.4500e-03
13.500	20.000	5.5416e-03
13.500	20.250	9.3932e-03
13.500	20.500	1.6234e-02
13.500	20.750	2.7004e-02
13.500	21.000	4.1259e-02
13.500	21.250	6.2019e-02
13.500	21.500	8.5099e-02
13.500	21.750	1.1296e-01
13.500	22.000	1.4829e-01
13.500	22.250	1.8907e-01
13.500	22.500	2.2938e-01
13.500	22.750	2.5745e-01
13.500	23.000	2.6082e-01
13.500	23.250	2.2565e-01
13.500	23.500	1.5505e-01
13.500	23.750	1.0026e-01
13.500	24.000	6.5276e-02
13.750	17.000	2.1811e-05
13.750	17.250	3.5720e-05
13.750	17.500	6.1317e-05
13.750	17.750	9.8683e-05
13.750	18.000	1.5654e-04
13.750	18.250	2.4757e-04
13.750	18.500	3.9095e-04
13.750	18.750	6.1523e-04
13.750	19.000	9.5202e-04
13.750	19.250	1.4300e-03
13.750	19.500	2.1160e-03
13.750	19.750	3.1533e-03
13.750	20.000	4.8058e-03
13.750	20.250	7.5405e-03
13.750	20.500	1.2165e-02
13.750	20.750	1.9842e-02
13.750	21.000	3.1286e-02
13.750	21.250	4.6624e-02
13.750	21.500	6.6308e-02
13.750	21.750	9.0870e-02
13.750	22.000	1.2279e-01
13.750	22.250	1.6433e-01
13.750	22.500	2.1559e-01
13.750	22.750	2.6984e-01
13.750	23.000	2.9130e-01
13.750	23.250	2.8230e-01
13.750	23.500	2.3385e-01
13.750	23.750	1.5585e-01
13.750	24.000	9.8977e-02
14.000	17.000	1.6626e-05
14.000	17.250	2.7737e-05
14.000	17.500	4.6337e-05
14.000	17.750	8.1399e-05
14.000	18.000	1.3383e-04
14.000	18.250	2.1877e-04
14.000	18.500	3.5465e-04
14.000	18.750	5.6864e-04
14.000	19.000	8.9605e-04
14.000	19.250	1.3827e-03
14.000	19.500	2.0722e-03
14.000	19.750	3.0551e-03
14.000	20.000	4.5198e-03
14.000	20.250	6.8050e-03
14.000	20.500	1.0447e-02
14.000	20.750	1.6229e-02
14.000	21.000	2.5230e-02
14.000	21.250	3.8408e-02
14.000	21.500	5.4805e-02
14.000	21.750	7.6274e-02
14.000	22.000	1.0402e-01
14.000	22.250	1.4138e-01
14.000	22.500	1.9155e-01
14.000	22.750	2.5819e-01
14.000	23.000	3.1720e-01
14.000	23.250	3.3202e-01
14.000	23.500	3.0545e-01
14.000	23.750	2.4111e-01
14.000	24.000	1.5558e-01
