InwT 701.514A  relative to Inci 1215.00A scaled to 1215A.
Hden   Phi(H)  Eq_Width (A)
 7.000	17.000	1.2573e-01
 7.000	17.250	1.1703e-01
 7.000	17.500	7.9090e-02
 7.000	17.750	4.8579e-02
 7.000	18.000	3.4721e-02
 7.000	18.250	2.8657e-02
 7.000	18.500	2.5967e-02
 7.000	18.750	2.5106e-02
 7.000	19.000	2.4693e-02
 7.000	19.250	2.4469e-02
 7.000	19.500	2.4372e-02
 7.000	19.750	2.4331e-02
 7.000	20.000	2.4312e-02
 7.000	20.250	2.4304e-02
 7.000	20.500	2.4299e-02
 7.000	20.750	2.4297e-02
 7.000	21.000	2.4296e-02
 7.000	21.250	2.4295e-02
 7.000	21.500	2.4295e-02
 7.000	21.750	2.4295e-02
 7.000	22.000	2.4295e-02
 7.000	22.250	2.4295e-02
 7.000	22.500	2.4295e-02
 7.000	22.750	2.4295e-02
 7.000	23.000	2.4295e-02
 7.000	23.250	2.4295e-02
 7.000	23.500	2.4295e-02
 7.000	23.750	2.4295e-02
 7.000	24.000	2.4295e-02
 7.250	17.000	1.1110e-01
 7.250	17.250	1.2586e-01
 7.250	17.500	1.1681e-01
 7.250	17.750	7.8828e-02
 7.250	18.000	4.8396e-02
 7.250	18.250	3.4650e-02
 7.250	18.500	2.8626e-02
 7.250	18.750	2.5955e-02
 7.250	19.000	2.5101e-02
 7.250	19.250	2.4692e-02
 7.250	19.500	2.4469e-02
 7.250	19.750	2.4372e-02
 7.250	20.000	2.4331e-02
 7.250	20.250	2.4312e-02
 7.250	20.500	2.4303e-02
 7.250	20.750	2.4299e-02
 7.250	21.000	2.4297e-02
 7.250	21.250	2.4296e-02
 7.250	21.500	2.4295e-02
 7.250	21.750	2.4295e-02
 7.250	22.000	2.4297e-02
 7.250	22.250	2.4294e-02
 7.250	22.500	2.4295e-02
 7.250	22.750	2.4295e-02
 7.250	23.000	2.4295e-02
 7.250	23.250	2.4296e-02
 7.250	23.500	2.4295e-02
 7.250	23.750	2.4296e-02
 7.250	24.000	2.4295e-02
 7.500	17.000	9.9627e-02
 7.500	17.250	1.1135e-01
 7.500	17.500	1.2600e-01
 7.500	17.750	1.1674e-01
 7.500	18.000	7.8663e-02
 7.500	18.250	4.8247e-02
 7.500	18.500	3.4598e-02
 7.500	18.750	2.8607e-02
 7.500	19.000	2.5948e-02
 7.500	19.250	2.5098e-02
 7.500	19.500	2.4691e-02
 7.500	19.750	2.4468e-02
 7.500	20.000	2.4372e-02
 7.500	20.250	2.4331e-02
 7.500	20.500	2.4312e-02
 7.500	20.750	2.4303e-02
 7.500	21.000	2.4299e-02
 7.500	21.250	2.4297e-02
 7.500	21.500	2.4295e-02
 7.500	21.750	2.4295e-02
 7.500	22.000	2.4295e-02
 7.500	22.250	2.4294e-02
 7.500	22.500	2.4294e-02
 7.500	22.750	2.4294e-02
 7.500	23.000	2.4294e-02
 7.500	23.250	2.4294e-02
 7.500	23.500	2.4294e-02
 7.500	23.750	2.4294e-02
 7.500	24.000	2.4294e-02
 7.750	17.000	9.0109e-02
 7.750	17.250	9.9858e-02
 7.750	17.500	1.1152e-01
 7.750	17.750	1.2617e-01
 7.750	18.000	1.1678e-01
 7.750	18.250	7.8563e-02
 7.750	18.500	4.8115e-02
 7.750	18.750	3.4558e-02
 7.750	19.000	2.8596e-02
 7.750	19.250	2.5943e-02
 7.750	19.500	2.5097e-02
 7.750	19.750	2.4690e-02
 7.750	20.000	2.4468e-02
 7.750	20.250	2.4372e-02
 7.750	20.500	2.4331e-02
 7.750	20.750	2.4312e-02
 7.750	21.000	2.4303e-02
 7.750	21.250	2.4299e-02
 7.750	21.500	2.4297e-02
 7.750	21.750	2.4295e-02
 7.750	22.000	2.4295e-02
 7.750	22.250	2.4294e-02
 7.750	22.500	2.4294e-02
 7.750	22.750	2.4294e-02
 7.750	23.000	2.4294e-02
 7.750	23.250	2.4294e-02
 7.750	23.500	2.4294e-02
 7.750	23.750	2.4294e-02
 7.750	24.000	2.4294e-02
 8.000	17.000	8.0876e-02
 8.000	17.250	8.9770e-02
 8.000	17.500	9.9456e-02
 8.000	17.750	1.1118e-01
 8.000	18.000	1.2605e-01
 8.000	18.250	1.1687e-01
 8.000	18.500	7.8504e-02
 8.000	18.750	4.7989e-02
 8.000	19.000	3.4525e-02
 8.000	19.250	2.8589e-02
 8.000	19.500	2.5941e-02
 8.000	19.750	2.5096e-02
 8.000	20.000	2.4690e-02
 8.000	20.250	2.4468e-02
 8.000	20.500	2.4372e-02
 8.000	20.750	2.4331e-02
 8.000	21.000	2.4312e-02
 8.000	21.250	2.4303e-02
 8.000	21.500	2.4299e-02
 8.000	21.750	2.4297e-02
 8.000	22.000	2.4295e-02
 8.000	22.250	2.4295e-02
 8.000	22.500	2.4294e-02
 8.000	22.750	2.4294e-02
 8.000	23.000	2.4294e-02
 8.000	23.250	2.4294e-02
 8.000	23.500	2.4294e-02
 8.000	23.750	2.4294e-02
 8.000	24.000	2.4296e-02
 8.250	17.000	7.2754e-02
 8.250	17.250	8.0934e-02
 8.250	17.500	8.9806e-02
 8.250	17.750	9.9487e-02
 8.250	18.000	1.1127e-01
 8.250	18.250	1.2616e-01
 8.250	18.500	1.1696e-01
 8.250	18.750	7.8463e-02
 8.250	19.000	4.7860e-02
 8.250	19.250	3.4494e-02
 8.250	19.500	2.8585e-02
 8.250	19.750	2.5940e-02
 8.250	20.000	2.5095e-02
 8.250	20.250	2.4690e-02
 8.250	20.500	2.4468e-02
 8.250	20.750	2.4372e-02
 8.250	21.000	2.4331e-02
 8.250	21.250	2.4312e-02
 8.250	21.500	2.4303e-02
 8.250	21.750	2.4299e-02
 8.250	22.000	2.4297e-02
 8.250	22.250	2.4295e-02
 8.250	22.500	2.4295e-02
 8.250	22.750	2.4294e-02
 8.250	23.000	2.4295e-02
 8.250	23.250	2.4294e-02
 8.250	23.500	2.4294e-02
 8.250	23.750	2.4294e-02
 8.250	24.000	2.4294e-02
 8.500	17.000	6.5530e-02
 8.500	17.250	7.2752e-02
 8.500	17.500	8.0943e-02
 8.500	17.750	8.9800e-02
 8.500	18.000	9.9541e-02
 8.500	18.250	1.1127e-01
 8.500	18.500	1.2620e-01
 8.500	18.750	1.1711e-01
 8.500	19.000	7.8431e-02
 8.500	19.250	4.7721e-02
 8.500	19.500	3.4464e-02
 8.500	19.750	2.8584e-02
 8.500	20.000	2.5940e-02
 8.500	20.250	2.5095e-02
 8.500	20.500	2.4690e-02
 8.500	20.750	2.4468e-02
 8.500	21.000	2.4372e-02
 8.500	21.250	2.4331e-02
 8.500	21.500	2.4312e-02
 8.500	21.750	2.4303e-02
 8.500	22.000	2.4299e-02
 8.500	22.250	2.4297e-02
 8.500	22.500	2.4295e-02
 8.500	22.750	2.4295e-02
 8.500	23.000	2.4294e-02
 8.500	23.250	2.4294e-02
 8.500	23.500	2.4294e-02
 8.500	23.750	2.4294e-02
 8.500	24.000	2.4294e-02
 8.750	17.000	5.9353e-02
 8.750	17.250	6.5523e-02
 8.750	17.500	7.2755e-02
 8.750	17.750	8.0974e-02
 8.750	18.000	8.9959e-02
 8.750	18.250	9.9732e-02
 8.750	18.500	1.1142e-01
 8.750	18.750	1.2626e-01
 8.750	19.000	1.1727e-01
 8.750	19.250	7.8406e-02
 8.750	19.500	4.7573e-02
 8.750	19.750	3.4434e-02
 8.750	20.000	2.8584e-02
 8.750	20.250	2.5940e-02
 8.750	20.500	2.5095e-02
 8.750	20.750	2.4690e-02
 8.750	21.000	2.4468e-02
 8.750	21.250	2.4372e-02
 8.750	21.500	2.4331e-02
 8.750	21.750	2.4312e-02
 8.750	22.000	2.4303e-02
 8.750	22.250	2.4299e-02
 8.750	22.500	2.4297e-02
 8.750	22.750	2.4295e-02
 8.750	23.000	2.4295e-02
 8.750	23.250	2.4294e-02
 8.750	23.500	2.4294e-02
 8.750	23.750	2.4294e-02
 8.750	24.000	2.4294e-02
 9.000	17.000	5.3749e-02
 9.000	17.250	5.9555e-02
 9.000	17.500	6.5698e-02
 9.000	17.750	7.2991e-02
 9.000	18.000	8.1307e-02
 9.000	18.250	9.0361e-02
 9.000	18.500	1.0022e-01
 9.000	18.750	1.1203e-01
 9.000	19.000	1.2642e-01
 9.000	19.250	1.1744e-01
 9.000	19.500	7.8390e-02
 9.000	19.750	4.7423e-02
 9.000	20.000	3.4407e-02
 9.000	20.250	2.8585e-02
 9.000	20.500	2.5941e-02
 9.000	20.750	2.5096e-02
 9.000	21.000	2.4690e-02
 9.000	21.250	2.4468e-02
 9.000	21.500	2.4372e-02
 9.000	21.750	2.4331e-02
 9.000	22.000	2.4312e-02
 9.000	22.250	2.4303e-02
 9.000	22.500	2.4299e-02
 9.000	22.750	2.4297e-02
 9.000	23.000	2.4295e-02
 9.000	23.250	2.4295e-02
 9.000	23.500	2.4294e-02
 9.000	23.750	2.4294e-02
 9.000	24.000	2.4295e-02
 9.250	17.000	4.7831e-02
 9.250	17.250	5.4213e-02
 9.250	17.500	6.0132e-02
 9.250	17.750	6.6411e-02
 9.250	18.000	7.3732e-02
 9.250	18.250	8.2067e-02
 9.250	18.500	9.1228e-02
 9.250	18.750	1.0149e-01
 9.250	19.000	1.1336e-01
 9.250	19.250	1.2689e-01
 9.250	19.500	1.1763e-01
 9.250	19.750	7.8416e-02
 9.250	20.000	4.7284e-02
 9.250	20.250	3.4382e-02
 9.250	20.500	2.8587e-02
 9.250	20.750	2.5942e-02
 9.250	21.000	2.5097e-02
 9.250	21.250	2.4690e-02
 9.250	21.500	2.4464e-02
 9.250	21.750	2.4368e-02
 9.250	22.000	2.4326e-02
 9.250	22.250	2.4308e-02
 9.250	22.500	2.4303e-02
 9.250	22.750	2.4298e-02
 9.250	23.000	2.4296e-02
 9.250	23.250	2.4295e-02
 9.250	23.500	2.4294e-02
 9.250	23.750	2.4294e-02
 9.250	24.000	2.4294e-02
 9.500	17.000	4.1041e-02
 9.500	17.250	4.8662e-02
 9.500	17.500	5.5416e-02
 9.500	17.750	6.1570e-02
 9.500	18.000	6.7771e-02
 9.500	18.250	7.5036e-02
 9.500	18.500	8.3539e-02
 9.500	18.750	9.3346e-02
 9.500	19.000	1.0451e-01
 9.500	19.250	1.1675e-01
 9.500	19.500	1.2809e-01
 9.500	19.750	1.1793e-01
 9.500	20.000	7.8464e-02
 9.500	20.250	4.7169e-02
 9.500	20.500	3.4363e-02
 9.500	20.750	2.8587e-02
 9.500	21.000	2.5937e-02
 9.500	21.250	2.5092e-02
 9.500	21.500	2.4685e-02
 9.500	21.750	2.4462e-02
 9.500	22.000	2.4365e-02
 9.500	22.250	2.4323e-02
 9.500	22.500	2.4305e-02
 9.500	22.750	2.4296e-02
 9.500	23.000	2.4292e-02
 9.500	23.250	2.4289e-02
 9.500	23.500	2.4289e-02
 9.500	23.750	2.4288e-02
 9.500	24.000	2.4288e-02
 9.750	17.000	3.3184e-02
 9.750	17.250	4.2030e-02
 9.750	17.500	5.0380e-02
 9.750	17.750	5.7636e-02
 9.750	18.000	6.3769e-02
 9.750	18.250	6.9949e-02
 9.750	18.500	7.7602e-02
 9.750	18.750	8.7055e-02
 9.750	19.000	9.8434e-02
 9.750	19.250	1.1132e-01
 9.750	19.500	1.2323e-01
 9.750	19.750	1.3052e-01
 9.750	20.000	1.1845e-01
 9.750	20.250	7.8560e-02
 9.750	20.500	4.7088e-02
 9.750	20.750	3.4352e-02
 9.750	21.000	2.8594e-02
 9.750	21.250	2.5940e-02
 9.750	21.500	2.5093e-02
 9.750	21.750	2.4686e-02
 9.750	22.000	2.4463e-02
 9.750	22.250	2.4365e-02
 9.750	22.500	2.4324e-02
 9.750	22.750	2.4305e-02
 9.750	23.000	2.4296e-02
 9.750	23.250	2.4292e-02
 9.750	23.500	2.4289e-02
 9.750	23.750	2.4288e-02
 9.750	24.000	2.4287e-02
10.000	17.000	2.3606e-02
10.000	17.250	3.4112e-02
10.000	17.500	4.4038e-02
10.000	17.750	5.3140e-02
10.000	18.000	6.0714e-02
10.000	18.250	6.7110e-02
10.000	18.500	7.4100e-02
10.000	18.750	8.3291e-02
10.000	19.000	9.5001e-02
10.000	19.250	1.0874e-01
10.000	19.500	1.2310e-01
10.000	19.750	1.3276e-01
10.000	20.000	1.3553e-01
10.000	20.250	1.1948e-01
10.000	20.500	7.8726e-02
10.000	20.750	4.7055e-02
10.000	21.000	3.4354e-02
10.000	21.250	2.8602e-02
10.000	21.500	2.5946e-02
10.000	21.750	2.5095e-02
10.000	22.000	2.4687e-02
10.000	22.250	2.4464e-02
10.000	22.500	2.4366e-02
10.000	22.750	2.4323e-02
10.000	23.000	2.4305e-02
10.000	23.250	2.4296e-02
10.000	23.500	2.4292e-02
10.000	23.750	2.4289e-02
10.000	24.000	2.4288e-02
10.250	17.000	1.6714e-02
10.250	17.250	2.4506e-02
10.250	17.500	3.6117e-02
10.250	17.750	4.7030e-02
10.250	18.000	5.7008e-02
10.250	18.250	6.5730e-02
10.250	18.500	7.3794e-02
10.250	18.750	8.3288e-02
10.250	19.000	9.5146e-02
10.250	19.250	1.0941e-01
10.250	19.500	1.2552e-01
10.250	19.750	1.3741e-01
10.250	20.000	1.4452e-01
10.250	20.250	1.4171e-01
10.250	20.500	1.2158e-01
10.250	20.750	7.9001e-02
10.250	21.000	4.7054e-02
10.250	21.250	3.4369e-02
10.250	21.500	2.8612e-02
10.250	21.750	2.5950e-02
10.250	22.000	2.5099e-02
10.250	22.250	2.4687e-02
10.250	22.500	2.4464e-02
10.250	22.750	2.4367e-02
10.250	23.000	2.4324e-02
10.250	23.250	2.4305e-02
10.250	23.500	2.4296e-02
10.250	23.750	2.4292e-02
10.250	24.000	2.4289e-02
10.500	17.000	1.1717e-02
10.500	17.250	1.7389e-02
10.500	17.500	2.6262e-02
10.500	17.750	3.9238e-02
10.500	18.000	5.1790e-02
10.500	18.250	6.4083e-02
10.500	18.500	7.5763e-02
10.500	18.750	8.7140e-02
10.500	19.000	9.9467e-02
10.500	19.250	1.1373e-01
10.500	19.500	1.3015e-01
10.500	19.750	1.4819e-01
10.500	20.000	1.5845e-01
10.500	20.250	1.5845e-01
10.500	20.500	1.4922e-01
10.500	20.750	1.2402e-01
10.500	21.000	7.9426e-02
10.500	21.250	4.7098e-02
10.500	21.500	3.4400e-02
10.500	21.750	2.8625e-02
10.500	22.000	2.5953e-02
10.500	22.250	2.5102e-02
10.500	22.500	2.4690e-02
10.500	22.750	2.4464e-02
10.500	23.000	2.4368e-02
10.500	23.250	2.4325e-02
10.500	23.500	2.4306e-02
10.500	23.750	2.4296e-02
10.500	24.000	2.4291e-02
10.750	17.000	8.6117e-03
10.750	17.250	1.2267e-02
10.750	17.500	1.8866e-02
10.750	17.750	2.9917e-02
10.750	18.000	4.4899e-02
10.750	18.250	6.1454e-02
10.750	18.500	7.7727e-02
10.750	18.750	9.2844e-02
10.750	19.000	1.0672e-01
10.750	19.250	1.2095e-01
10.750	19.500	1.3691e-01
10.750	19.750	1.5505e-01
10.750	20.000	1.7473e-01
10.750	20.250	1.8135e-01
10.750	20.500	1.7382e-01
10.750	20.750	1.5786e-01
10.750	21.000	1.2747e-01
10.750	21.250	8.0036e-02
10.750	21.500	4.7201e-02
10.750	21.750	3.4454e-02
10.750	22.000	2.8644e-02
10.750	22.250	2.5958e-02
10.750	22.500	2.5104e-02
10.750	22.750	2.4692e-02
10.750	23.000	2.4465e-02
10.750	23.250	2.4368e-02
10.750	23.500	2.4326e-02
10.750	23.750	2.4307e-02
10.750	24.000	2.4297e-02
11.000	17.000	6.7799e-03
11.000	17.250	9.0976e-03
11.000	17.500	1.3416e-02
11.000	17.750	2.2022e-02
11.000	18.000	3.6536e-02
11.000	18.250	5.5731e-02
11.000	18.500	7.6874e-02
11.000	18.750	9.6501e-02
11.000	19.000	1.1338e-01
11.000	19.250	1.2854e-01
11.000	19.500	1.4407e-01
11.000	19.750	1.6168e-01
11.000	20.000	1.8119e-01
11.000	20.250	1.9863e-01
11.000	20.500	2.0503e-01
11.000	20.750	1.9056e-01
11.000	21.000	1.6748e-01
11.000	21.250	1.3079e-01
11.000	21.500	8.0672e-02
11.000	21.750	4.7381e-02
11.000	22.000	3.4539e-02
11.000	22.250	2.8671e-02
11.000	22.500	2.5963e-02
11.000	22.750	2.5107e-02
11.000	23.000	2.4694e-02
11.000	23.250	2.4466e-02
11.000	23.500	2.4368e-02
11.000	23.750	2.4326e-02
11.000	24.000	2.4307e-02
11.250	17.000	5.5616e-03
11.250	17.250	7.1957e-03
11.250	17.500	1.0057e-02
11.250	17.750	1.6031e-02
11.250	18.000	2.8043e-02
11.250	18.250	4.6835e-02
11.250	18.500	7.0149e-02
11.250	18.750	9.4310e-02
11.250	19.000	1.1530e-01
11.250	19.250	1.3304e-01
11.250	19.500	1.4943e-01
11.250	19.750	1.6669e-01
11.250	20.000	1.8600e-01
11.250	20.250	2.0709e-01
11.250	20.500	2.2587e-01
11.250	20.750	2.3003e-01
11.250	21.000	2.0863e-01
11.250	21.250	1.7861e-01
11.250	21.500	1.3271e-01
11.250	21.750	8.1195e-02
11.250	22.000	4.7633e-02
11.250	22.250	3.4658e-02
11.250	22.500	2.8709e-02
11.250	22.750	2.5971e-02
11.250	23.000	2.5111e-02
11.250	23.250	2.4696e-02
11.250	23.500	2.4468e-02
11.250	23.750	2.4369e-02
11.250	24.000	2.4327e-02
11.500	17.000	4.6907e-03
11.500	17.250	5.9787e-03
11.500	17.500	8.0733e-03
11.500	17.750	1.2174e-02
11.500	18.000	2.0852e-02
11.500	18.250	3.6272e-02
11.500	18.500	5.8151e-02
11.500	18.750	8.4221e-02
11.500	19.000	1.1009e-01
11.500	19.250	1.3157e-01
11.500	19.500	1.5016e-01
11.500	19.750	1.6863e-01
11.500	20.000	1.8825e-01
11.500	20.250	2.0940e-01
11.500	20.500	2.3200e-01
11.500	20.750	2.5107e-01
11.500	21.000	2.5627e-01
11.500	21.250	2.2923e-01
11.500	21.500	1.9173e-01
11.500	21.750	1.3448e-01
11.500	22.000	8.1305e-02
11.500	22.250	4.7937e-02
11.500	22.500	3.4819e-02
11.500	22.750	2.8767e-02
11.500	23.000	2.5982e-02
11.500	23.250	2.5116e-02
11.500	23.500	2.4698e-02
11.500	23.750	2.4470e-02
11.500	24.000	2.4369e-02
11.750	17.000	4.0056e-03
11.750	17.250	5.0970e-03
11.750	17.500	6.7923e-03
11.750	17.750	9.7800e-03
11.750	18.000	1.5680e-02
11.750	18.250	2.6737e-02
11.750	18.500	4.4264e-02
11.750	18.750	6.8236e-02
11.750	19.000	9.6234e-02
11.750	19.250	1.2311e-01
11.750	19.500	1.4526e-01
11.750	19.750	1.6552e-01
11.750	20.000	1.8670e-01
11.750	20.250	2.0914e-01
11.750	20.500	2.3256e-01
11.750	20.750	2.5673e-01
11.750	21.000	2.7837e-01
11.750	21.250	2.8606e-01
11.750	21.500	2.5324e-01
11.750	21.750	2.0593e-01
11.750	22.000	1.3527e-01
11.750	22.250	8.0956e-02
11.750	22.500	4.8197e-02
11.750	22.750	3.5003e-02
11.750	23.000	2.8838e-02
11.750	23.250	2.5997e-02
11.750	23.500	2.5134e-02
11.750	23.750	2.4701e-02
11.750	24.000	2.4470e-02
12.000	17.000	3.4519e-03
12.000	17.250	4.4217e-03
12.000	17.500	5.8560e-03
12.000	17.750	8.2099e-03
12.000	18.000	1.2319e-02
12.000	18.250	1.9767e-02
12.000	18.500	3.2072e-02
12.000	18.750	5.0750e-02
12.000	19.000	7.6559e-02
12.000	19.250	1.0643e-01
12.000	19.500	1.3445e-01
12.000	19.750	1.5793e-01
12.000	20.000	1.8076e-01
12.000	20.250	2.0510e-01
12.000	20.500	2.3045e-01
12.000	20.750	2.5637e-01
12.000	21.000	2.8470e-01
12.000	21.250	3.1134e-01
12.000	21.500	3.1945e-01
12.000	21.750	2.7897e-01
12.000	22.000	2.1405e-01
12.000	22.250	1.3473e-01
12.000	22.500	8.0116e-02
12.000	22.750	4.8378e-02
12.000	23.000	3.5187e-02
12.000	23.250	2.8919e-02
12.000	23.500	2.6015e-02
12.000	23.750	2.5131e-02
12.000	24.000	2.4704e-02
12.250	17.000	3.0564e-03
12.250	17.250	3.9156e-03
12.250	17.500	5.1085e-03
12.250	17.750	7.0729e-03
12.250	18.000	1.0151e-02
12.250	18.250	1.5276e-02
12.250	18.500	2.3609e-02
12.250	18.750	3.6543e-02
12.250	19.000	5.6286e-02
12.250	19.250	8.4068e-02
12.250	19.500	1.1616e-01
12.250	19.750	1.4559e-01
12.250	20.000	1.7118e-01
12.250	20.250	1.9728e-01
12.250	20.500	2.2489e-01
12.250	20.750	2.5390e-01
12.250	21.000	2.8681e-01
12.250	21.250	3.1848e-01
12.250	21.500	3.4652e-01
12.250	21.750	3.5324e-01
12.250	22.000	3.0314e-01
12.250	22.250	2.1633e-01
12.250	22.500	1.3343e-01
12.250	22.750	7.8829e-02
12.250	23.000	4.8424e-02
12.250	23.250	3.5349e-02
12.250	23.500	2.9000e-02
12.250	23.750	2.6034e-02
12.250	24.000	2.5139e-02
12.500	17.000	2.6737e-03
12.500	17.250	3.5681e-03
12.500	17.500	4.6084e-03
12.500	17.750	6.1987e-03
12.500	18.000	8.6841e-03
12.500	18.250	1.2434e-02
12.500	18.500	1.8306e-02
12.500	18.750	2.7154e-02
12.500	19.000	4.0800e-02
12.500	19.250	6.1980e-02
12.500	19.500	9.2203e-02
12.500	19.750	1.2661e-01
12.500	20.000	1.5826e-01
12.500	20.250	1.8639e-01
12.500	20.500	2.1613e-01
12.500	20.750	2.4904e-01
12.500	21.000	2.8623e-01
12.500	21.250	3.2627e-01
12.500	21.500	3.5922e-01
12.500	21.750	3.8907e-01
12.500	22.000	3.9147e-01
12.500	22.250	3.2158e-01
12.500	22.500	2.1642e-01
12.500	22.750	1.3128e-01
12.500	23.000	7.7148e-02
12.500	23.250	4.8312e-02
12.500	23.500	3.5490e-02
12.500	23.750	2.9075e-02
12.500	24.000	2.6050e-02
12.750	17.000	2.2858e-03
12.750	17.250	3.1281e-03
12.750	17.500	4.1824e-03
12.750	17.750	5.6753e-03
12.750	18.000	7.7125e-03
12.750	18.250	1.0608e-02
12.750	18.500	1.4964e-02
12.750	18.750	2.1380e-02
12.750	19.000	3.0780e-02
12.750	19.250	4.5587e-02
12.750	19.500	6.8633e-02
12.750	19.750	1.0130e-01
12.750	20.000	1.3782e-01
12.750	20.250	1.7206e-01
12.750	20.500	2.0467e-01
12.750	20.750	2.3971e-01
12.750	21.000	2.8011e-01
12.750	21.250	3.2808e-01
12.750	21.500	3.7095e-01
12.750	21.750	4.1295e-01
12.750	22.000	4.4064e-01
12.750	22.250	4.2733e-01
12.750	22.500	3.3383e-01
12.750	22.750	2.1448e-01
12.750	23.000	1.2796e-01
12.750	23.250	7.5368e-02
12.750	23.500	4.8174e-02
12.750	23.750	3.5580e-02
12.750	24.000	2.9134e-02
13.000	17.000	1.9166e-03
13.000	17.250	2.6932e-03
13.000	17.500	3.7353e-03
13.000	17.750	5.0373e-03
13.000	18.000	6.8731e-03
13.000	18.250	9.3741e-03
13.000	18.500	1.2874e-02
13.000	18.750	1.7782e-02
13.000	19.000	2.4687e-02
13.000	19.250	3.4898e-02
13.000	19.500	5.0636e-02
13.000	19.750	7.5802e-02
13.000	20.000	1.1051e-01
13.000	20.250	1.4967e-01
13.000	20.500	1.8969e-01
13.000	20.750	2.2757e-01
13.000	21.000	2.7289e-01
13.000	21.250	3.2407e-01
13.000	21.500	3.7268e-01
13.000	21.750	4.3000e-01
13.000	22.000	4.7664e-01
13.000	22.250	4.8932e-01
13.000	22.500	4.5127e-01
13.000	22.750	3.3931e-01
13.000	23.000	2.1108e-01
13.000	23.250	1.2422e-01
13.000	23.500	7.3439e-02
13.000	23.750	4.7831e-02
13.000	24.000	3.5602e-02
13.250	17.000	1.5736e-03
13.250	17.250	2.2708e-03
13.250	17.500	3.2385e-03
13.250	17.750	4.4831e-03
13.250	18.000	6.1184e-03
13.250	18.250	8.3844e-03
13.250	18.500	1.1464e-02
13.250	18.750	1.5575e-02
13.250	19.000	2.1054e-02
13.250	19.250	2.8592e-02
13.250	19.500	3.9562e-02
13.250	19.750	5.6542e-02
13.250	20.000	8.2937e-02
13.250	20.250	1.1925e-01
13.250	20.500	1.6216e-01
13.250	20.750	2.0723e-01
13.250	21.000	2.5394e-01
13.250	21.250	3.0835e-01
13.250	21.500	3.6128e-01
13.250	21.750	4.3042e-01
13.250	22.000	4.8126e-01
13.250	22.250	5.2480e-01
13.250	22.500	5.3282e-01
13.250	22.750	4.6566e-01
13.250	23.000	3.4031e-01
13.250	23.250	2.0647e-01
13.250	23.500	1.2051e-01
13.250	23.750	7.1555e-02
13.250	24.000	4.7312e-02
13.500	17.000	1.2933e-03
13.500	17.250	1.8926e-03
13.500	17.500	2.8000e-03
13.500	17.750	3.9374e-03
13.500	18.000	5.4519e-03
13.500	18.250	7.5161e-03
13.500	18.500	1.0376e-02
13.500	18.750	1.4148e-02
13.500	19.000	1.8982e-02
13.500	19.250	2.5187e-02
13.500	19.500	3.3635e-02
13.500	19.750	4.5819e-02
13.500	20.000	6.4145e-02
13.500	20.250	9.1880e-02
13.500	20.500	1.2988e-01
13.500	20.750	1.7508e-01
13.500	21.000	2.2110e-01
13.500	21.250	2.7818e-01
13.500	21.500	3.2870e-01
13.500	21.750	3.8285e-01
13.500	22.000	4.4785e-01
13.500	22.250	5.2028e-01
13.500	22.500	5.7922e-01
13.500	22.750	5.6529e-01
13.500	23.000	4.7312e-01
13.500	23.250	3.3765e-01
13.500	23.500	2.0118e-01
13.500	23.750	1.1579e-01
13.500	24.000	6.9749e-02
13.750	17.000	1.0705e-03
13.750	17.250	1.5505e-03
13.750	17.500	2.3876e-03
13.750	17.750	3.4293e-03
13.750	18.000	4.8389e-03
13.750	18.250	6.7726e-03
13.750	18.500	9.4077e-03
13.750	18.750	1.2984e-02
13.750	19.000	1.7643e-02
13.750	19.250	2.3412e-02
13.750	19.500	3.0719e-02
13.750	19.750	4.0563e-02
13.750	20.000	5.4602e-02
13.750	20.250	7.5174e-02
13.750	20.500	1.0493e-01
13.750	20.750	1.4498e-01
13.750	21.000	1.9102e-01
13.750	21.250	2.3847e-01
13.750	21.500	2.8732e-01
13.750	21.750	3.3949e-01
13.750	22.000	4.0281e-01
13.750	22.250	4.8083e-01
13.750	22.500	5.6961e-01
13.750	22.750	6.4493e-01
13.750	23.000	5.9834e-01
13.750	23.250	4.8359e-01
13.750	23.500	3.3251e-01
13.750	23.750	1.9507e-01
13.750	24.000	1.1197e-01
14.000	17.000	8.9218e-04
14.000	17.250	1.3000e-03
14.000	17.500	1.9136e-03
14.000	17.750	2.9744e-03
14.000	18.000	4.2842e-03
14.000	18.250	6.1107e-03
14.000	18.500	8.6139e-03
14.000	18.750	1.2002e-02
14.000	19.000	1.6464e-02
14.000	19.250	2.2198e-02
14.000	19.500	2.9259e-02
14.000	19.750	3.8115e-02
14.000	20.000	4.9856e-02
14.000	20.250	6.6299e-02
14.000	20.500	8.9774e-02
14.000	20.750	1.2244e-01
14.000	21.000	1.6511e-01
14.000	21.250	2.1472e-01
14.000	21.500	2.6108e-01
14.000	21.750	3.1107e-01
14.000	22.000	3.6837e-01
14.000	22.250	4.4095e-01
14.000	22.500	5.3153e-01
14.000	22.750	6.4450e-01
14.000	23.000	7.1127e-01
14.000	23.250	6.3735e-01
14.000	23.500	4.9342e-01
14.000	23.750	3.2695e-01
14.000	24.000	1.8888e-01
