InwT 3704.34A  relative to Inci 1215.00A scaled to 1215A.
Hden   Phi(H)  Eq_Width (A)
 7.000	17.000	3.6560e-02
 7.000	17.250	3.0608e-02
 7.000	17.500	2.4762e-02
 7.000	17.750	2.1469e-02
 7.000	18.000	1.9759e-02
 7.000	18.250	1.8835e-02
 7.000	18.500	1.8311e-02
 7.000	18.750	1.8081e-02
 7.000	19.000	1.7963e-02
 7.000	19.250	1.7898e-02
 7.000	19.500	1.7872e-02
 7.000	19.750	1.7861e-02
 7.000	20.000	1.7856e-02
 7.000	20.250	1.7854e-02
 7.000	20.500	1.7853e-02
 7.000	20.750	1.7853e-02
 7.000	21.000	1.7853e-02
 7.000	21.250	1.7853e-02
 7.000	21.500	1.7853e-02
 7.000	21.750	1.7853e-02
 7.000	22.000	1.7853e-02
 7.000	22.250	1.7853e-02
 7.000	22.500	1.7853e-02
 7.000	22.750	1.7853e-02
 7.000	23.000	1.7853e-02
 7.000	23.250	1.7853e-02
 7.000	23.500	1.7853e-02
 7.000	23.750	1.7853e-02
 7.000	24.000	1.7853e-02
 7.250	17.000	4.4246e-02
 7.250	17.250	3.6577e-02
 7.250	17.500	3.0594e-02
 7.250	17.750	2.4753e-02
 7.250	18.000	2.1463e-02
 7.250	18.250	1.9757e-02
 7.250	18.500	1.8835e-02
 7.250	18.750	1.8310e-02
 7.250	19.000	1.8081e-02
 7.250	19.250	1.7963e-02
 7.250	19.500	1.7898e-02
 7.250	19.750	1.7872e-02
 7.250	20.000	1.7861e-02
 7.250	20.250	1.7856e-02
 7.250	20.500	1.7854e-02
 7.250	20.750	1.7853e-02
 7.250	21.000	1.7853e-02
 7.250	21.250	1.7853e-02
 7.250	21.500	1.7852e-02
 7.250	21.750	1.7852e-02
 7.250	22.000	1.7854e-02
 7.250	22.250	1.7852e-02
 7.250	22.500	1.7853e-02
 7.250	22.750	1.7853e-02
 7.250	23.000	1.7853e-02
 7.250	23.250	1.7853e-02
 7.250	23.500	1.7853e-02
 7.250	23.750	1.7853e-02
 7.250	24.000	1.7853e-02
 7.500	17.000	4.0988e-02
 7.500	17.250	4.4434e-02
 7.500	17.500	3.6590e-02
 7.500	17.750	3.0586e-02
 7.500	18.000	2.4745e-02
 7.500	18.250	2.1459e-02
 7.500	18.500	1.9756e-02
 7.500	18.750	1.8834e-02
 7.500	19.000	1.8310e-02
 7.500	19.250	1.8080e-02
 7.500	19.500	1.7963e-02
 7.500	19.750	1.7898e-02
 7.500	20.000	1.7872e-02
 7.500	20.250	1.7861e-02
 7.500	20.500	1.7856e-02
 7.500	20.750	1.7854e-02
 7.500	21.000	1.7853e-02
 7.500	21.250	1.7853e-02
 7.500	21.500	1.7852e-02
 7.500	21.750	1.7852e-02
 7.500	22.000	1.7852e-02
 7.500	22.250	1.7852e-02
 7.500	22.500	1.7852e-02
 7.500	22.750	1.7852e-02
 7.500	23.000	1.7852e-02
 7.500	23.250	1.7852e-02
 7.500	23.500	1.7852e-02
 7.500	23.750	1.7852e-02
 7.500	24.000	1.7852e-02
 7.750	17.000	3.8315e-02
 7.750	17.250	4.1327e-02
 7.750	17.500	4.4564e-02
 7.750	17.750	3.6602e-02
 7.750	18.000	3.0580e-02
 7.750	18.250	2.4739e-02
 7.750	18.500	2.1453e-02
 7.750	18.750	1.9754e-02
 7.750	19.000	1.8834e-02
 7.750	19.250	1.8310e-02
 7.750	19.500	1.8080e-02
 7.750	19.750	1.7963e-02
 7.750	20.000	1.7898e-02
 7.750	20.250	1.7872e-02
 7.750	20.500	1.7861e-02
 7.750	20.750	1.7856e-02
 7.750	21.000	1.7854e-02
 7.750	21.250	1.7853e-02
 7.750	21.500	1.7853e-02
 7.750	21.750	1.7852e-02
 7.750	22.000	1.7852e-02
 7.750	22.250	1.7852e-02
 7.750	22.500	1.7852e-02
 7.750	22.750	1.7852e-02
 7.750	23.000	1.7852e-02
 7.750	23.250	1.7852e-02
 7.750	23.500	1.7852e-02
 7.750	23.750	1.7852e-02
 7.750	24.000	1.7852e-02
 8.000	17.000	3.5376e-02
 8.000	17.250	3.8337e-02
 8.000	17.500	4.1203e-02
 8.000	17.750	4.4291e-02
 8.000	18.000	3.6580e-02
 8.000	18.250	3.0576e-02
 8.000	18.500	2.4733e-02
 8.000	18.750	2.1448e-02
 8.000	19.000	1.9752e-02
 8.000	19.250	1.8834e-02
 8.000	19.500	1.8310e-02
 8.000	19.750	1.8080e-02
 8.000	20.000	1.7963e-02
 8.000	20.250	1.7898e-02
 8.000	20.500	1.7872e-02
 8.000	20.750	1.7861e-02
 8.000	21.000	1.7856e-02
 8.000	21.250	1.7854e-02
 8.000	21.500	1.7853e-02
 8.000	21.750	1.7853e-02
 8.000	22.000	1.7852e-02
 8.000	22.250	1.7852e-02
 8.000	22.500	1.7852e-02
 8.000	22.750	1.7852e-02
 8.000	23.000	1.7852e-02
 8.000	23.250	1.7852e-02
 8.000	23.500	1.7852e-02
 8.000	23.750	1.7852e-02
 8.000	24.000	1.7854e-02
 8.250	17.000	3.3363e-02
 8.250	17.250	3.5828e-02
 8.250	17.500	3.8807e-02
 8.250	17.750	4.1506e-02
 8.250	18.000	4.4384e-02
 8.250	18.250	3.6594e-02
 8.250	18.500	3.0574e-02
 8.250	18.750	2.4727e-02
 8.250	19.000	2.1442e-02
 8.250	19.250	1.9750e-02
 8.250	19.500	1.8833e-02
 8.250	19.750	1.8310e-02
 8.250	20.000	1.8080e-02
 8.250	20.250	1.7963e-02
 8.250	20.500	1.7898e-02
 8.250	20.750	1.7872e-02
 8.250	21.000	1.7861e-02
 8.250	21.250	1.7856e-02
 8.250	21.500	1.7854e-02
 8.250	21.750	1.7853e-02
 8.250	22.000	1.7853e-02
 8.250	22.250	1.7852e-02
 8.250	22.500	1.7852e-02
 8.250	22.750	1.7852e-02
 8.250	23.000	1.7853e-02
 8.250	23.250	1.7852e-02
 8.250	23.500	1.7852e-02
 8.250	23.750	1.7852e-02
 8.250	24.000	1.7852e-02
 8.500	17.000	3.1865e-02
 8.500	17.250	3.3835e-02
 8.500	17.500	3.6413e-02
 8.500	17.750	3.9473e-02
 8.500	18.000	4.2001e-02
 8.500	18.250	4.4569e-02
 8.500	18.500	3.6607e-02
 8.500	18.750	3.0572e-02
 8.500	19.000	2.4720e-02
 8.500	19.250	2.1436e-02
 8.500	19.500	1.9748e-02
 8.500	19.750	1.8833e-02
 8.500	20.000	1.8310e-02
 8.500	20.250	1.8080e-02
 8.500	20.500	1.7963e-02
 8.500	20.750	1.7898e-02
 8.500	21.000	1.7872e-02
 8.500	21.250	1.7861e-02
 8.500	21.500	1.7856e-02
 8.500	21.750	1.7854e-02
 8.500	22.000	1.7853e-02
 8.500	22.250	1.7853e-02
 8.500	22.500	1.7852e-02
 8.500	22.750	1.7853e-02
 8.500	23.000	1.7852e-02
 8.500	23.250	1.7852e-02
 8.500	23.500	1.7852e-02
 8.500	23.750	1.7852e-02
 8.500	24.000	1.7852e-02
 8.750	17.000	3.0686e-02
 8.750	17.250	3.2386e-02
 8.750	17.500	3.4538e-02
 8.750	17.750	3.7367e-02
 8.750	18.000	4.0543e-02
 8.750	18.250	4.2900e-02
 8.750	18.500	4.4884e-02
 8.750	18.750	3.6619e-02
 8.750	19.000	3.0570e-02
 8.750	19.250	2.4714e-02
 8.750	19.500	2.1429e-02
 8.750	19.750	1.9746e-02
 8.750	20.000	1.8833e-02
 8.750	20.250	1.8310e-02
 8.750	20.500	1.8080e-02
 8.750	20.750	1.7963e-02
 8.750	21.000	1.7898e-02
 8.750	21.250	1.7872e-02
 8.750	21.500	1.7861e-02
 8.750	21.750	1.7856e-02
 8.750	22.000	1.7854e-02
 8.750	22.250	1.7853e-02
 8.750	22.500	1.7853e-02
 8.750	22.750	1.7852e-02
 8.750	23.000	1.7852e-02
 8.750	23.250	1.7852e-02
 8.750	23.500	1.7852e-02
 8.750	23.750	1.7852e-02
 8.750	24.000	1.7852e-02
 9.000	17.000	2.9636e-02
 9.000	17.250	3.1287e-02
 9.000	17.500	3.3243e-02
 9.000	17.750	3.5802e-02
 9.000	18.000	3.9146e-02
 9.000	18.250	4.2655e-02
 9.000	18.500	4.4671e-02
 9.000	18.750	4.5704e-02
 9.000	19.000	3.6624e-02
 9.000	19.250	3.0569e-02
 9.000	19.500	2.4707e-02
 9.000	19.750	2.1422e-02
 9.000	20.000	1.9744e-02
 9.000	20.250	1.8832e-02
 9.000	20.500	1.8309e-02
 9.000	20.750	1.8080e-02
 9.000	21.000	1.7963e-02
 9.000	21.250	1.7898e-02
 9.000	21.500	1.7872e-02
 9.000	21.750	1.7861e-02
 9.000	22.000	1.7856e-02
 9.000	22.250	1.7854e-02
 9.000	22.500	1.7853e-02
 9.000	22.750	1.7853e-02
 9.000	23.000	1.7852e-02
 9.000	23.250	1.7852e-02
 9.000	23.500	1.7852e-02
 9.000	23.750	1.7852e-02
 9.000	24.000	1.7853e-02
 9.250	17.000	2.8568e-02
 9.250	17.250	3.0336e-02
 9.250	17.500	3.2374e-02
 9.250	17.750	3.4936e-02
 9.250	18.000	3.8328e-02
 9.250	18.250	4.2490e-02
 9.250	18.500	4.6214e-02
 9.250	18.750	4.8136e-02
 9.250	19.000	4.5687e-02
 9.250	19.250	3.6620e-02
 9.250	19.500	3.0569e-02
 9.250	19.750	2.4702e-02
 9.250	20.000	2.1415e-02
 9.250	20.250	1.9742e-02
 9.250	20.500	1.8832e-02
 9.250	20.750	1.8309e-02
 9.250	21.000	1.8080e-02
 9.250	21.250	1.7963e-02
 9.250	21.500	1.7895e-02
 9.250	21.750	1.7868e-02
 9.250	22.000	1.7857e-02
 9.250	22.250	1.7853e-02
 9.250	22.500	1.7854e-02
 9.250	22.750	1.7853e-02
 9.250	23.000	1.7853e-02
 9.250	23.250	1.7852e-02
 9.250	23.500	1.7852e-02
 9.250	23.750	1.7852e-02
 9.250	24.000	1.7852e-02
 9.500	17.000	2.7445e-02
 9.500	17.250	2.9429e-02
 9.500	17.500	3.1725e-02
 9.500	17.750	3.4585e-02
 9.500	18.000	3.8275e-02
 9.500	18.250	4.2923e-02
 9.500	18.500	4.7744e-02
 9.500	18.750	5.1240e-02
 9.500	19.000	5.2561e-02
 9.500	19.250	4.5508e-02
 9.500	19.500	3.6597e-02
 9.500	19.750	3.0569e-02
 9.500	20.000	2.4698e-02
 9.500	20.250	2.1409e-02
 9.500	20.500	1.9740e-02
 9.500	20.750	1.8831e-02
 9.500	21.000	1.8306e-02
 9.500	21.250	1.8077e-02
 9.500	21.500	1.7960e-02
 9.500	21.750	1.7893e-02
 9.500	22.000	1.7866e-02
 9.500	22.250	1.7856e-02
 9.500	22.500	1.7851e-02
 9.500	22.750	1.7849e-02
 9.500	23.000	1.7848e-02
 9.500	23.250	1.7847e-02
 9.500	23.500	1.7848e-02
 9.500	23.750	1.7847e-02
 9.500	24.000	1.7847e-02
 9.750	17.000	2.6165e-02
 9.750	17.250	2.8416e-02
 9.750	17.500	3.1103e-02
 9.750	17.750	3.4505e-02
 9.750	18.000	3.8942e-02
 9.750	18.250	4.4253e-02
 9.750	18.500	4.9635e-02
 9.750	18.750	5.4234e-02
 9.750	19.000	5.7035e-02
 9.750	19.250	5.7978e-02
 9.750	19.500	4.5309e-02
 9.750	19.750	3.6564e-02
 9.750	20.000	3.0570e-02
 9.750	20.250	2.4696e-02
 9.750	20.500	2.1404e-02
 9.750	20.750	1.9739e-02
 9.750	21.000	1.8831e-02
 9.750	21.250	1.8307e-02
 9.750	21.500	1.8077e-02
 9.750	21.750	1.7960e-02
 9.750	22.000	1.7894e-02
 9.750	22.250	1.7866e-02
 9.750	22.500	1.7856e-02
 9.750	22.750	1.7851e-02
 9.750	23.000	1.7849e-02
 9.750	23.250	1.7848e-02
 9.750	23.500	1.7847e-02
 9.750	23.750	1.7847e-02
 9.750	24.000	1.7847e-02
10.000	17.000	2.4666e-02
10.000	17.250	2.7294e-02
10.000	17.500	3.0466e-02
10.000	17.750	3.4621e-02
10.000	18.000	4.0166e-02
10.000	18.250	4.6296e-02
10.000	18.500	5.1987e-02
10.000	18.750	5.6975e-02
10.000	19.000	6.0987e-02
10.000	19.250	6.3387e-02
10.000	19.500	6.1093e-02
10.000	19.750	4.5210e-02
10.000	20.000	3.6489e-02
10.000	20.250	3.0569e-02
10.000	20.500	2.4695e-02
10.000	20.750	2.1400e-02
10.000	21.000	1.9738e-02
10.000	21.250	1.8831e-02
10.000	21.500	1.8308e-02
10.000	21.750	1.8078e-02
10.000	22.000	1.7960e-02
10.000	22.250	1.7894e-02
10.000	22.500	1.7867e-02
10.000	22.750	1.7855e-02
10.000	23.000	1.7851e-02
10.000	23.250	1.7849e-02
10.000	23.500	1.7848e-02
10.000	23.750	1.7847e-02
10.000	24.000	1.7847e-02
10.250	17.000	2.3459e-02
10.250	17.250	2.6064e-02
10.250	17.500	2.9876e-02
10.250	17.750	3.4952e-02
10.250	18.000	4.1600e-02
10.250	18.250	4.8514e-02
10.250	18.500	5.4459e-02
10.250	18.750	5.9458e-02
10.250	19.000	6.3529e-02
10.250	19.250	6.7276e-02
10.250	19.500	7.0582e-02
10.250	19.750	6.1338e-02
10.250	20.000	4.5254e-02
10.250	20.250	3.6478e-02
10.250	20.500	3.0565e-02
10.250	20.750	2.4695e-02
10.250	21.000	2.1398e-02
10.250	21.250	1.9737e-02
10.250	21.500	1.8831e-02
10.250	21.750	1.8309e-02
10.250	22.000	1.8079e-02
10.250	22.250	1.7960e-02
10.250	22.500	1.7895e-02
10.250	22.750	1.7868e-02
10.250	23.000	1.7856e-02
10.250	23.250	1.7851e-02
10.250	23.500	1.7849e-02
10.250	23.750	1.7848e-02
10.250	24.000	1.7847e-02
10.500	17.000	2.2727e-02
10.500	17.250	2.5254e-02
10.500	17.500	2.9400e-02
10.500	17.750	3.5612e-02
10.500	18.000	4.3096e-02
10.500	18.250	5.0528e-02
10.500	18.500	5.6665e-02
10.500	18.750	6.1598e-02
10.500	19.000	6.5996e-02
10.500	19.250	7.0093e-02
10.500	19.500	7.3911e-02
10.500	19.750	7.6983e-02
10.500	20.000	6.1366e-02
10.500	20.250	4.5391e-02
10.500	20.500	3.6515e-02
10.500	20.750	3.0559e-02
10.500	21.000	2.4695e-02
10.500	21.250	2.1397e-02
10.500	21.500	1.9737e-02
10.500	21.750	1.8831e-02
10.500	22.000	1.8309e-02
10.500	22.250	1.8080e-02
10.500	22.500	1.7962e-02
10.500	22.750	1.7895e-02
10.500	23.000	1.7868e-02
10.500	23.250	1.7857e-02
10.500	23.500	1.7852e-02
10.500	23.750	1.7849e-02
10.500	24.000	1.7848e-02
10.750	17.000	2.2575e-02
10.750	17.250	2.5028e-02
10.750	17.500	2.9574e-02
10.750	17.750	3.6453e-02
10.750	18.000	4.4506e-02
10.750	18.250	5.1980e-02
10.750	18.500	5.8180e-02
10.750	18.750	6.3590e-02
10.750	19.000	6.8168e-02
10.750	19.250	7.2286e-02
10.750	19.500	7.6125e-02
10.750	19.750	7.9928e-02
10.750	20.000	8.1966e-02
10.750	20.250	6.1497e-02
10.750	20.500	4.5670e-02
10.750	20.750	3.6688e-02
10.750	21.000	3.0545e-02
10.750	21.250	2.4694e-02
10.750	21.500	2.1397e-02
10.750	21.750	1.9738e-02
10.750	22.000	1.8831e-02
10.750	22.250	1.8308e-02
10.750	22.500	1.8080e-02
10.750	22.750	1.7963e-02
10.750	23.000	1.7895e-02
10.750	23.250	1.7868e-02
10.750	23.500	1.7857e-02
10.750	23.750	1.7852e-02
10.750	24.000	1.7850e-02
11.000	17.000	2.2953e-02
11.000	17.250	2.5400e-02
11.000	17.500	3.0240e-02
11.000	17.750	3.7450e-02
11.000	18.000	4.5460e-02
11.000	18.250	5.2754e-02
11.000	18.500	5.9179e-02
11.000	18.750	6.4793e-02
11.000	19.000	6.9624e-02
11.000	19.250	7.3719e-02
11.000	19.500	7.7436e-02
11.000	19.750	8.0971e-02
11.000	20.000	8.4634e-02
11.000	20.250	8.3768e-02
11.000	20.500	6.2117e-02
11.000	20.750	4.6089e-02
11.000	21.000	3.7002e-02
11.000	21.250	3.0521e-02
11.000	21.500	2.4689e-02
11.000	21.750	2.1398e-02
11.000	22.000	1.9739e-02
11.000	22.250	1.8831e-02
11.000	22.500	1.8308e-02
11.000	22.750	1.8080e-02
11.000	23.000	1.7963e-02
11.000	23.250	1.7895e-02
11.000	23.500	1.7869e-02
11.000	23.750	1.7858e-02
11.000	24.000	1.7853e-02
11.250	17.000	2.3722e-02
11.250	17.250	2.6206e-02
11.250	17.500	3.1233e-02
11.250	17.750	3.8387e-02
11.250	18.000	4.6024e-02
11.250	18.250	5.2992e-02
11.250	18.500	5.9366e-02
11.250	18.750	6.5251e-02
11.250	19.000	7.0219e-02
11.250	19.250	7.4418e-02
11.250	19.500	7.8032e-02
11.250	19.750	8.1311e-02
11.250	20.000	8.4667e-02
11.250	20.250	8.8342e-02
11.250	20.500	8.2974e-02
11.250	20.750	6.2308e-02
11.250	21.000	4.6710e-02
11.250	21.250	3.7552e-02
11.250	21.500	3.0489e-02
11.250	21.750	2.4676e-02
11.250	22.000	2.1398e-02
11.250	22.250	1.9741e-02
11.250	22.500	1.8831e-02
11.250	22.750	1.8308e-02
11.250	23.000	1.8080e-02
11.250	23.250	1.7963e-02
11.250	23.500	1.7897e-02
11.250	23.750	1.7869e-02
11.250	24.000	1.7858e-02
11.500	17.000	2.4843e-02
11.500	17.250	2.7394e-02
11.500	17.500	3.2420e-02
11.500	17.750	3.9280e-02
11.500	18.000	4.6356e-02
11.500	18.250	5.2930e-02
11.500	18.500	5.9160e-02
11.500	18.750	6.5081e-02
11.500	19.000	7.0294e-02
11.500	19.250	7.4651e-02
11.500	19.500	7.8197e-02
11.500	19.750	8.1429e-02
11.500	20.000	8.4665e-02
11.500	20.250	8.8087e-02
11.500	20.500	9.1909e-02
11.500	20.750	8.3102e-02
11.500	21.000	6.3110e-02
11.500	21.250	4.7738e-02
11.500	21.500	3.8543e-02
11.500	21.750	3.0439e-02
11.500	22.000	2.4655e-02
11.500	22.250	2.1399e-02
11.500	22.500	1.9742e-02
11.500	22.750	1.8831e-02
11.500	23.000	1.8308e-02
11.500	23.250	1.8080e-02
11.500	23.500	1.7963e-02
11.500	23.750	1.7898e-02
11.500	24.000	1.7869e-02
11.750	17.000	2.6255e-02
11.750	17.250	2.8804e-02
11.750	17.500	3.3688e-02
11.750	17.750	4.0137e-02
11.750	18.000	4.6626e-02
11.750	18.250	5.2753e-02
11.750	18.500	5.8849e-02
11.750	18.750	6.4760e-02
11.750	19.000	7.0206e-02
11.750	19.250	7.4813e-02
11.750	19.500	7.8465e-02
11.750	19.750	8.1561e-02
11.750	20.000	8.4736e-02
11.750	20.250	8.8131e-02
11.750	20.500	9.1984e-02
11.750	20.750	9.6512e-02
11.750	21.000	8.3268e-02
11.750	21.250	6.4490e-02
11.750	21.500	4.9303e-02
11.750	21.750	3.9767e-02
11.750	22.000	3.0375e-02
11.750	22.250	2.4622e-02
11.750	22.500	2.1397e-02
11.750	22.750	1.9743e-02
11.750	23.000	1.8831e-02
11.750	23.250	1.8307e-02
11.750	23.500	1.8088e-02
11.750	23.750	1.7963e-02
11.750	24.000	1.7898e-02
12.000	17.000	2.7826e-02
12.000	17.250	3.0305e-02
12.000	17.500	3.4806e-02
12.000	17.750	4.0655e-02
12.000	18.000	4.6665e-02
12.000	18.250	5.2686e-02
12.000	18.500	5.8826e-02
12.000	18.750	6.4879e-02
12.000	19.000	7.0421e-02
12.000	19.250	7.5348e-02
12.000	19.500	7.9162e-02
12.000	19.750	8.2257e-02
12.000	20.000	8.5177e-02
12.000	20.250	8.8510e-02
12.000	20.500	9.2344e-02
12.000	20.750	9.7002e-02
12.000	21.000	1.0133e-01
12.000	21.250	8.4693e-02
12.000	21.500	6.6570e-02
12.000	21.750	5.1391e-02
12.000	22.000	4.0361e-02
12.000	22.250	3.0300e-02
12.000	22.500	2.4578e-02
12.000	22.750	2.1393e-02
12.000	23.000	1.9743e-02
12.000	23.250	1.8831e-02
12.000	23.500	1.8306e-02
12.000	23.750	1.8080e-02
12.000	24.000	1.7963e-02
12.250	17.000	2.9083e-02
12.250	17.250	3.1527e-02
12.250	17.500	3.5327e-02
12.250	17.750	4.0352e-02
12.250	18.000	4.6247e-02
12.250	18.250	5.2830e-02
12.250	18.500	5.9588e-02
12.250	18.750	6.5879e-02
12.250	19.000	7.1399e-02
12.250	19.250	7.6368e-02
12.250	19.500	8.0441e-02
12.250	19.750	8.3640e-02
12.250	20.000	8.6407e-02
12.250	20.250	8.9429e-02
12.250	20.500	9.3239e-02
12.250	20.750	9.8085e-02
12.250	21.000	1.0452e-01
12.250	21.250	1.0632e-01
12.250	21.500	8.6645e-02
12.250	21.750	6.8816e-02
12.250	22.000	5.3676e-02
12.250	22.250	4.0277e-02
12.250	22.500	3.0211e-02
12.250	22.750	2.4522e-02
12.250	23.000	2.1383e-02
12.250	23.250	1.9741e-02
12.250	23.500	1.8830e-02
12.250	23.750	1.8305e-02
12.250	24.000	1.8079e-02
12.500	17.000	2.9067e-02
12.500	17.250	3.1401e-02
12.500	17.500	3.4545e-02
12.500	17.750	3.9022e-02
12.500	18.000	4.5329e-02
12.500	18.250	5.3010e-02
12.500	18.500	6.0853e-02
12.500	18.750	6.7780e-02
12.500	19.000	7.3538e-02
12.500	19.250	7.8228e-02
12.500	19.500	8.2298e-02
12.500	19.750	8.5741e-02
12.500	20.000	8.8660e-02
12.500	20.250	9.1452e-02
12.500	20.500	9.4799e-02
12.500	20.750	9.9650e-02
12.500	21.000	1.0677e-01
12.500	21.250	1.1524e-01
12.500	21.500	1.1249e-01
12.500	21.750	9.0242e-02
12.500	22.000	7.2122e-02
12.500	22.250	5.5491e-02
12.500	22.500	4.0145e-02
12.500	22.750	3.0107e-02
12.500	23.000	2.4454e-02
12.500	23.250	2.1367e-02
12.500	23.500	1.9737e-02
12.500	23.750	1.8828e-02
12.500	24.000	1.8303e-02
12.750	17.000	2.4765e-02
12.750	17.250	2.8376e-02
12.750	17.500	3.1741e-02
12.750	17.750	3.7058e-02
12.750	18.000	4.4657e-02
12.750	18.250	5.3301e-02
12.750	18.500	6.2069e-02
12.750	18.750	6.9999e-02
12.750	19.000	7.6288e-02
12.750	19.250	8.1309e-02
12.750	19.500	8.5124e-02
12.750	19.750	8.8546e-02
12.750	20.000	9.1615e-02
12.750	20.250	9.4404e-02
12.750	20.500	9.7680e-02
12.750	20.750	1.0191e-01
12.750	21.000	1.0887e-01
12.750	21.250	1.1893e-01
12.750	21.500	1.2656e-01
12.750	21.750	1.2077e-01
12.750	22.000	9.5667e-02
12.750	22.250	7.5707e-02
12.750	22.500	5.6678e-02
12.750	22.750	3.9968e-02
12.750	23.000	2.9972e-02
12.750	23.250	2.4376e-02
12.750	23.500	2.1347e-02
12.750	23.750	1.9729e-02
12.750	24.000	1.8823e-02
13.000	17.000	1.7661e-02
13.000	17.250	2.2344e-02
13.000	17.500	2.9776e-02
13.000	17.750	3.6392e-02
13.000	18.000	4.4412e-02
13.000	18.250	5.3638e-02
13.000	18.500	6.3157e-02
13.000	18.750	7.1871e-02
13.000	19.000	7.8974e-02
13.000	19.250	8.4504e-02
13.000	19.500	8.8582e-02
13.000	19.750	9.1977e-02
13.000	20.000	9.5010e-02
13.000	20.250	9.8129e-02
13.000	20.500	1.0169e-01
13.000	20.750	1.0579e-01
13.000	21.000	1.1260e-01
13.000	21.250	1.2239e-01
13.000	21.500	1.3151e-01
13.000	21.750	1.4415e-01
13.000	22.000	1.3110e-01
13.000	22.250	1.0081e-01
13.000	22.500	7.7974e-02
13.000	22.750	5.6971e-02
13.000	23.000	3.9753e-02
13.000	23.250	2.9819e-02
13.000	23.500	2.4287e-02
13.000	23.750	2.1315e-02
13.000	24.000	1.9712e-02
13.250	17.000	1.7331e-02
13.250	17.250	2.0735e-02
13.250	17.500	2.6851e-02
13.250	17.750	3.5013e-02
13.250	18.000	4.4644e-02
13.250	18.250	5.4109e-02
13.250	18.500	6.3993e-02
13.250	18.750	7.3320e-02
13.250	19.000	8.1267e-02
13.250	19.250	8.7436e-02
13.250	19.500	9.2086e-02
13.250	19.750	9.5819e-02
13.250	20.000	9.9127e-02
13.250	20.250	1.0234e-01
13.250	20.500	1.0588e-01
13.250	20.750	1.1044e-01
13.250	21.000	1.1640e-01
13.250	21.250	1.2572e-01
13.250	21.500	1.3478e-01
13.250	21.750	1.5154e-01
13.250	22.000	1.6139e-01
13.250	22.250	1.3832e-01
13.250	22.500	1.0477e-01
13.250	22.750	7.8543e-02
13.250	23.000	5.6780e-02
13.250	23.250	3.9484e-02
13.250	23.500	2.9641e-02
13.250	23.750	2.4188e-02
13.250	24.000	2.1266e-02
13.500	17.000	1.7292e-02
13.500	17.250	2.0271e-02
13.500	17.500	2.5957e-02
13.500	17.750	3.4458e-02
13.500	18.000	4.4195e-02
13.500	18.250	5.4893e-02
13.500	18.500	6.4930e-02
13.500	18.750	7.4682e-02
13.500	19.000	8.3302e-02
13.500	19.250	9.0372e-02
13.500	19.500	9.5470e-02
13.500	19.750	9.9475e-02
13.500	20.000	1.0321e-01
13.500	20.250	1.0687e-01
13.500	20.500	1.1064e-01
13.500	20.750	1.1488e-01
13.500	21.000	1.1997e-01
13.500	21.250	1.2870e-01
13.500	21.500	1.3612e-01
13.500	21.750	1.4933e-01
13.500	22.000	1.6703e-01
13.500	22.250	1.7680e-01
13.500	22.500	1.4438e-01
13.500	22.750	1.0613e-01
13.500	23.000	7.7489e-02
13.500	23.250	5.6211e-02
13.500	23.500	3.9143e-02
13.500	23.750	2.9401e-02
13.500	24.000	2.4067e-02
13.750	17.000	1.7458e-02
13.750	17.250	2.0427e-02
13.750	17.500	2.5662e-02
13.750	17.750	3.3157e-02
13.750	18.000	4.4145e-02
13.750	18.250	5.4880e-02
13.750	18.500	6.5855e-02
13.750	18.750	7.6064e-02
13.750	19.000	8.5263e-02
13.750	19.250	9.3120e-02
13.750	19.500	9.9252e-02
13.750	19.750	1.0390e-01
13.750	20.000	1.0777e-01
13.750	20.250	1.1177e-01
13.750	20.500	1.1600e-01
13.750	20.750	1.2049e-01
13.750	21.000	1.2537e-01
13.750	21.250	1.3164e-01
13.750	21.500	1.3785e-01
13.750	21.750	1.5026e-01
13.750	22.000	1.6925e-01
13.750	22.250	1.9089e-01
13.750	22.500	1.9210e-01
13.750	22.750	1.4911e-01
13.750	23.000	1.0604e-01
13.750	23.250	7.6900e-02
13.750	23.500	5.5404e-02
13.750	23.750	3.8692e-02
13.750	24.000	2.9127e-02
14.000	17.000	1.7923e-02
14.000	17.250	2.0591e-02
14.000	17.500	2.5638e-02
14.000	17.750	3.2859e-02
14.000	18.000	4.3070e-02
14.000	18.250	5.5497e-02
14.000	18.500	6.6757e-02
14.000	18.750	7.7626e-02
14.000	19.000	8.7108e-02
14.000	19.250	9.5794e-02
14.000	19.500	1.0319e-01
14.000	19.750	1.0893e-01
14.000	20.000	1.1335e-01
14.000	20.250	1.1736e-01
14.000	20.500	1.2175e-01
14.000	20.750	1.2659e-01
14.000	21.000	1.3192e-01
14.000	21.250	1.3838e-01
14.000	21.500	1.4356e-01
14.000	21.750	1.5534e-01
14.000	22.000	1.7430e-01
14.000	22.250	2.0045e-01
14.000	22.500	2.2052e-01
14.000	22.750	2.0775e-01
14.000	23.000	1.5202e-01
14.000	23.250	1.0628e-01
14.000	23.500	7.6241e-02
14.000	23.750	5.4601e-02
14.000	24.000	3.8110e-02
