InwT 511.948A  relative to Inci 1215.00A scaled to 1215A.
Hden   Phi(H)  Eq_Width (A)
 7.000	17.000	3.8251e-02
 7.000	17.250	5.1013e-02
 7.000	17.500	5.0640e-02
 7.000	17.750	4.2122e-02
 7.000	18.000	3.3587e-02
 7.000	18.250	2.8298e-02
 7.000	18.500	2.5290e-02
 7.000	18.750	2.4162e-02
 7.000	19.000	2.3613e-02
 7.000	19.250	2.3316e-02
 7.000	19.500	2.3190e-02
 7.000	19.750	2.3136e-02
 7.000	20.000	2.3112e-02
 7.000	20.250	2.3101e-02
 7.000	20.500	2.3095e-02
 7.000	20.750	2.3092e-02
 7.000	21.000	2.3091e-02
 7.000	21.250	2.3090e-02
 7.000	21.500	2.3089e-02
 7.000	21.750	2.3089e-02
 7.000	22.000	2.3089e-02
 7.000	22.250	2.3089e-02
 7.000	22.500	2.3089e-02
 7.000	22.750	2.3089e-02
 7.000	23.000	2.3089e-02
 7.000	23.250	2.3089e-02
 7.000	23.500	2.3089e-02
 7.000	23.750	2.3089e-02
 7.000	24.000	2.3089e-02
 7.250	17.000	2.3471e-02
 7.250	17.250	3.7463e-02
 7.250	17.500	5.0309e-02
 7.250	17.750	5.0253e-02
 7.250	18.000	4.1893e-02
 7.250	18.250	3.3463e-02
 7.250	18.500	2.8239e-02
 7.250	18.750	2.5268e-02
 7.250	19.000	2.4154e-02
 7.250	19.250	2.3610e-02
 7.250	19.500	2.3315e-02
 7.250	19.750	2.3190e-02
 7.250	20.000	2.3136e-02
 7.250	20.250	2.3112e-02
 7.250	20.500	2.3101e-02
 7.250	20.750	2.3095e-02
 7.250	21.000	2.3092e-02
 7.250	21.250	2.3090e-02
 7.250	21.500	2.3089e-02
 7.250	21.750	2.3089e-02
 7.250	22.000	2.3091e-02
 7.250	22.250	2.3089e-02
 7.250	22.500	2.3089e-02
 7.250	22.750	2.3089e-02
 7.250	23.000	2.3089e-02
 7.250	23.250	2.3090e-02
 7.250	23.500	2.3089e-02
 7.250	23.750	2.3090e-02
 7.250	24.000	2.3089e-02
 7.500	17.000	1.4749e-02
 7.500	17.250	2.3085e-02
 7.500	17.500	3.7037e-02
 7.500	17.750	4.9939e-02
 7.500	18.000	5.0067e-02
 7.500	18.250	4.1761e-02
 7.500	18.500	3.3384e-02
 7.500	18.750	2.8202e-02
 7.500	19.000	2.5254e-02
 7.500	19.250	2.4148e-02
 7.500	19.500	2.3608e-02
 7.500	19.750	2.3315e-02
 7.500	20.000	2.3190e-02
 7.500	20.250	2.3136e-02
 7.500	20.500	2.3112e-02
 7.500	20.750	2.3101e-02
 7.500	21.000	2.3095e-02
 7.500	21.250	2.3092e-02
 7.500	21.500	2.3090e-02
 7.500	21.750	2.3089e-02
 7.500	22.000	2.3089e-02
 7.500	22.250	2.3089e-02
 7.500	22.500	2.3089e-02
 7.500	22.750	2.3088e-02
 7.500	23.000	2.3089e-02
 7.500	23.250	2.3089e-02
 7.500	23.500	2.3089e-02
 7.500	23.750	2.3089e-02
 7.500	24.000	2.3089e-02
 7.750	17.000	9.6504e-03
 7.750	17.250	1.4567e-02
 7.750	17.500	2.2878e-02
 7.750	17.750	3.6816e-02
 7.750	18.000	4.9766e-02
 7.750	18.250	5.0010e-02
 7.750	18.500	4.1693e-02
 7.750	18.750	3.3336e-02
 7.750	19.000	2.8179e-02
 7.750	19.250	2.5245e-02
 7.750	19.500	2.4145e-02
 7.750	19.750	2.3607e-02
 7.750	20.000	2.3315e-02
 7.750	20.250	2.3190e-02
 7.750	20.500	2.3136e-02
 7.750	20.750	2.3112e-02
 7.750	21.000	2.3101e-02
 7.750	21.250	2.3095e-02
 7.750	21.500	2.3092e-02
 7.750	21.750	2.3090e-02
 7.750	22.000	2.3089e-02
 7.750	22.250	2.3089e-02
 7.750	22.500	2.3089e-02
 7.750	22.750	2.3088e-02
 7.750	23.000	2.3089e-02
 7.750	23.250	2.3088e-02
 7.750	23.500	2.3088e-02
 7.750	23.750	2.3088e-02
 7.750	24.000	2.3088e-02
 8.000	17.000	6.4607e-03
 8.000	17.250	9.5165e-03
 8.000	17.500	1.4401e-02
 8.000	17.750	2.2686e-02
 8.000	18.000	3.6637e-02
 8.000	18.250	4.9702e-02
 8.000	18.500	5.0042e-02
 8.000	18.750	4.1666e-02
 8.000	19.000	3.3305e-02
 8.000	19.250	2.8166e-02
 8.000	19.500	2.5240e-02
 8.000	19.750	2.4143e-02
 8.000	20.000	2.3606e-02
 8.000	20.250	2.3314e-02
 8.000	20.500	2.3190e-02
 8.000	20.750	2.3136e-02
 8.000	21.000	2.3112e-02
 8.000	21.250	2.3101e-02
 8.000	21.500	2.3095e-02
 8.000	21.750	2.3092e-02
 8.000	22.000	2.3090e-02
 8.000	22.250	2.3089e-02
 8.000	22.500	2.3089e-02
 8.000	22.750	2.3088e-02
 8.000	23.000	2.3088e-02
 8.000	23.250	2.3088e-02
 8.000	23.500	2.3088e-02
 8.000	23.750	2.3088e-02
 8.000	24.000	2.3090e-02
 8.250	17.000	4.4616e-03
 8.250	17.250	6.4161e-03
 8.250	17.500	9.4666e-03
 8.250	17.750	1.4338e-02
 8.250	18.000	2.2612e-02
 8.250	18.250	3.6556e-02
 8.250	18.500	4.9686e-02
 8.250	18.750	5.0125e-02
 8.250	19.000	4.1662e-02
 8.250	19.250	3.3285e-02
 8.250	19.500	2.8158e-02
 8.250	19.750	2.5237e-02
 8.250	20.000	2.4142e-02
 8.250	20.250	2.3606e-02
 8.250	20.500	2.3314e-02
 8.250	20.750	2.3190e-02
 8.250	21.000	2.3136e-02
 8.250	21.250	2.3112e-02
 8.250	21.500	2.3101e-02
 8.250	21.750	2.3095e-02
 8.250	22.000	2.3092e-02
 8.250	22.250	2.3090e-02
 8.250	22.500	2.3089e-02
 8.250	22.750	2.3089e-02
 8.250	23.000	2.3089e-02
 8.250	23.250	2.3088e-02
 8.250	23.500	2.3088e-02
 8.250	23.750	2.3088e-02
 8.250	24.000	2.3088e-02
 8.500	17.000	3.1885e-03
 8.500	17.250	4.4375e-03
 8.500	17.500	6.3897e-03
 8.500	17.750	9.4303e-03
 8.500	18.000	1.4292e-02
 8.500	18.250	2.2535e-02
 8.500	18.500	3.6471e-02
 8.500	18.750	4.9713e-02
 8.500	19.000	5.0253e-02
 8.500	19.250	4.1673e-02
 8.500	19.500	3.3271e-02
 8.500	19.750	2.8153e-02
 8.500	20.000	2.5235e-02
 8.500	20.250	2.4141e-02
 8.500	20.500	2.3606e-02
 8.500	20.750	2.3314e-02
 8.500	21.000	2.3190e-02
 8.500	21.250	2.3136e-02
 8.500	21.500	2.3112e-02
 8.500	21.750	2.3101e-02
 8.500	22.000	2.3095e-02
 8.500	22.250	2.3092e-02
 8.500	22.500	2.3090e-02
 8.500	22.750	2.3090e-02
 8.500	23.000	2.3089e-02
 8.500	23.250	2.3088e-02
 8.500	23.500	2.3088e-02
 8.500	23.750	2.3088e-02
 8.500	24.000	2.3088e-02
 8.750	17.000	2.3602e-03
 8.750	17.250	3.1816e-03
 8.750	17.500	4.4260e-03
 8.750	17.750	6.3725e-03
 8.750	18.000	9.4107e-03
 8.750	18.250	1.4262e-02
 8.750	18.500	2.2481e-02
 8.750	18.750	3.6384e-02
 8.750	19.000	4.9744e-02
 8.750	19.250	5.0405e-02
 8.750	19.500	4.1692e-02
 8.750	19.750	3.3260e-02
 8.750	20.000	2.8150e-02
 8.750	20.250	2.5234e-02
 8.750	20.500	2.4141e-02
 8.750	20.750	2.3605e-02
 8.750	21.000	2.3314e-02
 8.750	21.250	2.3190e-02
 8.750	21.500	2.3136e-02
 8.750	21.750	2.3112e-02
 8.750	22.000	2.3101e-02
 8.750	22.250	2.3095e-02
 8.750	22.500	2.3092e-02
 8.750	22.750	2.3090e-02
 8.750	23.000	2.3089e-02
 8.750	23.250	2.3089e-02
 8.750	23.500	2.3088e-02
 8.750	23.750	2.3088e-02
 8.750	24.000	2.3088e-02
 9.000	17.000	1.7755e-03
 9.000	17.250	2.3782e-03
 9.000	17.500	3.1957e-03
 9.000	17.750	4.4335e-03
 9.000	18.000	6.3738e-03
 9.000	18.250	9.4094e-03
 9.000	18.500	1.4266e-02
 9.000	18.750	2.2503e-02
 9.000	19.000	3.6293e-02
 9.000	19.250	4.9757e-02
 9.000	19.500	5.0556e-02
 9.000	19.750	4.1714e-02
 9.000	20.000	3.3252e-02
 9.000	20.250	2.8148e-02
 9.000	20.500	2.5234e-02
 9.000	20.750	2.4141e-02
 9.000	21.000	2.3605e-02
 9.000	21.250	2.3314e-02
 9.000	21.500	2.3190e-02
 9.000	21.750	2.3136e-02
 9.000	22.000	2.3112e-02
 9.000	22.250	2.3101e-02
 9.000	22.500	2.3095e-02
 9.000	22.750	2.3092e-02
 9.000	23.000	2.3090e-02
 9.000	23.250	2.3089e-02
 9.000	23.500	2.3089e-02
 9.000	23.750	2.3088e-02
 9.000	24.000	2.3089e-02
 9.250	17.000	1.3222e-03
 9.250	17.250	1.8136e-03
 9.250	17.500	2.4235e-03
 9.250	17.750	3.2416e-03
 9.250	18.000	4.4731e-03
 9.250	18.250	6.4082e-03
 9.250	18.500	9.4530e-03
 9.250	18.750	1.4370e-02
 9.250	19.000	2.2640e-02
 9.250	19.250	3.6233e-02
 9.250	19.500	4.9741e-02
 9.250	19.750	5.0699e-02
 9.250	20.000	4.1736e-02
 9.250	20.250	3.3246e-02
 9.250	20.500	2.8147e-02
 9.250	20.750	2.5234e-02
 9.250	21.000	2.4141e-02
 9.250	21.250	2.3606e-02
 9.250	21.500	2.3311e-02
 9.250	21.750	2.3186e-02
 9.250	22.000	2.3132e-02
 9.250	22.250	2.3108e-02
 9.250	22.500	2.3100e-02
 9.250	22.750	2.3094e-02
 9.250	23.000	2.3092e-02
 9.250	23.250	2.3090e-02
 9.250	23.500	2.3089e-02
 9.250	23.750	2.3089e-02
 9.250	24.000	2.3088e-02
 9.500	17.000	9.4634e-04
 9.500	17.250	1.3698e-03
 9.500	17.500	1.8860e-03
 9.500	17.750	2.5099e-03
 9.500	18.000	3.3255e-03
 9.500	18.250	4.5511e-03
 9.500	18.500	6.4986e-03
 9.500	18.750	9.6140e-03
 9.500	19.000	1.4702e-02
 9.500	19.250	2.3125e-02
 9.500	19.500	3.6271e-02
 9.500	19.750	4.9709e-02
 9.500	20.000	5.0804e-02
 9.500	20.250	4.1757e-02
 9.500	20.500	3.3242e-02
 9.500	20.750	2.8146e-02
 9.500	21.000	2.5229e-02
 9.500	21.250	2.4137e-02
 9.500	21.500	2.3601e-02
 9.500	21.750	2.3308e-02
 9.500	22.000	2.3183e-02
 9.500	22.250	2.3129e-02
 9.500	22.500	2.3105e-02
 9.500	22.750	2.3094e-02
 9.500	23.000	2.3088e-02
 9.500	23.250	2.3085e-02
 9.500	23.500	2.3084e-02
 9.500	23.750	2.3083e-02
 9.500	24.000	2.3082e-02
 9.750	17.000	6.3119e-04
 9.750	17.250	9.8510e-04
 9.750	17.500	1.4463e-03
 9.750	17.750	1.9965e-03
 9.750	18.000	2.6341e-03
 9.750	18.250	3.4544e-03
 9.750	18.500	4.7044e-03
 9.750	18.750	6.7262e-03
 9.750	19.000	1.0033e-02
 9.750	19.250	1.5481e-02
 9.750	19.500	2.4024e-02
 9.750	19.750	3.6477e-02
 9.750	20.000	4.9691e-02
 9.750	20.250	5.0864e-02
 9.750	20.500	4.1776e-02
 9.750	20.750	3.3240e-02
 9.750	21.000	2.8148e-02
 9.750	21.250	2.5230e-02
 9.750	21.500	2.4137e-02
 9.750	21.750	2.3601e-02
 9.750	22.000	2.3309e-02
 9.750	22.250	2.3183e-02
 9.750	22.500	2.3129e-02
 9.750	22.750	2.3105e-02
 9.750	23.000	2.3093e-02
 9.750	23.250	2.3088e-02
 9.750	23.500	2.3085e-02
 9.750	23.750	2.3083e-02
 9.750	24.000	2.3082e-02
10.000	17.000	3.7399e-04
10.000	17.250	6.5424e-04
10.000	17.500	1.0472e-03
10.000	17.750	1.5521e-03
10.000	18.000	2.1373e-03
10.000	18.250	2.8018e-03
10.000	18.500	3.6626e-03
10.000	18.750	4.9994e-03
10.000	19.000	7.2123e-03
10.000	19.250	1.0861e-02
10.000	19.500	1.6756e-02
10.000	19.750	2.5234e-02
10.000	20.000	3.7116e-02
10.000	20.250	4.9773e-02
10.000	20.500	5.0913e-02
10.000	20.750	4.1805e-02
10.000	21.000	3.3244e-02
10.000	21.250	2.8150e-02
10.000	21.500	2.5233e-02
10.000	21.750	2.4138e-02
10.000	22.000	2.3602e-02
10.000	22.250	2.3310e-02
10.000	22.500	2.3184e-02
10.000	22.750	2.3129e-02
10.000	23.000	2.3105e-02
10.000	23.250	2.3094e-02
10.000	23.500	2.3088e-02
10.000	23.750	2.3085e-02
10.000	24.000	2.3083e-02
10.250	17.000	2.2255e-04
10.250	17.250	3.8774e-04
10.250	17.500	6.9695e-04
10.250	17.750	1.1305e-03
10.250	18.000	1.6855e-03
10.250	18.250	2.3267e-03
10.250	18.500	3.0580e-03
10.250	18.750	4.0272e-03
10.250	19.000	5.5428e-03
10.250	19.250	8.0505e-03
10.250	19.500	1.2180e-02
10.250	19.750	1.8198e-02
10.250	20.000	2.6642e-02
10.250	20.250	3.8000e-02
10.250	20.500	5.0126e-02
10.250	20.750	5.0963e-02
10.250	21.000	4.1830e-02
10.250	21.250	3.3253e-02
10.250	21.500	2.8154e-02
10.250	21.750	2.5234e-02
10.250	22.000	2.4141e-02
10.250	22.250	2.3602e-02
10.250	22.500	2.3310e-02
10.250	22.750	2.3185e-02
10.250	23.000	2.3130e-02
10.250	23.250	2.3105e-02
10.250	23.500	2.3094e-02
10.250	23.750	2.3088e-02
10.250	24.000	2.3085e-02
10.500	17.000	1.3580e-04
10.500	17.250	2.3045e-04
10.500	17.500	4.1613e-04
10.500	17.750	7.6123e-04
10.500	18.000	1.2504e-03
10.500	18.250	1.8808e-03
10.500	18.500	2.6106e-03
10.500	18.750	3.4556e-03
10.500	19.000	4.5890e-03
10.500	19.250	6.3579e-03
10.500	19.500	9.2658e-03
10.500	19.750	1.3990e-02
10.500	20.000	2.0302e-02
10.500	20.250	2.8401e-02
10.500	20.500	3.9337e-02
10.500	20.750	5.0807e-02
10.500	21.000	5.1050e-02
10.500	21.250	4.1861e-02
10.500	21.500	3.3267e-02
10.500	21.750	2.8160e-02
10.500	22.000	2.5236e-02
10.500	22.250	2.4143e-02
10.500	22.500	2.3604e-02
10.500	22.750	2.3310e-02
10.500	23.000	2.3186e-02
10.500	23.250	2.3131e-02
10.500	23.500	2.3106e-02
10.500	23.750	2.3094e-02
10.500	24.000	2.3088e-02
10.750	17.000	8.7407e-05
10.750	17.250	1.4091e-04
10.750	17.500	2.5119e-04
10.750	17.750	4.7695e-04
10.750	18.000	8.7284e-04
10.750	18.250	1.4491e-03
10.750	18.500	2.1737e-03
10.750	18.750	3.0063e-03
10.750	19.000	3.9879e-03
10.750	19.250	5.3374e-03
10.750	19.500	7.4436e-03
10.750	19.750	1.0855e-02
10.750	20.000	1.6270e-02
10.750	20.250	2.2663e-02
10.750	20.500	3.0606e-02
10.750	20.750	4.1321e-02
10.750	21.000	5.2048e-02
10.750	21.250	5.1224e-02
10.750	21.500	4.1905e-02
10.750	21.750	3.3291e-02
10.750	22.000	2.8169e-02
10.750	22.250	2.5237e-02
10.750	22.500	2.4144e-02
10.750	22.750	2.3606e-02
10.750	23.000	2.3311e-02
10.750	23.250	2.3186e-02
10.750	23.500	2.3131e-02
10.750	23.750	2.3107e-02
10.750	24.000	2.3095e-02
11.000	17.000	5.9671e-05
11.000	17.250	9.0453e-05
11.000	17.500	1.5490e-04
11.000	17.750	2.9901e-04
11.000	18.000	5.8313e-04
11.000	18.250	1.0475e-03
11.000	18.500	1.7107e-03
11.000	18.750	2.5306e-03
11.000	19.000	3.4700e-03
11.000	19.250	4.6277e-03
11.000	19.500	6.2674e-03
11.000	19.750	8.8169e-03
11.000	20.000	1.2835e-02
11.000	20.250	1.8513e-02
11.000	20.500	2.5455e-02
11.000	20.750	3.3523e-02
11.000	21.000	4.4282e-02
11.000	21.250	5.3876e-02
11.000	21.500	5.1519e-02
11.000	21.750	4.1970e-02
11.000	22.000	3.3327e-02
11.000	22.250	2.8182e-02
11.000	22.500	2.5239e-02
11.000	22.750	2.4145e-02
11.000	23.000	2.3607e-02
11.000	23.250	2.3312e-02
11.000	23.500	2.3186e-02
11.000	23.750	2.3132e-02
11.000	24.000	2.3107e-02
11.250	17.000	4.2798e-05
11.250	17.250	6.0905e-05
11.250	17.500	9.8930e-05
11.250	17.750	1.8774e-04
11.250	18.000	3.7984e-04
11.250	18.250	7.1802e-04
11.250	18.500	1.2458e-03
11.250	18.750	1.9938e-03
11.250	19.000	2.9077e-03
11.250	19.250	3.9822e-03
11.250	19.500	5.3872e-03
11.250	19.750	7.4286e-03
11.250	20.000	1.0527e-02
11.250	20.250	1.5265e-02
11.250	20.500	2.1626e-02
11.250	20.750	2.8885e-02
11.250	21.000	3.7472e-02
11.250	21.250	4.8661e-02
11.250	21.500	5.6333e-02
11.250	21.750	5.1981e-02
11.250	22.000	4.2057e-02
11.250	22.250	3.3378e-02
11.250	22.500	2.8201e-02
11.250	22.750	2.5241e-02
11.250	23.000	2.4147e-02
11.250	23.250	2.3608e-02
11.250	23.500	2.3314e-02
11.250	23.750	2.3186e-02
11.250	24.000	2.3132e-02
11.500	17.000	3.2428e-05
11.500	17.250	4.3210e-05
11.500	17.500	6.5761e-05
11.500	17.750	1.1770e-04
11.500	18.000	2.3778e-04
11.500	18.250	4.6914e-04
11.500	18.500	8.4947e-04
11.500	18.750	1.4413e-03
11.500	19.000	2.2826e-03
11.500	19.250	3.3049e-03
11.500	19.500	4.5632e-03
11.500	19.750	6.3126e-03
11.500	20.000	8.8681e-03
11.500	20.250	1.2617e-02
11.500	20.500	1.8171e-02
11.500	20.750	2.5077e-02
11.500	21.000	3.3230e-02
11.500	21.250	4.2917e-02
11.500	21.500	5.4874e-02
11.500	21.750	5.9178e-02
11.500	22.000	5.2611e-02
11.500	22.250	4.2164e-02
11.500	22.500	3.3447e-02
11.500	22.750	2.8231e-02
11.500	23.000	2.5245e-02
11.500	23.250	2.4149e-02
11.500	23.500	2.3610e-02
11.500	23.750	2.3315e-02
11.500	24.000	2.3187e-02
11.750	17.000	2.5597e-05
11.750	17.250	3.2181e-05
11.750	17.500	4.5597e-05
11.750	17.750	7.4979e-05
11.750	18.000	1.4288e-04
11.750	18.250	2.8765e-04
11.750	18.500	5.5119e-04
11.750	18.750	9.7325e-04
11.750	19.000	1.6351e-03
11.750	19.250	2.5772e-03
11.750	19.500	3.7375e-03
11.750	19.750	5.2532e-03
11.750	20.000	7.4543e-03
11.750	20.250	1.0633e-02
11.750	20.500	1.5141e-02
11.750	20.750	2.1611e-02
11.750	21.000	2.9430e-02
11.750	21.250	3.8989e-02
11.750	21.500	5.0363e-02
11.750	21.750	6.2595e-02
11.750	22.000	6.2196e-02
11.750	22.250	5.3364e-02
11.750	22.500	4.2265e-02
11.750	22.750	3.3525e-02
11.750	23.000	2.8267e-02
11.750	23.250	2.5251e-02
11.750	23.500	2.4163e-02
11.750	23.750	2.3611e-02
11.750	24.000	2.3315e-02
12.000	17.000	2.0905e-05
12.000	17.250	2.5021e-05
12.000	17.500	3.3004e-05
12.000	17.750	4.9712e-05
12.000	18.000	8.6337e-05
12.000	18.250	1.6716e-04
12.000	18.500	3.3284e-04
12.000	18.750	6.2617e-04
12.000	19.000	1.0923e-03
12.000	19.250	1.8328e-03
12.000	19.500	2.8924e-03
12.000	19.750	4.2344e-03
12.000	20.000	6.1110e-03
12.000	20.250	8.8929e-03
12.000	20.500	1.2808e-02
12.000	20.750	1.8146e-02
12.000	21.000	2.5904e-02
12.000	21.250	3.5098e-02
12.000	21.500	4.6641e-02
12.000	21.750	5.9720e-02
12.000	22.000	7.0168e-02
12.000	22.250	6.4811e-02
12.000	22.500	5.4149e-02
12.000	22.750	4.2358e-02
12.000	23.000	3.3602e-02
12.000	23.250	2.8308e-02
12.000	23.500	2.5258e-02
12.000	23.750	2.4155e-02
12.000	24.000	2.3612e-02
12.250	17.000	1.7613e-05
12.250	17.250	2.0165e-05
12.250	17.500	2.4856e-05
12.250	17.750	3.4568e-05
12.250	18.000	5.4403e-05
12.250	18.250	9.7284e-05
12.250	18.500	1.8988e-04
12.250	18.750	3.7695e-04
12.250	19.000	6.9860e-04
12.250	19.250	1.2104e-03
12.250	19.500	2.0449e-03
12.250	19.750	3.2477e-03
12.250	20.000	4.8467e-03
12.250	20.250	7.2152e-03
12.250	20.500	1.0700e-02
12.250	20.750	1.5476e-02
12.250	21.000	2.2052e-02
12.250	21.250	3.1340e-02
12.250	21.500	4.2164e-02
12.250	21.750	5.5920e-02
12.250	22.000	7.0283e-02
12.250	22.250	7.6720e-02
12.250	22.500	6.7435e-02
12.250	22.750	5.4906e-02
12.250	23.000	4.2431e-02
12.250	23.250	3.3669e-02
12.250	23.500	2.8349e-02
12.250	23.750	2.5265e-02
12.250	24.000	2.4158e-02
12.500	17.000	1.4815e-05
12.500	17.250	1.6708e-05
12.500	17.500	1.9588e-05
12.500	17.750	2.5185e-05
12.500	18.000	3.6379e-05
12.500	18.250	5.9259e-05
12.500	18.500	1.0848e-04
12.500	18.750	2.1358e-04
12.500	19.000	4.2058e-04
12.500	19.250	7.6708e-04
12.500	19.500	1.3328e-03
12.500	19.750	2.2829e-03
12.500	20.000	3.6813e-03
12.500	20.250	5.6360e-03
12.500	20.500	8.6381e-03
12.500	20.750	1.3033e-02
12.500	21.000	1.9044e-02
12.500	21.250	2.7187e-02
12.500	21.500	3.8124e-02
12.500	21.750	5.1013e-02
12.500	22.000	6.7359e-02
12.500	22.250	8.1081e-02
12.500	22.500	8.3205e-02
12.500	22.750	7.0024e-02
12.500	23.000	5.5583e-02
12.500	23.250	4.2479e-02
12.500	23.500	3.3727e-02
12.500	23.750	2.8387e-02
12.500	24.000	2.5270e-02
12.750	17.000	1.2510e-05
12.750	17.250	1.3827e-05
12.750	17.500	1.5802e-05
12.750	17.750	1.9424e-05
12.750	18.000	2.5926e-05
12.750	18.250	3.8601e-05
12.750	18.500	6.4856e-05
12.750	18.750	1.2099e-04
12.750	19.000	2.3761e-04
12.750	19.250	4.6115e-04
12.750	19.500	8.2955e-04
12.750	19.750	1.4575e-03
12.750	20.000	2.5364e-03
12.750	20.250	4.1885e-03
12.750	20.500	6.6436e-03
12.750	20.750	1.0456e-02
12.750	21.000	1.6009e-02
12.750	21.250	2.3670e-02
12.750	21.500	3.3439e-02
12.750	21.750	4.6773e-02
12.750	22.000	6.1844e-02
12.750	22.250	7.9875e-02
12.750	22.500	9.1968e-02
12.750	22.750	8.8967e-02
12.750	23.000	7.2562e-02
12.750	23.250	5.6078e-02
12.750	23.500	4.2491e-02
12.750	23.750	3.3765e-02
12.750	24.000	2.8417e-02
13.000	17.000	1.0617e-05
13.000	17.250	1.1523e-05
13.000	17.500	1.2922e-05
13.000	17.750	1.5144e-05
13.000	18.000	1.9342e-05
13.000	18.250	2.6914e-05
13.000	18.500	4.1811e-05
13.000	18.750	7.2099e-05
13.000	19.000	1.3440e-04
13.000	19.250	2.5959e-04
13.000	19.500	4.8807e-04
13.000	19.750	8.8066e-04
13.000	20.000	1.5694e-03
13.000	20.250	2.7942e-03
13.000	20.500	4.8207e-03
13.000	20.750	7.8436e-03
13.000	21.000	1.2751e-02
13.000	21.250	1.9781e-02
13.000	21.500	2.8802e-02
13.000	21.750	4.1486e-02
13.000	22.000	5.7140e-02
13.000	22.250	7.3029e-02
13.000	22.500	9.2139e-02
13.000	22.750	1.0288e-01
13.000	23.000	9.4948e-02
13.000	23.250	7.4718e-02
13.000	23.500	5.6464e-02
13.000	23.750	4.2478e-02
13.000	24.000	3.3778e-02
13.250	17.000	8.9712e-06
13.250	17.250	9.6296e-06
13.250	17.500	1.0617e-05
13.250	17.750	1.2181e-05
13.250	18.000	1.4897e-05
13.250	18.250	1.9918e-05
13.250	18.500	2.9136e-05
13.250	18.750	4.6914e-05
13.250	19.000	8.1564e-05
13.250	19.250	1.4938e-04
13.250	19.500	2.7909e-04
13.250	19.750	5.1556e-04
13.250	20.000	9.2724e-04
13.250	20.250	1.6645e-03
13.250	20.500	3.0307e-03
13.250	20.750	5.3543e-03
13.250	21.000	9.0378e-03
13.250	21.250	1.4893e-02
13.250	21.500	2.2865e-02
13.250	21.750	3.4891e-02
13.250	22.000	4.9248e-02
13.250	22.250	6.6219e-02
13.250	22.500	8.5183e-02
13.250	22.750	1.0471e-01
13.250	23.000	1.1422e-01
13.250	23.250	9.9759e-02
13.250	23.500	7.6309e-02
13.250	23.750	5.6683e-02
13.250	24.000	4.2441e-02
13.500	17.000	7.6543e-06
13.500	17.250	8.0658e-06
13.500	17.500	8.8066e-06
13.500	17.750	9.9588e-06
13.500	18.000	1.1852e-05
13.500	18.250	1.5309e-05
13.500	18.500	2.1646e-05
13.500	18.750	3.3333e-05
13.500	19.000	5.5062e-05
13.500	19.250	9.5144e-05
13.500	19.500	1.7045e-04
13.500	19.750	3.1103e-04
13.500	20.000	5.6519e-04
13.500	20.250	1.0095e-03
13.500	20.500	1.7965e-03
13.500	20.750	3.2489e-03
13.500	21.000	5.7179e-03
13.500	21.250	1.0114e-02
13.500	21.500	1.6487e-02
13.500	21.750	2.5812e-02
13.500	22.000	3.9113e-02
13.500	22.250	5.6700e-02
13.500	22.500	7.7695e-02
13.500	22.750	9.8630e-02
13.500	23.000	1.1879e-01
13.500	23.250	1.2610e-01
13.500	23.500	1.0442e-01
13.500	23.750	7.8564e-02
13.500	24.000	5.6787e-02
13.750	17.000	6.5021e-06
13.750	17.250	6.8313e-06
13.750	17.500	7.4074e-06
13.750	17.750	8.2305e-06
13.750	18.000	9.7119e-06
13.750	18.250	1.2263e-05
13.750	18.500	1.6872e-05
13.750	18.750	2.5267e-05
13.750	19.000	4.0658e-05
13.750	19.250	6.8230e-05
13.750	19.500	1.1761e-04
13.750	19.750	2.0774e-04
13.750	20.000	3.7374e-04
13.750	20.250	6.7136e-04
13.750	20.500	1.1830e-03
13.750	20.750	2.0630e-03
13.750	21.000	3.6180e-03
13.750	21.250	6.3453e-03
13.750	21.500	1.0922e-02
13.750	21.750	1.8184e-02
13.750	22.000	2.8977e-02
13.750	22.250	4.4504e-02
13.750	22.500	6.6564e-02
13.750	22.750	9.3705e-02
13.750	23.000	1.1651e-01
13.750	23.250	1.3572e-01
13.750	23.500	1.3842e-01
13.750	23.750	1.0933e-01
13.750	24.000	7.9615e-02
14.000	17.000	5.5967e-06
14.000	17.250	5.8436e-06
14.000	17.500	6.1728e-06
14.000	17.750	6.9136e-06
14.000	18.000	8.0658e-06
14.000	18.250	1.0041e-05
14.000	18.500	1.3663e-05
14.000	18.750	2.0165e-05
14.000	19.000	3.1934e-05
14.000	19.250	5.3251e-05
14.000	19.500	9.0782e-05
14.000	19.750	1.5646e-04
14.000	20.000	2.7383e-04
14.000	20.250	4.8617e-04
14.000	20.500	8.6198e-04
14.000	20.750	1.4960e-03
14.000	21.000	2.5529e-03
14.000	21.250	4.3916e-03
14.000	21.500	7.4918e-03
14.000	21.750	1.2797e-02
14.000	22.000	2.1123e-02
14.000	22.250	3.3849e-02
14.000	22.500	5.2957e-02
14.000	22.750	8.0869e-02
14.000	23.000	1.1272e-01
14.000	23.250	1.3903e-01
14.000	23.500	1.5539e-01
14.000	23.750	1.5073e-01
14.000	24.000	1.1332e-01
