InwC 5100.00A  relative to Inci 1215.00A scaled to 1215A.
Hden   Phi(H)  Eq_Width (A)
 7.000	17.000	1.2983e-02
 7.000	17.250	1.3397e-02
 7.000	17.500	1.3403e-02
 7.000	17.750	1.3409e-02
 7.000	18.000	1.3415e-02
 7.000	18.250	1.3422e-02
 7.000	18.500	1.3425e-02
 7.000	18.750	1.3427e-02
 7.000	19.000	1.3428e-02
 7.000	19.250	1.3430e-02
 7.000	19.500	1.3430e-02
 7.000	19.750	1.3430e-02
 7.000	20.000	1.3430e-02
 7.000	20.250	1.3430e-02
 7.000	20.500	1.3430e-02
 7.000	20.750	1.3430e-02
 7.000	21.000	1.3431e-02
 7.000	21.250	1.3431e-02
 7.000	21.500	1.3431e-02
 7.000	21.750	1.3431e-02
 7.000	22.000	1.3431e-02
 7.000	22.250	1.3431e-02
 7.000	22.500	1.3431e-02
 7.000	22.750	1.3431e-02
 7.000	23.000	1.3431e-02
 7.000	23.250	1.3431e-02
 7.000	23.500	1.3431e-02
 7.000	23.750	1.3431e-02
 7.000	24.000	1.3431e-02
 7.250	17.000	1.2282e-02
 7.250	17.250	1.2986e-02
 7.250	17.500	1.3397e-02
 7.250	17.750	1.3403e-02
 7.250	18.000	1.3409e-02
 7.250	18.250	1.3415e-02
 7.250	18.500	1.3422e-02
 7.250	18.750	1.3425e-02
 7.250	19.000	1.3427e-02
 7.250	19.250	1.3428e-02
 7.250	19.500	1.3430e-02
 7.250	19.750	1.3430e-02
 7.250	20.000	1.3430e-02
 7.250	20.250	1.3430e-02
 7.250	20.500	1.3430e-02
 7.250	20.750	1.3430e-02
 7.250	21.000	1.3430e-02
 7.250	21.250	1.3430e-02
 7.250	21.500	1.3430e-02
 7.250	21.750	1.3430e-02
 7.250	22.000	1.3432e-02
 7.250	22.250	1.3431e-02
 7.250	22.500	1.3431e-02
 7.250	22.750	1.3431e-02
 7.250	23.000	1.3431e-02
 7.250	23.250	1.3431e-02
 7.250	23.500	1.3431e-02
 7.250	23.750	1.3431e-02
 7.250	24.000	1.3431e-02
 7.500	17.000	9.0058e-03
 7.500	17.250	1.2323e-02
 7.500	17.500	1.2988e-02
 7.500	17.750	1.3397e-02
 7.500	18.000	1.3403e-02
 7.500	18.250	1.3409e-02
 7.500	18.500	1.3415e-02
 7.500	18.750	1.3422e-02
 7.500	19.000	1.3425e-02
 7.500	19.250	1.3427e-02
 7.500	19.500	1.3428e-02
 7.500	19.750	1.3430e-02
 7.500	20.000	1.3430e-02
 7.500	20.250	1.3430e-02
 7.500	20.500	1.3430e-02
 7.500	20.750	1.3430e-02
 7.500	21.000	1.3430e-02
 7.500	21.250	1.3430e-02
 7.500	21.500	1.3430e-02
 7.500	21.750	1.3430e-02
 7.500	22.000	1.3430e-02
 7.500	22.250	1.3430e-02
 7.500	22.500	1.3430e-02
 7.500	22.750	1.3430e-02
 7.500	23.000	1.3431e-02
 7.500	23.250	1.3431e-02
 7.500	23.500	1.3431e-02
 7.500	23.750	1.3431e-02
 7.500	24.000	1.3431e-02
 7.750	17.000	6.4880e-03
 7.750	17.250	9.0929e-03
 7.750	17.500	1.2352e-02
 7.750	17.750	1.2990e-02
 7.750	18.000	1.3397e-02
 7.750	18.250	1.3403e-02
 7.750	18.500	1.3409e-02
 7.750	18.750	1.3415e-02
 7.750	19.000	1.3422e-02
 7.750	19.250	1.3425e-02
 7.750	19.500	1.3427e-02
 7.750	19.750	1.3428e-02
 7.750	20.000	1.3430e-02
 7.750	20.250	1.3430e-02
 7.750	20.500	1.3430e-02
 7.750	20.750	1.3430e-02
 7.750	21.000	1.3430e-02
 7.750	21.250	1.3430e-02
 7.750	21.500	1.3430e-02
 7.750	21.750	1.3430e-02
 7.750	22.000	1.3430e-02
 7.750	22.250	1.3430e-02
 7.750	22.500	1.3430e-02
 7.750	22.750	1.3430e-02
 7.750	23.000	1.3431e-02
 7.750	23.250	1.3430e-02
 7.750	23.500	1.3430e-02
 7.750	23.750	1.3430e-02
 7.750	24.000	1.3430e-02
 8.000	17.000	4.5210e-03
 8.000	17.250	6.5481e-03
 8.000	17.500	9.1111e-03
 8.000	17.750	1.2304e-02
 8.000	18.000	1.2987e-02
 8.000	18.250	1.3397e-02
 8.000	18.500	1.3403e-02
 8.000	18.750	1.3409e-02
 8.000	19.000	1.3416e-02
 8.000	19.250	1.3422e-02
 8.000	19.500	1.3425e-02
 8.000	19.750	1.3427e-02
 8.000	20.000	1.3428e-02
 8.000	20.250	1.3430e-02
 8.000	20.500	1.3430e-02
 8.000	20.750	1.3430e-02
 8.000	21.000	1.3430e-02
 8.000	21.250	1.3430e-02
 8.000	21.500	1.3430e-02
 8.000	21.750	1.3430e-02
 8.000	22.000	1.3430e-02
 8.000	22.250	1.3430e-02
 8.000	22.500	1.3430e-02
 8.000	22.750	1.3430e-02
 8.000	23.000	1.3430e-02
 8.000	23.250	1.3430e-02
 8.000	23.500	1.3430e-02
 8.000	23.750	1.3430e-02
 8.000	24.000	1.3432e-02
 8.250	17.000	3.1563e-03
 8.250	17.250	4.6060e-03
 8.250	17.500	6.6543e-03
 8.250	17.750	9.1891e-03
 8.250	18.000	1.2325e-02
 8.250	18.250	1.2989e-02
 8.250	18.500	1.3397e-02
 8.250	18.750	1.3403e-02
 8.250	19.000	1.3409e-02
 8.250	19.250	1.3416e-02
 8.250	19.500	1.3422e-02
 8.250	19.750	1.3425e-02
 8.250	20.000	1.3427e-02
 8.250	20.250	1.3428e-02
 8.250	20.500	1.3430e-02
 8.250	20.750	1.3430e-02
 8.250	21.000	1.3430e-02
 8.250	21.250	1.3430e-02
 8.250	21.500	1.3430e-02
 8.250	21.750	1.3430e-02
 8.250	22.000	1.3430e-02
 8.250	22.250	1.3430e-02
 8.250	22.500	1.3430e-02
 8.250	22.750	1.3430e-02
 8.250	23.000	1.3431e-02
 8.250	23.250	1.3430e-02
 8.250	23.500	1.3430e-02
 8.250	23.750	1.3430e-02
 8.250	24.000	1.3430e-02
 8.500	17.000	2.2176e-03
 8.500	17.250	3.2238e-03
 8.500	17.500	4.7109e-03
 8.500	17.750	6.8013e-03
 8.500	18.000	9.3122e-03
 8.500	18.250	1.2368e-02
 8.500	18.500	1.2990e-02
 8.500	18.750	1.3397e-02
 8.500	19.000	1.3403e-02
 8.500	19.250	1.3409e-02
 8.500	19.500	1.3416e-02
 8.500	19.750	1.3422e-02
 8.500	20.000	1.3425e-02
 8.500	20.250	1.3427e-02
 8.500	20.500	1.3428e-02
 8.500	20.750	1.3430e-02
 8.500	21.000	1.3430e-02
 8.500	21.250	1.3430e-02
 8.500	21.500	1.3430e-02
 8.500	21.750	1.3430e-02
 8.500	22.000	1.3430e-02
 8.500	22.250	1.3430e-02
 8.500	22.500	1.3430e-02
 8.500	22.750	1.3431e-02
 8.500	23.000	1.3430e-02
 8.500	23.250	1.3430e-02
 8.500	23.500	1.3430e-02
 8.500	23.750	1.3430e-02
 8.500	24.000	1.3430e-02
 8.750	17.000	1.5683e-03
 8.750	17.250	2.2697e-03
 8.750	17.500	3.3160e-03
 8.750	17.750	4.8728e-03
 8.750	18.000	7.0104e-03
 8.750	18.250	9.5186e-03
 8.750	18.500	1.2437e-02
 8.750	18.750	1.2990e-02
 8.750	19.000	1.3397e-02
 8.750	19.250	1.3403e-02
 8.750	19.500	1.3409e-02
 8.750	19.750	1.3416e-02
 8.750	20.000	1.3422e-02
 8.750	20.250	1.3425e-02
 8.750	20.500	1.3427e-02
 8.750	20.750	1.3428e-02
 8.750	21.000	1.3430e-02
 8.750	21.250	1.3430e-02
 8.750	21.500	1.3430e-02
 8.750	21.750	1.3430e-02
 8.750	22.000	1.3430e-02
 8.750	22.250	1.3430e-02
 8.750	22.500	1.3430e-02
 8.750	22.750	1.3430e-02
 8.750	23.000	1.3430e-02
 8.750	23.250	1.3430e-02
 8.750	23.500	1.3430e-02
 8.750	23.750	1.3430e-02
 8.750	24.000	1.3430e-02
 9.000	17.000	1.1132e-03
 9.000	17.250	1.6070e-03
 9.000	17.500	2.3467e-03
 9.000	17.750	3.4659e-03
 9.000	18.000	5.1445e-03
 9.000	18.250	7.3998e-03
 9.000	18.500	9.8849e-03
 9.000	18.750	1.2614e-02
 9.000	19.000	1.2990e-02
 9.000	19.250	1.3397e-02
 9.000	19.500	1.3403e-02
 9.000	19.750	1.3409e-02
 9.000	20.000	1.3416e-02
 9.000	20.250	1.3422e-02
 9.000	20.500	1.3425e-02
 9.000	20.750	1.3427e-02
 9.000	21.000	1.3428e-02
 9.000	21.250	1.3430e-02
 9.000	21.500	1.3430e-02
 9.000	21.750	1.3430e-02
 9.000	22.000	1.3430e-02
 9.000	22.250	1.3430e-02
 9.000	22.500	1.3430e-02
 9.000	22.750	1.3430e-02
 9.000	23.000	1.3430e-02
 9.000	23.250	1.3430e-02
 9.000	23.500	1.3430e-02
 9.000	23.750	1.3430e-02
 9.000	24.000	1.3431e-02
 9.250	17.000	7.9202e-04
 9.250	17.250	1.1422e-03
 9.250	17.500	1.6704e-03
 9.250	17.750	2.4828e-03
 9.250	18.000	3.7499e-03
 9.250	18.250	5.6155e-03
 9.250	18.500	7.9872e-03
 9.250	18.750	1.0540e-02
 9.250	19.000	1.2614e-02
 9.250	19.250	1.2987e-02
 9.250	19.500	1.3396e-02
 9.250	19.750	1.3403e-02
 9.250	20.000	1.3409e-02
 9.250	20.250	1.3416e-02
 9.250	20.500	1.3422e-02
 9.250	20.750	1.3425e-02
 9.250	21.000	1.3427e-02
 9.250	21.250	1.3428e-02
 9.250	21.500	1.3427e-02
 9.250	21.750	1.3428e-02
 9.250	22.000	1.3427e-02
 9.250	22.250	1.3428e-02
 9.250	22.500	1.3430e-02
 9.250	22.750	1.3430e-02
 9.250	23.000	1.3430e-02
 9.250	23.250	1.3430e-02
 9.250	23.500	1.3430e-02
 9.250	23.750	1.3430e-02
 9.250	24.000	1.3430e-02
 9.500	17.000	5.6543e-04
 9.500	17.250	8.1416e-04
 9.500	17.500	1.1927e-03
 9.500	17.750	1.7896e-03
 9.500	18.000	2.7477e-03
 9.500	18.250	4.2264e-03
 9.500	18.500	6.2750e-03
 9.500	18.750	8.7120e-03
 9.500	19.000	1.1243e-02
 9.500	19.250	1.2603e-02
 9.500	19.500	1.2980e-02
 9.500	19.750	1.3396e-02
 9.500	20.000	1.3403e-02
 9.500	20.250	1.3409e-02
 9.500	20.500	1.3416e-02
 9.500	20.750	1.3421e-02
 9.500	21.000	1.3423e-02
 9.500	21.250	1.3425e-02
 9.500	21.500	1.3426e-02
 9.500	21.750	1.3426e-02
 9.500	22.000	1.3426e-02
 9.500	22.250	1.3426e-02
 9.500	22.500	1.3426e-02
 9.500	22.750	1.3426e-02
 9.500	23.000	1.3426e-02
 9.500	23.250	1.3426e-02
 9.500	23.500	1.3427e-02
 9.500	23.750	1.3427e-02
 9.500	24.000	1.3427e-02
 9.750	17.000	4.0494e-04
 9.750	17.250	5.8156e-04
 9.750	17.500	8.5333e-04
 9.750	17.750	1.2923e-03
 9.750	18.000	2.0235e-03
 9.750	18.250	3.1807e-03
 9.750	18.500	4.8384e-03
 9.750	18.750	6.9862e-03
 9.750	19.000	9.4435e-03
 9.750	19.250	1.2008e-02
 9.750	19.500	1.2588e-02
 9.750	19.750	1.2970e-02
 9.750	20.000	1.3395e-02
 9.750	20.250	1.3403e-02
 9.750	20.500	1.3409e-02
 9.750	20.750	1.3416e-02
 9.750	21.000	1.3421e-02
 9.750	21.250	1.3423e-02
 9.750	21.500	1.3425e-02
 9.750	21.750	1.3426e-02
 9.750	22.000	1.3427e-02
 9.750	22.250	1.3426e-02
 9.750	22.500	1.3426e-02
 9.750	22.750	1.3426e-02
 9.750	23.000	1.3426e-02
 9.750	23.250	1.3426e-02
 9.750	23.500	1.3426e-02
 9.750	23.750	1.3426e-02
 9.750	24.000	1.3426e-02
10.000	17.000	2.9095e-04
10.000	17.250	4.1679e-04
10.000	17.500	6.1235e-04
10.000	17.750	9.3654e-04
10.000	18.000	1.4978e-03
10.000	18.250	2.3931e-03
10.000	18.500	3.6898e-03
10.000	18.750	5.4478e-03
10.000	19.000	7.6715e-03
10.000	19.250	1.0193e-02
10.000	19.500	1.2359e-02
10.000	19.750	1.2571e-02
10.000	20.000	1.2952e-02
10.000	20.250	1.3393e-02
10.000	20.500	1.3402e-02
10.000	20.750	1.3409e-02
10.000	21.000	1.3416e-02
10.000	21.250	1.3422e-02
10.000	21.500	1.3424e-02
10.000	21.750	1.3425e-02
10.000	22.000	1.3426e-02
10.000	22.250	1.3427e-02
10.000	22.500	1.3427e-02
10.000	22.750	1.3426e-02
10.000	23.000	1.3426e-02
10.000	23.250	1.3426e-02
10.000	23.500	1.3426e-02
10.000	23.750	1.3426e-02
10.000	24.000	1.3426e-02
10.250	17.000	2.1012e-04
10.250	17.250	3.0016e-04
10.250	17.500	4.4132e-04
10.250	17.750	6.8214e-04
10.250	18.000	1.1093e-03
10.250	18.250	1.7894e-03
10.250	18.500	2.7791e-03
10.250	18.750	4.1499e-03
10.250	19.000	5.9774e-03
10.250	19.250	8.3225e-03
10.250	19.500	1.1014e-02
10.250	19.750	1.2345e-02
10.250	20.000	1.2552e-02
10.250	20.250	1.2936e-02
10.250	20.500	1.3387e-02
10.250	20.750	1.3402e-02
10.250	21.000	1.3409e-02
10.250	21.250	1.3416e-02
10.250	21.500	1.3422e-02
10.250	21.750	1.3425e-02
10.250	22.000	1.3426e-02
10.250	22.250	1.3426e-02
10.250	22.500	1.3427e-02
10.250	22.750	1.3427e-02
10.250	23.000	1.3426e-02
10.250	23.250	1.3426e-02
10.250	23.500	1.3426e-02
10.250	23.750	1.3426e-02
10.250	24.000	1.3426e-02
10.500	17.000	1.5300e-04
10.500	17.250	2.1745e-04
10.500	17.500	3.2041e-04
10.500	17.750	5.0066e-04
10.500	18.000	8.2181e-04
10.500	18.250	1.3381e-03
10.500	18.500	2.0718e-03
10.500	18.750	3.0993e-03
10.500	19.000	4.5243e-03
10.500	19.250	6.4116e-03
10.500	19.500	8.8258e-03
10.500	19.750	1.1485e-02
10.500	20.000	1.2327e-02
10.500	20.250	1.2537e-02
10.500	20.500	1.2925e-02
10.500	20.750	1.3382e-02
10.500	21.000	1.3400e-02
10.500	21.250	1.3409e-02
10.500	21.500	1.3416e-02
10.500	21.750	1.3421e-02
10.500	22.000	1.3425e-02
10.500	22.250	1.3427e-02
10.500	22.500	1.3427e-02
10.500	22.750	1.3427e-02
10.500	23.000	1.3427e-02
10.500	23.250	1.3427e-02
10.500	23.500	1.3427e-02
10.500	23.750	1.3426e-02
10.500	24.000	1.3426e-02
10.750	17.000	1.1259e-04
10.750	17.250	1.5901e-04
10.750	17.500	2.3465e-04
10.750	17.750	3.6938e-04
10.750	18.000	6.0831e-04
10.750	18.250	9.8453e-04
10.750	18.500	1.5226e-03
10.750	18.750	2.3059e-03
10.750	19.000	3.3639e-03
10.750	19.250	4.8232e-03
10.750	19.500	6.7928e-03
10.750	19.750	9.3133e-03
10.750	20.000	1.1980e-02
10.750	20.250	1.2301e-02
10.750	20.500	1.2525e-02
10.750	20.750	1.2924e-02
10.750	21.000	1.3375e-02
10.750	21.250	1.3397e-02
10.750	21.500	1.3408e-02
10.750	21.750	1.3415e-02
10.750	22.000	1.3421e-02
10.750	22.250	1.3425e-02
10.750	22.500	1.3427e-02
10.750	22.750	1.3428e-02
10.750	23.000	1.3427e-02
10.750	23.250	1.3428e-02
10.750	23.500	1.3427e-02
10.750	23.750	1.3427e-02
10.750	24.000	1.3427e-02
11.000	17.000	8.4115e-05
11.000	17.250	1.1737e-04
11.000	17.500	1.7284e-04
11.000	17.750	2.7300e-04
11.000	18.000	4.4790e-04
11.000	18.250	7.1802e-04
11.000	18.500	1.1182e-03
11.000	18.750	1.6782e-03
11.000	19.000	2.4658e-03
11.000	19.250	3.5485e-03
11.000	19.500	5.0744e-03
11.000	19.750	7.1329e-03
11.000	20.000	9.8295e-03
11.000	20.250	1.2107e-02
11.000	20.500	1.2301e-02
11.000	20.750	1.2526e-02
11.000	21.000	1.2940e-02
11.000	21.250	1.3365e-02
11.000	21.500	1.3393e-02
11.000	21.750	1.3407e-02
11.000	22.000	1.3415e-02
11.000	22.250	1.3421e-02
11.000	22.500	1.3425e-02
11.000	22.750	1.3427e-02
11.000	23.000	1.3428e-02
11.000	23.250	1.3428e-02
11.000	23.500	1.3428e-02
11.000	23.750	1.3428e-02
11.000	24.000	1.3427e-02
11.250	17.000	6.4033e-05
11.250	17.250	8.7490e-05
11.250	17.500	1.2790e-04
11.250	17.750	2.0148e-04
11.250	18.000	3.2741e-04
11.250	18.250	5.2033e-04
11.250	18.500	8.0074e-04
11.250	18.750	1.2146e-03
11.250	19.000	1.7844e-03
11.250	19.250	2.5844e-03
11.250	19.500	3.7146e-03
11.250	19.750	5.2927e-03
11.250	20.000	7.4518e-03
11.250	20.250	1.0286e-02
11.250	20.500	1.2126e-02
11.250	20.750	1.2293e-02
11.250	21.000	1.2540e-02
11.250	21.250	1.2988e-02
11.250	21.500	1.3362e-02
11.250	21.750	1.3388e-02
11.250	22.000	1.3404e-02
11.250	22.250	1.3413e-02
11.250	22.500	1.3420e-02
11.250	22.750	1.3425e-02
11.250	23.000	1.3426e-02
11.250	23.250	1.3428e-02
11.250	23.500	1.3429e-02
11.250	23.750	1.3428e-02
11.250	24.000	1.3428e-02
11.500	17.000	5.0041e-05
11.500	17.250	6.6584e-05
11.500	17.500	9.5556e-05
11.500	17.750	1.4840e-04
11.500	18.000	2.3770e-04
11.500	18.250	3.7416e-04
11.500	18.500	5.7325e-04
11.500	18.750	8.6749e-04
11.500	19.000	1.2802e-03
11.500	19.250	1.8696e-03
11.500	19.500	2.6889e-03
11.500	19.750	3.8570e-03
11.500	20.000	5.5016e-03
11.500	20.250	7.7587e-03
11.500	20.500	1.0719e-02
11.500	20.750	1.2105e-02
11.500	21.000	1.2298e-02
11.500	21.250	1.2579e-02
11.500	21.500	1.3090e-02
11.500	21.750	1.3355e-02
11.500	22.000	1.3382e-02
11.500	22.250	1.3401e-02
11.500	22.500	1.3411e-02
11.500	22.750	1.3419e-02
11.500	23.000	1.3424e-02
11.500	23.250	1.3426e-02
11.500	23.500	1.3428e-02
11.500	23.750	1.3429e-02
11.500	24.000	1.3428e-02
11.750	17.000	4.0412e-05
11.750	17.250	5.1934e-05
11.750	17.500	7.2428e-05
11.750	17.750	1.0963e-04
11.750	18.000	1.7177e-04
11.750	18.250	2.6609e-04
11.750	18.500	4.0724e-04
11.750	18.750	6.1276e-04
11.750	19.000	9.1366e-04
11.750	19.250	1.3372e-03
11.750	19.500	1.9370e-03
11.750	19.750	2.7807e-03
11.750	20.000	3.9885e-03
11.750	20.250	5.6891e-03
11.750	20.500	8.0517e-03
11.750	20.750	1.1071e-02
11.750	21.000	1.2084e-02
11.750	21.250	1.2318e-02
11.750	21.500	1.2665e-02
11.750	21.750	1.3227e-02
11.750	22.000	1.3347e-02
11.750	22.250	1.3376e-02
11.750	22.500	1.3396e-02
11.750	22.750	1.3408e-02
11.750	23.000	1.3417e-02
11.750	23.250	1.3424e-02
11.750	23.500	1.3432e-02
11.750	23.750	1.3428e-02
11.750	24.000	1.3429e-02
12.000	17.000	3.3827e-05
12.000	17.250	4.1811e-05
12.000	17.500	5.5967e-05
12.000	17.750	8.1399e-05
12.000	18.000	1.2321e-04
12.000	18.250	1.8823e-04
12.000	18.500	2.8757e-04
12.000	18.750	4.3374e-04
12.000	19.000	6.4840e-04
12.000	19.250	9.5292e-04
12.000	19.500	1.3844e-03
12.000	19.750	1.9954e-03
12.000	20.000	2.8616e-03
12.000	20.250	4.1040e-03
12.000	20.500	5.8632e-03
12.000	20.750	8.3272e-03
12.000	21.000	1.1418e-02
12.000	21.250	1.2065e-02
12.000	21.500	1.2368e-02
12.000	21.750	1.2788e-02
12.000	22.000	1.3292e-02
12.000	22.250	1.3337e-02
12.000	22.500	1.3369e-02
12.000	22.750	1.3391e-02
12.000	23.000	1.3403e-02
12.000	23.250	1.3414e-02
12.000	23.500	1.3423e-02
12.000	23.750	1.3425e-02
12.000	24.000	1.3428e-02
12.250	17.000	2.8971e-05
12.250	17.250	3.4650e-05
12.250	17.500	4.4280e-05
12.250	17.750	6.0988e-05
12.250	18.000	8.8889e-05
12.250	18.250	1.3383e-04
12.250	18.500	2.0370e-04
12.250	18.750	3.0815e-04
12.250	19.000	4.6066e-04
12.250	19.250	6.7802e-04
12.250	19.500	9.8584e-04
12.250	19.750	1.4235e-03
12.250	20.000	2.0443e-03
12.250	20.250	2.9294e-03
12.250	20.500	4.2070e-03
12.250	20.750	6.0375e-03
12.250	21.000	8.6025e-03
12.250	21.250	1.1447e-02
12.250	21.500	1.2055e-02
12.250	21.750	1.2422e-02
12.250	22.000	1.2926e-02
12.250	22.250	1.3278e-02
12.250	22.500	1.3324e-02
12.250	22.750	1.3359e-02
12.250	23.000	1.3383e-02
12.250	23.250	1.3398e-02
12.250	23.500	1.3411e-02
12.250	23.750	1.3421e-02
12.250	24.000	1.3425e-02
12.500	17.000	2.5103e-05
12.500	17.250	2.9218e-05
12.500	17.500	3.5802e-05
12.500	17.750	4.6749e-05
12.500	18.000	6.5267e-05
12.500	18.250	9.6049e-05
12.500	18.500	1.4502e-04
12.500	18.750	2.1901e-04
12.500	19.000	3.2733e-04
12.500	19.250	4.8247e-04
12.500	19.500	7.0156e-04
12.500	19.750	1.0124e-03
12.500	20.000	1.4570e-03
12.500	20.250	2.0912e-03
12.500	20.500	2.9918e-03
12.500	20.750	4.2999e-03
12.500	21.000	6.2142e-03
12.500	21.250	8.8659e-03
12.500	21.500	1.1470e-02
12.500	21.750	1.2028e-02
12.500	22.000	1.2493e-02
12.500	22.250	1.3029e-02
12.500	22.500	1.3258e-02
12.500	22.750	1.3306e-02
12.500	23.000	1.3345e-02
12.500	23.250	1.3372e-02
12.500	23.500	1.3389e-02
12.500	23.750	1.3406e-02
12.500	24.000	1.3420e-02
12.750	17.000	1.7284e-05
12.750	17.250	2.5185e-05
12.750	17.500	2.9547e-05
12.750	17.750	3.6790e-05
12.750	18.000	4.9465e-05
12.750	18.250	7.0453e-05
12.750	18.500	1.0420e-04
12.750	18.750	1.5630e-04
12.750	19.000	2.3292e-04
12.750	19.250	3.4403e-04
12.750	19.500	5.0000e-04
12.750	19.750	7.2132e-04
12.750	20.000	1.0352e-03
12.750	20.250	1.4859e-03
12.750	20.500	2.1309e-03
12.750	20.750	3.0452e-03
12.750	21.000	4.4089e-03
12.750	21.250	6.3979e-03
12.750	21.500	9.0147e-03
12.750	21.750	1.1364e-02
12.750	22.000	1.2001e-02
12.750	22.250	1.2559e-02
12.750	22.500	1.3080e-02
12.750	22.750	1.3226e-02
12.750	23.000	1.3282e-02
12.750	23.250	1.3326e-02
12.750	23.500	1.3355e-02
12.750	23.750	1.3376e-02
12.750	24.000	1.3398e-02
13.000	17.000	3.6214e-06
13.000	17.250	8.5597e-06
13.000	17.500	2.3539e-05
13.000	17.750	3.0206e-05
13.000	18.000	3.8765e-05
13.000	18.250	5.3004e-05
13.000	18.500	7.6132e-05
13.000	18.750	1.1210e-04
13.000	19.000	1.6584e-04
13.000	19.250	2.4395e-04
13.000	19.500	3.5564e-04
13.000	19.750	5.1284e-04
13.000	20.000	7.3531e-04
13.000	20.250	1.0519e-03
13.000	20.500	1.5108e-03
13.000	20.750	2.1644e-03
13.000	21.000	3.1286e-03
13.000	21.250	4.5437e-03
13.000	21.500	6.5055e-03
13.000	21.750	9.2300e-03
13.000	22.000	1.1253e-02
13.000	22.250	1.1931e-02
13.000	22.500	1.2550e-02
13.000	22.750	1.3049e-02
13.000	23.000	1.3177e-02
13.000	23.250	1.3245e-02
13.000	23.500	1.3297e-02
13.000	23.750	1.3331e-02
13.000	24.000	1.3356e-02
13.250	17.000	2.1399e-06
13.250	17.250	4.1975e-06
13.250	17.500	9.7942e-06
13.250	17.750	1.9259e-05
13.250	18.000	3.1687e-05
13.250	18.250	4.1317e-05
13.250	18.500	5.6708e-05
13.250	18.750	8.1235e-05
13.250	19.000	1.1835e-04
13.250	19.250	1.7300e-04
13.250	19.500	2.5218e-04
13.250	19.750	3.6379e-04
13.250	20.000	5.2288e-04
13.250	20.250	7.4889e-04
13.250	20.500	1.0705e-03
13.250	20.750	1.5377e-03
13.250	21.000	2.2108e-03
13.250	21.250	3.2072e-03
13.250	21.500	4.6072e-03
13.250	21.750	6.7114e-03
13.250	22.000	9.3039e-03
13.250	22.250	1.0999e-02
13.250	22.500	1.1781e-02
13.250	22.750	1.2432e-02
13.250	23.000	1.2959e-02
13.250	23.250	1.3104e-02
13.250	23.500	1.3190e-02
13.250	23.750	1.3253e-02
13.250	24.000	1.3294e-02
13.500	17.000	1.3169e-06
13.500	17.250	2.3868e-06
13.500	17.500	5.5144e-06
13.500	17.750	1.2428e-05
13.500	18.000	2.2058e-05
13.500	18.250	3.3498e-05
13.500	18.500	4.3868e-05
13.500	18.750	6.0247e-05
13.500	19.000	8.5432e-05
13.500	19.250	1.2362e-04
13.500	19.500	1.7827e-04
13.500	19.750	2.5761e-04
13.500	20.000	3.7021e-04
13.500	20.250	5.3004e-04
13.500	20.500	7.5877e-04
13.500	20.750	1.0862e-03
13.500	21.000	1.5595e-03
13.500	21.250	2.2650e-03
13.500	21.500	3.2458e-03
13.500	21.750	4.7058e-03
13.500	22.000	6.7653e-03
13.500	22.250	9.1953e-03
13.500	22.500	1.0653e-02
13.500	22.750	1.1496e-02
13.500	23.000	1.2201e-02
13.500	23.250	1.2807e-02
13.500	23.500	1.2992e-02
13.500	23.750	1.3107e-02
13.500	24.000	1.3185e-02
13.750	17.000	1.0000e-07
13.750	17.250	1.4815e-06
13.750	17.500	3.2922e-06
13.750	17.750	6.5844e-06
13.750	18.000	1.5062e-05
13.750	18.250	2.3951e-05
13.750	18.500	3.5062e-05
13.750	18.750	4.6173e-05
13.750	19.000	6.3210e-05
13.750	19.250	8.8889e-05
13.750	19.500	1.2683e-04
13.750	19.750	1.8230e-04
13.750	20.000	2.6189e-04
13.750	20.250	3.7572e-04
13.750	20.500	5.3786e-04
13.750	20.750	7.7111e-04
13.750	21.000	1.1064e-03
13.750	21.250	1.5955e-03
13.750	21.500	2.2823e-03
13.750	21.750	3.3140e-03
13.750	22.000	4.7973e-03
13.750	22.250	6.7605e-03
13.750	22.500	8.9191e-03
13.750	22.750	1.0239e-02
13.750	23.000	1.1142e-02
13.750	23.250	1.1921e-02
13.750	23.500	1.2587e-02
13.750	23.750	1.2825e-02
13.750	24.000	1.2980e-02
14.000	17.000	1.0000e-07
14.000	17.250	9.0535e-07
14.000	17.500	1.9753e-06
14.000	17.750	3.9506e-06
14.000	18.000	8.2305e-06
14.000	18.250	1.7449e-05
14.000	18.500	2.6255e-05
14.000	18.750	3.6626e-05
14.000	19.000	4.7901e-05
14.000	19.250	6.5103e-05
14.000	19.500	9.1276e-05
14.000	19.750	1.2930e-04
14.000	20.000	1.8519e-04
14.000	20.250	2.6527e-04
14.000	20.500	3.8066e-04
14.000	20.750	5.4593e-04
14.000	21.000	7.8494e-04
14.000	21.250	1.1323e-03
14.000	21.500	1.6195e-03
14.000	21.750	2.3509e-03
14.000	22.000	3.4005e-03
14.000	22.250	4.7877e-03
14.000	22.500	6.5253e-03
14.000	22.750	8.5147e-03
14.000	23.000	9.7098e-03
14.000	23.250	1.0702e-02
14.000	23.500	1.1555e-02
14.000	23.750	1.2289e-02
14.000	24.000	1.2581e-02
