InwC 3587.67A  relative to Inci 1215.00A scaled to 1215A.
Hden   Phi(H)  Eq_Width (A)
 7.000	17.000	1.0313e-02
 7.000	17.250	1.0319e-02
 7.000	17.500	1.0323e-02
 7.000	17.750	1.0328e-02
 7.000	18.000	1.0333e-02
 7.000	18.250	1.0337e-02
 7.000	18.500	1.0340e-02
 7.000	18.750	1.0341e-02
 7.000	19.000	1.0342e-02
 7.000	19.250	1.0343e-02
 7.000	19.500	1.0343e-02
 7.000	19.750	1.0343e-02
 7.000	20.000	1.0344e-02
 7.000	20.250	1.0344e-02
 7.000	20.500	1.0344e-02
 7.000	20.750	1.0344e-02
 7.000	21.000	1.0344e-02
 7.000	21.250	1.0344e-02
 7.000	21.500	1.0344e-02
 7.000	21.750	1.0344e-02
 7.000	22.000	1.0344e-02
 7.000	22.250	1.0344e-02
 7.000	22.500	1.0344e-02
 7.000	22.750	1.0345e-02
 7.000	23.000	1.0345e-02
 7.000	23.250	1.0344e-02
 7.000	23.500	1.0345e-02
 7.000	23.750	1.0345e-02
 7.000	24.000	1.0345e-02
 7.250	17.000	9.9408e-03
 7.250	17.250	1.0313e-02
 7.250	17.500	1.0319e-02
 7.250	17.750	1.0323e-02
 7.250	18.000	1.0328e-02
 7.250	18.250	1.0333e-02
 7.250	18.500	1.0337e-02
 7.250	18.750	1.0340e-02
 7.250	19.000	1.0341e-02
 7.250	19.250	1.0342e-02
 7.250	19.500	1.0343e-02
 7.250	19.750	1.0343e-02
 7.250	20.000	1.0343e-02
 7.250	20.250	1.0344e-02
 7.250	20.500	1.0344e-02
 7.250	20.750	1.0344e-02
 7.250	21.000	1.0344e-02
 7.250	21.250	1.0344e-02
 7.250	21.500	1.0344e-02
 7.250	21.750	1.0344e-02
 7.250	22.000	1.0344e-02
 7.250	22.250	1.0344e-02
 7.250	22.500	1.0344e-02
 7.250	22.750	1.0344e-02
 7.250	23.000	1.0344e-02
 7.250	23.250	1.0344e-02
 7.250	23.500	1.0344e-02
 7.250	23.750	1.0344e-02
 7.250	24.000	1.0344e-02
 7.500	17.000	9.3016e-03
 7.500	17.250	9.9418e-03
 7.500	17.500	1.0313e-02
 7.500	17.750	1.0319e-02
 7.500	18.000	1.0323e-02
 7.500	18.250	1.0328e-02
 7.500	18.500	1.0333e-02
 7.500	18.750	1.0337e-02
 7.500	19.000	1.0340e-02
 7.500	19.250	1.0341e-02
 7.500	19.500	1.0342e-02
 7.500	19.750	1.0343e-02
 7.500	20.000	1.0343e-02
 7.500	20.250	1.0343e-02
 7.500	20.500	1.0344e-02
 7.500	20.750	1.0344e-02
 7.500	21.000	1.0344e-02
 7.500	21.250	1.0344e-02
 7.500	21.500	1.0344e-02
 7.500	21.750	1.0344e-02
 7.500	22.000	1.0344e-02
 7.500	22.250	1.0344e-02
 7.500	22.500	1.0344e-02
 7.500	22.750	1.0344e-02
 7.500	23.000	1.0344e-02
 7.500	23.250	1.0344e-02
 7.500	23.500	1.0345e-02
 7.500	23.750	1.0344e-02
 7.500	24.000	1.0344e-02
 7.750	17.000	6.7185e-03
 7.750	17.250	9.3235e-03
 7.750	17.500	9.9423e-03
 7.750	17.750	1.0312e-02
 7.750	18.000	1.0319e-02
 7.750	18.250	1.0323e-02
 7.750	18.500	1.0328e-02
 7.750	18.750	1.0333e-02
 7.750	19.000	1.0337e-02
 7.750	19.250	1.0340e-02
 7.750	19.500	1.0341e-02
 7.750	19.750	1.0342e-02
 7.750	20.000	1.0343e-02
 7.750	20.250	1.0343e-02
 7.750	20.500	1.0343e-02
 7.750	20.750	1.0344e-02
 7.750	21.000	1.0344e-02
 7.750	21.250	1.0344e-02
 7.750	21.500	1.0344e-02
 7.750	21.750	1.0344e-02
 7.750	22.000	1.0344e-02
 7.750	22.250	1.0344e-02
 7.750	22.500	1.0344e-02
 7.750	22.750	1.0344e-02
 7.750	23.000	1.0344e-02
 7.750	23.250	1.0344e-02
 7.750	23.500	1.0344e-02
 7.750	23.750	1.0344e-02
 7.750	24.000	1.0344e-02
 8.000	17.000	4.7179e-03
 8.000	17.250	6.6815e-03
 8.000	17.500	9.2636e-03
 8.000	17.750	9.9379e-03
 8.000	18.000	1.0312e-02
 8.000	18.250	1.0319e-02
 8.000	18.500	1.0323e-02
 8.000	18.750	1.0328e-02
 8.000	19.000	1.0333e-02
 8.000	19.250	1.0337e-02
 8.000	19.500	1.0340e-02
 8.000	19.750	1.0341e-02
 8.000	20.000	1.0342e-02
 8.000	20.250	1.0343e-02
 8.000	20.500	1.0343e-02
 8.000	20.750	1.0343e-02
 8.000	21.000	1.0344e-02
 8.000	21.250	1.0344e-02
 8.000	21.500	1.0344e-02
 8.000	21.750	1.0344e-02
 8.000	22.000	1.0344e-02
 8.000	22.250	1.0344e-02
 8.000	22.500	1.0344e-02
 8.000	22.750	1.0344e-02
 8.000	23.000	1.0344e-02
 8.000	23.250	1.0344e-02
 8.000	23.500	1.0344e-02
 8.000	23.750	1.0344e-02
 8.000	24.000	1.0344e-02
 8.250	17.000	3.3088e-03
 8.250	17.250	4.7476e-03
 8.250	17.500	6.6971e-03
 8.250	17.750	9.2628e-03
 8.250	18.000	9.9359e-03
 8.250	18.250	1.0311e-02
 8.250	18.500	1.0318e-02
 8.250	18.750	1.0323e-02
 8.250	19.000	1.0328e-02
 8.250	19.250	1.0333e-02
 8.250	19.500	1.0337e-02
 8.250	19.750	1.0340e-02
 8.250	20.000	1.0341e-02
 8.250	20.250	1.0342e-02
 8.250	20.500	1.0343e-02
 8.250	20.750	1.0343e-02
 8.250	21.000	1.0343e-02
 8.250	21.250	1.0344e-02
 8.250	21.500	1.0344e-02
 8.250	21.750	1.0344e-02
 8.250	22.000	1.0344e-02
 8.250	22.250	1.0344e-02
 8.250	22.500	1.0344e-02
 8.250	22.750	1.0344e-02
 8.250	23.000	1.0344e-02
 8.250	23.250	1.0344e-02
 8.250	23.500	1.0344e-02
 8.250	23.750	1.0344e-02
 8.250	24.000	1.0344e-02
 8.500	17.000	2.3244e-03
 8.500	17.250	3.3331e-03
 8.500	17.500	4.7732e-03
 8.500	17.750	6.7053e-03
 8.500	18.000	9.2569e-03
 8.500	18.250	9.9317e-03
 8.500	18.500	1.0309e-02
 8.500	18.750	1.0318e-02
 8.500	19.000	1.0323e-02
 8.500	19.250	1.0328e-02
 8.500	19.500	1.0333e-02
 8.500	19.750	1.0337e-02
 8.500	20.000	1.0340e-02
 8.500	20.250	1.0341e-02
 8.500	20.500	1.0342e-02
 8.500	20.750	1.0343e-02
 8.500	21.000	1.0343e-02
 8.500	21.250	1.0343e-02
 8.500	21.500	1.0344e-02
 8.500	21.750	1.0344e-02
 8.500	22.000	1.0344e-02
 8.500	22.250	1.0344e-02
 8.500	22.500	1.0344e-02
 8.500	22.750	1.0344e-02
 8.500	23.000	1.0344e-02
 8.500	23.250	1.0344e-02
 8.500	23.500	1.0344e-02
 8.500	23.750	1.0344e-02
 8.500	24.000	1.0344e-02
 8.750	17.000	1.6402e-03
 8.750	17.250	2.3414e-03
 8.750	17.500	3.3568e-03
 8.750	17.750	4.8065e-03
 8.750	18.000	6.7328e-03
 8.750	18.250	9.2665e-03
 8.750	18.500	9.9236e-03
 8.750	18.750	1.0307e-02
 8.750	19.000	1.0317e-02
 8.750	19.250	1.0323e-02
 8.750	19.500	1.0328e-02
 8.750	19.750	1.0333e-02
 8.750	20.000	1.0337e-02
 8.750	20.250	1.0340e-02
 8.750	20.500	1.0341e-02
 8.750	20.750	1.0342e-02
 8.750	21.000	1.0343e-02
 8.750	21.250	1.0343e-02
 8.750	21.500	1.0343e-02
 8.750	21.750	1.0344e-02
 8.750	22.000	1.0344e-02
 8.750	22.250	1.0344e-02
 8.750	22.500	1.0344e-02
 8.750	22.750	1.0344e-02
 8.750	23.000	1.0344e-02
 8.750	23.250	1.0344e-02
 8.750	23.500	1.0344e-02
 8.750	23.750	1.0344e-02
 8.750	24.000	1.0344e-02
 9.000	17.000	1.1640e-03
 9.000	17.250	1.6515e-03
 9.000	17.500	2.3626e-03
 9.000	17.750	3.3988e-03
 9.000	18.000	4.8616e-03
 9.000	18.250	6.8095e-03
 9.000	18.500	9.3021e-03
 9.000	18.750	9.9095e-03
 9.000	19.000	1.0303e-02
 9.000	19.250	1.0316e-02
 9.000	19.500	1.0323e-02
 9.000	19.750	1.0328e-02
 9.000	20.000	1.0333e-02
 9.000	20.250	1.0337e-02
 9.000	20.500	1.0340e-02
 9.000	20.750	1.0341e-02
 9.000	21.000	1.0342e-02
 9.000	21.250	1.0343e-02
 9.000	21.500	1.0343e-02
 9.000	21.750	1.0343e-02
 9.000	22.000	1.0344e-02
 9.000	22.250	1.0344e-02
 9.000	22.500	1.0344e-02
 9.000	22.750	1.0344e-02
 9.000	23.000	1.0344e-02
 9.000	23.250	1.0344e-02
 9.000	23.500	1.0344e-02
 9.000	23.750	1.0344e-02
 9.000	24.000	1.0344e-02
 9.250	17.000	8.3218e-04
 9.250	17.250	1.1700e-03
 9.250	17.500	1.6683e-03
 9.250	17.750	2.4073e-03
 9.250	18.000	3.4861e-03
 9.250	18.250	5.0058e-03
 9.250	18.500	7.0173e-03
 9.250	18.750	9.4500e-03
 9.250	19.000	9.8849e-03
 9.250	19.250	1.0296e-02
 9.250	19.500	1.0314e-02
 9.250	19.750	1.0323e-02
 9.250	20.000	1.0328e-02
 9.250	20.250	1.0333e-02
 9.250	20.500	1.0337e-02
 9.250	20.750	1.0340e-02
 9.250	21.000	1.0341e-02
 9.250	21.250	1.0342e-02
 9.250	21.500	1.0342e-02
 9.250	21.750	1.0342e-02
 9.250	22.000	1.0342e-02
 9.250	22.250	1.0342e-02
 9.250	22.500	1.0343e-02
 9.250	22.750	1.0343e-02
 9.250	23.000	1.0343e-02
 9.250	23.250	1.0343e-02
 9.250	23.500	1.0343e-02
 9.250	23.750	1.0344e-02
 9.250	24.000	1.0344e-02
 9.500	17.000	6.0058e-04
 9.500	17.250	8.3638e-04
 9.500	17.500	1.1850e-03
 9.500	17.750	1.7126e-03
 9.500	18.000	2.5072e-03
 9.500	18.250	3.6821e-03
 9.500	18.500	5.3260e-03
 9.500	18.750	7.5010e-03
 9.500	19.000	9.4318e-03
 9.500	19.250	9.8493e-03
 9.500	19.500	1.0284e-02
 9.500	19.750	1.0311e-02
 9.500	20.000	1.0322e-02
 9.500	20.250	1.0328e-02
 9.500	20.500	1.0333e-02
 9.500	20.750	1.0336e-02
 9.500	21.000	1.0339e-02
 9.500	21.250	1.0340e-02
 9.500	21.500	1.0341e-02
 9.500	21.750	1.0341e-02
 9.500	22.000	1.0342e-02
 9.500	22.250	1.0342e-02
 9.500	22.500	1.0342e-02
 9.500	22.750	1.0342e-02
 9.500	23.000	1.0342e-02
 9.500	23.250	1.0342e-02
 9.500	23.500	1.0342e-02
 9.500	23.750	1.0342e-02
 9.500	24.000	1.0342e-02
 9.750	17.000	4.3835e-04
 9.750	17.250	6.0189e-04
 9.750	17.500	8.4609e-04
 9.750	17.750	1.2244e-03
 9.750	18.000	1.8182e-03
 9.750	18.250	2.7122e-03
 9.750	18.500	3.9966e-03
 9.750	18.750	5.7729e-03
 9.750	19.000	8.1904e-03
 9.750	19.250	9.3870e-03
 9.750	19.500	9.8031e-03
 9.750	19.750	1.0266e-02
 9.750	20.000	1.0306e-02
 9.750	20.250	1.0321e-02
 9.750	20.500	1.0328e-02
 9.750	20.750	1.0333e-02
 9.750	21.000	1.0337e-02
 9.750	21.250	1.0339e-02
 9.750	21.500	1.0340e-02
 9.750	21.750	1.0341e-02
 9.750	22.000	1.0341e-02
 9.750	22.250	1.0342e-02
 9.750	22.500	1.0342e-02
 9.750	22.750	1.0342e-02
 9.750	23.000	1.0342e-02
 9.750	23.250	1.0342e-02
 9.750	23.500	1.0342e-02
 9.750	23.750	1.0342e-02
 9.750	24.000	1.0342e-02
10.000	17.000	3.2420e-04
10.000	17.250	4.3893e-04
10.000	17.500	6.1070e-04
10.000	17.750	8.8239e-04
10.000	18.000	1.3272e-03
10.000	18.250	1.9947e-03
10.000	18.500	2.9572e-03
10.000	18.750	4.3248e-03
10.000	19.000	6.3128e-03
10.000	19.250	8.5449e-03
10.000	19.500	9.3402e-03
10.000	19.750	9.7537e-03
10.000	20.000	1.0240e-02
10.000	20.250	1.0297e-02
10.000	20.500	1.0319e-02
10.000	20.750	1.0327e-02
10.000	21.000	1.0333e-02
10.000	21.250	1.0337e-02
10.000	21.500	1.0339e-02
10.000	21.750	1.0340e-02
10.000	22.000	1.0341e-02
10.000	22.250	1.0342e-02
10.000	22.500	1.0342e-02
10.000	22.750	1.0342e-02
10.000	23.000	1.0342e-02
10.000	23.250	1.0342e-02
10.000	23.500	1.0342e-02
10.000	23.750	1.0342e-02
10.000	24.000	1.0342e-02
10.250	17.000	2.4428e-04
10.250	17.250	3.2486e-04
10.250	17.500	4.4724e-04
10.250	17.750	6.4601e-04
10.250	18.000	9.7457e-04
10.250	18.250	1.4658e-03
10.250	18.500	2.1636e-03
10.250	18.750	3.1644e-03
10.250	19.000	4.6553e-03
10.250	19.250	6.9348e-03
10.250	19.500	8.8555e-03
10.250	19.750	9.2945e-03
10.250	20.000	9.7081e-03
10.250	20.250	1.0208e-02
10.250	20.500	1.0283e-02
10.250	20.750	1.0316e-02
10.250	21.000	1.0327e-02
10.250	21.250	1.0332e-02
10.250	21.500	1.0337e-02
10.250	21.750	1.0339e-02
10.250	22.000	1.0340e-02
10.250	22.250	1.0341e-02
10.250	22.500	1.0342e-02
10.250	22.750	1.0342e-02
10.250	23.000	1.0342e-02
10.250	23.250	1.0342e-02
10.250	23.500	1.0342e-02
10.250	23.750	1.0342e-02
10.250	24.000	1.0342e-02
10.500	17.000	1.8831e-04
10.500	17.250	2.4543e-04
10.500	17.500	3.3342e-04
10.500	17.750	4.8008e-04
10.500	18.000	7.2329e-04
10.500	18.250	1.0867e-03
10.500	18.500	1.5922e-03
10.500	18.750	2.3399e-03
10.500	19.000	3.4662e-03
10.500	19.250	5.1338e-03
10.500	19.500	7.4366e-03
10.500	19.750	8.8412e-03
10.500	20.000	9.2278e-03
10.500	20.250	9.6600e-03
10.500	20.500	1.0173e-02
10.500	20.750	1.0266e-02
10.500	21.000	1.0311e-02
10.500	21.250	1.0325e-02
10.500	21.500	1.0332e-02
10.500	21.750	1.0336e-02
10.500	22.000	1.0339e-02
10.500	22.250	1.0340e-02
10.500	22.500	1.0341e-02
10.500	22.750	1.0342e-02
10.500	23.000	1.0342e-02
10.500	23.250	1.0342e-02
10.500	23.500	1.0342e-02
10.500	23.750	1.0342e-02
10.500	24.000	1.0342e-02
10.750	17.000	1.4881e-04
10.750	17.250	1.8938e-04
10.750	17.500	2.5342e-04
10.750	17.750	3.6239e-04
10.750	18.000	5.4379e-04
10.750	18.250	8.1457e-04
10.750	18.500	1.1991e-03
10.750	18.750	1.7640e-03
10.750	19.000	2.5751e-03
10.750	19.250	3.7658e-03
10.750	19.500	5.5057e-03
10.750	19.750	7.8344e-03
10.750	20.000	8.7454e-03
10.750	20.250	9.1630e-03
10.750	20.500	9.6173e-03
10.750	20.750	1.0137e-02
10.750	21.000	1.0246e-02
10.750	21.250	1.0304e-02
10.750	21.500	1.0323e-02
10.750	21.750	1.0330e-02
10.750	22.000	1.0336e-02
10.750	22.250	1.0339e-02
10.750	22.500	1.0341e-02
10.750	22.750	1.0341e-02
10.750	23.000	1.0342e-02
10.750	23.250	1.0342e-02
10.750	23.500	1.0342e-02
10.750	23.750	1.0342e-02
10.750	24.000	1.0342e-02
11.000	17.000	1.2082e-04
11.000	17.250	1.4955e-04
11.000	17.500	1.9605e-04
11.000	17.750	2.7761e-04
11.000	18.000	4.1333e-04
11.000	18.250	6.1695e-04
11.000	18.500	9.1243e-04
11.000	18.750	1.3307e-03
11.000	19.000	1.9174e-03
11.000	19.250	2.7608e-03
11.000	19.500	3.9882e-03
11.000	19.750	5.7833e-03
11.000	20.000	7.9584e-03
11.000	20.250	8.6852e-03
11.000	20.500	9.1288e-03
11.000	20.750	9.5878e-03
11.000	21.000	1.0114e-02
11.000	21.250	1.0227e-02
11.000	21.500	1.0295e-02
11.000	21.750	1.0319e-02
11.000	22.000	1.0329e-02
11.000	22.250	1.0335e-02
11.000	22.500	1.0339e-02
11.000	22.750	1.0341e-02
11.000	23.000	1.0342e-02
11.000	23.250	1.0342e-02
11.000	23.500	1.0342e-02
11.000	23.750	1.0342e-02
11.000	24.000	1.0342e-02
11.250	17.000	1.0115e-04
11.250	17.250	1.2099e-04
11.250	17.500	1.5473e-04
11.250	17.750	2.1531e-04
11.250	18.000	3.1679e-04
11.250	18.250	4.6963e-04
11.250	18.500	6.8757e-04
11.250	18.750	1.0007e-03
11.250	19.000	1.4272e-03
11.250	19.250	2.0327e-03
11.250	19.500	2.8937e-03
11.250	19.750	4.1386e-03
11.250	20.000	5.9528e-03
11.250	20.250	7.9284e-03
11.250	20.500	8.6471e-03
11.250	20.750	9.1033e-03
11.250	21.000	9.5747e-03
11.250	21.250	1.0085e-02
11.250	21.500	1.0207e-02
11.250	21.750	1.0285e-02
11.250	22.000	1.0315e-02
11.250	22.250	1.0327e-02
11.250	22.500	1.0334e-02
11.250	22.750	1.0339e-02
11.250	23.000	1.0340e-02
11.250	23.250	1.0342e-02
11.250	23.500	1.0342e-02
11.250	23.750	1.0342e-02
11.250	24.000	1.0342e-02
11.500	17.000	8.7325e-05
11.500	17.250	1.0091e-04
11.500	17.500	1.2510e-04
11.500	17.750	1.6963e-04
11.500	18.000	2.4444e-04
11.500	18.250	3.5695e-04
11.500	18.500	5.1885e-04
11.500	18.750	7.4971e-04
11.500	19.000	1.0665e-03
11.500	19.250	1.5014e-03
11.500	19.500	2.1062e-03
11.500	19.750	2.9728e-03
11.500	20.000	4.2257e-03
11.500	20.250	6.0634e-03
11.500	20.500	7.8750e-03
11.500	20.750	8.6055e-03
11.500	21.000	9.0868e-03
11.500	21.250	9.6002e-03
11.500	21.500	1.0064e-02
11.500	21.750	1.0189e-02
11.500	22.000	1.0274e-02
11.500	22.250	1.0310e-02
11.500	22.500	1.0324e-02
11.500	22.750	1.0333e-02
11.500	23.000	1.0339e-02
11.500	23.250	1.0340e-02
11.500	23.500	1.0342e-02
11.500	23.750	1.0343e-02
11.500	24.000	1.0342e-02
11.750	17.000	7.7695e-05
11.750	17.250	8.6914e-05
11.750	17.500	1.0403e-04
11.750	17.750	1.3621e-04
11.750	18.000	1.8979e-04
11.750	18.250	2.7144e-04
11.750	18.500	3.9062e-04
11.750	18.750	5.5827e-04
11.750	19.000	7.9440e-04
11.750	19.250	1.1142e-03
11.750	19.500	1.5532e-03
11.750	19.750	2.1588e-03
11.750	20.000	3.0249e-03
11.750	20.250	4.2784e-03
11.750	20.500	6.1356e-03
11.750	20.750	7.7520e-03
11.750	21.000	8.5903e-03
11.750	21.250	9.1153e-03
11.750	21.500	9.6836e-03
11.750	21.750	1.0041e-02
11.750	22.000	1.0172e-02
11.750	22.250	1.0264e-02
11.750	22.500	1.0304e-02
11.750	22.750	1.0320e-02
11.750	23.000	1.0332e-02
11.750	23.250	1.0338e-02
11.750	23.500	1.0340e-02
11.750	23.750	1.0342e-02
11.750	24.000	1.0343e-02
12.000	17.000	7.1111e-05
12.000	17.250	7.7284e-05
12.000	17.500	8.9136e-05
12.000	17.750	1.1160e-04
12.000	18.000	1.4905e-04
12.000	18.250	2.0765e-04
12.000	18.500	2.9416e-04
12.000	18.750	4.1868e-04
12.000	19.000	5.9391e-04
12.000	19.250	8.3029e-04
12.000	19.500	1.1528e-03
12.000	19.750	1.5912e-03
12.000	20.000	2.1986e-03
12.000	20.250	3.0599e-03
12.000	20.500	4.3113e-03
12.000	20.750	6.1649e-03
12.000	21.000	7.6843e-03
12.000	21.250	8.6160e-03
12.000	21.500	9.2003e-03
12.000	21.750	9.8026e-03
12.000	22.000	1.0039e-02
12.000	22.250	1.0169e-02
12.000	22.500	1.0255e-02
12.000	22.750	1.0298e-02
12.000	23.000	1.0317e-02
12.000	23.250	1.0330e-02
12.000	23.500	1.0337e-02
12.000	23.750	1.0340e-02
12.000	24.000	1.0342e-02
12.250	17.000	6.6667e-05
12.250	17.250	7.0617e-05
12.250	17.500	7.8683e-05
12.250	17.750	9.3745e-05
12.250	18.000	1.1959e-04
12.250	18.250	1.6123e-04
12.250	18.500	2.2444e-04
12.250	18.750	3.1638e-04
12.250	19.000	4.4568e-04
12.250	19.250	6.2058e-04
12.250	19.500	8.5794e-04
12.250	19.750	1.1814e-03
12.250	20.000	1.6188e-03
12.250	20.250	2.2280e-03
12.250	20.500	3.0909e-03
12.250	20.750	4.3558e-03
12.250	21.000	6.1968e-03
12.250	21.250	7.6819e-03
12.250	21.500	8.6820e-03
12.250	21.750	9.3101e-03
12.250	22.000	9.8565e-03
12.250	22.250	1.0025e-02
12.250	22.500	1.0155e-02
12.250	22.750	1.0245e-02
12.250	23.000	1.0293e-02
12.250	23.250	1.0314e-02
12.250	23.500	1.0328e-02
12.250	23.750	1.0337e-02
12.250	24.000	1.0340e-02
12.500	17.000	6.3539e-05
12.500	17.250	6.6173e-05
12.500	17.500	7.1358e-05
12.500	17.750	8.1317e-05
12.500	18.000	9.9177e-05
12.500	18.250	1.2848e-04
12.500	18.500	1.7432e-04
12.500	18.750	2.4123e-04
12.500	19.000	3.3654e-04
12.500	19.250	4.6667e-04
12.500	19.500	6.4214e-04
12.500	19.750	8.8074e-04
12.500	20.000	1.2040e-03
12.500	20.250	1.6431e-03
12.500	20.500	2.2542e-03
12.500	20.750	3.1271e-03
12.500	21.000	4.4250e-03
12.500	21.250	6.3048e-03
12.500	21.500	7.7215e-03
12.500	21.750	8.7821e-03
12.500	22.000	9.4347e-03
12.500	22.250	9.8570e-03
12.500	22.500	1.0014e-02
12.500	22.750	1.0141e-02
12.500	23.000	1.0236e-02
12.500	23.250	1.0287e-02
12.500	23.500	1.0310e-02
12.500	23.750	1.0326e-02
12.500	24.000	1.0336e-02
12.750	17.000	6.0165e-05
12.750	17.250	6.2963e-05
12.750	17.500	6.6420e-05
12.750	17.750	7.3169e-05
12.750	18.000	8.5350e-05
12.750	18.250	1.0593e-04
12.750	18.500	1.3827e-04
12.750	18.750	1.8700e-04
12.750	19.000	2.5630e-04
12.750	19.250	3.5251e-04
12.750	19.500	4.8189e-04
12.750	19.750	6.5786e-04
12.750	20.000	8.9654e-04
12.750	20.250	1.2222e-03
12.750	20.500	1.6579e-03
12.750	20.750	2.2805e-03
12.750	21.000	3.1779e-03
12.750	21.250	4.5482e-03
12.750	21.500	6.3611e-03
12.750	21.750	7.8131e-03
12.750	22.000	8.9026e-03
12.750	22.250	9.5410e-03
12.750	22.500	9.8564e-03
12.750	22.750	1.0006e-02
12.750	23.000	1.0133e-02
12.750	23.250	1.0227e-02
12.750	23.500	1.0280e-02
12.750	23.750	1.0306e-02
12.750	24.000	1.0323e-02
13.000	17.000	1.4403e-05
13.000	17.250	2.7654e-05
13.000	17.500	6.2963e-05
13.000	17.750	6.7984e-05
13.000	18.000	7.6296e-05
13.000	18.250	9.0370e-05
13.000	18.500	1.1300e-04
13.000	18.750	1.4765e-04
13.000	19.000	1.9761e-04
13.000	19.250	2.6798e-04
13.000	19.500	3.6379e-04
13.000	19.750	4.9350e-04
13.000	20.000	6.6757e-04
13.000	20.250	9.0568e-04
13.000	20.500	1.2302e-03
13.000	20.750	1.6782e-03
13.000	21.000	2.3110e-03
13.000	21.250	3.2556e-03
13.000	21.500	4.6311e-03
13.000	21.750	6.4863e-03
13.000	22.000	7.9640e-03
13.000	22.250	9.0006e-03
13.000	22.500	9.5989e-03
13.000	22.750	9.8547e-03
13.000	23.000	1.0002e-02
13.000	23.250	1.0126e-02
13.000	23.500	1.0217e-02
13.000	23.750	1.0272e-02
13.000	24.000	1.0299e-02
13.250	17.000	8.7243e-06
13.250	17.250	1.6379e-05
13.250	17.500	3.8683e-05
13.250	17.750	6.1235e-05
13.250	18.000	6.9959e-05
13.250	18.250	7.9588e-05
13.250	18.500	9.5309e-05
13.250	18.750	1.1951e-04
13.250	19.000	1.5523e-04
13.250	19.250	2.0568e-04
13.250	19.500	2.7572e-04
13.250	19.750	3.7103e-04
13.250	20.000	5.0008e-04
13.250	20.250	6.7490e-04
13.250	20.500	9.1119e-04
13.250	20.750	1.2341e-03
13.250	21.000	1.6891e-03
13.250	21.250	2.3371e-03
13.250	21.500	3.2767e-03
13.250	21.750	4.7356e-03
13.250	22.000	6.6184e-03
13.250	22.250	7.9960e-03
13.250	22.500	9.0226e-03
13.250	22.750	9.6032e-03
13.250	23.000	9.8472e-03
13.250	23.250	9.9924e-03
13.250	23.500	1.0116e-02
13.250	23.750	1.0206e-02
13.250	24.000	1.0261e-02
13.500	17.000	5.1852e-06
13.500	17.250	1.0206e-05
13.500	17.500	2.2305e-05
13.500	17.750	4.2634e-05
13.500	18.000	6.5185e-05
13.500	18.250	7.2181e-05
13.500	18.500	8.2634e-05
13.500	18.750	9.9342e-05
13.500	19.000	1.2444e-04
13.500	19.250	1.6115e-04
13.500	19.500	2.1160e-04
13.500	19.750	2.8082e-04
13.500	20.000	3.7449e-04
13.500	20.250	5.0288e-04
13.500	20.500	6.7424e-04
13.500	20.750	9.0708e-04
13.500	21.000	1.2263e-03
13.500	21.250	1.6741e-03
13.500	21.500	2.2950e-03
13.500	21.750	3.2691e-03
13.500	22.000	4.7877e-03
13.500	22.250	6.6188e-03
13.500	22.500	7.9924e-03
13.500	22.750	8.9933e-03
13.500	23.000	9.5743e-03
13.500	23.250	9.8259e-03
13.500	23.500	9.9749e-03
13.500	23.750	1.0101e-02
13.500	24.000	1.0191e-02
13.750	17.000	3.1276e-06
13.750	17.250	6.2551e-06
13.750	17.500	1.3663e-05
13.750	17.750	2.7160e-05
13.750	18.000	4.9300e-05
13.750	18.250	6.3210e-05
13.750	18.500	7.4321e-05
13.750	18.750	8.5432e-05
13.750	19.000	1.0247e-04
13.750	19.250	1.2790e-04
13.750	19.500	1.6428e-04
13.750	19.750	2.1440e-04
13.750	20.000	2.8280e-04
13.750	20.250	3.7523e-04
13.750	20.500	5.0041e-04
13.750	20.750	6.6749e-04
13.750	21.000	8.9350e-04
13.750	21.250	1.1997e-03
13.750	21.500	1.6157e-03
13.750	21.750	2.2367e-03
13.750	22.000	3.2151e-03
13.750	22.250	4.8278e-03
13.750	22.500	6.6100e-03
13.750	22.750	7.9274e-03
13.750	23.000	8.9119e-03
13.750	23.250	9.5277e-03
13.750	23.500	9.7848e-03
13.750	23.750	9.9453e-03
13.750	24.000	1.0077e-02
14.000	17.000	1.8930e-06
14.000	17.250	3.7037e-06
14.000	17.500	8.3951e-06
14.000	17.750	1.6543e-05
14.000	18.000	3.3333e-05
14.000	18.250	5.5144e-05
14.000	18.500	6.8642e-05
14.000	18.750	7.6049e-05
14.000	19.000	8.7490e-05
14.000	19.250	1.0477e-04
14.000	19.500	1.3004e-04
14.000	19.750	1.6601e-04
14.000	20.000	2.1539e-04
14.000	20.250	2.8206e-04
14.000	20.500	3.7235e-04
14.000	20.750	4.9218e-04
14.000	21.000	6.5169e-04
14.000	21.250	8.6403e-04
14.000	21.500	1.1410e-03
14.000	21.750	1.5356e-03
14.000	22.000	2.1285e-03
14.000	22.250	3.1266e-03
14.000	22.500	4.8803e-03
14.000	22.750	6.5760e-03
14.000	23.000	7.8876e-03
14.000	23.250	8.8124e-03
14.000	23.500	9.4609e-03
14.000	23.750	9.7154e-03
14.000	24.000	9.8954e-03
