InwT 4885.36A  relative to Inci 1215.00A scaled to 1215A.
Hden   Phi(H)  Eq_Width (A)
 7.000	17.000	2.0818e-02
 7.000	17.250	1.4614e-02
 7.000	17.500	1.1338e-02
 7.000	17.750	9.6618e-03
 7.000	18.000	8.8551e-03
 7.000	18.250	8.4185e-03
 7.000	18.500	8.1748e-03
 7.000	18.750	8.0696e-03
 7.000	19.000	8.0160e-03
 7.000	19.250	7.9864e-03
 7.000	19.500	7.9747e-03
 7.000	19.750	7.9700e-03
 7.000	20.000	7.9680e-03
 7.000	20.250	7.9671e-03
 7.000	20.500	7.9667e-03
 7.000	20.750	7.9664e-03
 7.000	21.000	7.9663e-03
 7.000	21.250	7.9663e-03
 7.000	21.500	7.9662e-03
 7.000	21.750	7.9662e-03
 7.000	22.000	7.9662e-03
 7.000	22.250	7.9663e-03
 7.000	22.500	7.9662e-03
 7.000	22.750	7.9671e-03
 7.000	23.000	7.9671e-03
 7.000	23.250	7.9663e-03
 7.000	23.500	7.9669e-03
 7.000	23.750	7.9669e-03
 7.000	24.000	7.9673e-03
 7.250	17.000	2.8753e-02
 7.250	17.250	2.0799e-02
 7.250	17.500	1.4605e-02
 7.250	17.750	1.1332e-02
 7.250	18.000	9.6598e-03
 7.250	18.250	8.8545e-03
 7.250	18.500	8.4183e-03
 7.250	18.750	8.1747e-03
 7.250	19.000	8.0696e-03
 7.250	19.250	8.0160e-03
 7.250	19.500	7.9864e-03
 7.250	19.750	7.9747e-03
 7.250	20.000	7.9700e-03
 7.250	20.250	7.9680e-03
 7.250	20.500	7.9670e-03
 7.250	20.750	7.9666e-03
 7.250	21.000	7.9663e-03
 7.250	21.250	7.9663e-03
 7.250	21.500	7.9663e-03
 7.250	21.750	7.9663e-03
 7.250	22.000	7.9662e-03
 7.250	22.250	7.9662e-03
 7.250	22.500	7.9662e-03
 7.250	22.750	7.9662e-03
 7.250	23.000	7.9662e-03
 7.250	23.250	7.9662e-03
 7.250	23.500	7.9662e-03
 7.250	23.750	7.9662e-03
 7.250	24.000	7.9662e-03
 7.500	17.000	3.9950e-02
 7.500	17.250	2.8733e-02
 7.500	17.500	2.0785e-02
 7.500	17.750	1.4599e-02
 7.500	18.000	1.1327e-02
 7.500	18.250	9.6577e-03
 7.500	18.500	8.8538e-03
 7.500	18.750	8.4182e-03
 7.500	19.000	8.1747e-03
 7.500	19.250	8.0695e-03
 7.500	19.500	8.0160e-03
 7.500	19.750	7.9864e-03
 7.500	20.000	7.9747e-03
 7.500	20.250	7.9700e-03
 7.500	20.500	7.9680e-03
 7.500	20.750	7.9670e-03
 7.500	21.000	7.9666e-03
 7.500	21.250	7.9663e-03
 7.500	21.500	7.9662e-03
 7.500	21.750	7.9662e-03
 7.500	22.000	7.9661e-03
 7.500	22.250	7.9662e-03
 7.500	22.500	7.9662e-03
 7.500	22.750	7.9662e-03
 7.500	23.000	7.9662e-03
 7.500	23.250	7.9662e-03
 7.500	23.500	7.9671e-03
 7.500	23.750	7.9662e-03
 7.500	24.000	7.9662e-03
 7.750	17.000	4.0745e-02
 7.750	17.250	4.0045e-02
 7.750	17.500	2.8719e-02
 7.750	17.750	2.0776e-02
 7.750	18.000	1.4594e-02
 7.750	18.250	1.1321e-02
 7.750	18.500	9.6553e-03
 7.750	18.750	8.8532e-03
 7.750	19.000	8.4180e-03
 7.750	19.250	8.1747e-03
 7.750	19.500	8.0695e-03
 7.750	19.750	8.0160e-03
 7.750	20.000	7.9864e-03
 7.750	20.250	7.9747e-03
 7.750	20.500	7.9700e-03
 7.750	20.750	7.9680e-03
 7.750	21.000	7.9670e-03
 7.750	21.250	7.9666e-03
 7.750	21.500	7.9663e-03
 7.750	21.750	7.9662e-03
 7.750	22.000	7.9661e-03
 7.750	22.250	7.9661e-03
 7.750	22.500	7.9661e-03
 7.750	22.750	7.9662e-03
 7.750	23.000	7.9661e-03
 7.750	23.250	7.9661e-03
 7.750	23.500	7.9663e-03
 7.750	23.750	7.9663e-03
 7.750	24.000	7.9661e-03
 8.000	17.000	4.0552e-02
 8.000	17.250	4.0412e-02
 8.000	17.500	3.9676e-02
 8.000	17.750	2.8673e-02
 8.000	18.000	2.0770e-02
 8.000	18.250	1.4590e-02
 8.000	18.500	1.1315e-02
 8.000	18.750	9.6526e-03
 8.000	19.000	8.8524e-03
 8.000	19.250	8.4179e-03
 8.000	19.500	8.1746e-03
 8.000	19.750	8.0695e-03
 8.000	20.000	8.0160e-03
 8.000	20.250	7.9864e-03
 8.000	20.500	7.9747e-03
 8.000	20.750	7.9700e-03
 8.000	21.000	7.9680e-03
 8.000	21.250	7.9670e-03
 8.000	21.500	7.9666e-03
 8.000	21.750	7.9663e-03
 8.000	22.000	7.9662e-03
 8.000	22.250	7.9661e-03
 8.000	22.500	7.9661e-03
 8.000	22.750	7.9660e-03
 8.000	23.000	7.9660e-03
 8.000	23.250	7.9660e-03
 8.000	23.500	7.9660e-03
 8.000	23.750	7.9660e-03
 8.000	24.000	7.9662e-03
 8.250	17.000	4.0646e-02
 8.250	17.250	4.0891e-02
 8.250	17.500	4.0608e-02
 8.250	17.750	3.9721e-02
 8.250	18.000	2.8672e-02
 8.250	18.250	2.0769e-02
 8.250	18.500	1.4586e-02
 8.250	18.750	1.1309e-02
 8.250	19.000	9.6496e-03
 8.250	19.250	8.8515e-03
 8.250	19.500	8.4177e-03
 8.250	19.750	8.1746e-03
 8.250	20.000	8.0695e-03
 8.250	20.250	8.0160e-03
 8.250	20.500	7.9864e-03
 8.250	20.750	7.9747e-03
 8.250	21.000	7.9700e-03
 8.250	21.250	7.9680e-03
 8.250	21.500	7.9670e-03
 8.250	21.750	7.9666e-03
 8.250	22.000	7.9663e-03
 8.250	22.250	7.9662e-03
 8.250	22.500	7.9661e-03
 8.250	22.750	7.9664e-03
 8.250	23.000	7.9660e-03
 8.250	23.250	7.9662e-03
 8.250	23.500	7.9664e-03
 8.250	23.750	7.9660e-03
 8.250	24.000	7.9662e-03
 8.500	17.000	4.0757e-02
 8.500	17.250	4.1093e-02
 8.500	17.500	4.1317e-02
 8.500	17.750	4.0874e-02
 8.500	18.000	3.9801e-02
 8.500	18.250	2.8674e-02
 8.500	18.500	2.0770e-02
 8.500	18.750	1.4583e-02
 8.500	19.000	1.1302e-02
 8.500	19.250	9.6463e-03
 8.500	19.500	8.8506e-03
 8.500	19.750	8.4175e-03
 8.500	20.000	8.1745e-03
 8.500	20.250	8.0695e-03
 8.500	20.500	8.0160e-03
 8.500	20.750	7.9864e-03
 8.500	21.000	7.9747e-03
 8.500	21.250	7.9700e-03
 8.500	21.500	7.9680e-03
 8.500	21.750	7.9670e-03
 8.500	22.000	7.9666e-03
 8.500	22.250	7.9663e-03
 8.500	22.500	7.9662e-03
 8.500	22.750	7.9661e-03
 8.500	23.000	7.9661e-03
 8.500	23.250	7.9660e-03
 8.500	23.500	7.9660e-03
 8.500	23.750	7.9660e-03
 8.500	24.000	7.9660e-03
 8.750	17.000	4.0838e-02
 8.750	17.250	4.1317e-02
 8.750	17.500	4.1752e-02
 8.750	17.750	4.2027e-02
 8.750	18.000	4.1427e-02
 8.750	18.250	4.0053e-02
 8.750	18.500	2.8677e-02
 8.750	18.750	2.0774e-02
 8.750	19.000	1.4581e-02
 8.750	19.250	1.1295e-02
 8.750	19.500	9.6426e-03
 8.750	19.750	8.8496e-03
 8.750	20.000	8.4174e-03
 8.750	20.250	8.1745e-03
 8.750	20.500	8.0695e-03
 8.750	20.750	8.0160e-03
 8.750	21.000	7.9864e-03
 8.750	21.250	7.9747e-03
 8.750	21.500	7.9700e-03
 8.750	21.750	7.9679e-03
 8.750	22.000	7.9670e-03
 8.750	22.250	7.9665e-03
 8.750	22.500	7.9663e-03
 8.750	22.750	7.9662e-03
 8.750	23.000	7.9661e-03
 8.750	23.250	7.9660e-03
 8.750	23.500	7.9662e-03
 8.750	23.750	7.9660e-03
 8.750	24.000	7.9660e-03
 9.000	17.000	4.0800e-02
 9.000	17.250	4.1541e-02
 9.000	17.500	4.2263e-02
 9.000	17.750	4.2997e-02
 9.000	18.000	4.3370e-02
 9.000	18.250	4.2628e-02
 9.000	18.500	4.0568e-02
 9.000	18.750	2.8679e-02
 9.000	19.000	2.0780e-02
 9.000	19.250	1.4579e-02
 9.000	19.500	1.1287e-02
 9.000	19.750	9.6388e-03
 9.000	20.000	8.8486e-03
 9.000	20.250	8.4172e-03
 9.000	20.500	8.1744e-03
 9.000	20.750	8.0695e-03
 9.000	21.000	8.0160e-03
 9.000	21.250	7.9864e-03
 9.000	21.500	7.9747e-03
 9.000	21.750	7.9700e-03
 9.000	22.000	7.9679e-03
 9.000	22.250	7.9670e-03
 9.000	22.500	7.9665e-03
 9.000	22.750	7.9663e-03
 9.000	23.000	7.9662e-03
 9.000	23.250	7.9661e-03
 9.000	23.500	7.9661e-03
 9.000	23.750	7.9660e-03
 9.000	24.000	7.9660e-03
 9.250	17.000	4.0568e-02
 9.250	17.250	4.1642e-02
 9.250	17.500	4.2850e-02
 9.250	17.750	4.4234e-02
 9.250	18.000	4.5537e-02
 9.250	18.250	4.6198e-02
 9.250	18.500	4.5219e-02
 9.250	18.750	4.1852e-02
 9.250	19.000	2.8672e-02
 9.250	19.250	2.0788e-02
 9.250	19.500	1.4580e-02
 9.250	19.750	1.1281e-02
 9.250	20.000	9.6352e-03
 9.250	20.250	8.8477e-03
 9.250	20.500	8.4170e-03
 9.250	20.750	8.1744e-03
 9.250	21.000	8.0695e-03
 9.250	21.250	8.0160e-03
 9.250	21.500	7.9857e-03
 9.250	21.750	7.9738e-03
 9.250	22.000	7.9690e-03
 9.250	22.250	7.9671e-03
 9.250	22.500	7.9666e-03
 9.250	22.750	7.9662e-03
 9.250	23.000	7.9662e-03
 9.250	23.250	7.9661e-03
 9.250	23.500	7.9660e-03
 9.250	23.750	7.9661e-03
 9.250	24.000	7.9660e-03
 9.500	17.000	4.0196e-02
 9.500	17.250	4.1684e-02
 9.500	17.500	4.3456e-02
 9.500	17.750	4.5698e-02
 9.500	18.000	4.8222e-02
 9.500	18.250	5.0655e-02
 9.500	18.500	5.1695e-02
 9.500	18.750	5.0293e-02
 9.500	19.000	4.1891e-02
 9.500	19.250	2.8654e-02
 9.500	19.500	2.0796e-02
 9.500	19.750	1.4582e-02
 9.500	20.000	1.1276e-02
 9.500	20.250	9.6320e-03
 9.500	20.500	8.8469e-03
 9.500	20.750	8.4165e-03
 9.500	21.000	8.1736e-03
 9.500	21.250	8.0687e-03
 9.500	21.500	8.0150e-03
 9.500	21.750	7.9851e-03
 9.500	22.000	7.9733e-03
 9.500	22.250	7.9686e-03
 9.500	22.500	7.9666e-03
 9.500	22.750	7.9656e-03
 9.500	23.000	7.9651e-03
 9.500	23.250	7.9649e-03
 9.500	23.500	7.9648e-03
 9.500	23.750	7.9647e-03
 9.500	24.000	7.9646e-03
 9.750	17.000	3.9565e-02
 9.750	17.250	4.1502e-02
 9.750	17.500	4.3976e-02
 9.750	17.750	4.7327e-02
 9.750	18.000	5.1680e-02
 9.750	18.250	5.6128e-02
 9.750	18.500	5.9259e-02
 9.750	18.750	5.9630e-02
 9.750	19.000	5.7391e-02
 9.750	19.250	4.1849e-02
 9.750	19.500	2.8618e-02
 9.750	19.750	2.0803e-02
 9.750	20.000	1.4587e-02
 9.750	20.250	1.1273e-02
 9.750	20.500	9.6295e-03
 9.750	20.750	8.8463e-03
 9.750	21.000	8.4165e-03
 9.750	21.250	8.1735e-03
 9.750	21.500	8.0688e-03
 9.750	21.750	8.0151e-03
 9.750	22.000	7.9853e-03
 9.750	22.250	7.9733e-03
 9.750	22.500	7.9686e-03
 9.750	22.750	7.9666e-03
 9.750	23.000	7.9657e-03
 9.750	23.250	7.9652e-03
 9.750	23.500	7.9649e-03
 9.750	23.750	7.9648e-03
 9.750	24.000	7.9647e-03
10.000	17.000	3.8575e-02
10.000	17.250	4.1192e-02
10.000	17.500	4.4522e-02
10.000	17.750	4.9259e-02
10.000	18.000	5.5859e-02
10.000	18.250	6.2492e-02
10.000	18.500	6.7542e-02
10.000	18.750	6.9835e-02
10.000	19.000	6.9307e-02
10.000	19.250	6.1972e-02
10.000	19.500	4.1782e-02
10.000	19.750	2.8562e-02
10.000	20.000	2.0806e-02
10.000	20.250	1.4591e-02
10.000	20.500	1.1272e-02
10.000	20.750	9.6277e-03
10.000	21.000	8.8460e-03
10.000	21.250	8.4166e-03
10.000	21.500	8.1737e-03
10.000	21.750	8.0688e-03
10.000	22.000	8.0151e-03
10.000	22.250	7.9854e-03
10.000	22.500	7.9733e-03
10.000	22.750	7.9686e-03
10.000	23.000	7.9666e-03
10.000	23.250	7.9656e-03
10.000	23.500	7.9652e-03
10.000	23.750	7.9649e-03
10.000	24.000	7.9648e-03
10.250	17.000	3.7855e-02
10.250	17.250	4.0743e-02
10.250	17.500	4.5287e-02
10.250	17.750	5.1843e-02
10.250	18.000	6.0683e-02
10.250	18.250	6.9390e-02
10.250	18.500	7.6048e-02
10.250	18.750	8.0183e-02
10.250	19.000	8.1170e-02
10.250	19.250	7.9634e-02
10.250	19.500	6.5261e-02
10.250	19.750	4.1680e-02
10.250	20.000	2.8482e-02
10.250	20.250	2.0799e-02
10.250	20.500	1.4596e-02
10.250	20.750	1.1272e-02
10.250	21.000	9.6266e-03
10.250	21.250	8.8459e-03
10.250	21.500	8.4165e-03
10.250	21.750	8.1739e-03
10.250	22.000	8.0689e-03
10.250	22.250	8.0152e-03
10.250	22.500	7.9856e-03
10.250	22.750	7.9735e-03
10.250	23.000	7.9686e-03
10.250	23.250	7.9666e-03
10.250	23.500	7.9657e-03
10.250	23.750	7.9652e-03
10.250	24.000	7.9649e-03
10.500	17.000	3.7695e-02
10.500	17.250	4.0881e-02
10.500	17.500	4.6496e-02
10.500	17.750	5.5358e-02
10.500	18.000	6.6207e-02
10.500	18.250	7.6616e-02
10.500	18.500	8.4341e-02
10.500	18.750	8.9685e-02
10.500	19.000	9.2509e-02
10.500	19.250	9.2445e-02
10.500	19.500	8.9134e-02
10.500	19.750	6.5131e-02
10.500	20.000	4.1555e-02
10.500	20.250	2.8395e-02
10.500	20.500	2.0771e-02
10.500	20.750	1.4596e-02
10.500	21.000	1.1274e-02
10.500	21.250	9.6262e-03
10.500	21.500	8.8463e-03
10.500	21.750	8.4166e-03
10.500	22.000	8.1740e-03
10.500	22.250	8.0693e-03
10.500	22.500	8.0153e-03
10.500	22.750	7.9856e-03
10.500	23.000	7.9737e-03
10.500	23.250	7.9687e-03
10.500	23.500	7.9666e-03
10.500	23.750	7.9657e-03
10.500	24.000	7.9652e-03
10.750	17.000	3.8252e-02
10.750	17.250	4.1750e-02
10.750	17.500	4.8813e-02
10.750	17.750	5.9675e-02
10.750	18.000	7.2201e-02
10.750	18.250	8.3458e-02
10.750	18.500	9.2169e-02
10.750	18.750	9.8786e-02
10.750	19.000	1.0272e-01
10.750	19.250	1.0410e-01
10.750	19.500	1.0285e-01
10.750	19.750	9.7214e-02
10.750	20.000	6.4936e-02
10.750	20.250	4.1437e-02
10.750	20.500	2.8301e-02
10.750	20.750	2.0713e-02
10.750	21.000	1.4590e-02
10.750	21.250	1.1276e-02
10.750	21.500	9.6265e-03
10.750	21.750	8.8467e-03
10.750	22.000	8.4166e-03
10.750	22.250	8.1740e-03
10.750	22.500	8.0695e-03
10.750	22.750	8.0156e-03
10.750	23.000	7.9857e-03
10.750	23.250	7.9738e-03
10.750	23.500	7.9689e-03
10.750	23.750	7.9667e-03
10.750	24.000	7.9657e-03
11.000	17.000	3.9536e-02
11.000	17.250	4.3407e-02
11.000	17.500	5.1892e-02
11.000	17.750	6.4485e-02
11.000	18.000	7.7897e-02
11.000	18.250	8.9721e-02
11.000	18.500	9.9459e-02
11.000	18.750	1.0689e-01
11.000	19.000	1.1189e-01
11.000	19.250	1.1451e-01
11.000	19.500	1.1477e-01
11.000	19.750	1.1251e-01
11.000	20.000	1.0274e-01
11.000	20.250	6.4788e-02
11.000	20.500	4.1303e-02
11.000	20.750	2.8232e-02
11.000	21.000	2.0618e-02
11.000	21.250	1.4568e-02
11.000	21.500	1.1278e-02
11.000	21.750	9.6275e-03
11.000	22.000	8.8475e-03
11.000	22.250	8.4167e-03
11.000	22.500	8.1739e-03
11.000	22.750	8.0695e-03
11.000	23.000	8.0158e-03
11.000	23.250	7.9857e-03
11.000	23.500	7.9739e-03
11.000	23.750	7.9691e-03
11.000	24.000	7.9669e-03
11.250	17.000	4.1536e-02
11.250	17.250	4.5646e-02
11.250	17.500	5.5251e-02
11.250	17.750	6.9009e-02
11.250	18.000	8.3073e-02
11.250	18.250	9.5279e-02
11.250	18.500	1.0543e-01
11.250	18.750	1.1386e-01
11.250	19.000	1.1969e-01
11.250	19.250	1.2358e-01
11.250	19.500	1.2502e-01
11.250	19.750	1.2417e-01
11.250	20.000	1.2095e-01
11.250	20.250	1.0373e-01
11.250	20.500	6.4622e-02
11.250	20.750	4.1211e-02
11.250	21.000	2.8242e-02
11.250	21.250	2.0482e-02
11.250	21.500	1.4527e-02
11.250	21.750	1.1276e-02
11.250	22.000	9.6289e-03
11.250	22.250	8.8483e-03
11.250	22.500	8.4168e-03
11.250	22.750	8.1737e-03
11.250	23.000	8.0695e-03
11.250	23.250	8.0160e-03
11.250	23.500	7.9858e-03
11.250	23.750	7.9739e-03
11.250	24.000	7.9691e-03
11.500	17.000	4.4374e-02
11.500	17.250	4.8554e-02
11.500	17.500	5.8668e-02
11.500	17.750	7.2965e-02
11.500	18.000	8.7425e-02
11.500	18.250	9.9922e-02
11.500	18.500	1.1061e-01
11.500	18.750	1.1970e-01
11.500	19.000	1.2664e-01
11.500	19.250	1.3122e-01
11.500	19.500	1.3341e-01
11.500	19.750	1.3392e-01
11.500	20.000	1.3252e-01
11.500	20.250	1.2889e-01
11.500	20.500	1.0386e-01
11.500	20.750	6.4529e-02
11.500	21.000	4.1265e-02
11.500	21.250	2.8478e-02
11.500	21.500	2.0317e-02
11.500	21.750	1.4462e-02
11.500	22.000	1.1269e-02
11.500	22.250	9.6304e-03
11.500	22.500	8.8492e-03
11.500	22.750	8.4170e-03
11.500	23.000	8.1735e-03
11.500	23.250	8.0694e-03
11.500	23.500	8.0160e-03
11.500	23.750	7.9862e-03
11.500	24.000	7.9739e-03
11.750	17.000	4.8136e-02
11.750	17.250	5.2078e-02
11.750	17.500	6.2114e-02
11.750	17.750	7.6386e-02
11.750	18.000	9.0820e-02
11.750	18.250	1.0372e-01
11.750	18.500	1.1513e-01
11.750	18.750	1.2475e-01
11.750	19.000	1.3266e-01
11.750	19.250	1.3805e-01
11.750	19.500	1.4122e-01
11.750	19.750	1.4224e-01
11.750	20.000	1.4212e-01
11.750	20.250	1.4042e-01
11.750	20.500	1.3671e-01
11.750	20.750	1.0332e-01
11.750	21.000	6.4630e-02
11.750	21.250	4.1691e-02
11.750	21.500	2.9112e-02
11.750	21.750	2.0137e-02
11.750	22.000	1.4376e-02
11.750	22.250	1.1255e-02
11.750	22.500	9.6315e-03
11.750	22.750	8.8499e-03
11.750	23.000	8.4170e-03
11.750	23.250	8.1733e-03
11.750	23.500	8.0693e-03
11.750	23.750	8.0160e-03
11.750	24.000	7.9863e-03
12.000	17.000	5.2952e-02
12.000	17.250	5.6244e-02
12.000	17.500	6.5413e-02
12.000	17.750	7.8876e-02
12.000	18.000	9.3207e-02
12.000	18.250	1.0679e-01
12.000	18.500	1.1911e-01
12.000	18.750	1.2985e-01
12.000	19.000	1.3853e-01
12.000	19.250	1.4474e-01
12.000	19.500	1.4856e-01
12.000	19.750	1.5014e-01
12.000	20.000	1.5044e-01
12.000	20.250	1.4982e-01
12.000	20.500	1.4801e-01
12.000	20.750	1.4396e-01
12.000	21.000	1.0327e-01
12.000	21.250	6.5189e-02
12.000	21.500	4.2614e-02
12.000	21.750	2.9971e-02
12.000	22.000	1.9943e-02
12.000	22.250	1.4305e-02
12.000	22.500	1.1231e-02
12.000	22.750	9.6321e-03
12.000	23.000	8.8501e-03
12.000	23.250	8.4168e-03
12.000	23.500	8.1728e-03
12.000	23.750	8.0691e-03
12.000	24.000	8.0159e-03
12.250	17.000	5.8634e-02
12.250	17.250	6.0830e-02
12.250	17.500	6.8252e-02
12.250	17.750	8.0168e-02
12.250	18.000	9.4428e-02
12.250	18.250	1.0926e-01
12.250	18.500	1.2317e-01
12.250	18.750	1.3510e-01
12.250	19.000	1.4444e-01
12.250	19.250	1.5120e-01
12.250	19.500	1.5549e-01
12.250	19.750	1.5776e-01
12.250	20.000	1.5816e-01
12.250	20.250	1.5800e-01
12.250	20.500	1.5750e-01
12.250	20.750	1.5633e-01
12.250	21.000	1.5090e-01
12.250	21.250	1.0409e-01
12.250	21.500	6.6247e-02
12.250	21.750	4.3807e-02
12.250	22.000	3.0143e-02
12.250	22.250	1.9753e-02
12.250	22.500	1.4207e-02
12.250	22.750	1.1200e-02
12.250	23.000	9.6309e-03
12.250	23.250	8.8499e-03
12.250	23.500	8.4163e-03
12.250	23.750	8.1722e-03
12.250	24.000	8.0688e-03
12.500	17.000	6.3551e-02
12.500	17.250	6.4585e-02
12.500	17.500	6.9858e-02
12.500	17.750	8.0260e-02
12.500	18.000	9.4936e-02
12.500	18.250	1.1110e-01
12.500	18.500	1.2685e-01
12.500	18.750	1.4026e-01
12.500	19.000	1.5074e-01
12.500	19.250	1.5773e-01
12.500	19.500	1.6234e-01
12.500	19.750	1.6501e-01
12.500	20.000	1.6600e-01
12.500	20.250	1.6585e-01
12.500	20.500	1.6567e-01
12.500	20.750	1.6585e-01
12.500	21.000	1.6608e-01
12.500	21.250	1.6135e-01
12.500	21.500	1.0537e-01
12.500	21.750	6.7528e-02
12.500	22.000	4.5204e-02
12.500	22.250	2.9731e-02
12.500	22.500	1.9557e-02
12.500	22.750	1.4079e-02
12.500	23.000	1.1161e-02
12.500	23.250	9.6273e-03
12.500	23.500	8.8485e-03
12.500	23.750	8.4153e-03
12.500	24.000	8.1714e-03
12.750	17.000	6.1877e-02
12.750	17.250	6.3184e-02
12.750	17.500	6.8739e-02
12.750	17.750	8.0341e-02
12.750	18.000	9.5522e-02
12.750	18.250	1.1268e-01
12.750	18.500	1.2961e-01
12.750	18.750	1.4476e-01
12.750	19.000	1.5646e-01
12.750	19.250	1.6437e-01
12.750	19.500	1.6896e-01
12.750	19.750	1.7194e-01
12.750	20.000	1.7333e-01
12.750	20.250	1.7400e-01
12.750	20.500	1.7321e-01
12.750	20.750	1.7421e-01
12.750	21.000	1.7598e-01
12.750	21.250	1.7886e-01
12.750	21.500	1.6543e-01
12.750	21.750	1.0695e-01
12.750	22.000	6.9170e-02
12.750	22.250	4.6277e-02
12.750	22.500	2.9314e-02
12.750	22.750	1.9343e-02
12.750	23.000	1.3965e-02
12.750	23.250	1.1116e-02
12.750	23.500	9.6196e-03
12.750	23.750	8.8452e-03
12.750	24.000	8.4133e-03
13.000	17.000	4.4148e-02
13.000	17.250	5.3473e-02
13.000	17.500	6.9743e-02
13.000	17.750	8.1835e-02
13.000	18.000	9.7002e-02
13.000	18.250	1.1444e-01
13.000	18.500	1.3215e-01
13.000	18.750	1.4814e-01
13.000	19.000	1.6106e-01
13.000	19.250	1.7023e-01
13.000	19.500	1.7561e-01
13.000	19.750	1.7850e-01
13.000	20.000	1.8000e-01
13.000	20.250	1.8099e-01
13.000	20.500	1.8182e-01
13.000	20.750	1.8261e-01
13.000	21.000	1.8501e-01
13.000	21.250	1.8949e-01
13.000	21.500	1.8899e-01
13.000	21.750	1.6945e-01
13.000	22.000	1.0932e-01
13.000	22.250	7.0551e-02
13.000	22.500	4.6464e-02
13.000	22.750	2.8859e-02
13.000	23.000	1.9051e-02
13.000	23.250	1.3881e-02
13.000	23.500	1.1064e-02
13.000	23.750	9.6060e-03
13.000	24.000	8.8384e-03
13.250	17.000	4.3651e-02
13.250	17.250	5.1873e-02
13.250	17.500	6.7578e-02
13.250	17.750	8.3974e-02
13.250	18.000	9.9536e-02
13.250	18.250	1.1688e-01
13.250	18.500	1.3479e-01
13.250	18.750	1.5126e-01
13.250	19.000	1.6489e-01
13.250	19.250	1.7474e-01
13.250	19.500	1.8107e-01
13.250	19.750	1.8462e-01
13.250	20.000	1.8658e-01
13.250	20.250	1.8783e-01
13.250	20.500	1.8898e-01
13.250	20.750	1.9045e-01
13.250	21.000	1.9356e-01
13.250	21.250	1.9740e-01
13.250	21.500	1.9905e-01
13.250	21.750	2.0008e-01
13.250	22.000	1.7232e-01
13.250	22.250	1.0908e-01
13.250	22.500	7.0755e-02
13.250	22.750	4.5700e-02
13.250	23.000	2.8361e-02
13.250	23.250	1.8807e-02
13.250	23.500	1.3755e-02
13.250	23.750	1.1009e-02
13.250	24.000	9.5855e-03
13.500	17.000	4.3377e-02
13.500	17.250	5.1372e-02
13.500	17.500	6.5450e-02
13.500	17.750	8.3457e-02
13.500	18.000	1.0310e-01
13.500	18.250	1.2004e-01
13.500	18.500	1.3763e-01
13.500	18.750	1.5440e-01
13.500	19.000	1.6865e-01
13.500	19.250	1.7946e-01
13.500	19.500	1.8627e-01
13.500	19.750	1.9026e-01
13.500	20.000	1.9284e-01
13.500	20.250	1.9519e-01
13.500	20.500	1.9594e-01
13.500	20.750	1.9708e-01
13.500	21.000	1.9902e-01
13.500	21.250	2.0316e-01
13.500	21.500	2.0312e-01
13.500	21.750	2.0886e-01
13.500	22.000	2.0860e-01
13.500	22.250	1.7050e-01
13.500	22.500	1.0699e-01
13.500	22.750	6.9375e-02
13.500	23.000	4.4475e-02
13.500	23.250	2.7858e-02
13.500	23.500	1.8558e-02
13.500	23.750	1.3578e-02
13.500	24.000	1.0944e-02
13.750	17.000	4.3610e-02
13.750	17.250	5.1142e-02
13.750	17.500	6.4506e-02
13.750	17.750	8.2598e-02
13.750	18.000	1.0475e-01
13.750	18.250	1.2364e-01
13.750	18.500	1.4189e-01
13.750	18.750	1.5818e-01
13.750	19.000	1.7267e-01
13.750	19.250	1.8429e-01
13.750	19.500	1.9234e-01
13.750	19.750	1.9711e-01
13.750	20.000	1.9995e-01
13.750	20.250	2.0201e-01
13.750	20.500	2.0386e-01
13.750	20.750	2.0504e-01
13.750	21.000	2.0638e-01
13.750	21.250	2.0858e-01
13.750	21.500	2.0905e-01
13.750	21.750	2.1480e-01
13.750	22.000	2.2163e-01
13.750	22.250	2.1764e-01
13.750	22.500	1.6616e-01
13.750	22.750	1.0357e-01
13.750	23.000	6.6666e-02
13.750	23.250	4.3244e-02
13.750	23.500	2.7255e-02
13.750	23.750	1.8268e-02
13.750	24.000	1.3413e-02
14.000	17.000	4.4184e-02
14.000	17.250	5.1066e-02
14.000	17.500	6.4081e-02
14.000	17.750	8.1221e-02
14.000	18.000	1.0504e-01
14.000	18.250	1.2842e-01
14.000	18.500	1.4753e-01
14.000	18.750	1.6327e-01
14.000	19.000	1.7741e-01
14.000	19.250	1.8972e-01
14.000	19.500	1.9918e-01
14.000	19.750	2.0541e-01
14.000	20.000	2.0881e-01
14.000	20.250	2.1072e-01
14.000	20.500	2.1257e-01
14.000	20.750	2.1412e-01
14.000	21.000	2.1564e-01
14.000	21.250	2.1799e-01
14.000	21.500	2.1744e-01
14.000	21.750	2.2361e-01
14.000	22.000	2.3366e-01
14.000	22.250	2.4265e-01
14.000	22.500	2.2734e-01
14.000	22.750	1.6088e-01
14.000	23.000	1.0107e-01
14.000	23.250	6.4487e-02
14.000	23.500	4.2144e-02
14.000	23.750	2.6583e-02
14.000	24.000	1.7903e-02
