nFnu 1324.00A  relative to Inci 1215.00A scaled to 1215A.
Hden   Phi(H)  Eq_Width (A)
 7.000	17.000	4.7986e-02
 7.000	17.250	3.6415e-02
 7.000	17.500	2.7901e-02
 7.000	17.750	2.2039e-02
 7.000	18.000	1.8507e-02
 7.000	18.250	1.6471e-02
 7.000	18.500	1.5271e-02
 7.000	18.750	1.4718e-02
 7.000	19.000	1.4431e-02
 7.000	19.250	1.4269e-02
 7.000	19.500	1.4201e-02
 7.000	19.750	1.4173e-02
 7.000	20.000	1.4161e-02
 7.000	20.250	1.4155e-02
 7.000	20.500	1.4152e-02
 7.000	20.750	1.4151e-02
 7.000	21.000	1.4150e-02
 7.000	21.250	1.4149e-02
 7.000	21.500	1.4149e-02
 7.000	21.750	1.4149e-02
 7.000	22.000	1.4149e-02
 7.000	22.250	1.4149e-02
 7.000	22.500	1.4149e-02
 7.000	22.750	1.4151e-02
 7.000	23.000	1.4151e-02
 7.000	23.250	1.4149e-02
 7.000	23.500	1.4150e-02
 7.000	23.750	1.4150e-02
 7.000	24.000	1.4151e-02
 7.250	17.000	5.1196e-02
 7.250	17.250	4.7752e-02
 7.250	17.500	3.6281e-02
 7.250	17.750	2.7833e-02
 7.250	18.000	2.2002e-02
 7.250	18.250	1.8488e-02
 7.250	18.500	1.6462e-02
 7.250	18.750	1.5268e-02
 7.250	19.000	1.4717e-02
 7.250	19.250	1.4430e-02
 7.250	19.500	1.4269e-02
 7.250	19.750	1.4201e-02
 7.250	20.000	1.4173e-02
 7.250	20.250	1.4161e-02
 7.250	20.500	1.4155e-02
 7.250	20.750	1.4152e-02
 7.250	21.000	1.4151e-02
 7.250	21.250	1.4150e-02
 7.250	21.500	1.4149e-02
 7.250	21.750	1.4149e-02
 7.250	22.000	1.4149e-02
 7.250	22.250	1.4149e-02
 7.250	22.500	1.4149e-02
 7.250	22.750	1.4149e-02
 7.250	23.000	1.4149e-02
 7.250	23.250	1.4149e-02
 7.250	23.500	1.4149e-02
 7.250	23.750	1.4149e-02
 7.250	24.000	1.4149e-02
 7.500	17.000	5.8128e-02
 7.500	17.250	5.0406e-02
 7.500	17.500	4.7626e-02
 7.500	17.750	3.6206e-02
 7.500	18.000	2.7796e-02
 7.500	18.250	2.1979e-02
 7.500	18.500	1.8476e-02
 7.500	18.750	1.6456e-02
 7.500	19.000	1.5265e-02
 7.500	19.250	1.4716e-02
 7.500	19.500	1.4430e-02
 7.500	19.750	1.4269e-02
 7.500	20.000	1.4201e-02
 7.500	20.250	1.4173e-02
 7.500	20.500	1.4161e-02
 7.500	20.750	1.4155e-02
 7.500	21.000	1.4152e-02
 7.500	21.250	1.4150e-02
 7.500	21.500	1.4150e-02
 7.500	21.750	1.4149e-02
 7.500	22.000	1.4149e-02
 7.500	22.250	1.4149e-02
 7.500	22.500	1.4149e-02
 7.500	22.750	1.4149e-02
 7.500	23.000	1.4149e-02
 7.500	23.250	1.4149e-02
 7.500	23.500	1.4150e-02
 7.500	23.750	1.4149e-02
 7.500	24.000	1.4149e-02
 7.750	17.000	6.8928e-02
 7.750	17.250	5.6117e-02
 7.750	17.500	4.9780e-02
 7.750	17.750	4.7554e-02
 7.750	18.000	3.6167e-02
 7.750	18.250	2.7778e-02
 7.750	18.500	2.1965e-02
 7.750	18.750	1.8468e-02
 7.750	19.000	1.6453e-02
 7.750	19.250	1.5264e-02
 7.750	19.500	1.4716e-02
 7.750	19.750	1.4430e-02
 7.750	20.000	1.4269e-02
 7.750	20.250	1.4201e-02
 7.750	20.500	1.4173e-02
 7.750	20.750	1.4161e-02
 7.750	21.000	1.4155e-02
 7.750	21.250	1.4152e-02
 7.750	21.500	1.4150e-02
 7.750	21.750	1.4150e-02
 7.750	22.000	1.4149e-02
 7.750	22.250	1.4149e-02
 7.750	22.500	1.4149e-02
 7.750	22.750	1.4149e-02
 7.750	23.000	1.4149e-02
 7.750	23.250	1.4149e-02
 7.750	23.500	1.4149e-02
 7.750	23.750	1.4149e-02
 7.750	24.000	1.4149e-02
 8.000	17.000	7.6868e-02
 8.000	17.250	6.6651e-02
 8.000	17.500	5.4468e-02
 8.000	17.750	4.9112e-02
 8.000	18.000	4.7517e-02
 8.000	18.250	3.6147e-02
 8.000	18.500	2.7773e-02
 8.000	18.750	2.1956e-02
 8.000	19.000	1.8462e-02
 8.000	19.250	1.6450e-02
 8.000	19.500	1.5263e-02
 8.000	19.750	1.4716e-02
 8.000	20.000	1.4430e-02
 8.000	20.250	1.4269e-02
 8.000	20.500	1.4201e-02
 8.000	20.750	1.4173e-02
 8.000	21.000	1.4161e-02
 8.000	21.250	1.4155e-02
 8.000	21.500	1.4152e-02
 8.000	21.750	1.4150e-02
 8.000	22.000	1.4150e-02
 8.000	22.250	1.4149e-02
 8.000	22.500	1.4149e-02
 8.000	22.750	1.4149e-02
 8.000	23.000	1.4149e-02
 8.000	23.250	1.4149e-02
 8.000	23.500	1.4149e-02
 8.000	23.750	1.4149e-02
 8.000	24.000	1.4149e-02
 8.250	17.000	8.2396e-02
 8.250	17.250	7.4858e-02
 8.250	17.500	6.4979e-02
 8.250	17.750	5.3349e-02
 8.250	18.000	4.8765e-02
 8.250	18.250	4.7483e-02
 8.250	18.500	3.6140e-02
 8.250	18.750	2.7775e-02
 8.250	19.000	2.1950e-02
 8.250	19.250	1.8458e-02
 8.250	19.500	1.6449e-02
 8.250	19.750	1.5263e-02
 8.250	20.000	1.4715e-02
 8.250	20.250	1.4430e-02
 8.250	20.500	1.4269e-02
 8.250	20.750	1.4201e-02
 8.250	21.000	1.4173e-02
 8.250	21.250	1.4161e-02
 8.250	21.500	1.4155e-02
 8.250	21.750	1.4152e-02
 8.250	22.000	1.4150e-02
 8.250	22.250	1.4150e-02
 8.250	22.500	1.4149e-02
 8.250	22.750	1.4150e-02
 8.250	23.000	1.4149e-02
 8.250	23.250	1.4149e-02
 8.250	23.500	1.4149e-02
 8.250	23.750	1.4149e-02
 8.250	24.000	1.4149e-02
 8.500	17.000	8.6018e-02
 8.500	17.250	8.0767e-02
 8.500	17.500	7.3363e-02
 8.500	17.750	6.3802e-02
 8.500	18.000	5.2577e-02
 8.500	18.250	4.8505e-02
 8.500	18.500	4.7450e-02
 8.500	18.750	3.6140e-02
 8.500	19.000	2.7782e-02
 8.500	19.250	2.1946e-02
 8.500	19.500	1.8455e-02
 8.500	19.750	1.6447e-02
 8.500	20.000	1.5262e-02
 8.500	20.250	1.4715e-02
 8.500	20.500	1.4430e-02
 8.500	20.750	1.4269e-02
 8.500	21.000	1.4201e-02
 8.500	21.250	1.4173e-02
 8.500	21.500	1.4161e-02
 8.500	21.750	1.4155e-02
 8.500	22.000	1.4152e-02
 8.500	22.250	1.4150e-02
 8.500	22.500	1.4150e-02
 8.500	22.750	1.4149e-02
 8.500	23.000	1.4149e-02
 8.500	23.250	1.4149e-02
 8.500	23.500	1.4149e-02
 8.500	23.750	1.4149e-02
 8.500	24.000	1.4149e-02
 8.750	17.000	8.8358e-02
 8.750	17.250	8.4814e-02
 8.750	17.500	7.9552e-02
 8.750	17.750	7.2042e-02
 8.750	18.000	6.2687e-02
 8.750	18.250	5.1925e-02
 8.750	18.500	4.8355e-02
 8.750	18.750	4.7409e-02
 8.750	19.000	3.6143e-02
 8.750	19.250	2.7792e-02
 8.750	19.500	2.1942e-02
 8.750	19.750	1.8452e-02
 8.750	20.000	1.6446e-02
 8.750	20.250	1.5262e-02
 8.750	20.500	1.4715e-02
 8.750	20.750	1.4430e-02
 8.750	21.000	1.4269e-02
 8.750	21.250	1.4201e-02
 8.750	21.500	1.4173e-02
 8.750	21.750	1.4161e-02
 8.750	22.000	1.4155e-02
 8.750	22.250	1.4152e-02
 8.750	22.500	1.4150e-02
 8.750	22.750	1.4150e-02
 8.750	23.000	1.4149e-02
 8.750	23.250	1.4149e-02
 8.750	23.500	1.4149e-02
 8.750	23.750	1.4149e-02
 8.750	24.000	1.4149e-02
 9.000	17.000	8.9722e-02
 9.000	17.250	8.7525e-02
 9.000	17.500	8.3906e-02
 9.000	17.750	7.8414e-02
 9.000	18.000	7.0717e-02
 9.000	18.250	6.1343e-02
 9.000	18.500	5.1229e-02
 9.000	18.750	4.8237e-02
 9.000	19.000	4.7362e-02
 9.000	19.250	3.6143e-02
 9.000	19.500	2.7803e-02
 9.000	19.750	2.1939e-02
 9.000	20.000	1.8450e-02
 9.000	20.250	1.6446e-02
 9.000	20.500	1.5261e-02
 9.000	20.750	1.4715e-02
 9.000	21.000	1.4430e-02
 9.000	21.250	1.4269e-02
 9.000	21.500	1.4201e-02
 9.000	21.750	1.4173e-02
 9.000	22.000	1.4161e-02
 9.000	22.250	1.4155e-02
 9.000	22.500	1.4152e-02
 9.000	22.750	1.4150e-02
 9.000	23.000	1.4150e-02
 9.000	23.250	1.4149e-02
 9.000	23.500	1.4149e-02
 9.000	23.750	1.4149e-02
 9.000	24.000	1.4149e-02
 9.250	17.000	9.0231e-02
 9.250	17.250	8.9136e-02
 9.250	17.500	8.6891e-02
 9.250	17.750	8.2972e-02
 9.250	18.000	7.6935e-02
 9.250	18.250	6.8734e-02
 9.250	18.500	5.9400e-02
 9.250	18.750	4.9975e-02
 9.250	19.000	4.8111e-02
 9.250	19.250	4.7300e-02
 9.250	19.500	3.6137e-02
 9.250	19.750	2.7813e-02
 9.250	20.000	2.1935e-02
 9.250	20.250	1.8447e-02
 9.250	20.500	1.6445e-02
 9.250	20.750	1.5261e-02
 9.250	21.000	1.4715e-02
 9.250	21.250	1.4430e-02
 9.250	21.500	1.4268e-02
 9.250	21.750	1.4200e-02
 9.250	22.000	1.4171e-02
 9.250	22.250	1.4159e-02
 9.250	22.500	1.4154e-02
 9.250	22.750	1.4151e-02
 9.250	23.000	1.4150e-02
 9.250	23.250	1.4149e-02
 9.250	23.500	1.4149e-02
 9.250	23.750	1.4149e-02
 9.250	24.000	1.4149e-02
 9.500	17.000	8.9945e-02
 9.500	17.250	8.9748e-02
 9.500	17.500	8.8694e-02
 9.500	17.750	8.6216e-02
 9.500	18.000	8.1633e-02
 9.500	18.250	7.4653e-02
 9.500	18.500	6.5824e-02
 9.500	18.750	5.6469e-02
 9.500	19.000	4.9355e-02
 9.500	19.250	4.7957e-02
 9.500	19.500	4.7235e-02
 9.500	19.750	3.6123e-02
 9.500	20.000	2.7820e-02
 9.500	20.250	2.1933e-02
 9.500	20.500	1.8446e-02
 9.500	20.750	1.6444e-02
 9.500	21.000	1.5260e-02
 9.500	21.250	1.4714e-02
 9.500	21.500	1.4428e-02
 9.500	21.750	1.4267e-02
 9.500	22.000	1.4199e-02
 9.500	22.250	1.4171e-02
 9.500	22.500	1.4158e-02
 9.500	22.750	1.4152e-02
 9.500	23.000	1.4149e-02
 9.500	23.250	1.4148e-02
 9.500	23.500	1.4147e-02
 9.500	23.750	1.4147e-02
 9.500	24.000	1.4146e-02
 9.750	17.000	8.8996e-02
 9.750	17.250	8.9395e-02
 9.750	17.500	8.9322e-02
 9.750	17.750	8.8136e-02
 9.750	18.000	8.4988e-02
 9.750	18.250	7.9504e-02
 9.750	18.500	7.1749e-02
 9.750	18.750	6.2673e-02
 9.750	19.000	5.3190e-02
 9.750	19.250	4.8623e-02
 9.750	19.500	4.7721e-02
 9.750	19.750	4.7162e-02
 9.750	20.000	3.6101e-02
 9.750	20.250	2.7823e-02
 9.750	20.500	2.1930e-02
 9.750	20.750	1.8444e-02
 9.750	21.000	1.6444e-02
 9.750	21.250	1.5259e-02
 9.750	21.500	1.4714e-02
 9.750	21.750	1.4428e-02
 9.750	22.000	1.4267e-02
 9.750	22.250	1.4199e-02
 9.750	22.500	1.4171e-02
 9.750	22.750	1.4158e-02
 9.750	23.000	1.4153e-02
 9.750	23.250	1.4150e-02
 9.750	23.500	1.4148e-02
 9.750	23.750	1.4147e-02
 9.750	24.000	1.4147e-02
10.000	17.000	8.7535e-02
10.000	17.250	8.8238e-02
10.000	17.500	8.8824e-02
10.000	17.750	8.8771e-02
10.000	18.000	8.7106e-02
10.000	18.250	8.3306e-02
10.000	18.500	7.6999e-02
10.000	18.750	6.8832e-02
10.000	19.000	5.9543e-02
10.000	19.250	5.1943e-02
10.000	19.500	4.8124e-02
10.000	19.750	4.7536e-02
10.000	20.000	4.7117e-02
10.000	20.250	3.6075e-02
10.000	20.500	2.7824e-02
10.000	20.750	2.1929e-02
10.000	21.000	1.8444e-02
10.000	21.250	1.6443e-02
10.000	21.500	1.5259e-02
10.000	21.750	1.4714e-02
10.000	22.000	1.4428e-02
10.000	22.250	1.4267e-02
10.000	22.500	1.4199e-02
10.000	22.750	1.4171e-02
10.000	23.000	1.4158e-02
10.000	23.250	1.4152e-02
10.000	23.500	1.4150e-02
10.000	23.750	1.4148e-02
10.000	24.000	1.4147e-02
10.250	17.000	8.6220e-02
10.250	17.250	8.6599e-02
10.250	17.500	8.7513e-02
10.250	17.750	8.8204e-02
10.250	18.000	8.7894e-02
10.250	18.250	8.5747e-02
10.250	18.500	8.1182e-02
10.250	18.750	7.4359e-02
10.250	19.000	6.5911e-02
10.250	19.250	5.6399e-02
10.250	19.500	5.1153e-02
10.250	19.750	4.7932e-02
10.250	20.000	4.7333e-02
10.250	20.250	4.7093e-02
10.250	20.500	3.6047e-02
10.250	20.750	2.7821e-02
10.250	21.000	2.1928e-02
10.250	21.250	1.8444e-02
10.250	21.500	1.6443e-02
10.250	21.750	1.5260e-02
10.250	22.000	1.4714e-02
10.250	22.250	1.4428e-02
10.250	22.500	1.4267e-02
10.250	22.750	1.4199e-02
10.250	23.000	1.4171e-02
10.250	23.250	1.4158e-02
10.250	23.500	1.4153e-02
10.250	23.750	1.4150e-02
10.250	24.000	1.4148e-02
10.500	17.000	8.5220e-02
10.500	17.250	8.5188e-02
10.500	17.500	8.5788e-02
10.500	17.750	8.6867e-02
10.500	18.000	8.7378e-02
10.500	18.250	8.6400e-02
10.500	18.500	8.3568e-02
10.500	18.750	7.8525e-02
10.500	19.000	7.1583e-02
10.500	19.250	6.3195e-02
10.500	19.500	5.4397e-02
10.500	19.750	5.1292e-02
10.500	20.000	4.8398e-02
10.500	20.250	4.7529e-02
10.500	20.500	4.7213e-02
10.500	20.750	3.6028e-02
10.500	21.000	2.7817e-02
10.500	21.250	2.1928e-02
10.500	21.500	1.8444e-02
10.500	21.750	1.6443e-02
10.500	22.000	1.5260e-02
10.500	22.250	1.4715e-02
10.500	22.500	1.4428e-02
10.500	22.750	1.4267e-02
10.500	23.000	1.4200e-02
10.500	23.250	1.4171e-02
10.500	23.500	1.4158e-02
10.500	23.750	1.4153e-02
10.500	24.000	1.4150e-02
10.750	17.000	8.4626e-02
10.750	17.250	8.4276e-02
10.750	17.500	8.4429e-02
10.750	17.750	8.5189e-02
10.750	18.000	8.5756e-02
10.750	18.250	8.5405e-02
10.750	18.500	8.3799e-02
10.750	18.750	8.0574e-02
10.750	19.000	7.5793e-02
10.750	19.250	6.9237e-02
10.750	19.500	6.1178e-02
10.750	19.750	5.2489e-02
10.750	20.000	5.1675e-02
10.750	20.250	5.0159e-02
10.750	20.500	4.8412e-02
10.750	20.750	4.7515e-02
10.750	21.000	3.6039e-02
10.750	21.250	2.7811e-02
10.750	21.500	2.1928e-02
10.750	21.750	1.8446e-02
10.750	22.000	1.6444e-02
10.750	22.250	1.5260e-02
10.750	22.500	1.4715e-02
10.750	22.750	1.4429e-02
10.750	23.000	1.4268e-02
10.750	23.250	1.4200e-02
10.750	23.500	1.4171e-02
10.750	23.750	1.4159e-02
10.750	24.000	1.4153e-02
11.000	17.000	8.4358e-02
11.000	17.250	8.3904e-02
11.000	17.500	8.3657e-02
11.000	17.750	8.3560e-02
11.000	18.000	8.3461e-02
11.000	18.250	8.3044e-02
11.000	18.500	8.2225e-02
11.000	18.750	8.0706e-02
11.000	19.000	7.8042e-02
11.000	19.250	7.3692e-02
11.000	19.500	6.7414e-02
11.000	19.750	5.9113e-02
11.000	20.000	5.0907e-02
11.000	20.250	5.3927e-02
11.000	20.500	5.1390e-02
11.000	20.750	4.9872e-02
11.000	21.000	4.8055e-02
11.000	21.250	3.6114e-02
11.000	21.500	2.7806e-02
11.000	21.750	2.1929e-02
11.000	22.000	1.8448e-02
11.000	22.250	1.6444e-02
11.000	22.500	1.5260e-02
11.000	22.750	1.4715e-02
11.000	23.000	1.4430e-02
11.000	23.250	1.4268e-02
11.000	23.500	1.4200e-02
11.000	23.750	1.4171e-02
11.000	24.000	1.4159e-02
11.250	17.000	8.4367e-02
11.250	17.250	8.3912e-02
11.250	17.500	8.3207e-02
11.250	17.750	8.2199e-02
11.250	18.000	8.1070e-02
11.250	18.250	8.0087e-02
11.250	18.500	7.9669e-02
11.250	18.750	7.9362e-02
11.250	19.000	7.8478e-02
11.250	19.250	7.6129e-02
11.250	19.500	7.1981e-02
11.250	19.750	6.5777e-02
11.250	20.000	5.7429e-02
11.250	20.250	5.2491e-02
11.250	20.500	5.5855e-02
11.250	20.750	5.4297e-02
11.250	21.000	5.2408e-02
11.250	21.250	4.8864e-02
11.250	21.500	3.6273e-02
11.250	21.750	2.7805e-02
11.250	22.000	2.1931e-02
11.250	22.250	1.8450e-02
11.250	22.500	1.6445e-02
11.250	22.750	1.5259e-02
11.250	23.000	1.4715e-02
11.250	23.250	1.4430e-02
11.250	23.500	1.4268e-02
11.250	23.750	1.4200e-02
11.250	24.000	1.4172e-02
11.500	17.000	8.4646e-02
11.500	17.250	8.4058e-02
11.500	17.500	8.2839e-02
11.500	17.750	8.1031e-02
11.500	18.000	7.8933e-02
11.500	18.250	7.7318e-02
11.500	18.500	7.6749e-02
11.500	18.750	7.7005e-02
11.500	19.000	7.7439e-02
11.500	19.250	7.6840e-02
11.500	19.500	7.4761e-02
11.500	19.750	7.0837e-02
11.500	20.000	6.4777e-02
11.500	20.250	5.6363e-02
11.500	20.500	5.4621e-02
11.500	20.750	5.9134e-02
11.500	21.000	5.8221e-02
11.500	21.250	5.6570e-02
11.500	21.500	4.9822e-02
11.500	21.750	3.6520e-02
11.500	22.000	2.7813e-02
11.500	22.250	2.1933e-02
11.500	22.500	1.8453e-02
11.500	22.750	1.6447e-02
11.500	23.000	1.5259e-02
11.500	23.250	1.4715e-02
11.500	23.500	1.4430e-02
11.500	23.750	1.4269e-02
11.500	24.000	1.4200e-02
11.750	17.000	8.5140e-02
11.750	17.250	8.4115e-02
11.750	17.500	8.2333e-02
11.750	17.750	7.9804e-02
11.750	18.000	7.7089e-02
11.750	18.250	7.5129e-02
11.750	18.500	7.4229e-02
11.750	18.750	7.4491e-02
11.750	19.000	7.5420e-02
11.750	19.250	7.6216e-02
11.750	19.500	7.5770e-02
11.750	19.750	7.3940e-02
11.750	20.000	7.0352e-02
11.750	20.250	6.4513e-02
11.750	20.500	5.6262e-02
11.750	20.750	5.7262e-02
11.750	21.000	6.3985e-02
11.750	21.250	6.4635e-02
11.750	21.500	6.2739e-02
11.750	21.750	5.0783e-02
11.750	22.000	3.6842e-02
11.750	22.250	2.7831e-02
11.750	22.500	2.1934e-02
11.750	22.750	1.8457e-02
11.750	23.000	1.6448e-02
11.750	23.250	1.5258e-02
11.750	23.500	1.4715e-02
11.750	23.750	1.4430e-02
11.750	24.000	1.4269e-02
12.000	17.000	8.5546e-02
12.000	17.250	8.3911e-02
12.000	17.500	8.1410e-02
12.000	17.750	7.8254e-02
12.000	18.000	7.5430e-02
12.000	18.250	7.3421e-02
12.000	18.500	7.2445e-02
12.000	18.750	7.2368e-02
12.000	19.000	7.3139e-02
12.000	19.250	7.4525e-02
12.000	19.500	7.5546e-02
12.000	19.750	7.5340e-02
12.000	20.000	7.3841e-02
12.000	20.250	7.0730e-02
12.000	20.500	6.5259e-02
12.000	20.750	5.7620e-02
12.000	21.000	6.2228e-02
12.000	21.250	7.1271e-02
12.000	21.500	7.3355e-02
12.000	21.750	7.0281e-02
12.000	22.000	5.1739e-02
12.000	22.250	3.7058e-02
12.000	22.500	2.7860e-02
12.000	22.750	2.1936e-02
12.000	23.000	1.8460e-02
12.000	23.250	1.6451e-02
12.000	23.500	1.5258e-02
12.000	23.750	1.4715e-02
12.000	24.000	1.4430e-02
12.250	17.000	8.5376e-02
12.250	17.250	8.2975e-02
12.250	17.500	7.9705e-02
12.250	17.750	7.6263e-02
12.250	18.000	7.3654e-02
12.250	18.250	7.2019e-02
12.250	18.500	7.1201e-02
12.250	18.750	7.0965e-02
12.250	19.000	7.1337e-02
12.250	19.250	7.2540e-02
12.250	19.500	7.4234e-02
12.250	19.750	7.5510e-02
12.250	20.000	7.5628e-02
12.250	20.250	7.4633e-02
12.250	20.500	7.1997e-02
12.250	20.750	6.7233e-02
12.250	21.000	6.1866e-02
12.250	21.250	7.0967e-02
12.250	21.500	8.1236e-02
12.250	21.750	8.4211e-02
12.250	22.000	7.5159e-02
12.250	22.250	5.2556e-02
12.250	22.500	3.7367e-02
12.250	22.750	2.7891e-02
12.250	23.000	2.1936e-02
12.250	23.250	1.8463e-02
12.250	23.500	1.6453e-02
12.250	23.750	1.5257e-02
12.250	24.000	1.4715e-02
12.500	17.000	8.3394e-02
12.500	17.250	8.0347e-02
12.500	17.500	7.6765e-02
12.500	17.750	7.3716e-02
12.500	18.000	7.1724e-02
12.500	18.250	7.0639e-02
12.500	18.500	7.0150e-02
12.500	18.750	7.0079e-02
12.500	19.000	7.0306e-02
12.500	19.250	7.1039e-02
12.500	19.500	7.2565e-02
12.500	19.750	7.4563e-02
12.500	20.000	7.6141e-02
12.500	20.250	7.6679e-02
12.500	20.500	7.6295e-02
12.500	20.750	7.4792e-02
12.500	21.000	7.2363e-02
12.500	21.250	6.9457e-02
12.500	21.500	8.2707e-02
12.500	21.750	9.4211e-02
12.500	22.000	9.5891e-02
12.500	22.250	7.7514e-02
12.500	22.500	5.3288e-02
12.500	22.750	3.7760e-02
12.500	23.000	2.7921e-02
12.500	23.250	2.1935e-02
12.500	23.500	1.8466e-02
12.500	23.750	1.6455e-02
12.500	24.000	1.5255e-02
12.750	17.000	7.6675e-02
12.750	17.250	7.5089e-02
12.750	17.500	7.2710e-02
12.750	17.750	7.0957e-02
12.750	18.000	6.9728e-02
12.750	18.250	6.9101e-02
12.750	18.500	6.9005e-02
12.750	18.750	6.9235e-02
12.750	19.000	6.9659e-02
12.750	19.250	7.0266e-02
12.750	19.500	7.1344e-02
12.750	19.750	7.3177e-02
12.750	20.000	7.5421e-02
12.750	20.250	7.7549e-02
12.750	20.500	7.8650e-02
12.750	20.750	7.9438e-02
12.750	21.000	7.9949e-02
12.750	21.250	8.1343e-02
12.750	21.500	8.1988e-02
12.750	21.750	9.7083e-02
12.750	22.000	1.0955e-01
12.750	22.250	1.0645e-01
12.750	22.500	7.9518e-02
12.750	22.750	5.4021e-02
12.750	23.000	3.8024e-02
12.750	23.250	2.7942e-02
12.750	23.500	2.1932e-02
12.750	23.750	1.8467e-02
12.750	24.000	1.6456e-02
13.000	17.000	2.1597e-02
13.000	17.250	3.4856e-02
13.000	17.500	6.8740e-02
13.000	17.750	6.8266e-02
13.000	18.000	6.7603e-02
13.000	18.250	6.7368e-02
13.000	18.500	6.7591e-02
13.000	18.750	6.8164e-02
13.000	19.000	6.8949e-02
13.000	19.250	6.9813e-02
13.000	19.500	7.0801e-02
13.000	19.750	7.2200e-02
13.000	20.000	7.4266e-02
13.000	20.250	7.6891e-02
13.000	20.500	7.9725e-02
13.000	20.750	8.1974e-02
13.000	21.000	8.5076e-02
13.000	21.250	8.8707e-02
13.000	21.500	9.2164e-02
13.000	21.750	9.8310e-02
13.000	22.000	1.1686e-01
13.000	22.250	1.2492e-01
13.000	22.500	1.1402e-01
13.000	22.750	8.1461e-02
13.000	23.000	5.5073e-02
13.000	23.250	3.8088e-02
13.000	23.500	2.7960e-02
13.000	23.750	2.1927e-02
13.000	24.000	1.8467e-02
13.250	17.000	1.4250e-02
13.250	17.250	2.2011e-02
13.250	17.500	4.3726e-02
13.250	17.750	6.2554e-02
13.250	18.000	6.5334e-02
13.250	18.250	6.5408e-02
13.250	18.500	6.5886e-02
13.250	18.750	6.6767e-02
13.250	19.000	6.7896e-02
13.250	19.250	6.9153e-02
13.250	19.500	7.0459e-02
13.250	19.750	7.1861e-02
13.250	20.000	7.3611e-02
13.250	20.250	7.5907e-02
13.250	20.500	7.8965e-02
13.250	20.750	8.2646e-02
13.250	21.000	8.7132e-02
13.250	21.250	9.1636e-02
13.250	21.500	9.6777e-02
13.250	21.750	1.0051e-01
13.250	22.000	1.1581e-01
13.250	22.250	1.2740e-01
13.250	22.500	1.3551e-01
13.250	22.750	1.1892e-01
13.250	23.000	8.3280e-02
13.250	23.250	5.5706e-02
13.250	23.500	3.8251e-02
13.250	23.750	2.7969e-02
13.250	24.000	2.1918e-02
13.500	17.000	9.7440e-03
13.500	17.250	1.4987e-02
13.500	17.500	2.7049e-02
13.500	17.750	4.5025e-02
13.500	18.000	6.2070e-02
13.500	18.250	6.2970e-02
13.500	18.500	6.3815e-02
13.500	18.750	6.5010e-02
13.500	19.000	6.6471e-02
13.500	19.250	6.8083e-02
13.500	19.500	6.9789e-02
13.500	19.750	7.1569e-02
13.500	20.000	7.3513e-02
13.500	20.250	7.5860e-02
13.500	20.500	7.8509e-02
13.500	20.750	8.1767e-02
13.500	21.000	8.5527e-02
13.500	21.250	9.0778e-02
13.500	21.500	9.3663e-02
13.500	21.750	9.9359e-02
13.500	22.000	1.0652e-01
13.500	22.250	1.2493e-01
13.500	22.500	1.3738e-01
13.500	22.750	1.4360e-01
13.500	23.000	1.2268e-01
13.500	23.250	8.4696e-02
13.500	23.500	5.6186e-02
13.500	23.750	3.8516e-02
13.500	24.000	2.7971e-02
13.750	17.000	7.0407e-03
13.750	17.250	1.0544e-02
13.750	17.500	1.8219e-02
13.750	17.750	3.0602e-02
13.750	18.000	4.8237e-02
13.750	18.250	5.6793e-02
13.750	18.500	6.1152e-02
13.750	18.750	6.2678e-02
13.750	19.000	6.4558e-02
13.750	19.250	6.6611e-02
13.750	19.500	6.8725e-02
13.750	19.750	7.0933e-02
13.750	20.000	7.3316e-02
13.750	20.250	7.5972e-02
13.750	20.500	7.8986e-02
13.750	20.750	8.2322e-02
13.750	21.000	8.5915e-02
13.750	21.250	8.9596e-02
13.750	21.500	9.3450e-02
13.750	21.750	9.7393e-02
13.750	22.000	1.0329e-01
13.750	22.250	1.1646e-01
13.750	22.500	1.3949e-01
13.750	22.750	1.4874e-01
13.750	23.000	1.4962e-01
13.750	23.250	1.2666e-01
13.750	23.500	8.6206e-02
13.750	23.750	5.6582e-02
13.750	24.000	3.8589e-02
14.000	17.000	5.3882e-03
14.000	17.250	7.6402e-03
14.000	17.500	1.2856e-02
14.000	17.750	2.0752e-02
14.000	18.000	3.4739e-02
14.000	18.250	5.0357e-02
14.000	18.500	5.8161e-02
14.000	18.750	5.9868e-02
14.000	19.000	6.2016e-02
14.000	19.250	6.4526e-02
14.000	19.500	6.7201e-02
14.000	19.750	6.9888e-02
14.000	20.000	7.2706e-02
14.000	20.250	7.5829e-02
14.000	20.500	7.9382e-02
14.000	20.750	8.3324e-02
14.000	21.000	8.7570e-02
14.000	21.250	9.2085e-02
14.000	21.500	9.5804e-02
14.000	21.750	1.0019e-01
14.000	22.000	1.0540e-01
14.000	22.250	1.1513e-01
14.000	22.500	1.3888e-01
14.000	22.750	1.6383e-01
14.000	23.000	1.6957e-01
14.000	23.250	1.5937e-01
14.000	23.500	1.3171e-01
14.000	23.750	8.7380e-02
14.000	24.000	5.6961e-02
