InwC 8329.68A  relative to Inci 1215.00A scaled to 1215A.
Hden   Phi(H)  Eq_Width (A)
 7.000	17.000	3.6510e-03
 7.000	17.250	3.6533e-03
 7.000	17.500	3.6548e-03
 7.000	17.750	3.6565e-03
 7.000	18.000	3.6581e-03
 7.000	18.250	3.6596e-03
 7.000	18.500	3.6605e-03
 7.000	18.750	3.6609e-03
 7.000	19.000	3.6614e-03
 7.000	19.250	3.6617e-03
 7.000	19.500	3.6618e-03
 7.000	19.750	3.6619e-03
 7.000	20.000	3.6619e-03
 7.000	20.250	3.6619e-03
 7.000	20.500	3.6619e-03
 7.000	20.750	3.6620e-03
 7.000	21.000	3.6620e-03
 7.000	21.250	3.6620e-03
 7.000	21.500	3.6620e-03
 7.000	21.750	3.6620e-03
 7.000	22.000	3.6620e-03
 7.000	22.250	3.6621e-03
 7.000	22.500	3.6620e-03
 7.000	22.750	3.6624e-03
 7.000	23.000	3.6624e-03
 7.000	23.250	3.6621e-03
 7.000	23.500	3.6623e-03
 7.000	23.750	3.6623e-03
 7.000	24.000	3.6625e-03
 7.250	17.000	3.5197e-03
 7.250	17.250	3.6511e-03
 7.250	17.500	3.6533e-03
 7.250	17.750	3.6548e-03
 7.250	18.000	3.6565e-03
 7.250	18.250	3.6581e-03
 7.250	18.500	3.6596e-03
 7.250	18.750	3.6605e-03
 7.250	19.000	3.6609e-03
 7.250	19.250	3.6614e-03
 7.250	19.500	3.6617e-03
 7.250	19.750	3.6618e-03
 7.250	20.000	3.6619e-03
 7.250	20.250	3.6619e-03
 7.250	20.500	3.6619e-03
 7.250	20.750	3.6619e-03
 7.250	21.000	3.6619e-03
 7.250	21.250	3.6620e-03
 7.250	21.500	3.6620e-03
 7.250	21.750	3.6621e-03
 7.250	22.000	3.6620e-03
 7.250	22.250	3.6620e-03
 7.250	22.500	3.6620e-03
 7.250	22.750	3.6620e-03
 7.250	23.000	3.6620e-03
 7.250	23.250	3.6620e-03
 7.250	23.500	3.6620e-03
 7.250	23.750	3.6620e-03
 7.250	24.000	3.6620e-03
 7.500	17.000	3.2951e-03
 7.500	17.250	3.5202e-03
 7.500	17.500	3.6511e-03
 7.500	17.750	3.6533e-03
 7.500	18.000	3.6548e-03
 7.500	18.250	3.6565e-03
 7.500	18.500	3.6581e-03
 7.500	18.750	3.6596e-03
 7.500	19.000	3.6605e-03
 7.500	19.250	3.6609e-03
 7.500	19.500	3.6614e-03
 7.500	19.750	3.6617e-03
 7.500	20.000	3.6618e-03
 7.500	20.250	3.6619e-03
 7.500	20.500	3.6619e-03
 7.500	20.750	3.6619e-03
 7.500	21.000	3.6619e-03
 7.500	21.250	3.6619e-03
 7.500	21.500	3.6619e-03
 7.500	21.750	3.6619e-03
 7.500	22.000	3.6619e-03
 7.500	22.250	3.6620e-03
 7.500	22.500	3.6620e-03
 7.500	22.750	3.6620e-03
 7.500	23.000	3.6620e-03
 7.500	23.250	3.6620e-03
 7.500	23.500	3.6624e-03
 7.500	23.750	3.6620e-03
 7.500	24.000	3.6620e-03
 7.750	17.000	2.3800e-03
 7.750	17.250	3.3048e-03
 7.750	17.500	3.5207e-03
 7.750	17.750	3.6511e-03
 7.750	18.000	3.6533e-03
 7.750	18.250	3.6548e-03
 7.750	18.500	3.6565e-03
 7.750	18.750	3.6581e-03
 7.750	19.000	3.6596e-03
 7.750	19.250	3.6605e-03
 7.750	19.500	3.6609e-03
 7.750	19.750	3.6614e-03
 7.750	20.000	3.6617e-03
 7.750	20.250	3.6618e-03
 7.750	20.500	3.6619e-03
 7.750	20.750	3.6619e-03
 7.750	21.000	3.6619e-03
 7.750	21.250	3.6619e-03
 7.750	21.500	3.6619e-03
 7.750	21.750	3.6619e-03
 7.750	22.000	3.6619e-03
 7.750	22.250	3.6619e-03
 7.750	22.500	3.6619e-03
 7.750	22.750	3.6620e-03
 7.750	23.000	3.6619e-03
 7.750	23.250	3.6620e-03
 7.750	23.500	3.6620e-03
 7.750	23.750	3.6620e-03
 7.750	24.000	3.6620e-03
 8.000	17.000	1.6706e-03
 8.000	17.250	2.3717e-03
 8.000	17.500	3.2867e-03
 8.000	17.750	3.5198e-03
 8.000	18.000	3.6511e-03
 8.000	18.250	3.6533e-03
 8.000	18.500	3.6548e-03
 8.000	18.750	3.6565e-03
 8.000	19.000	3.6581e-03
 8.000	19.250	3.6596e-03
 8.000	19.500	3.6605e-03
 8.000	19.750	3.6609e-03
 8.000	20.000	3.6614e-03
 8.000	20.250	3.6617e-03
 8.000	20.500	3.6618e-03
 8.000	20.750	3.6618e-03
 8.000	21.000	3.6619e-03
 8.000	21.250	3.6619e-03
 8.000	21.500	3.6619e-03
 8.000	21.750	3.6619e-03
 8.000	22.000	3.6619e-03
 8.000	22.250	3.6619e-03
 8.000	22.500	3.6619e-03
 8.000	22.750	3.6619e-03
 8.000	23.000	3.6619e-03
 8.000	23.250	3.6619e-03
 8.000	23.500	3.6619e-03
 8.000	23.750	3.6619e-03
 8.000	24.000	3.6620e-03
 8.250	17.000	1.1702e-03
 8.250	17.250	1.6884e-03
 8.250	17.500	2.3855e-03
 8.250	17.750	3.2917e-03
 8.250	18.000	3.5202e-03
 8.250	18.250	3.6511e-03
 8.250	18.500	3.6533e-03
 8.250	18.750	3.6549e-03
 8.250	19.000	3.6565e-03
 8.250	19.250	3.6582e-03
 8.250	19.500	3.6596e-03
 8.250	19.750	3.6605e-03
 8.250	20.000	3.6609e-03
 8.250	20.250	3.6614e-03
 8.250	20.500	3.6617e-03
 8.250	20.750	3.6618e-03
 8.250	21.000	3.6619e-03
 8.250	21.250	3.6619e-03
 8.250	21.500	3.6619e-03
 8.250	21.750	3.6619e-03
 8.250	22.000	3.6619e-03
 8.250	22.250	3.6619e-03
 8.250	22.500	3.6619e-03
 8.250	22.750	3.6621e-03
 8.250	23.000	3.6619e-03
 8.250	23.250	3.6620e-03
 8.250	23.500	3.6621e-03
 8.250	23.750	3.6619e-03
 8.250	24.000	3.6620e-03
 8.500	17.000	8.2000e-04
 8.500	17.250	1.1872e-03
 8.500	17.500	1.7096e-03
 8.500	17.750	2.4021e-03
 8.500	18.000	3.2982e-03
 8.500	18.250	3.5205e-03
 8.500	18.500	3.6511e-03
 8.500	18.750	3.6533e-03
 8.500	19.000	3.6549e-03
 8.500	19.250	3.6565e-03
 8.500	19.500	3.6582e-03
 8.500	19.750	3.6596e-03
 8.500	20.000	3.6605e-03
 8.500	20.250	3.6609e-03
 8.500	20.500	3.6614e-03
 8.500	20.750	3.6617e-03
 8.500	21.000	3.6618e-03
 8.500	21.250	3.6618e-03
 8.500	21.500	3.6619e-03
 8.500	21.750	3.6619e-03
 8.500	22.000	3.6619e-03
 8.500	22.250	3.6619e-03
 8.500	22.500	3.6619e-03
 8.500	22.750	3.6619e-03
 8.500	23.000	3.6619e-03
 8.500	23.250	3.6619e-03
 8.500	23.500	3.6619e-03
 8.500	23.750	3.6619e-03
 8.500	24.000	3.6619e-03
 8.750	17.000	5.7588e-04
 8.750	17.250	8.3440e-04
 8.750	17.500	1.2095e-03
 8.750	17.750	1.7420e-03
 8.750	18.000	2.4342e-03
 8.750	18.250	3.3154e-03
 8.750	18.500	3.5207e-03
 8.750	18.750	3.6511e-03
 8.750	19.000	3.6533e-03
 8.750	19.250	3.6549e-03
 8.750	19.500	3.6565e-03
 8.750	19.750	3.6582e-03
 8.750	20.000	3.6596e-03
 8.750	20.250	3.6605e-03
 8.750	20.500	3.6609e-03
 8.750	20.750	3.6614e-03
 8.750	21.000	3.6617e-03
 8.750	21.250	3.6618e-03
 8.750	21.500	3.6618e-03
 8.750	21.750	3.6619e-03
 8.750	22.000	3.6619e-03
 8.750	22.250	3.6619e-03
 8.750	22.500	3.6619e-03
 8.750	22.750	3.6619e-03
 8.750	23.000	3.6619e-03
 8.750	23.250	3.6619e-03
 8.750	23.500	3.6620e-03
 8.750	23.750	3.6619e-03
 8.750	24.000	3.6619e-03
 9.000	17.000	4.0527e-04
 9.000	17.250	5.8782e-04
 9.000	17.500	8.5605e-04
 9.000	17.750	1.2479e-03
 9.000	18.000	1.7950e-03
 9.000	18.250	2.4955e-03
 9.000	18.500	3.3484e-03
 9.000	18.750	3.5206e-03
 9.000	19.000	3.6511e-03
 9.000	19.250	3.6533e-03
 9.000	19.500	3.6549e-03
 9.000	19.750	3.6565e-03
 9.000	20.000	3.6582e-03
 9.000	20.250	3.6596e-03
 9.000	20.500	3.6605e-03
 9.000	20.750	3.6609e-03
 9.000	21.000	3.6614e-03
 9.000	21.250	3.6617e-03
 9.000	21.500	3.6618e-03
 9.000	21.750	3.6618e-03
 9.000	22.000	3.6619e-03
 9.000	22.250	3.6619e-03
 9.000	22.500	3.6619e-03
 9.000	22.750	3.6619e-03
 9.000	23.000	3.6619e-03
 9.000	23.250	3.6619e-03
 9.000	23.500	3.6619e-03
 9.000	23.750	3.6619e-03
 9.000	24.000	3.6619e-03
 9.250	17.000	2.8576e-04
 9.250	17.250	4.1440e-04
 9.250	17.500	6.0691e-04
 9.250	17.750	8.9547e-04
 9.250	18.000	1.3174e-03
 9.250	18.250	1.8951e-03
 9.250	18.500	2.6114e-03
 9.250	18.750	3.4279e-03
 9.250	19.000	3.5201e-03
 9.250	19.250	3.6510e-03
 9.250	19.500	3.6533e-03
 9.250	19.750	3.6549e-03
 9.250	20.000	3.6566e-03
 9.250	20.250	3.6582e-03
 9.250	20.500	3.6596e-03
 9.250	20.750	3.6605e-03
 9.250	21.000	3.6609e-03
 9.250	21.250	3.6614e-03
 9.250	21.500	3.6613e-03
 9.250	21.750	3.6614e-03
 9.250	22.000	3.6614e-03
 9.250	22.250	3.6615e-03
 9.250	22.500	3.6617e-03
 9.250	22.750	3.6617e-03
 9.250	23.000	3.6618e-03
 9.250	23.250	3.6619e-03
 9.250	23.500	3.6618e-03
 9.250	23.750	3.6619e-03
 9.250	24.000	3.6619e-03
 9.500	17.000	2.0189e-04
 9.500	17.250	2.9325e-04
 9.500	17.500	4.3119e-04
 9.500	17.750	6.4420e-04
 9.500	18.000	9.6864e-04
 9.500	18.250	1.4412e-03
 9.500	18.500	2.0680e-03
 9.500	18.750	2.8242e-03
 9.500	19.000	3.4316e-03
 9.500	19.250	3.5191e-03
 9.500	19.500	3.6509e-03
 9.500	19.750	3.6532e-03
 9.500	20.000	3.6549e-03
 9.500	20.250	3.6566e-03
 9.500	20.500	3.6582e-03
 9.500	20.750	3.6593e-03
 9.500	21.000	3.6602e-03
 9.500	21.250	3.6606e-03
 9.500	21.500	3.6610e-03
 9.500	21.750	3.6611e-03
 9.500	22.000	3.6612e-03
 9.500	22.250	3.6612e-03
 9.500	22.500	3.6612e-03
 9.500	22.750	3.6612e-03
 9.500	23.000	3.6612e-03
 9.500	23.250	3.6612e-03
 9.500	23.500	3.6612e-03
 9.500	23.750	3.6612e-03
 9.500	24.000	3.6612e-03
 9.750	17.000	1.4272e-04
 9.750	17.250	2.0716e-04
 9.750	17.500	3.0601e-04
 9.750	17.750	4.6321e-04
 9.750	18.000	7.1481e-04
 9.750	18.250	1.0951e-03
 9.750	18.500	1.6227e-03
 9.750	18.750	2.2876e-03
 9.750	19.000	3.0984e-03
 9.750	19.250	3.4305e-03
 9.750	19.500	3.5174e-03
 9.750	19.750	3.6509e-03
 9.750	20.000	3.6532e-03
 9.750	20.250	3.6549e-03
 9.750	20.500	3.6566e-03
 9.750	20.750	3.6582e-03
 9.750	21.000	3.6594e-03
 9.750	21.250	3.6602e-03
 9.750	21.500	3.6606e-03
 9.750	21.750	3.6610e-03
 9.750	22.000	3.6612e-03
 9.750	22.250	3.6612e-03
 9.750	22.500	3.6612e-03
 9.750	22.750	3.6612e-03
 9.750	23.000	3.6612e-03
 9.750	23.250	3.6612e-03
 9.750	23.500	3.6612e-03
 9.750	23.750	3.6612e-03
 9.750	24.000	3.6612e-03
10.000	17.000	1.0074e-04
10.000	17.250	1.4658e-04
10.000	17.500	2.1745e-04
10.000	17.750	3.3350e-04
10.000	18.000	5.2807e-04
10.000	18.250	8.2749e-04
10.000	18.500	1.2556e-03
10.000	18.750	1.8199e-03
10.000	19.000	2.5381e-03
10.000	19.250	3.2626e-03
10.000	19.500	3.4289e-03
10.000	19.750	3.5151e-03
10.000	20.000	3.6505e-03
10.000	20.250	3.6530e-03
10.000	20.500	3.6548e-03
10.000	20.750	3.6566e-03
10.000	21.000	3.6582e-03
10.000	21.250	3.6595e-03
10.000	21.500	3.6602e-03
10.000	21.750	3.6606e-03
10.000	22.000	3.6610e-03
10.000	22.250	3.6612e-03
10.000	22.500	3.6612e-03
10.000	22.750	3.6612e-03
10.000	23.000	3.6612e-03
10.000	23.250	3.6612e-03
10.000	23.500	3.6612e-03
10.000	23.750	3.6612e-03
10.000	24.000	3.6612e-03
10.250	17.000	7.1111e-05
10.250	17.250	1.0370e-04
10.250	17.500	1.5506e-04
10.250	17.750	2.4148e-04
10.250	18.000	3.9012e-04
10.250	18.250	6.2082e-04
10.250	18.500	9.5457e-04
10.250	18.750	1.4150e-03
10.250	19.000	2.0174e-03
10.250	19.250	2.7969e-03
10.250	19.500	3.3820e-03
10.250	19.750	3.4268e-03
10.250	20.000	3.5123e-03
10.250	20.250	3.6500e-03
10.250	20.500	3.6528e-03
10.250	20.750	3.6548e-03
10.250	21.000	3.6565e-03
10.250	21.250	3.6582e-03
10.250	21.500	3.6595e-03
10.250	21.750	3.6604e-03
10.250	22.000	3.6607e-03
10.250	22.250	3.6610e-03
10.250	22.500	3.6613e-03
10.250	22.750	3.6612e-03
10.250	23.000	3.6612e-03
10.250	23.250	3.6612e-03
10.250	23.500	3.6612e-03
10.250	23.750	3.6612e-03
10.250	24.000	3.6612e-03
10.500	17.000	5.0288e-05
10.500	17.250	7.3663e-05
10.500	17.500	1.1103e-04
10.500	17.750	1.7564e-04
10.500	18.000	2.8823e-04
10.500	18.250	4.6502e-04
10.500	18.500	7.1465e-04
10.500	18.750	1.0693e-03
10.500	19.000	1.5574e-03
10.500	19.250	2.2035e-03
10.500	19.500	3.0030e-03
10.500	19.750	3.3807e-03
10.500	20.000	3.4247e-03
10.500	20.250	3.5097e-03
10.500	20.500	3.6493e-03
10.500	20.750	3.6525e-03
10.500	21.000	3.6547e-03
10.500	21.250	3.6565e-03
10.500	21.500	3.6582e-03
10.500	21.750	3.6595e-03
10.500	22.000	3.6604e-03
10.500	22.250	3.6608e-03
10.500	22.500	3.6611e-03
10.500	22.750	3.6613e-03
10.500	23.000	3.6613e-03
10.500	23.250	3.6612e-03
10.500	23.500	3.6612e-03
10.500	23.750	3.6612e-03
10.500	24.000	3.6612e-03
10.750	17.000	3.5638e-05
10.750	17.250	5.2346e-05
10.750	17.500	7.9753e-05
10.750	17.750	1.2823e-04
10.750	18.000	2.1226e-04
10.750	18.250	3.4255e-04
10.750	18.500	5.2889e-04
10.750	18.750	7.9745e-04
10.750	19.000	1.1686e-03
10.750	19.250	1.6802e-03
10.750	19.500	2.3576e-03
10.750	19.750	3.1903e-03
10.750	20.000	3.3788e-03
10.750	20.250	3.4233e-03
10.750	20.500	3.5087e-03
10.750	20.750	3.6484e-03
10.750	21.000	3.6519e-03
10.750	21.250	3.6544e-03
10.750	21.500	3.6565e-03
10.750	21.750	3.6581e-03
10.750	22.000	3.6594e-03
10.750	22.250	3.6604e-03
10.750	22.500	3.6609e-03
10.750	22.750	3.6612e-03
10.750	23.000	3.6613e-03
10.750	23.250	3.6614e-03
10.750	23.500	3.6614e-03
10.750	23.750	3.6613e-03
10.750	24.000	3.6612e-03
11.000	17.000	2.5185e-05
11.000	17.250	3.7202e-05
11.000	17.500	5.7366e-05
11.000	17.750	9.3498e-05
11.000	18.000	1.5506e-04
11.000	18.250	2.4979e-04
11.000	18.500	3.8840e-04
11.000	18.750	5.8601e-04
11.000	19.000	8.6272e-04
11.000	19.250	1.2506e-03
11.000	19.500	1.7858e-03
11.000	19.750	2.5095e-03
11.000	20.000	3.3185e-03
11.000	20.250	3.3770e-03
11.000	20.500	3.4221e-03
11.000	20.750	3.5100e-03
11.000	21.000	3.6472e-03
11.000	21.250	3.6510e-03
11.000	21.500	3.6542e-03
11.000	21.750	3.6563e-03
11.000	22.000	3.6579e-03
11.000	22.250	3.6593e-03
11.000	22.500	3.6604e-03
11.000	22.750	3.6609e-03
11.000	23.000	3.6613e-03
11.000	23.250	3.6613e-03
11.000	23.500	3.6614e-03
11.000	23.750	3.6614e-03
11.000	24.000	3.6614e-03
11.250	17.000	1.7942e-05
11.250	17.250	2.6420e-05
11.250	17.500	4.1152e-05
11.250	17.750	6.7572e-05
11.250	18.000	1.1226e-04
11.250	18.250	1.8033e-04
11.250	18.500	2.7918e-04
11.250	18.750	4.2486e-04
11.250	19.000	6.2733e-04
11.250	19.250	9.1679e-04
11.250	19.500	1.3225e-03
11.250	19.750	1.8858e-03
11.250	20.000	2.6484e-03
11.250	20.250	3.3376e-03
11.250	20.500	3.3750e-03
11.250	20.750	3.4226e-03
11.250	21.000	3.5161e-03
11.250	21.250	3.6458e-03
11.250	21.500	3.6505e-03
11.250	21.750	3.6536e-03
11.250	22.000	3.6560e-03
11.250	22.250	3.6577e-03
11.250	22.500	3.6592e-03
11.250	22.750	3.6603e-03
11.250	23.000	3.6608e-03
11.250	23.250	3.6613e-03
11.250	23.500	3.6614e-03
11.250	23.750	3.6615e-03
11.250	24.000	3.6615e-03
11.500	17.000	1.2840e-05
11.500	17.250	1.8848e-05
11.500	17.500	2.9383e-05
11.500	17.750	4.8477e-05
11.500	18.000	8.0247e-05
11.500	18.250	1.2848e-04
11.500	18.500	1.9959e-04
11.500	18.750	3.0428e-04
11.500	19.000	4.5292e-04
11.500	19.250	6.6288e-04
11.500	19.500	9.5852e-04
11.500	19.750	1.3818e-03
11.500	20.000	1.9745e-03
11.500	20.250	2.7841e-03
11.500	20.500	3.3424e-03
11.500	20.750	3.3728e-03
11.500	21.000	3.4265e-03
11.500	21.250	3.5323e-03
11.500	21.500	3.6453e-03
11.500	21.750	3.6492e-03
11.500	22.000	3.6527e-03
11.500	22.250	3.6554e-03
11.500	22.500	3.6573e-03
11.500	22.750	3.6589e-03
11.500	23.000	3.6602e-03
11.500	23.250	3.6608e-03
11.500	23.500	3.6613e-03
11.500	23.750	3.6616e-03
11.500	24.000	3.6615e-03
11.750	17.000	9.3827e-06
11.750	17.250	1.3580e-05
11.750	17.500	2.1152e-05
11.750	17.750	3.4568e-05
11.750	18.000	5.6626e-05
11.750	18.250	9.0370e-05
11.750	18.500	1.4099e-04
11.750	18.750	2.1473e-04
11.750	19.000	3.2272e-04
11.750	19.250	4.7481e-04
11.750	19.500	6.9144e-04
11.750	19.750	9.9687e-04
11.750	20.000	1.4367e-03
11.750	20.250	2.0567e-03
11.750	20.500	2.9071e-03
11.750	20.750	3.3335e-03
11.750	21.000	3.3715e-03
11.750	21.250	3.4384e-03
11.750	21.500	3.5674e-03
11.750	21.750	3.6431e-03
11.750	22.000	3.6474e-03
11.750	22.250	3.6513e-03
11.750	22.500	3.6545e-03
11.750	22.750	3.6566e-03
11.750	23.000	3.6585e-03
11.750	23.250	3.6601e-03
11.750	23.500	3.6607e-03
11.750	23.750	3.6612e-03
11.750	24.000	3.6616e-03
12.000	17.000	6.9959e-06
12.000	17.250	9.9588e-06
12.000	17.500	1.5226e-05
12.000	17.750	2.4362e-05
12.000	18.000	3.9342e-05
12.000	18.250	6.2881e-05
12.000	18.500	9.8436e-05
12.000	18.750	1.5136e-04
12.000	19.000	2.2897e-04
12.000	19.250	3.3835e-04
12.000	19.500	4.9424e-04
12.000	19.750	7.1539e-04
12.000	20.000	1.0313e-03
12.000	20.250	1.4840e-03
12.000	20.500	2.1249e-03
12.000	20.750	2.9973e-03
12.000	21.000	3.3210e-03
12.000	21.250	3.3737e-03
12.000	21.500	3.4646e-03
12.000	21.750	3.6101e-03
12.000	22.000	3.6396e-03
12.000	22.250	3.6445e-03
12.000	22.500	3.6493e-03
12.000	22.750	3.6531e-03
12.000	23.000	3.6555e-03
12.000	23.250	3.6579e-03
12.000	23.500	3.6598e-03
12.000	23.750	3.6606e-03
12.000	24.000	3.6612e-03
12.250	17.000	5.3498e-06
12.250	17.250	7.4074e-06
12.250	17.500	1.0947e-05
12.250	17.750	1.7037e-05
12.250	18.000	2.7160e-05
12.250	18.250	4.3457e-05
12.250	18.500	6.8724e-05
12.250	18.750	1.0658e-04
12.250	19.000	1.6189e-04
12.250	19.250	2.4000e-04
12.250	19.500	3.5111e-04
12.250	19.750	5.0979e-04
12.250	20.000	7.3473e-04
12.250	20.250	1.0588e-03
12.250	20.500	1.5250e-03
12.250	20.750	2.1902e-03
12.250	21.000	3.0556e-03
12.250	21.250	3.3058e-03
12.250	21.500	3.3865e-03
12.250	21.750	3.4926e-03
12.250	22.000	3.6258e-03
12.250	22.250	3.6341e-03
12.250	22.500	3.6402e-03
12.250	22.750	3.6462e-03
12.250	23.000	3.6509e-03
12.250	23.250	3.6537e-03
12.250	23.500	3.6568e-03
12.250	23.750	3.6594e-03
12.250	24.000	3.6603e-03
12.500	17.000	4.0329e-06
12.500	17.250	5.5144e-06
12.500	17.500	7.8189e-06
12.500	17.750	1.1852e-05
12.500	18.000	1.8765e-05
12.500	18.250	3.0041e-05
12.500	18.500	4.7901e-05
12.500	18.750	7.4733e-05
12.500	19.000	1.1424e-04
12.500	19.250	1.7029e-04
12.500	19.500	2.4947e-04
12.500	19.750	3.6239e-04
12.500	20.000	5.2313e-04
12.500	20.250	7.5218e-04
12.500	20.500	1.0826e-03
12.500	20.750	1.5600e-03
12.500	21.000	2.2439e-03
12.500	21.250	3.1460e-03
12.500	21.500	3.2986e-03
12.500	21.750	3.3921e-03
12.500	22.000	3.5220e-03
12.500	22.250	3.6158e-03
12.500	22.500	3.6256e-03
12.500	22.750	3.6338e-03
12.500	23.000	3.6414e-03
12.500	23.250	3.6472e-03
12.500	23.500	3.6509e-03
12.500	23.750	3.6551e-03
12.500	24.000	3.6588e-03
12.750	17.000	2.8807e-06
12.750	17.250	3.9506e-06
12.750	17.500	5.5967e-06
12.750	17.750	8.3951e-06
12.750	18.000	1.3086e-05
12.750	18.250	2.0905e-05
12.750	18.500	3.3333e-05
12.750	18.750	5.2428e-05
12.750	19.000	8.0412e-05
12.750	19.250	1.2049e-04
12.750	19.500	1.7679e-04
12.750	19.750	2.5695e-04
12.750	20.000	3.7119e-04
12.750	20.250	5.3498e-04
12.750	20.500	7.6403e-04
12.750	20.750	1.1033e-03
12.750	21.000	1.5930e-03
12.750	21.250	2.3020e-03
12.750	21.500	3.1263e-03
12.750	21.750	3.2727e-03
12.750	22.000	3.3956e-03
12.750	22.250	3.5381e-03
12.750	22.500	3.5998e-03
12.750	22.750	3.6127e-03
12.750	23.000	3.6240e-03
12.750	23.250	3.6338e-03
12.750	23.500	3.6412e-03
12.750	23.750	3.6463e-03
12.750	24.000	3.6523e-03
13.000	17.000	9.0535e-07
13.000	17.250	1.8107e-06
13.000	17.500	4.0329e-06
13.000	17.750	6.0905e-06
13.000	18.000	9.3004e-06
13.000	18.250	1.4650e-05
13.000	18.500	2.3374e-05
13.000	18.750	3.6708e-05
13.000	19.000	5.6379e-05
13.000	19.250	8.4938e-05
13.000	19.500	1.2527e-04
13.000	19.750	1.8222e-04
13.000	20.000	2.6247e-04
13.000	20.250	3.7778e-04
13.000	20.500	5.4296e-04
13.000	20.750	7.8099e-04
13.000	21.000	1.1246e-03
13.000	21.250	1.6304e-03
13.000	21.500	2.3353e-03
13.000	21.750	3.0750e-03
13.000	22.000	3.2401e-03
13.000	22.250	3.3838e-03
13.000	22.500	3.5271e-03
13.000	22.750	3.5756e-03
13.000	23.000	3.5936e-03
13.000	23.250	3.6090e-03
13.000	23.500	3.6221e-03
13.000	23.750	3.6317e-03
13.000	24.000	3.6386e-03
13.250	17.000	1.0000e-07
13.250	17.250	1.0700e-06
13.250	17.500	2.3045e-06
13.250	17.750	4.2798e-06
13.250	18.000	6.6667e-06
13.250	18.250	1.0370e-05
13.250	18.500	1.6379e-05
13.250	18.750	2.5597e-05
13.250	19.000	3.9424e-05
13.250	19.250	5.9506e-05
13.250	19.500	8.8230e-05
13.250	19.750	1.2881e-04
13.250	20.000	1.8626e-04
13.250	20.250	2.6807e-04
13.250	20.500	3.8453e-04
13.250	20.750	5.5144e-04
13.250	21.000	7.9572e-04
13.250	21.250	1.1455e-03
13.250	21.500	1.6481e-03
13.250	21.750	2.3451e-03
13.250	22.000	2.9947e-03
13.250	22.250	3.1662e-03
13.250	22.500	3.3392e-03
13.250	22.750	3.4848e-03
13.250	23.000	3.5393e-03
13.250	23.250	3.5645e-03
13.250	23.500	3.5863e-03
13.250	23.750	3.6040e-03
13.250	24.000	3.6165e-03
13.500	17.000	1.0000e-07
13.500	17.250	1.0000e-07
13.500	17.500	1.3169e-06
13.500	17.750	2.6337e-06
13.500	18.000	4.7737e-06
13.500	18.250	7.3251e-06
13.500	18.500	1.1358e-05
13.500	18.750	1.7778e-05
13.500	19.000	2.7407e-05
13.500	19.250	4.1728e-05
13.500	19.500	6.1975e-05
13.500	19.750	9.0782e-05
13.500	20.000	1.3136e-04
13.500	20.250	1.8971e-04
13.500	20.500	2.7202e-04
13.500	20.750	3.9004e-04
13.500	21.000	5.5984e-04
13.500	21.250	8.0486e-04
13.500	21.500	1.1515e-03
13.500	21.750	1.6533e-03
13.500	22.000	2.3114e-03
13.500	22.250	2.8584e-03
13.500	22.500	3.0610e-03
13.500	22.750	3.2576e-03
13.500	23.000	3.4158e-03
13.500	23.250	3.4847e-03
13.500	23.500	3.5210e-03
13.500	23.750	3.5523e-03
13.500	24.000	3.5759e-03
13.750	17.000	1.0000e-07
13.750	17.250	1.0000e-07
13.750	17.500	1.0000e-07
13.750	17.750	1.5638e-06
13.750	18.000	3.1276e-06
13.750	18.250	5.1029e-06
13.750	18.500	8.0658e-06
13.750	18.750	1.2346e-05
13.750	19.000	1.8930e-05
13.750	19.250	2.8807e-05
13.750	19.500	4.3128e-05
13.750	19.750	6.3621e-05
13.750	20.000	9.2675e-05
13.750	20.250	1.3383e-04
13.750	20.500	1.9276e-04
13.750	20.750	2.7630e-04
13.750	21.000	3.9630e-04
13.750	21.250	5.6757e-04
13.750	21.500	8.1119e-04
13.750	21.750	1.1615e-03
13.750	22.000	1.6453e-03
13.750	22.250	2.2425e-03
13.750	22.500	2.6892e-03
13.750	22.750	2.9183e-03
13.750	23.000	3.1372e-03
13.750	23.250	3.3212e-03
13.750	23.500	3.4044e-03
13.750	23.750	3.4571e-03
13.750	24.000	3.5016e-03
14.000	17.000	1.0000e-07
14.000	17.250	1.0000e-07
14.000	17.500	1.0000e-07
14.000	17.750	9.0535e-07
14.000	18.000	1.8930e-06
14.000	18.250	3.5391e-06
14.000	18.500	5.7613e-06
14.000	18.750	8.6420e-06
14.000	19.000	1.3169e-05
14.000	19.250	1.9835e-05
14.000	19.500	2.9794e-05
14.000	19.750	4.4280e-05
14.000	20.000	6.4938e-05
14.000	20.250	9.4156e-05
14.000	20.500	1.3613e-04
14.000	20.750	1.9572e-04
14.000	21.000	2.8099e-04
14.000	21.250	4.0296e-04
14.000	21.500	5.7506e-04
14.000	21.750	8.2329e-04
14.000	22.000	1.1678e-03
14.000	22.250	1.6128e-03
14.000	22.500	2.1209e-03
14.000	22.750	2.4843e-03
14.000	23.000	2.7486e-03
14.000	23.250	2.9829e-03
14.000	23.500	3.1926e-03
14.000	23.750	3.2891e-03
14.000	24.000	3.3650e-03
