InwC 8210.00A  relative to Inci 1215.00A scaled to 1215A.
Hden   Phi(H)  Eq_Width (A)
 7.000	17.000	3.7589e-03
 7.000	17.250	3.7612e-03
 7.000	17.500	3.7628e-03
 7.000	17.750	3.7645e-03
 7.000	18.000	3.7662e-03
 7.000	18.250	3.7677e-03
 7.000	18.500	3.7686e-03
 7.000	18.750	3.7691e-03
 7.000	19.000	3.7695e-03
 7.000	19.250	3.7699e-03
 7.000	19.500	3.7700e-03
 7.000	19.750	3.7700e-03
 7.000	20.000	3.7700e-03
 7.000	20.250	3.7701e-03
 7.000	20.500	3.7701e-03
 7.000	20.750	3.7701e-03
 7.000	21.000	3.7701e-03
 7.000	21.250	3.7701e-03
 7.000	21.500	3.7701e-03
 7.000	21.750	3.7701e-03
 7.000	22.000	3.7701e-03
 7.000	22.250	3.7702e-03
 7.000	22.500	3.7701e-03
 7.000	22.750	3.7706e-03
 7.000	23.000	3.7706e-03
 7.000	23.250	3.7702e-03
 7.000	23.500	3.7705e-03
 7.000	23.750	3.7705e-03
 7.000	24.000	3.7707e-03
 7.250	17.000	3.6236e-03
 7.250	17.250	3.7589e-03
 7.250	17.500	3.7612e-03
 7.250	17.750	3.7628e-03
 7.250	18.000	3.7645e-03
 7.250	18.250	3.7662e-03
 7.250	18.500	3.7677e-03
 7.250	18.750	3.7686e-03
 7.250	19.000	3.7691e-03
 7.250	19.250	3.7695e-03
 7.250	19.500	3.7699e-03
 7.250	19.750	3.7700e-03
 7.250	20.000	3.7700e-03
 7.250	20.250	3.7700e-03
 7.250	20.500	3.7701e-03
 7.250	20.750	3.7701e-03
 7.250	21.000	3.7701e-03
 7.250	21.250	3.7701e-03
 7.250	21.500	3.7701e-03
 7.250	21.750	3.7702e-03
 7.250	22.000	3.7701e-03
 7.250	22.250	3.7701e-03
 7.250	22.500	3.7701e-03
 7.250	22.750	3.7701e-03
 7.250	23.000	3.7701e-03
 7.250	23.250	3.7701e-03
 7.250	23.500	3.7701e-03
 7.250	23.750	3.7701e-03
 7.250	24.000	3.7701e-03
 7.500	17.000	3.3924e-03
 7.500	17.250	3.6243e-03
 7.500	17.500	3.7590e-03
 7.500	17.750	3.7612e-03
 7.500	18.000	3.7628e-03
 7.500	18.250	3.7645e-03
 7.500	18.500	3.7662e-03
 7.500	18.750	3.7677e-03
 7.500	19.000	3.7686e-03
 7.500	19.250	3.7691e-03
 7.500	19.500	3.7695e-03
 7.500	19.750	3.7699e-03
 7.500	20.000	3.7700e-03
 7.500	20.250	3.7700e-03
 7.500	20.500	3.7700e-03
 7.500	20.750	3.7700e-03
 7.500	21.000	3.7701e-03
 7.500	21.250	3.7701e-03
 7.500	21.500	3.7701e-03
 7.500	21.750	3.7701e-03
 7.500	22.000	3.7701e-03
 7.500	22.250	3.7701e-03
 7.500	22.500	3.7701e-03
 7.500	22.750	3.7701e-03
 7.500	23.000	3.7701e-03
 7.500	23.250	3.7701e-03
 7.500	23.500	3.7706e-03
 7.500	23.750	3.7701e-03
 7.500	24.000	3.7701e-03
 7.750	17.000	2.4503e-03
 7.750	17.250	3.4024e-03
 7.750	17.500	3.6248e-03
 7.750	17.750	3.7590e-03
 7.750	18.000	3.7612e-03
 7.750	18.250	3.7628e-03
 7.750	18.500	3.7645e-03
 7.750	18.750	3.7662e-03
 7.750	19.000	3.7677e-03
 7.750	19.250	3.7686e-03
 7.750	19.500	3.7691e-03
 7.750	19.750	3.7695e-03
 7.750	20.000	3.7699e-03
 7.750	20.250	3.7700e-03
 7.750	20.500	3.7700e-03
 7.750	20.750	3.7700e-03
 7.750	21.000	3.7700e-03
 7.750	21.250	3.7701e-03
 7.750	21.500	3.7701e-03
 7.750	21.750	3.7701e-03
 7.750	22.000	3.7701e-03
 7.750	22.250	3.7701e-03
 7.750	22.500	3.7701e-03
 7.750	22.750	3.7701e-03
 7.750	23.000	3.7701e-03
 7.750	23.250	3.7701e-03
 7.750	23.500	3.7702e-03
 7.750	23.750	3.7702e-03
 7.750	24.000	3.7701e-03
 8.000	17.000	1.7200e-03
 8.000	17.250	2.4417e-03
 8.000	17.500	3.3837e-03
 8.000	17.750	3.6238e-03
 8.000	18.000	3.7590e-03
 8.000	18.250	3.7612e-03
 8.000	18.500	3.7628e-03
 8.000	18.750	3.7645e-03
 8.000	19.000	3.7662e-03
 8.000	19.250	3.7677e-03
 8.000	19.500	3.7686e-03
 8.000	19.750	3.7691e-03
 8.000	20.000	3.7695e-03
 8.000	20.250	3.7699e-03
 8.000	20.500	3.7700e-03
 8.000	20.750	3.7700e-03
 8.000	21.000	3.7700e-03
 8.000	21.250	3.7700e-03
 8.000	21.500	3.7700e-03
 8.000	21.750	3.7701e-03
 8.000	22.000	3.7701e-03
 8.000	22.250	3.7701e-03
 8.000	22.500	3.7701e-03
 8.000	22.750	3.7701e-03
 8.000	23.000	3.7701e-03
 8.000	23.250	3.7701e-03
 8.000	23.500	3.7701e-03
 8.000	23.750	3.7701e-03
 8.000	24.000	3.7701e-03
 8.250	17.000	1.2048e-03
 8.250	17.250	1.7382e-03
 8.250	17.500	2.4559e-03
 8.250	17.750	3.3888e-03
 8.250	18.000	3.6242e-03
 8.250	18.250	3.7590e-03
 8.250	18.500	3.7612e-03
 8.250	18.750	3.7629e-03
 8.250	19.000	3.7645e-03
 8.250	19.250	3.7663e-03
 8.250	19.500	3.7677e-03
 8.250	19.750	3.7686e-03
 8.250	20.000	3.7691e-03
 8.250	20.250	3.7695e-03
 8.250	20.500	3.7699e-03
 8.250	20.750	3.7700e-03
 8.250	21.000	3.7700e-03
 8.250	21.250	3.7700e-03
 8.250	21.500	3.7700e-03
 8.250	21.750	3.7700e-03
 8.250	22.000	3.7700e-03
 8.250	22.250	3.7700e-03
 8.250	22.500	3.7701e-03
 8.250	22.750	3.7703e-03
 8.250	23.000	3.7701e-03
 8.250	23.250	3.7701e-03
 8.250	23.500	3.7703e-03
 8.250	23.750	3.7701e-03
 8.250	24.000	3.7701e-03
 8.500	17.000	8.4420e-04
 8.500	17.250	1.2221e-03
 8.500	17.500	1.7599e-03
 8.500	17.750	2.4727e-03
 8.500	18.000	3.3952e-03
 8.500	18.250	3.6244e-03
 8.500	18.500	3.7590e-03
 8.500	18.750	3.7612e-03
 8.500	19.000	3.7629e-03
 8.500	19.250	3.7646e-03
 8.500	19.500	3.7663e-03
 8.500	19.750	3.7677e-03
 8.500	20.000	3.7686e-03
 8.500	20.250	3.7691e-03
 8.500	20.500	3.7695e-03
 8.500	20.750	3.7699e-03
 8.500	21.000	3.7700e-03
 8.500	21.250	3.7700e-03
 8.500	21.500	3.7700e-03
 8.500	21.750	3.7700e-03
 8.500	22.000	3.7700e-03
 8.500	22.250	3.7700e-03
 8.500	22.500	3.7701e-03
 8.500	22.750	3.7701e-03
 8.500	23.000	3.7701e-03
 8.500	23.250	3.7701e-03
 8.500	23.500	3.7701e-03
 8.500	23.750	3.7701e-03
 8.500	24.000	3.7701e-03
 8.750	17.000	5.9284e-04
 8.750	17.250	8.5893e-04
 8.750	17.500	1.2448e-03
 8.750	17.750	1.7924e-03
 8.750	18.000	2.5047e-03
 8.750	18.250	3.4120e-03
 8.750	18.500	3.6244e-03
 8.750	18.750	3.7589e-03
 8.750	19.000	3.7612e-03
 8.750	19.250	3.7629e-03
 8.750	19.500	3.7646e-03
 8.750	19.750	3.7663e-03
 8.750	20.000	3.7677e-03
 8.750	20.250	3.7686e-03
 8.750	20.500	3.7691e-03
 8.750	20.750	3.7695e-03
 8.750	21.000	3.7699e-03
 8.750	21.250	3.7700e-03
 8.750	21.500	3.7700e-03
 8.750	21.750	3.7700e-03
 8.750	22.000	3.7700e-03
 8.750	22.250	3.7700e-03
 8.750	22.500	3.7700e-03
 8.750	22.750	3.7701e-03
 8.750	23.000	3.7701e-03
 8.750	23.250	3.7701e-03
 8.750	23.500	3.7701e-03
 8.750	23.750	3.7701e-03
 8.750	24.000	3.7701e-03
 9.000	17.000	4.1728e-04
 9.000	17.250	6.0502e-04
 9.000	17.500	8.8082e-04
 9.000	17.750	1.2834e-03
 9.000	18.000	1.8450e-03
 9.000	18.250	2.5650e-03
 9.000	18.500	3.4443e-03
 9.000	18.750	3.6240e-03
 9.000	19.000	3.7588e-03
 9.000	19.250	3.7612e-03
 9.000	19.500	3.7629e-03
 9.000	19.750	3.7646e-03
 9.000	20.000	3.7663e-03
 9.000	20.250	3.7677e-03
 9.000	20.500	3.7686e-03
 9.000	20.750	3.7691e-03
 9.000	21.000	3.7695e-03
 9.000	21.250	3.7699e-03
 9.000	21.500	3.7700e-03
 9.000	21.750	3.7700e-03
 9.000	22.000	3.7700e-03
 9.000	22.250	3.7700e-03
 9.000	22.500	3.7700e-03
 9.000	22.750	3.7700e-03
 9.000	23.000	3.7701e-03
 9.000	23.250	3.7701e-03
 9.000	23.500	3.7701e-03
 9.000	23.750	3.7700e-03
 9.000	24.000	3.7701e-03
 9.250	17.000	2.9424e-04
 9.250	17.250	4.2650e-04
 9.250	17.500	6.2428e-04
 9.250	17.750	9.2033e-04
 9.250	18.000	1.3522e-03
 9.250	18.250	1.9434e-03
 9.250	18.500	2.6792e-03
 9.250	18.750	3.5221e-03
 9.250	19.000	3.6229e-03
 9.250	19.250	3.7587e-03
 9.250	19.500	3.7612e-03
 9.250	19.750	3.7629e-03
 9.250	20.000	3.7646e-03
 9.250	20.250	3.7663e-03
 9.250	20.500	3.7677e-03
 9.250	20.750	3.7686e-03
 9.250	21.000	3.7691e-03
 9.250	21.250	3.7695e-03
 9.250	21.500	3.7695e-03
 9.250	21.750	3.7695e-03
 9.250	22.000	3.7695e-03
 9.250	22.250	3.7696e-03
 9.250	22.500	3.7699e-03
 9.250	22.750	3.7700e-03
 9.250	23.000	3.7700e-03
 9.250	23.250	3.7700e-03
 9.250	23.500	3.7700e-03
 9.250	23.750	3.7701e-03
 9.250	24.000	3.7700e-03
 9.500	17.000	2.0782e-04
 9.500	17.250	3.0173e-04
 9.500	17.500	4.4337e-04
 9.500	17.750	6.6156e-04
 9.500	18.000	9.9251e-04
 9.500	18.250	1.4740e-03
 9.500	18.500	2.1137e-03
 9.500	18.750	2.8903e-03
 9.500	19.000	3.5197e-03
 9.500	19.250	3.6202e-03
 9.500	19.500	3.7581e-03
 9.500	19.750	3.7610e-03
 9.500	20.000	3.7629e-03
 9.500	20.250	3.7646e-03
 9.500	20.500	3.7663e-03
 9.500	20.750	3.7674e-03
 9.500	21.000	3.7682e-03
 9.500	21.250	3.7687e-03
 9.500	21.500	3.7691e-03
 9.500	21.750	3.7692e-03
 9.500	22.000	3.7694e-03
 9.500	22.250	3.7694e-03
 9.500	22.500	3.7695e-03
 9.500	22.750	3.7694e-03
 9.500	23.000	3.7694e-03
 9.500	23.250	3.7694e-03
 9.500	23.500	3.7695e-03
 9.500	23.750	3.7694e-03
 9.500	24.000	3.7694e-03
 9.750	17.000	1.4691e-04
 9.750	17.250	2.1317e-04
 9.750	17.500	3.1457e-04
 9.750	17.750	4.7531e-04
 9.750	18.000	7.3160e-04
 9.750	18.250	1.1174e-03
 9.750	18.500	1.6526e-03
 9.750	18.750	2.3295e-03
 9.750	19.000	3.1614e-03
 9.750	19.250	3.5117e-03
 9.750	19.500	3.6147e-03
 9.750	19.750	3.7567e-03
 9.750	20.000	3.7608e-03
 9.750	20.250	3.7628e-03
 9.750	20.500	3.7646e-03
 9.750	20.750	3.7663e-03
 9.750	21.000	3.7676e-03
 9.750	21.250	3.7683e-03
 9.750	21.500	3.7687e-03
 9.750	21.750	3.7691e-03
 9.750	22.000	3.7693e-03
 9.750	22.250	3.7693e-03
 9.750	22.500	3.7694e-03
 9.750	22.750	3.7694e-03
 9.750	23.000	3.7695e-03
 9.750	23.250	3.7695e-03
 9.750	23.500	3.7695e-03
 9.750	23.750	3.7695e-03
 9.750	24.000	3.7695e-03
10.000	17.000	1.0370e-04
10.000	17.250	1.5086e-04
10.000	17.500	2.2346e-04
10.000	17.750	3.4198e-04
10.000	18.000	5.4000e-04
10.000	18.250	8.4296e-04
10.000	18.500	1.2750e-03
10.000	18.750	1.8441e-03
10.000	19.000	2.5735e-03
10.000	19.250	3.3161e-03
10.000	19.500	3.5041e-03
10.000	19.750	3.6078e-03
10.000	20.000	3.7554e-03
10.000	20.250	3.7605e-03
10.000	20.500	3.7627e-03
10.000	20.750	3.7646e-03
10.000	21.000	3.7663e-03
10.000	21.250	3.7676e-03
10.000	21.500	3.7683e-03
10.000	21.750	3.7687e-03
10.000	22.000	3.7691e-03
10.000	22.250	3.7694e-03
10.000	22.500	3.7694e-03
10.000	22.750	3.7694e-03
10.000	23.000	3.7694e-03
10.000	23.250	3.7694e-03
10.000	23.500	3.7695e-03
10.000	23.750	3.7695e-03
10.000	24.000	3.7695e-03
10.250	17.000	7.3251e-05
10.250	17.250	1.0675e-04
10.250	17.500	1.5934e-04
10.250	17.750	2.4749e-04
10.250	18.000	3.9860e-04
10.250	18.250	6.3177e-04
10.250	18.500	9.6733e-04
10.250	18.750	1.4283e-03
10.250	19.000	2.0331e-03
10.250	19.250	2.8229e-03
10.250	19.500	3.4249e-03
10.250	19.750	3.4923e-03
10.250	20.000	3.5944e-03
10.250	20.250	3.7502e-03
10.250	20.500	3.7594e-03
10.250	20.750	3.7626e-03
10.250	21.000	3.7645e-03
10.250	21.250	3.7662e-03
10.250	21.500	3.7676e-03
10.250	21.750	3.7685e-03
10.250	22.000	3.7688e-03
10.250	22.250	3.7692e-03
10.250	22.500	3.7695e-03
10.250	22.750	3.7695e-03
10.250	23.000	3.7694e-03
10.250	23.250	3.7695e-03
10.250	23.500	3.7695e-03
10.250	23.750	3.7695e-03
10.250	24.000	3.7695e-03
10.500	17.000	5.1852e-05
10.500	17.250	7.5802e-05
10.500	17.500	1.1399e-04
10.500	17.750	1.8000e-04
10.500	18.000	2.9449e-04
10.500	18.250	4.7325e-04
10.500	18.500	7.2379e-04
10.500	18.750	1.0783e-03
10.500	19.000	1.5655e-03
10.500	19.250	2.2120e-03
10.500	19.500	3.0228e-03
10.500	19.750	3.4188e-03
10.500	20.000	3.4805e-03
10.500	20.250	3.5867e-03
10.500	20.500	3.7460e-03
10.500	20.750	3.7567e-03
10.500	21.000	3.7621e-03
10.500	21.250	3.7644e-03
10.500	21.500	3.7662e-03
10.500	21.750	3.7676e-03
10.500	22.000	3.7686e-03
10.500	22.250	3.7690e-03
10.500	22.500	3.7692e-03
10.500	22.750	3.7695e-03
10.500	23.000	3.7695e-03
10.500	23.250	3.7695e-03
10.500	23.500	3.7694e-03
10.500	23.750	3.7695e-03
10.500	24.000	3.7695e-03
10.750	17.000	3.6708e-05
10.750	17.250	5.3909e-05
10.750	17.500	8.1975e-05
10.750	17.750	1.3152e-04
10.750	18.000	2.1695e-04
10.750	18.250	3.4881e-04
10.750	18.500	5.3630e-04
10.750	18.750	8.0502e-04
10.750	19.000	1.1746e-03
10.750	19.250	1.6826e-03
10.750	19.500	2.3581e-03
10.750	19.750	3.1915e-03
10.750	20.000	3.4081e-03
10.750	20.250	3.4791e-03
10.750	20.500	3.5798e-03
10.750	20.750	3.7402e-03
10.750	21.000	3.7531e-03
10.750	21.250	3.7612e-03
10.750	21.500	3.7642e-03
10.750	21.750	3.7660e-03
10.750	22.000	3.7675e-03
10.750	22.250	3.7686e-03
10.750	22.500	3.7690e-03
10.750	22.750	3.7693e-03
10.750	23.000	3.7695e-03
10.750	23.250	3.7695e-03
10.750	23.500	3.7695e-03
10.750	23.750	3.7695e-03
10.750	24.000	3.7695e-03
11.000	17.000	2.6008e-05
11.000	17.250	3.8354e-05
11.000	17.500	5.9012e-05
11.000	17.750	9.5885e-05
11.000	18.000	1.5868e-04
11.000	18.250	2.5473e-04
11.000	18.500	3.9457e-04
11.000	18.750	5.9267e-04
11.000	19.000	8.6840e-04
11.000	19.250	1.2528e-03
11.000	19.500	1.7817e-03
11.000	19.750	2.4990e-03
11.000	20.000	3.3088e-03
11.000	20.250	3.4009e-03
11.000	20.500	3.4690e-03
11.000	20.750	3.5781e-03
11.000	21.000	3.7335e-03
11.000	21.250	3.7489e-03
11.000	21.500	3.7599e-03
11.000	21.750	3.7636e-03
11.000	22.000	3.7656e-03
11.000	22.250	3.7672e-03
11.000	22.500	3.7685e-03
11.000	22.750	3.7690e-03
11.000	23.000	3.7695e-03
11.000	23.250	3.7695e-03
11.000	23.500	3.7696e-03
11.000	23.750	3.7696e-03
11.000	24.000	3.7695e-03
11.250	17.000	1.8436e-05
11.250	17.250	2.7160e-05
11.250	17.500	4.2305e-05
11.250	17.750	6.9383e-05
11.250	18.000	1.1498e-04
11.250	18.250	1.8420e-04
11.250	18.500	2.8420e-04
11.250	18.750	4.3078e-04
11.250	19.000	6.3309e-04
11.250	19.250	9.2025e-04
11.250	19.500	1.3201e-03
11.250	19.750	1.8732e-03
11.250	20.000	2.6239e-03
11.250	20.250	3.3223e-03
11.250	20.500	3.3955e-03
11.250	20.750	3.4681e-03
11.250	21.000	3.5805e-03
11.250	21.250	3.7299e-03
11.250	21.500	3.7457e-03
11.250	21.750	3.7574e-03
11.250	22.000	3.7627e-03
11.250	22.250	3.7649e-03
11.250	22.500	3.7669e-03
11.250	22.750	3.7683e-03
11.250	23.000	3.7689e-03
11.250	23.250	3.7695e-03
11.250	23.500	3.7695e-03
11.250	23.750	3.7696e-03
11.250	24.000	3.7696e-03
11.500	17.000	1.3251e-05
11.500	17.250	1.9424e-05
11.500	17.500	3.0288e-05
11.500	17.750	4.9794e-05
11.500	18.000	8.2305e-05
11.500	18.250	1.3144e-04
11.500	18.500	2.0354e-04
11.500	18.750	3.0930e-04
11.500	19.000	4.5835e-04
11.500	19.250	6.6733e-04
11.500	19.500	9.5918e-04
11.500	19.750	1.3736e-03
11.500	20.000	1.9511e-03
11.500	20.250	2.7416e-03
11.500	20.500	3.3184e-03
11.500	20.750	3.3916e-03
11.500	21.000	3.4700e-03
11.500	21.250	3.5970e-03
11.500	21.500	3.7270e-03
11.500	21.750	3.7425e-03
11.500	22.000	3.7545e-03
11.500	22.250	3.7611e-03
11.500	22.500	3.7640e-03
11.500	22.750	3.7664e-03
11.500	23.000	3.7681e-03
11.500	23.250	3.7688e-03
11.500	23.500	3.7694e-03
11.500	23.750	3.7697e-03
11.500	24.000	3.7696e-03
11.750	17.000	9.7119e-06
11.750	17.250	1.4074e-05
11.750	17.500	2.1728e-05
11.750	17.750	3.5556e-05
11.750	18.000	5.8107e-05
11.750	18.250	9.2593e-05
11.750	18.500	1.4403e-04
11.750	18.750	2.1877e-04
11.750	19.000	3.2757e-04
11.750	19.250	4.7959e-04
11.750	19.500	6.9424e-04
11.750	19.750	9.9391e-04
11.750	20.000	1.4212e-03
11.750	20.250	2.0196e-03
11.750	20.500	2.8426e-03
11.750	20.750	3.3007e-03
11.750	21.000	3.3889e-03
11.750	21.250	3.4826e-03
11.750	21.500	3.6330e-03
11.750	21.750	3.7233e-03
11.750	22.000	3.7386e-03
11.750	22.250	3.7510e-03
11.750	22.500	3.7587e-03
11.750	22.750	3.7625e-03
11.750	23.000	3.7655e-03
11.750	23.250	3.7678e-03
11.750	23.500	3.7686e-03
11.750	23.750	3.7693e-03
11.750	24.000	3.7698e-03
12.000	17.000	7.2428e-06
12.000	17.250	1.0288e-05
12.000	17.500	1.5638e-05
12.000	17.750	2.5103e-05
12.000	18.000	4.0412e-05
12.000	18.250	6.4527e-05
12.000	18.500	1.0082e-04
12.000	18.750	1.5457e-04
12.000	19.000	2.3300e-04
12.000	19.250	3.4296e-04
12.000	19.500	4.9811e-04
12.000	19.750	7.1597e-04
12.000	20.000	1.0235e-03
12.000	20.250	1.4588e-03
12.000	20.500	2.0704e-03
12.000	20.750	2.9072e-03
12.000	21.000	3.2785e-03
12.000	21.250	3.3903e-03
12.000	21.500	3.5123e-03
12.000	21.750	3.6765e-03
12.000	22.000	3.7189e-03
12.000	22.250	3.7342e-03
12.000	22.500	3.7473e-03
12.000	22.750	3.7560e-03
12.000	23.000	3.7602e-03
12.000	23.250	3.7643e-03
12.000	23.500	3.7674e-03
12.000	23.750	3.7685e-03
12.000	24.000	3.7692e-03
12.250	17.000	5.5144e-06
12.250	17.250	7.6543e-06
12.250	17.500	1.1276e-05
12.250	17.750	1.7613e-05
12.250	18.000	2.7901e-05
12.250	18.250	4.4609e-05
12.250	18.500	7.0453e-05
12.250	18.750	1.0905e-04
12.250	19.000	1.6510e-04
12.250	19.250	2.4395e-04
12.250	19.500	3.5514e-04
12.250	19.750	5.1226e-04
12.250	20.000	7.3218e-04
12.250	20.250	1.0444e-03
12.250	20.500	1.4867e-03
12.250	20.750	2.1117e-03
12.250	21.000	2.9345e-03
12.250	21.250	3.2542e-03
12.250	21.500	3.4083e-03
12.250	21.750	3.5428e-03
12.250	22.000	3.6929e-03
12.250	22.250	3.7130e-03
12.250	22.500	3.7292e-03
12.250	22.750	3.7430e-03
12.250	23.000	3.7522e-03
12.250	23.250	3.7574e-03
12.250	23.500	3.7626e-03
12.250	23.750	3.7668e-03
12.250	24.000	3.7681e-03
12.500	17.000	4.1975e-06
12.500	17.250	5.6790e-06
12.500	17.500	8.1481e-06
12.500	17.750	1.2263e-05
12.500	18.000	1.9342e-05
12.500	18.250	3.0864e-05
12.500	18.500	4.9218e-05
12.500	18.750	7.6626e-05
12.500	19.000	1.1679e-04
12.500	19.250	1.7358e-04
12.500	19.500	2.5309e-04
12.500	19.750	3.6551e-04
12.500	20.000	5.2346e-04
12.500	20.250	7.4502e-04
12.500	20.500	1.0587e-03
12.500	20.750	1.5037e-03
12.500	21.000	2.1347e-03
12.500	21.250	2.9771e-03
12.500	21.500	3.2484e-03
12.500	21.750	3.4163e-03
12.500	22.000	3.5742e-03
12.500	22.250	3.6838e-03
12.500	22.500	3.7046e-03
12.500	22.750	3.7224e-03
12.500	23.000	3.7372e-03
12.500	23.250	3.7474e-03
12.500	23.500	3.7537e-03
12.500	23.750	3.7603e-03
12.500	24.000	3.7661e-03
12.750	17.000	3.0453e-06
12.750	17.250	4.1152e-06
12.750	17.500	5.7613e-06
12.750	17.750	8.6420e-06
12.750	18.000	1.3498e-05
12.750	18.250	2.1564e-05
12.750	18.500	3.4321e-05
12.750	18.750	5.3827e-05
12.750	19.000	8.2305e-05
12.750	19.250	1.2305e-04
12.750	19.500	1.7984e-04
12.750	19.750	2.6000e-04
12.750	20.000	3.7276e-04
12.750	20.250	5.3202e-04
12.750	20.500	7.5021e-04
12.750	20.750	1.0659e-03
12.750	21.000	1.5119e-03
12.750	21.250	2.1517e-03
12.750	21.500	2.9499e-03
12.750	21.750	3.2165e-03
12.750	22.000	3.4216e-03
12.750	22.250	3.5914e-03
12.750	22.500	3.6686e-03
12.750	22.750	3.6921e-03
12.750	23.000	3.7124e-03
12.750	23.250	3.7291e-03
12.750	23.500	3.7406e-03
12.750	23.750	3.7481e-03
12.750	24.000	3.7571e-03
13.000	17.000	9.8765e-07
13.000	17.250	1.8930e-06
13.000	17.500	4.1975e-06
13.000	17.750	6.2551e-06
13.000	18.000	9.6296e-06
13.000	18.250	1.5144e-05
13.000	18.500	2.4033e-05
13.000	18.750	3.7695e-05
13.000	19.000	5.7778e-05
13.000	19.250	8.6831e-05
13.000	19.500	1.2765e-04
13.000	19.750	1.8486e-04
13.000	20.000	2.6444e-04
13.000	20.250	3.7712e-04
13.000	20.500	5.3514e-04
13.000	20.750	7.5704e-04
13.000	21.000	1.0684e-03
13.000	21.250	1.5153e-03
13.000	21.500	2.1642e-03
13.000	21.750	2.8788e-03
13.000	22.000	3.1811e-03
13.000	22.250	3.4095e-03
13.000	22.500	3.5807e-03
13.000	22.750	3.6449e-03
13.000	23.000	3.6735e-03
13.000	23.250	3.6976e-03
13.000	23.500	3.7170e-03
13.000	23.750	3.7304e-03
13.000	24.000	3.7399e-03
13.250	17.000	1.0000e-07
13.250	17.250	1.0700e-06
13.250	17.500	2.4691e-06
13.250	17.750	4.4444e-06
13.250	18.000	6.8313e-06
13.250	18.250	1.0700e-05
13.250	18.500	1.6872e-05
13.250	18.750	2.6337e-05
13.250	19.000	4.0494e-05
13.250	19.250	6.0905e-05
13.250	19.500	9.0041e-05
13.250	19.750	1.3086e-04
13.250	20.000	1.8815e-04
13.250	20.250	2.6848e-04
13.250	20.500	3.8033e-04
13.250	20.750	5.3646e-04
13.250	21.000	7.5745e-04
13.250	21.250	1.0629e-03
13.250	21.500	1.5151e-03
13.250	21.750	2.1296e-03
13.250	22.000	2.7833e-03
13.250	22.250	3.0962e-03
13.250	22.500	3.3589e-03
13.250	22.750	3.5372e-03
13.250	23.000	3.6082e-03
13.250	23.250	3.6444e-03
13.250	23.500	3.6750e-03
13.250	23.750	3.6987e-03
13.250	24.000	3.7147e-03
13.500	17.000	1.0000e-07
13.500	17.250	1.0000e-07
13.500	17.500	1.3992e-06
13.500	17.750	2.7160e-06
13.500	18.000	4.9383e-06
13.500	18.250	7.5720e-06
13.500	18.500	1.1770e-05
13.500	18.750	1.8272e-05
13.500	19.000	2.8148e-05
13.500	19.250	4.2798e-05
13.500	19.500	6.3374e-05
13.500	19.750	9.2428e-05
13.500	20.000	1.3300e-04
13.500	20.250	1.9045e-04
13.500	20.500	2.6979e-04
13.500	20.750	3.8049e-04
13.500	21.000	5.3416e-04
13.500	21.250	7.4642e-04
13.500	21.500	1.0533e-03
13.500	21.750	1.4749e-03
13.500	22.000	2.0488e-03
13.500	22.250	2.6287e-03
13.500	22.500	2.9807e-03
13.500	22.750	3.2697e-03
13.500	23.000	3.4656e-03
13.500	23.250	3.5520e-03
13.500	23.500	3.6004e-03
13.500	23.750	3.6411e-03
13.500	24.000	3.6705e-03
13.750	17.000	1.0000e-07
13.750	17.250	1.0000e-07
13.750	17.500	1.0000e-07
13.750	17.750	1.6461e-06
13.750	18.000	3.2099e-06
13.750	18.250	5.2675e-06
13.750	18.500	8.3128e-06
13.750	18.750	1.2757e-05
13.750	19.000	1.9506e-05
13.750	19.250	2.9547e-05
13.750	19.500	4.4198e-05
13.750	19.750	6.4856e-05
13.750	20.000	9.3909e-05
13.750	20.250	1.3457e-04
13.750	20.500	1.9152e-04
13.750	20.750	2.7004e-04
13.750	21.000	3.7860e-04
13.750	21.250	5.2601e-04
13.750	21.500	7.3909e-04
13.750	21.750	1.0212e-03
13.750	22.000	1.4067e-03
13.750	22.250	1.9356e-03
13.750	22.500	2.4530e-03
13.750	22.750	2.8263e-03
13.750	23.000	3.1410e-03
13.750	23.250	3.3663e-03
13.750	23.500	3.4686e-03
13.750	23.750	3.5352e-03
13.750	24.000	3.5896e-03
14.000	17.000	1.0000e-07
14.000	17.250	1.0000e-07
14.000	17.500	1.0000e-07
14.000	17.750	9.8765e-07
14.000	18.000	1.9753e-06
14.000	18.250	3.7037e-06
14.000	18.500	5.9259e-06
14.000	18.750	8.9712e-06
14.000	19.000	1.3498e-05
14.000	19.250	2.0412e-05
14.000	19.500	3.0535e-05
14.000	19.750	4.5185e-05
14.000	20.000	6.5844e-05
14.000	20.250	9.4733e-05
14.000	20.500	1.3539e-04
14.000	20.750	1.9144e-04
14.000	21.000	2.6840e-04
14.000	21.250	3.7259e-04
14.000	21.500	5.2140e-04
14.000	21.750	7.1374e-04
14.000	22.000	9.6510e-04
14.000	22.250	1.3019e-03
14.000	22.500	1.7900e-03
14.000	22.750	2.2527e-03
14.000	23.000	2.6535e-03
14.000	23.250	2.9769e-03
14.000	23.500	3.2308e-03
14.000	23.750	3.3485e-03
14.000	24.000	3.4408e-03
