InwC 1458.33A  relative to Inci 1215.00A scaled to 1215A.
Hden   Phi(H)  Eq_Width (A)
 7.000	17.000	1.4012e-02
 7.000	17.250	1.4020e-02
 7.000	17.500	1.4026e-02
 7.000	17.750	1.4032e-02
 7.000	18.000	1.4039e-02
 7.000	18.250	1.4044e-02
 7.000	18.500	1.4048e-02
 7.000	18.750	1.4049e-02
 7.000	19.000	1.4051e-02
 7.000	19.250	1.4052e-02
 7.000	19.500	1.4053e-02
 7.000	19.750	1.4053e-02
 7.000	20.000	1.4053e-02
 7.000	20.250	1.4053e-02
 7.000	20.500	1.4053e-02
 7.000	20.750	1.4053e-02
 7.000	21.000	1.4053e-02
 7.000	21.250	1.4053e-02
 7.000	21.500	1.4053e-02
 7.000	21.750	1.4053e-02
 7.000	22.000	1.4053e-02
 7.000	22.250	1.4054e-02
 7.000	22.500	1.4053e-02
 7.000	22.750	1.4055e-02
 7.000	23.000	1.4055e-02
 7.000	23.250	1.4054e-02
 7.000	23.500	1.4055e-02
 7.000	23.750	1.4055e-02
 7.000	24.000	1.4055e-02
 7.250	17.000	1.3457e-02
 7.250	17.250	1.4012e-02
 7.250	17.500	1.4020e-02
 7.250	17.750	1.4026e-02
 7.250	18.000	1.4032e-02
 7.250	18.250	1.4039e-02
 7.250	18.500	1.4044e-02
 7.250	18.750	1.4048e-02
 7.250	19.000	1.4049e-02
 7.250	19.250	1.4051e-02
 7.250	19.500	1.4052e-02
 7.250	19.750	1.4053e-02
 7.250	20.000	1.4053e-02
 7.250	20.250	1.4053e-02
 7.250	20.500	1.4053e-02
 7.250	20.750	1.4053e-02
 7.250	21.000	1.4053e-02
 7.250	21.250	1.4053e-02
 7.250	21.500	1.4053e-02
 7.250	21.750	1.4054e-02
 7.250	22.000	1.4053e-02
 7.250	22.250	1.4053e-02
 7.250	22.500	1.4053e-02
 7.250	22.750	1.4053e-02
 7.250	23.000	1.4053e-02
 7.250	23.250	1.4053e-02
 7.250	23.500	1.4053e-02
 7.250	23.750	1.4053e-02
 7.250	24.000	1.4053e-02
 7.500	17.000	1.3166e-02
 7.500	17.250	1.3460e-02
 7.500	17.500	1.4012e-02
 7.500	17.750	1.4020e-02
 7.500	18.000	1.4026e-02
 7.500	18.250	1.4032e-02
 7.500	18.500	1.4039e-02
 7.500	18.750	1.4044e-02
 7.500	19.000	1.4048e-02
 7.500	19.250	1.4049e-02
 7.500	19.500	1.4051e-02
 7.500	19.750	1.4052e-02
 7.500	20.000	1.4053e-02
 7.500	20.250	1.4053e-02
 7.500	20.500	1.4053e-02
 7.500	20.750	1.4053e-02
 7.500	21.000	1.4053e-02
 7.500	21.250	1.4053e-02
 7.500	21.500	1.4053e-02
 7.500	21.750	1.4053e-02
 7.500	22.000	1.4053e-02
 7.500	22.250	1.4053e-02
 7.500	22.500	1.4053e-02
 7.500	22.750	1.4053e-02
 7.500	23.000	1.4053e-02
 7.500	23.250	1.4053e-02
 7.500	23.500	1.4055e-02
 7.500	23.750	1.4053e-02
 7.500	24.000	1.4053e-02
 7.750	17.000	1.3854e-02
 7.750	17.250	1.3157e-02
 7.750	17.500	1.3462e-02
 7.750	17.750	1.4012e-02
 7.750	18.000	1.4020e-02
 7.750	18.250	1.4026e-02
 7.750	18.500	1.4032e-02
 7.750	18.750	1.4039e-02
 7.750	19.000	1.4044e-02
 7.750	19.250	1.4048e-02
 7.750	19.500	1.4049e-02
 7.750	19.750	1.4051e-02
 7.750	20.000	1.4052e-02
 7.750	20.250	1.4053e-02
 7.750	20.500	1.4053e-02
 7.750	20.750	1.4053e-02
 7.750	21.000	1.4053e-02
 7.750	21.250	1.4053e-02
 7.750	21.500	1.4053e-02
 7.750	21.750	1.4053e-02
 7.750	22.000	1.4053e-02
 7.750	22.250	1.4053e-02
 7.750	22.500	1.4053e-02
 7.750	22.750	1.4053e-02
 7.750	23.000	1.4053e-02
 7.750	23.250	1.4053e-02
 7.750	23.500	1.4053e-02
 7.750	23.750	1.4053e-02
 7.750	24.000	1.4053e-02
 8.000	17.000	1.4643e-02
 8.000	17.250	1.3853e-02
 8.000	17.500	1.3167e-02
 8.000	17.750	1.3458e-02
 8.000	18.000	1.4012e-02
 8.000	18.250	1.4020e-02
 8.000	18.500	1.4026e-02
 8.000	18.750	1.4032e-02
 8.000	19.000	1.4039e-02
 8.000	19.250	1.4044e-02
 8.000	19.500	1.4048e-02
 8.000	19.750	1.4049e-02
 8.000	20.000	1.4051e-02
 8.000	20.250	1.4052e-02
 8.000	20.500	1.4053e-02
 8.000	20.750	1.4053e-02
 8.000	21.000	1.4053e-02
 8.000	21.250	1.4053e-02
 8.000	21.500	1.4053e-02
 8.000	21.750	1.4053e-02
 8.000	22.000	1.4053e-02
 8.000	22.250	1.4053e-02
 8.000	22.500	1.4053e-02
 8.000	22.750	1.4053e-02
 8.000	23.000	1.4053e-02
 8.000	23.250	1.4053e-02
 8.000	23.500	1.4053e-02
 8.000	23.750	1.4053e-02
 8.000	24.000	1.4053e-02
 8.250	17.000	1.5309e-02
 8.250	17.250	1.4601e-02
 8.250	17.500	1.3820e-02
 8.250	17.750	1.3161e-02
 8.250	18.000	1.3460e-02
 8.250	18.250	1.4011e-02
 8.250	18.500	1.4020e-02
 8.250	18.750	1.4026e-02
 8.250	19.000	1.4033e-02
 8.250	19.250	1.4039e-02
 8.250	19.500	1.4044e-02
 8.250	19.750	1.4048e-02
 8.250	20.000	1.4049e-02
 8.250	20.250	1.4051e-02
 8.250	20.500	1.4052e-02
 8.250	20.750	1.4053e-02
 8.250	21.000	1.4053e-02
 8.250	21.250	1.4053e-02
 8.250	21.500	1.4053e-02
 8.250	21.750	1.4053e-02
 8.250	22.000	1.4053e-02
 8.250	22.250	1.4053e-02
 8.250	22.500	1.4053e-02
 8.250	22.750	1.4054e-02
 8.250	23.000	1.4053e-02
 8.250	23.250	1.4053e-02
 8.250	23.500	1.4054e-02
 8.250	23.750	1.4053e-02
 8.250	24.000	1.4053e-02
 8.500	17.000	1.5823e-02
 8.500	17.250	1.5263e-02
 8.500	17.500	1.4548e-02
 8.500	17.750	1.3782e-02
 8.500	18.000	1.3152e-02
 8.500	18.250	1.3461e-02
 8.500	18.500	1.4011e-02
 8.500	18.750	1.4020e-02
 8.500	19.000	1.4026e-02
 8.500	19.250	1.4033e-02
 8.500	19.500	1.4039e-02
 8.500	19.750	1.4044e-02
 8.500	20.000	1.4048e-02
 8.500	20.250	1.4049e-02
 8.500	20.500	1.4051e-02
 8.500	20.750	1.4052e-02
 8.500	21.000	1.4053e-02
 8.500	21.250	1.4053e-02
 8.500	21.500	1.4053e-02
 8.500	21.750	1.4053e-02
 8.500	22.000	1.4053e-02
 8.500	22.250	1.4053e-02
 8.500	22.500	1.4053e-02
 8.500	22.750	1.4053e-02
 8.500	23.000	1.4053e-02
 8.500	23.250	1.4053e-02
 8.500	23.500	1.4053e-02
 8.500	23.750	1.4053e-02
 8.500	24.000	1.4053e-02
 8.750	17.000	1.6198e-02
 8.750	17.250	1.5773e-02
 8.750	17.500	1.5194e-02
 8.750	17.750	1.4462e-02
 8.750	18.000	1.3710e-02
 8.750	18.250	1.3131e-02
 8.750	18.500	1.3462e-02
 8.750	18.750	1.4011e-02
 8.750	19.000	1.4020e-02
 8.750	19.250	1.4026e-02
 8.750	19.500	1.4033e-02
 8.750	19.750	1.4039e-02
 8.750	20.000	1.4044e-02
 8.750	20.250	1.4048e-02
 8.750	20.500	1.4049e-02
 8.750	20.750	1.4051e-02
 8.750	21.000	1.4052e-02
 8.750	21.250	1.4053e-02
 8.750	21.500	1.4053e-02
 8.750	21.750	1.4053e-02
 8.750	22.000	1.4053e-02
 8.750	22.250	1.4053e-02
 8.750	22.500	1.4053e-02
 8.750	22.750	1.4053e-02
 8.750	23.000	1.4053e-02
 8.750	23.250	1.4053e-02
 8.750	23.500	1.4053e-02
 8.750	23.750	1.4053e-02
 8.750	24.000	1.4053e-02
 9.000	17.000	1.6465e-02
 9.000	17.250	1.6145e-02
 9.000	17.500	1.5693e-02
 9.000	17.750	1.5080e-02
 9.000	18.000	1.4329e-02
 9.000	18.250	1.3590e-02
 9.000	18.500	1.3096e-02
 9.000	18.750	1.3461e-02
 9.000	19.000	1.4010e-02
 9.000	19.250	1.4020e-02
 9.000	19.500	1.4026e-02
 9.000	19.750	1.4033e-02
 9.000	20.000	1.4039e-02
 9.000	20.250	1.4044e-02
 9.000	20.500	1.4048e-02
 9.000	20.750	1.4049e-02
 9.000	21.000	1.4051e-02
 9.000	21.250	1.4052e-02
 9.000	21.500	1.4053e-02
 9.000	21.750	1.4053e-02
 9.000	22.000	1.4053e-02
 9.000	22.250	1.4053e-02
 9.000	22.500	1.4053e-02
 9.000	22.750	1.4053e-02
 9.000	23.000	1.4053e-02
 9.000	23.250	1.4053e-02
 9.000	23.500	1.4053e-02
 9.000	23.750	1.4053e-02
 9.000	24.000	1.4053e-02
 9.250	17.000	1.6653e-02
 9.250	17.250	1.6408e-02
 9.250	17.500	1.6055e-02
 9.250	17.750	1.5554e-02
 9.250	18.000	1.4883e-02
 9.250	18.250	1.4099e-02
 9.250	18.500	1.3402e-02
 9.250	18.750	1.3026e-02
 9.250	19.000	1.3458e-02
 9.250	19.250	1.4009e-02
 9.250	19.500	1.4019e-02
 9.250	19.750	1.4026e-02
 9.250	20.000	1.4033e-02
 9.250	20.250	1.4039e-02
 9.250	20.500	1.4044e-02
 9.250	20.750	1.4048e-02
 9.250	21.000	1.4049e-02
 9.250	21.250	1.4051e-02
 9.250	21.500	1.4051e-02
 9.250	21.750	1.4051e-02
 9.250	22.000	1.4051e-02
 9.250	22.250	1.4052e-02
 9.250	22.500	1.4052e-02
 9.250	22.750	1.4053e-02
 9.250	23.000	1.4053e-02
 9.250	23.250	1.4053e-02
 9.250	23.500	1.4053e-02
 9.250	23.750	1.4053e-02
 9.250	24.000	1.4053e-02
 9.500	17.000	1.6781e-02
 9.500	17.250	1.6593e-02
 9.500	17.500	1.6315e-02
 9.500	17.750	1.5907e-02
 9.500	18.000	1.5327e-02
 9.500	18.250	1.4580e-02
 9.500	18.500	1.3767e-02
 9.500	18.750	1.3138e-02
 9.500	19.000	1.3014e-02
 9.500	19.250	1.3453e-02
 9.500	19.500	1.4008e-02
 9.500	19.750	1.4019e-02
 9.500	20.000	1.4026e-02
 9.500	20.250	1.4033e-02
 9.500	20.500	1.4039e-02
 9.500	20.750	1.4043e-02
 9.500	21.000	1.4046e-02
 9.500	21.250	1.4048e-02
 9.500	21.500	1.4049e-02
 9.500	21.750	1.4050e-02
 9.500	22.000	1.4050e-02
 9.500	22.250	1.4050e-02
 9.500	22.500	1.4051e-02
 9.500	22.750	1.4051e-02
 9.500	23.000	1.4051e-02
 9.500	23.250	1.4051e-02
 9.500	23.500	1.4051e-02
 9.500	23.750	1.4051e-02
 9.500	24.000	1.4051e-02
 9.750	17.000	1.6870e-02
 9.750	17.250	1.6718e-02
 9.750	17.500	1.6493e-02
 9.750	17.750	1.6158e-02
 9.750	18.000	1.5659e-02
 9.750	18.250	1.4981e-02
 9.750	18.500	1.4177e-02
 9.750	18.750	1.3409e-02
 9.750	19.000	1.2892e-02
 9.750	19.250	1.3009e-02
 9.750	19.500	1.3443e-02
 9.750	19.750	1.4005e-02
 9.750	20.000	1.4018e-02
 9.750	20.250	1.4026e-02
 9.750	20.500	1.4033e-02
 9.750	20.750	1.4039e-02
 9.750	21.000	1.4044e-02
 9.750	21.250	1.4046e-02
 9.750	21.500	1.4048e-02
 9.750	21.750	1.4050e-02
 9.750	22.000	1.4050e-02
 9.750	22.250	1.4050e-02
 9.750	22.500	1.4051e-02
 9.750	22.750	1.4051e-02
 9.750	23.000	1.4051e-02
 9.750	23.250	1.4051e-02
 9.750	23.500	1.4051e-02
 9.750	23.750	1.4051e-02
 9.750	24.000	1.4051e-02
10.000	17.000	1.6931e-02
10.000	17.250	1.6807e-02
10.000	17.500	1.6620e-02
10.000	17.750	1.6332e-02
10.000	18.000	1.5899e-02
10.000	18.250	1.5296e-02
10.000	18.500	1.4552e-02
10.000	18.750	1.3766e-02
10.000	19.000	1.3079e-02
10.000	19.250	1.2791e-02
10.000	19.500	1.3008e-02
10.000	19.750	1.3432e-02
10.000	20.000	1.4001e-02
10.000	20.250	1.4017e-02
10.000	20.500	1.4026e-02
10.000	20.750	1.4033e-02
10.000	21.000	1.4039e-02
10.000	21.250	1.4044e-02
10.000	21.500	1.4047e-02
10.000	21.750	1.4048e-02
10.000	22.000	1.4050e-02
10.000	22.250	1.4051e-02
10.000	22.500	1.4050e-02
10.000	22.750	1.4051e-02
10.000	23.000	1.4051e-02
10.000	23.250	1.4051e-02
10.000	23.500	1.4051e-02
10.000	23.750	1.4051e-02
10.000	24.000	1.4051e-02
10.250	17.000	1.6973e-02
10.250	17.250	1.6867e-02
10.250	17.500	1.6707e-02
10.250	17.750	1.6456e-02
10.250	18.000	1.6065e-02
10.250	18.250	1.5533e-02
10.250	18.500	1.4865e-02
10.250	18.750	1.4108e-02
10.250	19.000	1.3377e-02
10.250	19.250	1.2822e-02
10.250	19.500	1.2730e-02
10.250	19.750	1.3009e-02
10.250	20.000	1.3421e-02
10.250	20.250	1.3996e-02
10.250	20.500	1.4015e-02
10.250	20.750	1.4025e-02
10.250	21.000	1.4033e-02
10.250	21.250	1.4039e-02
10.250	21.500	1.4044e-02
10.250	21.750	1.4047e-02
10.250	22.000	1.4048e-02
10.250	22.250	1.4050e-02
10.250	22.500	1.4051e-02
10.250	22.750	1.4051e-02
10.250	23.000	1.4050e-02
10.250	23.250	1.4051e-02
10.250	23.500	1.4051e-02
10.250	23.750	1.4051e-02
10.250	24.000	1.4051e-02
10.500	17.000	1.7002e-02
10.500	17.250	1.6908e-02
10.500	17.500	1.6765e-02
10.500	17.750	1.6534e-02
10.500	18.000	1.6176e-02
10.500	18.250	1.5685e-02
10.500	18.500	1.5109e-02
10.500	18.750	1.4474e-02
10.500	19.000	1.3835e-02
10.500	19.250	1.3186e-02
10.500	19.500	1.2681e-02
10.500	19.750	1.2753e-02
10.500	20.000	1.3008e-02
10.500	20.250	1.3413e-02
10.500	20.500	1.3991e-02
10.500	20.750	1.4013e-02
10.500	21.000	1.4025e-02
10.500	21.250	1.4033e-02
10.500	21.500	1.4039e-02
10.500	21.750	1.4044e-02
10.500	22.000	1.4048e-02
10.500	22.250	1.4049e-02
10.500	22.500	1.4050e-02
10.500	22.750	1.4051e-02
10.500	23.000	1.4051e-02
10.500	23.250	1.4051e-02
10.500	23.500	1.4051e-02
10.500	23.750	1.4051e-02
10.500	24.000	1.4051e-02
10.750	17.000	1.7018e-02
10.750	17.250	1.6933e-02
10.750	17.500	1.6797e-02
10.750	17.750	1.6571e-02
10.750	18.000	1.6235e-02
10.750	18.250	1.5808e-02
10.750	18.500	1.5331e-02
10.750	18.750	1.4836e-02
10.750	19.000	1.4295e-02
10.750	19.250	1.3668e-02
10.750	19.500	1.3034e-02
10.750	19.750	1.2526e-02
10.750	20.000	1.2758e-02
10.750	20.250	1.3014e-02
10.750	20.500	1.3412e-02
10.750	20.750	1.3985e-02
10.750	21.000	1.4010e-02
10.750	21.250	1.4024e-02
10.750	21.500	1.4032e-02
10.750	21.750	1.4039e-02
10.750	22.000	1.4044e-02
10.750	22.250	1.4048e-02
10.750	22.500	1.4049e-02
10.750	22.750	1.4050e-02
10.750	23.000	1.4051e-02
10.750	23.250	1.4051e-02
10.750	23.500	1.4051e-02
10.750	23.750	1.4051e-02
10.750	24.000	1.4051e-02
11.000	17.000	1.7019e-02
11.000	17.250	1.6940e-02
11.000	17.500	1.6800e-02
11.000	17.750	1.6572e-02
11.000	18.000	1.6254e-02
11.000	18.250	1.5878e-02
11.000	18.500	1.5500e-02
11.000	18.750	1.5126e-02
11.000	19.000	1.4691e-02
11.000	19.250	1.4158e-02
11.000	19.500	1.3525e-02
11.000	19.750	1.2851e-02
11.000	20.000	1.2411e-02
11.000	20.250	1.2761e-02
11.000	20.500	1.3022e-02
11.000	20.750	1.3419e-02
11.000	21.000	1.3981e-02
11.000	21.250	1.4007e-02
11.000	21.500	1.4023e-02
11.000	21.750	1.4032e-02
11.000	22.000	1.4039e-02
11.000	22.250	1.4044e-02
11.000	22.500	1.4048e-02
11.000	22.750	1.4049e-02
11.000	23.000	1.4051e-02
11.000	23.250	1.4051e-02
11.000	23.500	1.4051e-02
11.000	23.750	1.4051e-02
11.000	24.000	1.4051e-02
11.250	17.000	1.7004e-02
11.250	17.250	1.6926e-02
11.250	17.500	1.6772e-02
11.250	17.750	1.6530e-02
11.250	18.000	1.6215e-02
11.250	18.250	1.5886e-02
11.250	18.500	1.5604e-02
11.250	18.750	1.5325e-02
11.250	19.000	1.4996e-02
11.250	19.250	1.4569e-02
11.250	19.500	1.4018e-02
11.250	19.750	1.3346e-02
11.250	20.000	1.2649e-02
11.250	20.250	1.2467e-02
11.250	20.500	1.2770e-02
11.250	20.750	1.3033e-02
11.250	21.000	1.3444e-02
11.250	21.250	1.3975e-02
11.250	21.500	1.4004e-02
11.250	21.750	1.4021e-02
11.250	22.000	1.4031e-02
11.250	22.250	1.4039e-02
11.250	22.500	1.4044e-02
11.250	22.750	1.4048e-02
11.250	23.000	1.4049e-02
11.250	23.250	1.4051e-02
11.250	23.500	1.4051e-02
11.250	23.750	1.4051e-02
11.250	24.000	1.4051e-02
11.500	17.000	1.6974e-02
11.500	17.250	1.6881e-02
11.500	17.500	1.6706e-02
11.500	17.750	1.6434e-02
11.500	18.000	1.6107e-02
11.500	18.250	1.5833e-02
11.500	18.500	1.5627e-02
11.500	18.750	1.5435e-02
11.500	19.000	1.5201e-02
11.500	19.250	1.4883e-02
11.500	19.500	1.4451e-02
11.500	19.750	1.3872e-02
11.500	20.000	1.3159e-02
11.500	20.250	1.2440e-02
11.500	20.500	1.2503e-02
11.500	20.750	1.2778e-02
11.500	21.000	1.3056e-02
11.500	21.250	1.3509e-02
11.500	21.500	1.3970e-02
11.500	21.750	1.4000e-02
11.500	22.000	1.4020e-02
11.500	22.250	1.4031e-02
11.500	22.500	1.4038e-02
11.500	22.750	1.4044e-02
11.500	23.000	1.4048e-02
11.500	23.250	1.4049e-02
11.500	23.500	1.4051e-02
11.500	23.750	1.4052e-02
11.500	24.000	1.4051e-02
11.750	17.000	1.6922e-02
11.750	17.250	1.6801e-02
11.750	17.500	1.6584e-02
11.750	17.750	1.6258e-02
11.750	18.000	1.5925e-02
11.750	18.250	1.5709e-02
11.750	18.500	1.5577e-02
11.750	18.750	1.5463e-02
11.750	19.000	1.5311e-02
11.750	19.250	1.5098e-02
11.750	19.500	1.4779e-02
11.750	19.750	1.4330e-02
11.750	20.000	1.3721e-02
11.750	20.250	1.2971e-02
11.750	20.500	1.2236e-02
11.750	20.750	1.2480e-02
11.750	21.000	1.2794e-02
11.750	21.250	1.3115e-02
11.750	21.500	1.3640e-02
11.750	21.750	1.3963e-02
11.750	22.000	1.3996e-02
11.750	22.250	1.4018e-02
11.750	22.500	1.4030e-02
11.750	22.750	1.4038e-02
11.750	23.000	1.4043e-02
11.750	23.250	1.4047e-02
11.750	23.500	1.4049e-02
11.750	23.750	1.4051e-02
11.750	24.000	1.4052e-02
12.000	17.000	1.6828e-02
12.000	17.250	1.6659e-02
12.000	17.500	1.6366e-02
12.000	17.750	1.5977e-02
12.000	18.000	1.5680e-02
12.000	18.250	1.5526e-02
12.000	18.500	1.5460e-02
12.000	18.750	1.5407e-02
12.000	19.000	1.5330e-02
12.000	19.250	1.5205e-02
12.000	19.500	1.5002e-02
12.000	19.750	1.4680e-02
12.000	20.000	1.4209e-02
12.000	20.250	1.3572e-02
12.000	20.500	1.2786e-02
12.000	20.750	1.2072e-02
12.000	21.000	1.2469e-02
12.000	21.250	1.2836e-02
12.000	21.500	1.3220e-02
12.000	21.750	1.3815e-02
12.000	22.000	1.3958e-02
12.000	22.250	1.3992e-02
12.000	22.500	1.4015e-02
12.000	22.750	1.4029e-02
12.000	23.000	1.4037e-02
12.000	23.250	1.4043e-02
12.000	23.500	1.4047e-02
12.000	23.750	1.4049e-02
12.000	24.000	1.4051e-02
12.250	17.000	1.6598e-02
12.250	17.250	1.6359e-02
12.250	17.500	1.5979e-02
12.250	17.750	1.5580e-02
12.250	18.000	1.5362e-02
12.250	18.250	1.5289e-02
12.250	18.500	1.5271e-02
12.250	18.750	1.5270e-02
12.250	19.000	1.5260e-02
12.250	19.250	1.5218e-02
12.250	19.500	1.5112e-02
12.250	19.750	1.4915e-02
12.250	20.000	1.4584e-02
12.250	20.250	1.4100e-02
12.250	20.500	1.3424e-02
12.250	20.750	1.2611e-02
12.250	21.000	1.1969e-02
12.250	21.250	1.2497e-02
12.250	21.500	1.2904e-02
12.250	21.750	1.3355e-02
12.250	22.000	1.3895e-02
12.250	22.250	1.3950e-02
12.250	22.500	1.3986e-02
12.250	22.750	1.4012e-02
12.250	23.000	1.4028e-02
12.250	23.250	1.4036e-02
12.250	23.500	1.4043e-02
12.250	23.750	1.4047e-02
12.250	24.000	1.4049e-02
12.500	17.000	1.6025e-02
12.500	17.250	1.5730e-02
12.500	17.500	1.5344e-02
12.500	17.750	1.5074e-02
12.500	18.000	1.4988e-02
12.500	18.250	1.4978e-02
12.500	18.500	1.5004e-02
12.500	18.750	1.5056e-02
12.500	19.000	1.5106e-02
12.500	19.250	1.5137e-02
12.500	19.500	1.5120e-02
12.500	19.750	1.5026e-02
12.500	20.000	1.4831e-02
12.500	20.250	1.4491e-02
12.500	20.500	1.3986e-02
12.500	20.750	1.3288e-02
12.500	21.000	1.2453e-02
12.500	21.250	1.1815e-02
12.500	21.500	1.2535e-02
12.500	21.750	1.2991e-02
12.500	22.000	1.3511e-02
12.500	22.250	1.3892e-02
12.500	22.500	1.3941e-02
12.500	22.750	1.3981e-02
12.500	23.000	1.4009e-02
12.500	23.250	1.4026e-02
12.500	23.500	1.4035e-02
12.500	23.750	1.4042e-02
12.500	24.000	1.4047e-02
12.750	17.000	1.4581e-02
12.750	17.250	1.4636e-02
12.750	17.500	1.4552e-02
12.750	17.750	1.4547e-02
12.750	18.000	1.4547e-02
12.750	18.250	1.4580e-02
12.750	18.500	1.4656e-02
12.750	18.750	1.4756e-02
12.750	19.000	1.4866e-02
12.750	19.250	1.4966e-02
12.750	19.500	1.5031e-02
12.750	19.750	1.5031e-02
12.750	20.000	1.4944e-02
12.750	20.250	1.4745e-02
12.750	20.500	1.4404e-02
12.750	20.750	1.3866e-02
12.750	21.000	1.3133e-02
12.750	21.250	1.2298e-02
12.750	21.500	1.1887e-02
12.750	21.750	1.2595e-02
12.750	22.000	1.3101e-02
12.750	22.250	1.3647e-02
12.750	22.500	1.3887e-02
12.750	22.750	1.3937e-02
12.750	23.000	1.3976e-02
12.750	23.250	1.4005e-02
12.750	23.500	1.4023e-02
12.750	23.750	1.4034e-02
12.750	24.000	1.4042e-02
13.000	17.000	3.3173e-03
13.000	17.250	6.2447e-03
13.000	17.500	1.3779e-02
13.000	17.750	1.3970e-02
13.000	18.000	1.4020e-02
13.000	18.250	1.4090e-02
13.000	18.500	1.4208e-02
13.000	18.750	1.4363e-02
13.000	19.000	1.4536e-02
13.000	19.250	1.4701e-02
13.000	19.500	1.4840e-02
13.000	19.750	1.4928e-02
13.000	20.000	1.4942e-02
13.000	20.250	1.4859e-02
13.000	20.500	1.4650e-02
13.000	20.750	1.4283e-02
13.000	21.000	1.3722e-02
13.000	21.250	1.2968e-02
13.000	21.500	1.2179e-02
13.000	21.750	1.2002e-02
13.000	22.000	1.2688e-02
13.000	22.250	1.3200e-02
13.000	22.500	1.3721e-02
13.000	22.750	1.3883e-02
13.000	23.000	1.3933e-02
13.000	23.250	1.3972e-02
13.000	23.500	1.4002e-02
13.000	23.750	1.4021e-02
13.000	24.000	1.4032e-02
13.250	17.000	2.0325e-03
13.250	17.250	3.7182e-03
13.250	17.500	8.4103e-03
13.250	17.750	1.2638e-02
13.250	18.000	1.3395e-02
13.250	18.250	1.3506e-02
13.250	18.500	1.3660e-02
13.250	18.750	1.3873e-02
13.250	19.000	1.4109e-02
13.250	19.250	1.4344e-02
13.250	19.500	1.4553e-02
13.250	19.750	1.4719e-02
13.250	20.000	1.4823e-02
13.250	20.250	1.4842e-02
13.250	20.500	1.4754e-02
13.250	20.750	1.4531e-02
13.250	21.000	1.4130e-02
13.250	21.250	1.3539e-02
13.250	21.500	1.2799e-02
13.250	21.750	1.2037e-02
13.250	22.000	1.2125e-02
13.250	22.250	1.2717e-02
13.250	22.500	1.3253e-02
13.250	22.750	1.3730e-02
13.250	23.000	1.3879e-02
13.250	23.250	1.3929e-02
13.250	23.500	1.3969e-02
13.250	23.750	1.3999e-02
13.250	24.000	1.4018e-02
13.500	17.000	1.2452e-03
13.500	17.250	2.3478e-03
13.500	17.500	4.8964e-03
13.500	17.750	8.7584e-03
13.500	18.000	1.2481e-02
13.500	18.250	1.2756e-02
13.500	18.500	1.2994e-02
13.500	18.750	1.3277e-02
13.500	19.000	1.3582e-02
13.500	19.250	1.3884e-02
13.500	19.500	1.4166e-02
13.500	19.750	1.4407e-02
13.500	20.000	1.4590e-02
13.500	20.250	1.4700e-02
13.500	20.500	1.4717e-02
13.500	20.750	1.4615e-02
13.500	21.000	1.4361e-02
13.500	21.250	1.3919e-02
13.500	21.500	1.3316e-02
13.500	21.750	1.2517e-02
13.500	22.000	1.1851e-02
13.500	22.250	1.2153e-02
13.500	22.500	1.2715e-02
13.500	22.750	1.3252e-02
13.500	23.000	1.3711e-02
13.500	23.250	1.3873e-02
13.500	23.500	1.3925e-02
13.500	23.750	1.3966e-02
13.500	24.000	1.3995e-02
13.750	17.000	7.6650e-04
13.750	17.250	1.4760e-03
13.750	17.500	3.0463e-03
13.750	17.750	5.6226e-03
13.750	18.000	9.3136e-03
13.750	18.250	1.1166e-02
13.750	18.500	1.2144e-02
13.750	18.750	1.2513e-02
13.750	19.000	1.2925e-02
13.750	19.250	1.3327e-02
13.750	19.500	1.3685e-02
13.750	19.750	1.3998e-02
13.750	20.000	1.4255e-02
13.750	20.250	1.4446e-02
13.750	20.500	1.4552e-02
13.750	20.750	1.4552e-02
13.750	21.000	1.4417e-02
13.750	21.250	1.4109e-02
13.750	21.500	1.3632e-02
13.750	21.750	1.2906e-02
13.750	22.000	1.2062e-02
13.750	22.250	1.1606e-02
13.750	22.500	1.2165e-02
13.750	22.750	1.2683e-02
13.750	23.000	1.3203e-02
13.750	23.250	1.3699e-02
13.750	23.500	1.3862e-02
13.750	23.750	1.3917e-02
13.750	24.000	1.3960e-02
14.000	17.000	4.6658e-04
14.000	17.250	9.0140e-04
14.000	17.500	1.9177e-03
14.000	17.750	3.5075e-03
14.000	18.000	6.3271e-03
14.000	18.250	9.5335e-03
14.000	18.500	1.1199e-02
14.000	18.750	1.1611e-02
14.000	19.000	1.2096e-02
14.000	19.250	1.2610e-02
14.000	19.500	1.3093e-02
14.000	19.750	1.3493e-02
14.000	20.000	1.3824e-02
14.000	20.250	1.4090e-02
14.000	20.500	1.4274e-02
14.000	20.750	1.4361e-02
14.000	21.000	1.4322e-02
14.000	21.250	1.4123e-02
14.000	21.500	1.3756e-02
14.000	21.750	1.3112e-02
14.000	22.000	1.2220e-02
14.000	22.250	1.1365e-02
14.000	22.500	1.1373e-02
14.000	22.750	1.2163e-02
14.000	23.000	1.2693e-02
14.000	23.250	1.3181e-02
14.000	23.500	1.3705e-02
14.000	23.750	1.3845e-02
14.000	24.000	1.3905e-02
