InwT 608.160A  relative to Inci 1215.00A scaled to 1215A.
Hden   Phi(H)  Eq_Width (A)
 7.000	17.000	6.2455e-02
 7.000	17.250	5.3893e-02
 7.000	17.500	3.9214e-02
 7.000	17.750	2.6399e-02
 7.000	18.000	1.9790e-02
 7.000	18.250	1.6300e-02
 7.000	18.500	1.4575e-02
 7.000	18.750	1.3993e-02
 7.000	19.000	1.3714e-02
 7.000	19.250	1.3566e-02
 7.000	19.500	1.3504e-02
 7.000	19.750	1.3477e-02
 7.000	20.000	1.3466e-02
 7.000	20.250	1.3460e-02
 7.000	20.500	1.3457e-02
 7.000	20.750	1.3456e-02
 7.000	21.000	1.3455e-02
 7.000	21.250	1.3455e-02
 7.000	21.500	1.3454e-02
 7.000	21.750	1.3454e-02
 7.000	22.000	1.3454e-02
 7.000	22.250	1.3454e-02
 7.000	22.500	1.3454e-02
 7.000	22.750	1.3456e-02
 7.000	23.000	1.3456e-02
 7.000	23.250	1.3454e-02
 7.000	23.500	1.3455e-02
 7.000	23.750	1.3455e-02
 7.000	24.000	1.3456e-02
 7.250	17.000	5.3056e-02
 7.250	17.250	6.2108e-02
 7.250	17.500	5.3628e-02
 7.250	17.750	3.9020e-02
 7.250	18.000	2.6286e-02
 7.250	18.250	1.9737e-02
 7.250	18.500	1.6275e-02
 7.250	18.750	1.4566e-02
 7.250	19.000	1.3989e-02
 7.250	19.250	1.3713e-02
 7.250	19.500	1.3566e-02
 7.250	19.750	1.3504e-02
 7.250	20.000	1.3477e-02
 7.250	20.250	1.3466e-02
 7.250	20.500	1.3460e-02
 7.250	20.750	1.3457e-02
 7.250	21.000	1.3456e-02
 7.250	21.250	1.3455e-02
 7.250	21.500	1.3455e-02
 7.250	21.750	1.3455e-02
 7.250	22.000	1.3454e-02
 7.250	22.250	1.3454e-02
 7.250	22.500	1.3454e-02
 7.250	22.750	1.3454e-02
 7.250	23.000	1.3454e-02
 7.250	23.250	1.3454e-02
 7.250	23.500	1.3454e-02
 7.250	23.750	1.3454e-02
 7.250	24.000	1.3454e-02
 7.500	17.000	4.1593e-02
 7.500	17.250	5.3083e-02
 7.500	17.500	6.1943e-02
 7.500	17.750	5.3496e-02
 7.500	18.000	3.8901e-02
 7.500	18.250	2.6205e-02
 7.500	18.500	1.9700e-02
 7.500	18.750	1.6259e-02
 7.500	19.000	1.4560e-02
 7.500	19.250	1.3987e-02
 7.500	19.500	1.3712e-02
 7.500	19.750	1.3566e-02
 7.500	20.000	1.3504e-02
 7.500	20.250	1.3477e-02
 7.500	20.500	1.3466e-02
 7.500	20.750	1.3460e-02
 7.500	21.000	1.3457e-02
 7.500	21.250	1.3456e-02
 7.500	21.500	1.3455e-02
 7.500	21.750	1.3454e-02
 7.500	22.000	1.3454e-02
 7.500	22.250	1.3454e-02
 7.500	22.500	1.3454e-02
 7.500	22.750	1.3454e-02
 7.500	23.000	1.3454e-02
 7.500	23.250	1.3454e-02
 7.500	23.500	1.3456e-02
 7.500	23.750	1.3454e-02
 7.500	24.000	1.3454e-02
 7.750	17.000	3.3220e-02
 7.750	17.250	4.1781e-02
 7.750	17.500	5.3176e-02
 7.750	17.750	6.1866e-02
 7.750	18.000	5.3449e-02
 7.750	18.250	3.8831e-02
 7.750	18.500	2.6142e-02
 7.750	18.750	1.9675e-02
 7.750	19.000	1.6249e-02
 7.750	19.250	1.4556e-02
 7.750	19.500	1.3986e-02
 7.750	19.750	1.3712e-02
 7.750	20.000	1.3565e-02
 7.750	20.250	1.3504e-02
 7.750	20.500	1.3477e-02
 7.750	20.750	1.3466e-02
 7.750	21.000	1.3460e-02
 7.750	21.250	1.3457e-02
 7.750	21.500	1.3456e-02
 7.750	21.750	1.3455e-02
 7.750	22.000	1.3454e-02
 7.750	22.250	1.3454e-02
 7.750	22.500	1.3454e-02
 7.750	22.750	1.3454e-02
 7.750	23.000	1.3454e-02
 7.750	23.250	1.3454e-02
 7.750	23.500	1.3454e-02
 7.750	23.750	1.3454e-02
 7.750	24.000	1.3454e-02
 8.000	17.000	2.6758e-02
 8.000	17.250	3.3229e-02
 8.000	17.500	4.1708e-02
 8.000	17.750	5.3070e-02
 8.000	18.000	6.1840e-02
 8.000	18.250	5.3451e-02
 8.000	18.500	3.8791e-02
 8.000	18.750	2.6090e-02
 8.000	19.000	1.9656e-02
 8.000	19.250	1.6243e-02
 8.000	19.500	1.4554e-02
 8.000	19.750	1.3985e-02
 8.000	20.000	1.3711e-02
 8.000	20.250	1.3565e-02
 8.000	20.500	1.3504e-02
 8.000	20.750	1.3477e-02
 8.000	21.000	1.3466e-02
 8.000	21.250	1.3460e-02
 8.000	21.500	1.3457e-02
 8.000	21.750	1.3456e-02
 8.000	22.000	1.3455e-02
 8.000	22.250	1.3454e-02
 8.000	22.500	1.3454e-02
 8.000	22.750	1.3454e-02
 8.000	23.000	1.3454e-02
 8.000	23.250	1.3454e-02
 8.000	23.500	1.3454e-02
 8.000	23.750	1.3454e-02
 8.000	24.000	1.3454e-02
 8.250	17.000	2.1854e-02
 8.250	17.250	2.6899e-02
 8.250	17.500	3.3349e-02
 8.250	17.750	4.1780e-02
 8.250	18.000	5.3092e-02
 8.250	18.250	6.1800e-02
 8.250	18.500	5.3484e-02
 8.250	18.750	3.8766e-02
 8.250	19.000	2.6042e-02
 8.250	19.250	1.9640e-02
 8.250	19.500	1.6239e-02
 8.250	19.750	1.4553e-02
 8.250	20.000	1.3984e-02
 8.250	20.250	1.3711e-02
 8.250	20.500	1.3565e-02
 8.250	20.750	1.3504e-02
 8.250	21.000	1.3477e-02
 8.250	21.250	1.3466e-02
 8.250	21.500	1.3460e-02
 8.250	21.750	1.3457e-02
 8.250	22.000	1.3456e-02
 8.250	22.250	1.3455e-02
 8.250	22.500	1.3454e-02
 8.250	22.750	1.3455e-02
 8.250	23.000	1.3454e-02
 8.250	23.250	1.3454e-02
 8.250	23.500	1.3455e-02
 8.250	23.750	1.3454e-02
 8.250	24.000	1.3454e-02
 8.500	17.000	1.8074e-02
 8.500	17.250	2.1945e-02
 8.500	17.500	2.6978e-02
 8.500	17.750	3.3396e-02
 8.500	18.000	4.1802e-02
 8.500	18.250	5.3056e-02
 8.500	18.500	6.1744e-02
 8.500	18.750	5.3535e-02
 8.500	19.000	3.8750e-02
 8.500	19.250	2.5994e-02
 8.500	19.500	1.9625e-02
 8.500	19.750	1.6236e-02
 8.500	20.000	1.4552e-02
 8.500	20.250	1.3984e-02
 8.500	20.500	1.3711e-02
 8.500	20.750	1.3565e-02
 8.500	21.000	1.3504e-02
 8.500	21.250	1.3477e-02
 8.500	21.500	1.3466e-02
 8.500	21.750	1.3460e-02
 8.500	22.000	1.3457e-02
 8.500	22.250	1.3456e-02
 8.500	22.500	1.3455e-02
 8.500	22.750	1.3454e-02
 8.500	23.000	1.3454e-02
 8.500	23.250	1.3454e-02
 8.500	23.500	1.3454e-02
 8.500	23.750	1.3454e-02
 8.500	24.000	1.3454e-02
 8.750	17.000	1.5148e-02
 8.750	17.250	1.8156e-02
 8.750	17.500	2.2013e-02
 8.750	17.750	2.7020e-02
 8.750	18.000	3.3427e-02
 8.750	18.250	4.1795e-02
 8.750	18.500	5.2966e-02
 8.750	18.750	6.1661e-02
 8.750	19.000	5.3596e-02
 8.750	19.250	3.8738e-02
 8.750	19.500	2.5945e-02
 8.750	19.750	1.9612e-02
 8.750	20.000	1.6235e-02
 8.750	20.250	1.4552e-02
 8.750	20.500	1.3984e-02
 8.750	20.750	1.3711e-02
 8.750	21.000	1.3565e-02
 8.750	21.250	1.3504e-02
 8.750	21.500	1.3477e-02
 8.750	21.750	1.3466e-02
 8.750	22.000	1.3460e-02
 8.750	22.250	1.3457e-02
 8.750	22.500	1.3456e-02
 8.750	22.750	1.3455e-02
 8.750	23.000	1.3454e-02
 8.750	23.250	1.3454e-02
 8.750	23.500	1.3454e-02
 8.750	23.750	1.3454e-02
 8.750	24.000	1.3454e-02
 9.000	17.000	1.2682e-02
 9.000	17.250	1.5301e-02
 9.000	17.500	1.8279e-02
 9.000	17.750	2.2104e-02
 9.000	18.000	2.7100e-02
 9.000	18.250	3.3489e-02
 9.000	18.500	4.1836e-02
 9.000	18.750	5.2860e-02
 9.000	19.000	6.1559e-02
 9.000	19.250	5.3646e-02
 9.000	19.500	3.8729e-02
 9.000	19.750	2.5896e-02
 9.000	20.000	1.9600e-02
 9.000	20.250	1.6233e-02
 9.000	20.500	1.4551e-02
 9.000	20.750	1.3984e-02
 9.000	21.000	1.3711e-02
 9.000	21.250	1.3565e-02
 9.000	21.500	1.3504e-02
 9.000	21.750	1.3477e-02
 9.000	22.000	1.3466e-02
 9.000	22.250	1.3460e-02
 9.000	22.500	1.3457e-02
 9.000	22.750	1.3456e-02
 9.000	23.000	1.3455e-02
 9.000	23.250	1.3454e-02
 9.000	23.500	1.3454e-02
 9.000	23.750	1.3454e-02
 9.000	24.000	1.3454e-02
 9.250	17.000	1.0335e-02
 9.250	17.250	1.2925e-02
 9.250	17.500	1.5561e-02
 9.250	17.750	1.8529e-02
 9.250	18.000	2.2329e-02
 9.250	18.250	2.7302e-02
 9.250	18.500	3.3703e-02
 9.250	18.750	4.2055e-02
 9.250	19.000	5.2799e-02
 9.250	19.250	6.1438e-02
 9.250	19.500	5.3684e-02
 9.250	19.750	3.8725e-02
 9.250	20.000	2.5850e-02
 9.250	20.250	1.9589e-02
 9.250	20.500	1.6232e-02
 9.250	20.750	1.4552e-02
 9.250	21.000	1.3984e-02
 9.250	21.250	1.3711e-02
 9.250	21.500	1.3564e-02
 9.250	21.750	1.3502e-02
 9.250	22.000	1.3476e-02
 9.250	22.250	1.3464e-02
 9.250	22.500	1.3459e-02
 9.250	22.750	1.3457e-02
 9.250	23.000	1.3455e-02
 9.250	23.250	1.3455e-02
 9.250	23.500	1.3454e-02
 9.250	23.750	1.3454e-02
 9.250	24.000	1.3454e-02
 9.500	17.000	7.9613e-03
 9.500	17.250	1.0651e-02
 9.500	17.500	1.3343e-02
 9.500	17.750	1.6032e-02
 9.500	18.000	1.8973e-02
 9.500	18.250	2.2733e-02
 9.500	18.500	2.7724e-02
 9.500	18.750	3.4256e-02
 9.500	19.000	4.2575e-02
 9.500	19.250	5.2912e-02
 9.500	19.500	6.1370e-02
 9.500	19.750	5.3707e-02
 9.500	20.000	3.8728e-02
 9.500	20.250	2.5812e-02
 9.500	20.500	1.9582e-02
 9.500	20.750	1.6230e-02
 9.500	21.000	1.4549e-02
 9.500	21.250	1.3983e-02
 9.500	21.500	1.3710e-02
 9.500	21.750	1.3563e-02
 9.500	22.000	1.3502e-02
 9.500	22.250	1.3475e-02
 9.500	22.500	1.3463e-02
 9.500	22.750	1.3458e-02
 9.500	23.000	1.3455e-02
 9.500	23.250	1.3453e-02
 9.500	23.500	1.3453e-02
 9.500	23.750	1.3452e-02
 9.500	24.000	1.3452e-02
 9.750	17.000	5.6062e-03
 9.750	17.250	8.2511e-03
 9.750	17.500	1.1149e-02
 9.750	17.750	1.4016e-02
 9.750	18.000	1.6729e-02
 9.750	18.250	1.9663e-02
 9.750	18.500	2.3489e-02
 9.750	18.750	2.8683e-02
 9.750	19.000	3.5564e-02
 9.750	19.250	4.3833e-02
 9.750	19.500	5.3438e-02
 9.750	19.750	6.1422e-02
 9.750	20.000	5.3722e-02
 9.750	20.250	3.8748e-02
 9.750	20.500	2.5783e-02
 9.750	20.750	1.9577e-02
 9.750	21.000	1.6231e-02
 9.750	21.250	1.4550e-02
 9.750	21.500	1.3983e-02
 9.750	21.750	1.3710e-02
 9.750	22.000	1.3563e-02
 9.750	22.250	1.3502e-02
 9.750	22.500	1.3475e-02
 9.750	22.750	1.3463e-02
 9.750	23.000	1.3458e-02
 9.750	23.250	1.3455e-02
 9.750	23.500	1.3453e-02
 9.750	23.750	1.3453e-02
 9.750	24.000	1.3452e-02
10.000	17.000	3.3611e-03
10.000	17.250	5.8026e-03
10.000	17.500	8.7188e-03
10.000	17.750	1.1879e-02
10.000	18.000	1.4898e-02
10.000	18.250	1.7713e-02
10.000	18.500	2.0826e-02
10.000	18.750	2.4984e-02
10.000	19.000	3.0672e-02
10.000	19.250	3.7957e-02
10.000	19.500	4.6014e-02
10.000	19.750	5.4560e-02
10.000	20.000	6.1799e-02
10.000	20.250	5.3762e-02
10.000	20.500	3.8777e-02
10.000	20.750	2.5768e-02
10.000	21.000	1.9577e-02
10.000	21.250	1.6233e-02
10.000	21.500	1.4550e-02
10.000	21.750	1.3983e-02
10.000	22.000	1.3710e-02
10.000	22.250	1.3564e-02
10.000	22.500	1.3502e-02
10.000	22.750	1.3475e-02
10.000	23.000	1.3463e-02
10.000	23.250	1.3458e-02
10.000	23.500	1.3455e-02
10.000	23.750	1.3453e-02
10.000	24.000	1.3453e-02
10.250	17.000	1.9183e-03
10.250	17.250	3.4839e-03
10.250	17.500	6.1588e-03
10.250	17.750	9.3616e-03
10.250	18.000	1.2812e-02
10.250	18.250	1.6149e-02
10.250	18.500	1.9347e-02
10.250	18.750	2.2983e-02
10.250	19.000	2.7703e-02
10.250	19.250	3.4029e-02
10.250	19.500	4.1466e-02
10.250	19.750	4.9029e-02
10.250	20.000	5.6499e-02
10.250	20.250	6.2835e-02
10.250	20.500	5.3895e-02
10.250	20.750	3.8820e-02
10.250	21.000	2.5765e-02
10.250	21.250	1.9583e-02
10.250	21.500	1.6235e-02
10.250	21.750	1.4552e-02
10.250	22.000	1.3984e-02
10.250	22.250	1.3710e-02
10.250	22.500	1.3564e-02
10.250	22.750	1.3502e-02
10.250	23.000	1.3475e-02
10.250	23.250	1.3463e-02
10.250	23.500	1.3458e-02
10.250	23.750	1.3455e-02
10.250	24.000	1.3453e-02
10.500	17.000	1.0750e-03
10.500	17.250	1.9802e-03
10.500	17.500	3.7125e-03
10.500	17.750	6.6675e-03
10.500	18.000	1.0257e-02
10.500	18.250	1.4222e-02
10.500	18.500	1.8160e-02
10.500	18.750	2.2000e-02
10.500	19.000	2.6235e-02
10.500	19.250	3.1615e-02
10.500	19.500	3.8655e-02
10.500	19.750	4.6359e-02
10.500	20.000	5.3019e-02
10.500	20.250	5.9278e-02
10.500	20.500	6.4372e-02
10.500	20.750	5.4211e-02
10.500	21.000	3.8884e-02
10.500	21.250	2.5776e-02
10.500	21.500	1.9594e-02
10.500	21.750	1.6239e-02
10.500	22.000	1.4552e-02
10.500	22.250	1.3985e-02
10.500	22.500	1.3711e-02
10.500	22.750	1.3564e-02
10.500	23.000	1.3502e-02
10.500	23.250	1.3475e-02
10.500	23.500	1.3463e-02
10.500	23.750	1.3458e-02
10.500	24.000	1.3455e-02
10.750	17.000	6.4815e-04
10.750	17.250	1.1095e-03
10.750	17.500	2.1184e-03
10.750	17.750	4.1537e-03
10.750	18.000	7.4497e-03
10.750	18.250	1.1716e-02
10.750	18.500	1.6380e-02
10.750	18.750	2.0944e-02
10.750	19.000	2.5346e-02
10.750	19.250	3.0225e-02
10.750	19.500	3.6381e-02
10.750	19.750	4.4468e-02
10.750	20.000	5.2410e-02
10.750	20.250	5.8547e-02
10.750	20.500	6.3238e-02
10.750	20.750	6.6709e-02
10.750	21.000	5.4782e-02
10.750	21.250	3.8979e-02
10.750	21.500	2.5805e-02
10.750	21.750	1.9612e-02
10.750	22.000	1.6244e-02
10.750	22.250	1.4553e-02
10.750	22.500	1.3986e-02
10.750	22.750	1.3711e-02
10.750	23.000	1.3564e-02
10.750	23.250	1.3502e-02
10.750	23.500	1.3476e-02
10.750	23.750	1.3463e-02
10.750	24.000	1.3458e-02
11.000	17.000	4.3399e-04
11.000	17.250	6.7128e-04
11.000	17.500	1.1872e-03
11.000	17.750	2.3914e-03
11.000	18.000	4.8110e-03
11.000	18.250	8.6357e-03
11.000	18.500	1.3605e-02
11.000	18.750	1.8891e-02
11.000	19.000	2.3920e-02
11.000	19.250	2.8904e-02
11.000	19.500	3.4588e-02
11.000	19.750	4.1804e-02
11.000	20.000	5.0672e-02
11.000	20.250	5.9943e-02
11.000	20.500	6.4991e-02
11.000	20.750	6.8462e-02
11.000	21.000	6.9937e-02
11.000	21.250	5.5562e-02
11.000	21.500	3.9115e-02
11.000	21.750	2.5854e-02
11.000	22.000	1.9639e-02
11.000	22.250	1.6252e-02
11.000	22.500	1.4554e-02
11.000	22.750	1.3987e-02
11.000	23.000	1.3712e-02
11.000	23.250	1.3564e-02
11.000	23.500	1.3503e-02
11.000	23.750	1.3476e-02
11.000	24.000	1.3464e-02
11.250	17.000	3.1029e-04
11.250	17.250	4.4955e-04
11.250	17.500	7.2074e-04
11.250	17.750	1.3504e-03
11.250	18.000	2.8082e-03
11.250	18.250	5.5983e-03
11.250	18.500	9.9569e-03
11.250	18.750	1.5529e-02
11.250	19.000	2.1241e-02
11.250	19.250	2.6750e-02
11.250	19.500	3.2543e-02
11.250	19.750	3.9423e-02
11.250	20.000	4.7969e-02
11.250	20.250	5.8003e-02
11.250	20.500	6.8290e-02
11.250	20.750	7.3508e-02
11.250	21.000	7.5411e-02
11.250	21.250	7.3553e-02
11.250	21.500	5.6546e-02
11.250	21.750	3.9277e-02
11.250	22.000	2.5926e-02
11.250	22.250	1.9675e-02
11.250	22.500	1.6263e-02
11.250	22.750	1.4555e-02
11.250	23.000	1.3987e-02
11.250	23.250	1.3713e-02
11.250	23.500	1.3565e-02
11.250	23.750	1.3503e-02
11.250	24.000	1.3476e-02
11.500	17.000	2.3169e-04
11.500	17.250	3.2486e-04
11.500	17.500	4.8609e-04
11.500	17.750	8.1753e-04
11.500	18.000	1.5870e-03
11.500	18.250	3.2337e-03
11.500	18.500	6.3045e-03
11.500	18.750	1.1144e-02
11.500	19.000	1.7248e-02
11.500	19.250	2.3371e-02
11.500	19.500	2.9553e-02
11.500	19.750	3.6559e-02
11.500	20.000	4.4968e-02
11.500	20.250	5.5033e-02
11.500	20.500	6.6313e-02
11.500	20.750	7.8369e-02
11.500	21.000	8.3720e-02
11.500	21.250	8.4666e-02
11.500	21.500	7.7462e-02
11.500	21.750	5.7578e-02
11.500	22.000	3.9425e-02
11.500	22.250	2.6024e-02
11.500	22.500	1.9722e-02
11.500	22.750	1.6278e-02
11.500	23.000	1.4557e-02
11.500	23.250	1.3989e-02
11.500	23.500	1.3713e-02
11.500	23.750	1.3565e-02
11.500	24.000	1.3503e-02
11.750	17.000	1.7663e-04
11.750	17.250	2.4494e-04
11.750	17.500	3.5416e-04
11.750	17.750	5.4716e-04
11.750	18.000	9.4650e-04
11.750	18.250	1.8069e-03
11.750	18.500	3.5588e-03
11.750	18.750	6.8809e-03
11.750	19.000	1.2210e-02
11.750	19.250	1.8824e-02
11.750	19.500	2.5504e-02
11.750	19.750	3.2722e-02
11.750	20.000	4.1278e-02
11.750	20.250	5.1418e-02
11.750	20.500	6.3255e-02
11.750	20.750	7.5916e-02
11.750	21.000	9.0489e-02
11.750	21.250	9.7096e-02
11.750	21.500	9.6309e-02
11.750	21.750	8.1322e-02
11.750	22.000	5.8641e-02
11.750	22.250	3.9523e-02
11.750	22.500	2.6138e-02
11.750	22.750	1.9780e-02
11.750	23.000	1.6299e-02
11.750	23.250	1.4560e-02
11.750	23.500	1.3990e-02
11.750	23.750	1.3714e-02
11.750	24.000	1.3566e-02
12.000	17.000	1.3654e-04
12.000	17.250	1.8996e-04
12.000	17.500	2.7021e-04
12.000	17.750	3.9852e-04
12.000	18.000	6.2576e-04
12.000	18.250	1.0759e-03
12.000	18.500	1.9667e-03
12.000	18.750	3.7940e-03
12.000	19.000	7.4179e-03
12.000	19.250	1.3305e-02
12.000	19.500	2.0549e-02
12.000	19.750	2.8042e-02
12.000	20.000	3.6638e-02
12.000	20.250	4.7069e-02
12.000	20.500	5.9111e-02
12.000	20.750	7.2601e-02
12.000	21.000	8.7976e-02
12.000	21.250	1.0565e-01
12.000	21.500	1.1316e-01
12.000	21.750	1.0939e-01
12.000	22.000	8.4609e-02
12.000	22.250	5.9194e-02
12.000	22.500	3.9521e-02
12.000	22.750	2.6244e-02
12.000	23.000	1.9847e-02
12.000	23.250	1.6326e-02
12.000	23.500	1.4563e-02
12.000	23.750	1.3992e-02
12.000	24.000	1.3715e-02
12.250	17.000	1.0840e-04
12.250	17.250	1.5128e-04
12.250	17.500	2.1210e-04
12.250	17.750	3.0724e-04
12.250	18.000	4.5646e-04
12.250	18.250	7.2049e-04
12.250	18.500	1.2000e-03
12.250	18.750	2.1159e-03
12.250	19.000	4.0655e-03
12.250	19.250	8.0997e-03
12.250	19.500	1.4679e-02
12.250	19.750	2.2691e-02
12.250	20.000	3.1330e-02
12.250	20.250	4.1646e-02
12.250	20.500	5.4079e-02
12.250	20.750	6.8324e-02
12.250	21.000	8.4766e-02
12.250	21.250	1.0435e-01
12.250	21.500	1.2370e-01
12.250	21.750	1.3182e-01
12.250	22.000	1.1969e-01
12.250	22.250	8.7285e-02
12.250	22.500	5.9712e-02
12.250	22.750	3.9408e-02
12.250	23.000	2.6338e-02
12.250	23.250	1.9910e-02
12.250	23.500	1.6353e-02
12.250	23.750	1.4567e-02
12.250	24.000	1.3993e-02
12.500	17.000	8.5185e-05
12.500	17.250	1.2403e-04
12.500	17.500	1.7300e-04
12.500	17.750	2.4593e-04
12.500	18.000	3.5786e-04
12.500	18.250	5.3663e-04
12.500	18.500	8.4074e-04
12.500	18.750	1.3572e-03
12.500	19.000	2.3538e-03
12.500	19.250	4.5426e-03
12.500	19.500	9.1494e-03
12.500	19.750	1.6532e-02
12.500	20.000	2.5507e-02
12.500	20.250	3.5570e-02
12.500	20.500	4.7905e-02
12.500	20.750	6.2949e-02
12.500	21.000	8.1194e-02
12.500	21.250	1.0159e-01
12.500	21.500	1.2396e-01
12.500	21.750	1.4550e-01
12.500	22.000	1.5083e-01
12.500	22.250	1.2689e-01
12.500	22.500	8.9328e-02
12.500	22.750	6.0093e-02
12.500	23.000	3.9186e-02
12.500	23.250	2.6395e-02
12.500	23.500	1.9967e-02
12.500	23.750	1.6379e-02
12.500	24.000	1.4569e-02
12.750	17.000	6.6337e-05
12.750	17.250	9.8930e-05
12.750	17.500	1.4321e-04
12.750	17.750	2.0642e-04
12.750	18.000	2.9663e-04
12.750	18.250	4.3292e-04
12.750	18.500	6.5309e-04
12.750	18.750	1.0086e-03
12.750	19.000	1.5974e-03
12.750	19.250	2.7505e-03
12.750	19.500	5.3025e-03
12.750	19.750	1.0574e-02
12.750	20.000	1.8780e-02
12.750	20.250	2.9148e-02
12.750	20.500	4.0796e-02
12.750	20.750	5.5959e-02
12.750	21.000	7.4828e-02
12.750	21.250	9.8330e-02
12.750	21.500	1.2088e-01
12.750	21.750	1.4678e-01
12.750	22.000	1.6974e-01
12.750	22.250	1.6814e-01
12.750	22.500	1.3283e-01
12.750	22.750	9.0901e-02
12.750	23.000	5.9982e-02
12.750	23.250	3.8877e-02
12.750	23.500	2.6411e-02
12.750	23.750	2.0014e-02
12.750	24.000	1.6402e-02
13.000	17.000	5.0947e-05
13.000	17.250	7.8519e-05
13.000	17.500	1.1778e-04
13.000	17.750	1.7152e-04
13.000	18.000	2.5037e-04
13.000	18.250	3.6790e-04
13.000	18.500	5.4856e-04
13.000	18.750	8.2642e-04
13.000	19.000	1.2620e-03
13.000	19.250	1.9834e-03
13.000	19.500	3.3664e-03
13.000	19.750	6.3390e-03
13.000	20.000	1.2169e-02
13.000	20.250	2.1330e-02
13.000	20.500	3.3324e-02
13.000	20.750	4.7578e-02
13.000	21.000	6.6634e-02
13.000	21.250	9.0542e-02
13.000	21.500	1.1715e-01
13.000	21.750	1.4491e-01
13.000	22.000	1.7520e-01
13.000	22.250	1.9396e-01
13.000	22.500	1.8249e-01
13.000	22.750	1.3796e-01
13.000	23.000	9.2581e-02
13.000	23.250	5.9354e-02
13.000	23.500	3.8486e-02
13.000	23.750	2.6371e-02
13.000	24.000	2.0039e-02
13.250	17.000	3.8765e-05
13.250	17.250	6.1235e-05
13.250	17.500	9.5802e-05
13.250	17.750	1.4337e-04
13.250	18.000	2.1300e-04
13.250	18.250	3.2016e-04
13.250	18.500	4.8272e-04
13.250	18.750	7.2675e-04
13.250	19.000	1.0878e-03
13.250	19.250	1.6437e-03
13.250	19.500	2.5616e-03
13.250	19.750	4.2343e-03
13.250	20.000	7.6058e-03
13.250	20.250	1.3876e-02
13.250	20.500	2.3984e-02
13.250	20.750	3.7721e-02
13.250	21.000	5.5834e-02
13.250	21.250	7.7604e-02
13.250	21.500	1.0373e-01
13.250	21.750	1.3245e-01
13.250	22.000	1.7067e-01
13.250	22.250	1.9509e-01
13.250	22.500	2.1318e-01
13.250	22.750	1.9468e-01
13.250	23.000	1.4213e-01
13.250	23.250	9.2999e-02
13.250	23.500	5.8816e-02
13.250	23.750	3.8050e-02
13.250	24.000	2.6293e-02
13.500	17.000	2.8807e-05
13.500	17.250	4.7160e-05
13.500	17.500	7.7119e-05
13.500	17.750	1.1926e-04
13.500	18.000	1.8239e-04
13.500	18.250	2.7975e-04
13.500	18.500	4.3342e-04
13.500	18.750	6.6510e-04
13.500	19.000	1.0021e-03
13.500	19.250	1.4895e-03
13.500	19.500	2.2333e-03
13.500	19.750	3.4365e-03
13.500	20.000	5.5188e-03
13.500	20.250	9.4258e-03
13.500	20.500	1.6237e-02
13.500	20.750	2.6901e-02
13.500	21.000	4.1407e-02
13.500	21.250	6.1526e-02
13.500	21.500	8.3180e-02
13.500	21.750	1.1280e-01
13.500	22.000	1.4600e-01
13.500	22.250	1.8756e-01
13.500	22.500	2.1910e-01
13.500	22.750	2.3294e-01
13.500	23.000	2.0557e-01
13.500	23.250	1.4479e-01
13.500	23.500	9.2924e-02
13.500	23.750	5.8272e-02
13.500	24.000	3.7586e-02
13.750	17.000	2.1811e-05
13.750	17.250	3.5720e-05
13.750	17.500	6.1399e-05
13.750	17.750	9.8683e-05
13.750	18.000	1.5638e-04
13.750	18.250	2.4658e-04
13.750	18.500	3.8938e-04
13.750	18.750	6.1251e-04
13.750	19.000	9.4749e-04
13.750	19.250	1.4244e-03
13.750	19.500	2.1084e-03
13.750	19.750	3.1429e-03
13.750	20.000	4.7957e-03
13.750	20.250	7.5174e-03
13.750	20.500	1.2153e-02
13.750	20.750	1.9801e-02
13.750	21.000	3.1286e-02
13.750	21.250	4.6623e-02
13.750	21.500	6.6280e-02
13.750	21.750	9.0839e-02
13.750	22.000	1.2245e-01
13.750	22.250	1.6383e-01
13.750	22.500	2.1558e-01
13.750	22.750	2.4699e-01
13.750	23.000	2.5333e-01
13.750	23.250	2.1561e-01
13.750	23.500	1.4720e-01
13.750	23.750	9.2487e-02
13.750	24.000	5.7449e-02
14.000	17.000	1.6626e-05
14.000	17.250	2.7737e-05
14.000	17.500	4.6337e-05
14.000	17.750	8.1317e-05
14.000	18.000	1.3383e-04
14.000	18.250	2.1811e-04
14.000	18.500	3.5333e-04
14.000	18.750	5.6609e-04
14.000	19.000	8.9218e-04
14.000	19.250	1.3774e-03
14.000	19.500	2.0641e-03
14.000	19.750	3.0456e-03
14.000	20.000	4.5105e-03
14.000	20.250	6.7900e-03
14.000	20.500	1.0431e-02
14.000	20.750	1.6211e-02
14.000	21.000	2.5192e-02
14.000	21.250	3.8379e-02
14.000	21.500	5.4795e-02
14.000	21.750	7.6291e-02
14.000	22.000	1.0360e-01
14.000	22.250	1.4086e-01
14.000	22.500	1.9234e-01
14.000	22.750	2.5285e-01
14.000	23.000	2.8647e-01
14.000	23.250	2.7670e-01
14.000	23.500	2.2560e-01
14.000	23.750	1.4854e-01
14.000	24.000	9.1809e-02
