nFnu 1356.96A  relative to Inci 1215.00A scaled to 1215A.
Hden   Phi(H)  Eq_Width (A)
 7.000	17.000	4.9684e-02
 7.000	17.250	3.7049e-02
 7.000	17.500	2.8035e-02
 7.000	17.750	2.2006e-02
 7.000	18.000	1.8456e-02
 7.000	18.250	1.6422e-02
 7.000	18.500	1.5232e-02
 7.000	18.750	1.4688e-02
 7.000	19.000	1.4405e-02
 7.000	19.250	1.4247e-02
 7.000	19.500	1.4180e-02
 7.000	19.750	1.4152e-02
 7.000	20.000	1.4140e-02
 7.000	20.250	1.4135e-02
 7.000	20.500	1.4132e-02
 7.000	20.750	1.4130e-02
 7.000	21.000	1.4130e-02
 7.000	21.250	1.4129e-02
 7.000	21.500	1.4129e-02
 7.000	21.750	1.4129e-02
 7.000	22.000	1.4129e-02
 7.000	22.250	1.4129e-02
 7.000	22.500	1.4129e-02
 7.000	22.750	1.4130e-02
 7.000	23.000	1.4130e-02
 7.000	23.250	1.4129e-02
 7.000	23.500	1.4130e-02
 7.000	23.750	1.4130e-02
 7.000	24.000	1.4131e-02
 7.250	17.000	5.3486e-02
 7.250	17.250	4.9461e-02
 7.250	17.500	3.6921e-02
 7.250	17.750	2.7969e-02
 7.250	18.000	2.1970e-02
 7.250	18.250	1.8438e-02
 7.250	18.500	1.6414e-02
 7.250	18.750	1.5229e-02
 7.250	19.000	1.4687e-02
 7.250	19.250	1.4405e-02
 7.250	19.500	1.4246e-02
 7.250	19.750	1.4180e-02
 7.250	20.000	1.4152e-02
 7.250	20.250	1.4140e-02
 7.250	20.500	1.4134e-02
 7.250	20.750	1.4132e-02
 7.250	21.000	1.4130e-02
 7.250	21.250	1.4129e-02
 7.250	21.500	1.4129e-02
 7.250	21.750	1.4129e-02
 7.250	22.000	1.4129e-02
 7.250	22.250	1.4129e-02
 7.250	22.500	1.4129e-02
 7.250	22.750	1.4129e-02
 7.250	23.000	1.4129e-02
 7.250	23.250	1.4129e-02
 7.250	23.500	1.4129e-02
 7.250	23.750	1.4129e-02
 7.250	24.000	1.4129e-02
 7.500	17.000	5.9987e-02
 7.500	17.250	5.2760e-02
 7.500	17.500	4.9341e-02
 7.500	17.750	3.6848e-02
 7.500	18.000	2.7931e-02
 7.500	18.250	2.1948e-02
 7.500	18.500	1.8426e-02
 7.500	18.750	1.6408e-02
 7.500	19.000	1.5227e-02
 7.500	19.250	1.4686e-02
 7.500	19.500	1.4404e-02
 7.500	19.750	1.4246e-02
 7.500	20.000	1.4180e-02
 7.500	20.250	1.4152e-02
 7.500	20.500	1.4140e-02
 7.500	20.750	1.4134e-02
 7.500	21.000	1.4132e-02
 7.500	21.250	1.4130e-02
 7.500	21.500	1.4129e-02
 7.500	21.750	1.4129e-02
 7.500	22.000	1.4129e-02
 7.500	22.250	1.4129e-02
 7.500	22.500	1.4129e-02
 7.500	22.750	1.4129e-02
 7.500	23.000	1.4129e-02
 7.500	23.250	1.4129e-02
 7.500	23.500	1.4130e-02
 7.500	23.750	1.4129e-02
 7.500	24.000	1.4129e-02
 7.750	17.000	6.4108e-02
 7.750	17.250	5.8193e-02
 7.750	17.500	5.2185e-02
 7.750	17.750	4.9273e-02
 7.750	18.000	3.6809e-02
 7.750	18.250	2.7912e-02
 7.750	18.500	2.1933e-02
 7.750	18.750	1.8418e-02
 7.750	19.000	1.6405e-02
 7.750	19.250	1.5226e-02
 7.750	19.500	1.4686e-02
 7.750	19.750	1.4404e-02
 7.750	20.000	1.4246e-02
 7.750	20.250	1.4180e-02
 7.750	20.500	1.4152e-02
 7.750	20.750	1.4140e-02
 7.750	21.000	1.4134e-02
 7.750	21.250	1.4132e-02
 7.750	21.500	1.4130e-02
 7.750	21.750	1.4129e-02
 7.750	22.000	1.4129e-02
 7.750	22.250	1.4129e-02
 7.750	22.500	1.4129e-02
 7.750	22.750	1.4129e-02
 7.750	23.000	1.4128e-02
 7.750	23.250	1.4128e-02
 7.750	23.500	1.4129e-02
 7.750	23.750	1.4129e-02
 7.750	24.000	1.4128e-02
 8.000	17.000	6.6542e-02
 8.000	17.250	6.1868e-02
 8.000	17.500	5.6492e-02
 8.000	17.750	5.1545e-02
 8.000	18.000	4.9237e-02
 8.000	18.250	3.6790e-02
 8.000	18.500	2.7905e-02
 8.000	18.750	2.1924e-02
 8.000	19.000	1.8413e-02
 8.000	19.250	1.6403e-02
 8.000	19.500	1.5225e-02
 8.000	19.750	1.4685e-02
 8.000	20.000	1.4404e-02
 8.000	20.250	1.4246e-02
 8.000	20.500	1.4180e-02
 8.000	20.750	1.4152e-02
 8.000	21.000	1.4140e-02
 8.000	21.250	1.4134e-02
 8.000	21.500	1.4132e-02
 8.000	21.750	1.4130e-02
 8.000	22.000	1.4129e-02
 8.000	22.250	1.4129e-02
 8.000	22.500	1.4129e-02
 8.000	22.750	1.4128e-02
 8.000	23.000	1.4128e-02
 8.000	23.250	1.4128e-02
 8.000	23.500	1.4128e-02
 8.000	23.750	1.4128e-02
 8.000	24.000	1.4129e-02
 8.250	17.000	6.8094e-02
 8.250	17.250	6.4815e-02
 8.250	17.500	6.0428e-02
 8.250	17.750	5.5492e-02
 8.250	18.000	5.1228e-02
 8.250	18.250	4.9206e-02
 8.250	18.500	3.6782e-02
 8.250	18.750	2.7904e-02
 8.250	19.000	2.1917e-02
 8.250	19.250	1.8408e-02
 8.250	19.500	1.6401e-02
 8.250	19.750	1.5224e-02
 8.250	20.000	1.4685e-02
 8.250	20.250	1.4404e-02
 8.250	20.500	1.4246e-02
 8.250	20.750	1.4180e-02
 8.250	21.000	1.4152e-02
 8.250	21.250	1.4140e-02
 8.250	21.500	1.4134e-02
 8.250	21.750	1.4132e-02
 8.250	22.000	1.4130e-02
 8.250	22.250	1.4129e-02
 8.250	22.500	1.4129e-02
 8.250	22.750	1.4129e-02
 8.250	23.000	1.4128e-02
 8.250	23.250	1.4129e-02
 8.250	23.500	1.4129e-02
 8.250	23.750	1.4128e-02
 8.250	24.000	1.4129e-02
 8.500	17.000	6.8868e-02
 8.500	17.250	6.6723e-02
 8.500	17.500	6.3604e-02
 8.500	17.750	5.9474e-02
 8.500	18.000	5.4827e-02
 8.500	18.250	5.0991e-02
 8.500	18.500	4.9175e-02
 8.500	18.750	3.6781e-02
 8.500	19.000	2.7908e-02
 8.500	19.250	2.1911e-02
 8.500	19.500	1.8405e-02
 8.500	19.750	1.6400e-02
 8.500	20.000	1.5224e-02
 8.500	20.250	1.4685e-02
 8.500	20.500	1.4404e-02
 8.500	20.750	1.4246e-02
 8.500	21.000	1.4180e-02
 8.500	21.250	1.4152e-02
 8.500	21.500	1.4140e-02
 8.500	21.750	1.4134e-02
 8.500	22.000	1.4132e-02
 8.500	22.250	1.4130e-02
 8.500	22.500	1.4129e-02
 8.500	22.750	1.4129e-02
 8.500	23.000	1.4129e-02
 8.500	23.250	1.4128e-02
 8.500	23.500	1.4128e-02
 8.500	23.750	1.4128e-02
 8.500	24.000	1.4128e-02
 8.750	17.000	6.9182e-02
 8.750	17.250	6.7892e-02
 8.750	17.500	6.5803e-02
 8.750	17.750	6.2657e-02
 8.750	18.000	5.8705e-02
 8.750	18.250	5.4354e-02
 8.750	18.500	5.0856e-02
 8.750	18.750	4.9136e-02
 8.750	19.000	3.6783e-02
 8.750	19.250	2.7914e-02
 8.750	19.500	2.1906e-02
 8.750	19.750	1.8402e-02
 8.750	20.000	1.6399e-02
 8.750	20.250	1.5223e-02
 8.750	20.500	1.4685e-02
 8.750	20.750	1.4404e-02
 8.750	21.000	1.4246e-02
 8.750	21.250	1.4180e-02
 8.750	21.500	1.4152e-02
 8.750	21.750	1.4140e-02
 8.750	22.000	1.4134e-02
 8.750	22.250	1.4132e-02
 8.750	22.500	1.4130e-02
 8.750	22.750	1.4129e-02
 8.750	23.000	1.4129e-02
 8.750	23.250	1.4129e-02
 8.750	23.500	1.4129e-02
 8.750	23.750	1.4128e-02
 8.750	24.000	1.4128e-02
 9.000	17.000	6.9090e-02
 9.000	17.250	6.8553e-02
 9.000	17.500	6.7279e-02
 9.000	17.750	6.5108e-02
 9.000	18.000	6.1888e-02
 9.000	18.250	5.7954e-02
 9.000	18.500	5.3953e-02
 9.000	18.750	5.0748e-02
 9.000	19.000	4.9092e-02
 9.000	19.250	3.6783e-02
 9.000	19.500	2.7921e-02
 9.000	19.750	2.1901e-02
 9.000	20.000	1.8399e-02
 9.000	20.250	1.6398e-02
 9.000	20.500	1.5223e-02
 9.000	20.750	1.4685e-02
 9.000	21.000	1.4404e-02
 9.000	21.250	1.4246e-02
 9.000	21.500	1.4180e-02
 9.000	21.750	1.4152e-02
 9.000	22.000	1.4140e-02
 9.000	22.250	1.4134e-02
 9.000	22.500	1.4132e-02
 9.000	22.750	1.4130e-02
 9.000	23.000	1.4129e-02
 9.000	23.250	1.4129e-02
 9.000	23.500	1.4129e-02
 9.000	23.750	1.4128e-02
 9.000	24.000	1.4128e-02
 9.250	17.000	6.8517e-02
 9.250	17.250	6.8684e-02
 9.250	17.500	6.8211e-02
 9.250	17.750	6.6832e-02
 9.250	18.000	6.4379e-02
 9.250	18.250	6.0903e-02
 9.250	18.500	5.7085e-02
 9.250	18.750	5.3354e-02
 9.250	19.000	5.0628e-02
 9.250	19.250	4.9035e-02
 9.250	19.500	3.6777e-02
 9.250	19.750	2.7927e-02
 9.250	20.000	2.1896e-02
 9.250	20.250	1.8397e-02
 9.250	20.500	1.6397e-02
 9.250	20.750	1.5223e-02
 9.250	21.000	1.4685e-02
 9.250	21.250	1.4404e-02
 9.250	21.500	1.4245e-02
 9.250	21.750	1.4179e-02
 9.250	22.000	1.4150e-02
 9.250	22.250	1.4139e-02
 9.250	22.500	1.4134e-02
 9.250	22.750	1.4131e-02
 9.250	23.000	1.4130e-02
 9.250	23.250	1.4129e-02
 9.250	23.500	1.4129e-02
 9.250	23.750	1.4129e-02
 9.250	24.000	1.4128e-02
 9.500	17.000	6.7390e-02
 9.500	17.250	6.8198e-02
 9.500	17.500	6.8524e-02
 9.500	17.750	6.8029e-02
 9.500	18.000	6.6317e-02
 9.500	18.250	6.3361e-02
 9.500	18.500	5.9651e-02
 9.500	18.750	5.6047e-02
 9.500	19.000	5.2744e-02
 9.500	19.250	5.0475e-02
 9.500	19.500	4.8973e-02
 9.500	19.750	3.6764e-02
 9.500	20.000	2.7932e-02
 9.500	20.250	2.1892e-02
 9.500	20.500	1.8395e-02
 9.500	20.750	1.6396e-02
 9.500	21.000	1.5221e-02
 9.500	21.250	1.4683e-02
 9.500	21.500	1.4402e-02
 9.500	21.750	1.4244e-02
 9.500	22.000	1.4178e-02
 9.500	22.250	1.4150e-02
 9.500	22.500	1.4138e-02
 9.500	22.750	1.4132e-02
 9.500	23.000	1.4129e-02
 9.500	23.250	1.4128e-02
 9.500	23.500	1.4127e-02
 9.500	23.750	1.4126e-02
 9.500	24.000	1.4126e-02
 9.750	17.000	6.5733e-02
 9.750	17.250	6.6975e-02
 9.750	17.500	6.8029e-02
 9.750	17.750	6.8443e-02
 9.750	18.000	6.7661e-02
 9.750	18.250	6.5564e-02
 9.750	18.500	6.2298e-02
 9.750	18.750	5.8571e-02
 9.750	19.000	5.5123e-02
 9.750	19.250	5.1961e-02
 9.750	19.500	5.0232e-02
 9.750	19.750	4.8905e-02
 9.750	20.000	3.6744e-02
 9.750	20.250	2.7934e-02
 9.750	20.500	2.1889e-02
 9.750	20.750	1.8393e-02
 9.750	21.000	1.6396e-02
 9.750	21.250	1.5221e-02
 9.750	21.500	1.4683e-02
 9.750	21.750	1.4403e-02
 9.750	22.000	1.4244e-02
 9.750	22.250	1.4178e-02
 9.750	22.500	1.4150e-02
 9.750	22.750	1.4138e-02
 9.750	23.000	1.4132e-02
 9.750	23.250	1.4129e-02
 9.750	23.500	1.4128e-02
 9.750	23.750	1.4127e-02
 9.750	24.000	1.4126e-02
10.000	17.000	6.3634e-02
10.000	17.250	6.5072e-02
10.000	17.500	6.6626e-02
10.000	17.750	6.7943e-02
10.000	18.000	6.8288e-02
10.000	18.250	6.7337e-02
10.000	18.500	6.4825e-02
10.000	18.750	6.1373e-02
10.000	19.000	5.7746e-02
10.000	19.250	5.5304e-02
10.000	19.500	5.1421e-02
10.000	19.750	5.0040e-02
10.000	20.000	4.8862e-02
10.000	20.250	3.6721e-02
10.000	20.500	2.7934e-02
10.000	20.750	2.1886e-02
10.000	21.000	1.8392e-02
10.000	21.250	1.6396e-02
10.000	21.500	1.5221e-02
10.000	21.750	1.4684e-02
10.000	22.000	1.4403e-02
10.000	22.250	1.4245e-02
10.000	22.500	1.4178e-02
10.000	22.750	1.4150e-02
10.000	23.000	1.4138e-02
10.000	23.250	1.4132e-02
10.000	23.500	1.4129e-02
10.000	23.750	1.4128e-02
10.000	24.000	1.4127e-02
10.250	17.000	6.1800e-02
10.250	17.250	6.2766e-02
10.250	17.500	6.4547e-02
10.250	17.750	6.6460e-02
10.250	18.000	6.7932e-02
10.250	18.250	6.8194e-02
10.250	18.500	6.6768e-02
10.250	18.750	6.3950e-02
10.250	19.000	6.0409e-02
10.250	19.250	5.6891e-02
10.250	19.500	5.5560e-02
10.250	19.750	5.1203e-02
10.250	20.000	4.9820e-02
10.250	20.250	4.8838e-02
10.250	20.500	3.6697e-02
10.250	20.750	2.7932e-02
10.250	21.000	2.1885e-02
10.250	21.250	1.8392e-02
10.250	21.500	1.6395e-02
10.250	21.750	1.5221e-02
10.250	22.000	1.4684e-02
10.250	22.250	1.4403e-02
10.250	22.500	1.4245e-02
10.250	22.750	1.4178e-02
10.250	23.000	1.4150e-02
10.250	23.250	1.4138e-02
10.250	23.500	1.4132e-02
10.250	23.750	1.4129e-02
10.250	24.000	1.4128e-02
10.500	17.000	6.0418e-02
10.500	17.250	6.0822e-02
10.500	17.500	6.2148e-02
10.500	17.750	6.4359e-02
10.500	18.000	6.6470e-02
10.500	18.250	6.7579e-02
10.500	18.500	6.7289e-02
10.500	18.750	6.5441e-02
10.500	19.000	6.2547e-02
10.500	19.250	5.9332e-02
10.500	19.500	5.6693e-02
10.500	19.750	5.5683e-02
10.500	20.000	5.1682e-02
10.500	20.250	5.0009e-02
10.500	20.500	4.8948e-02
10.500	20.750	3.6680e-02
10.500	21.000	2.7928e-02
10.500	21.250	2.1885e-02
10.500	21.500	1.8393e-02
10.500	21.750	1.6396e-02
10.500	22.000	1.5221e-02
10.500	22.250	1.4684e-02
10.500	22.500	1.4403e-02
10.500	22.750	1.4245e-02
10.500	23.000	1.4178e-02
10.500	23.250	1.4150e-02
10.500	23.500	1.4138e-02
10.500	23.750	1.4132e-02
10.500	24.000	1.4129e-02
10.750	17.000	5.9596e-02
10.750	17.250	5.9540e-02
10.750	17.500	6.0271e-02
10.750	17.750	6.2031e-02
10.750	18.000	6.4007e-02
10.750	18.250	6.5399e-02
10.750	18.500	6.5844e-02
10.750	18.750	6.5144e-02
10.750	19.000	6.3581e-02
10.750	19.250	6.1276e-02
10.750	19.500	5.8644e-02
10.750	19.750	5.6369e-02
10.750	20.000	5.6030e-02
10.750	20.250	5.3538e-02
10.750	20.500	5.0906e-02
10.750	20.750	4.9226e-02
10.750	21.000	3.6688e-02
10.750	21.250	2.7924e-02
10.750	21.500	2.1885e-02
10.750	21.750	1.8394e-02
10.750	22.000	1.6396e-02
10.750	22.250	1.5221e-02
10.750	22.500	1.4685e-02
10.750	22.750	1.4403e-02
10.750	23.000	1.4245e-02
10.750	23.250	1.4179e-02
10.750	23.500	1.4150e-02
10.750	23.750	1.4138e-02
10.750	24.000	1.4132e-02
11.000	17.000	5.9234e-02
11.000	17.250	5.8972e-02
11.000	17.500	5.9169e-02
11.000	17.750	5.9868e-02
11.000	18.000	6.0927e-02
11.000	18.250	6.1934e-02
11.000	18.500	6.2774e-02
11.000	18.750	6.3250e-02
11.000	19.000	6.3141e-02
11.000	19.250	6.2160e-02
11.000	19.500	6.0334e-02
11.000	19.750	5.7829e-02
11.000	20.000	5.5698e-02
11.000	20.250	5.8402e-02
11.000	20.500	5.4772e-02
11.000	20.750	5.2378e-02
11.000	21.000	4.9722e-02
11.000	21.250	3.6753e-02
11.000	21.500	2.7920e-02
11.000	21.750	2.1887e-02
11.000	22.000	1.8397e-02
11.000	22.250	1.6397e-02
11.000	22.500	1.5221e-02
11.000	22.750	1.4685e-02
11.000	23.000	1.4404e-02
11.000	23.250	1.4245e-02
11.000	23.500	1.4179e-02
11.000	23.750	1.4151e-02
11.000	24.000	1.4138e-02
11.250	17.000	5.9274e-02
11.250	17.250	5.8941e-02
11.250	17.500	5.8560e-02
11.250	17.750	5.8137e-02
11.250	18.000	5.7885e-02
11.250	18.250	5.8001e-02
11.250	18.500	5.8883e-02
11.250	18.750	6.0196e-02
11.250	19.000	6.1338e-02
11.250	19.250	6.1647e-02
11.250	19.500	6.1024e-02
11.250	19.750	5.9515e-02
11.250	20.000	5.7255e-02
11.250	20.250	5.7369e-02
11.250	20.500	6.0361e-02
11.250	20.750	5.7773e-02
11.250	21.000	5.4947e-02
11.250	21.250	5.0463e-02
11.250	21.500	3.6890e-02
11.250	21.750	2.7919e-02
11.250	22.000	2.1889e-02
11.250	22.250	1.8400e-02
11.250	22.500	1.6398e-02
11.250	22.750	1.5221e-02
11.250	23.000	1.4685e-02
11.250	23.250	1.4404e-02
11.250	23.500	1.4245e-02
11.250	23.750	1.4179e-02
11.250	24.000	1.4151e-02
11.500	17.000	5.9704e-02
11.500	17.250	5.9181e-02
11.500	17.500	5.8181e-02
11.500	17.750	5.6796e-02
11.500	18.000	5.5317e-02
11.500	18.250	5.4464e-02
11.500	18.500	5.4877e-02
11.500	18.750	5.6422e-02
11.500	19.000	5.8497e-02
11.500	19.250	5.9973e-02
11.500	19.500	6.0605e-02
11.500	19.750	6.0371e-02
11.500	20.000	5.9269e-02
11.500	20.250	5.7300e-02
11.500	20.500	5.9519e-02
11.500	20.750	6.3753e-02
11.500	21.000	6.1811e-02
11.500	21.250	5.9186e-02
11.500	21.500	5.1334e-02
11.500	21.750	3.7102e-02
11.500	22.000	2.7924e-02
11.500	22.250	2.1892e-02
11.500	22.500	1.8403e-02
11.500	22.750	1.6399e-02
11.500	23.000	1.5220e-02
11.500	23.250	1.4685e-02
11.500	23.500	1.4404e-02
11.500	23.750	1.4246e-02
11.500	24.000	1.4179e-02
11.750	17.000	6.0471e-02
11.750	17.250	5.9440e-02
11.750	17.500	5.7807e-02
11.750	17.750	5.5607e-02
11.750	18.000	5.3309e-02
11.750	18.250	5.1819e-02
11.750	18.500	5.1572e-02
11.750	18.750	5.2785e-02
11.750	19.000	5.5026e-02
11.750	19.250	5.7472e-02
11.750	19.500	5.9148e-02
11.750	19.750	6.0129e-02
11.750	20.000	6.0404e-02
11.750	20.250	5.9777e-02
11.750	20.500	5.8312e-02
11.750	20.750	6.2156e-02
11.750	21.000	6.8796e-02
11.750	21.250	6.8455e-02
11.750	21.500	6.5493e-02
11.750	21.750	5.2198e-02
11.750	22.000	3.7377e-02
11.750	22.250	2.7936e-02
11.750	22.500	2.1895e-02
11.750	22.750	1.8407e-02
11.750	23.000	1.6401e-02
11.750	23.250	1.5220e-02
11.750	23.500	1.4685e-02
11.750	23.750	1.4405e-02
11.750	24.000	1.4246e-02
12.000	17.000	6.1280e-02
12.000	17.250	5.9564e-02
12.000	17.500	5.7177e-02
12.000	17.750	5.4297e-02
12.000	18.000	5.1728e-02
12.000	18.250	4.9962e-02
12.000	18.500	4.9353e-02
12.000	18.750	4.9909e-02
12.000	19.000	5.1653e-02
12.000	19.250	5.4348e-02
12.000	19.500	5.7037e-02
12.000	19.750	5.8994e-02
12.000	20.000	6.0430e-02
12.000	20.250	6.1340e-02
12.000	20.500	6.1319e-02
12.000	20.750	6.0654e-02
12.000	21.000	6.7325e-02
12.000	21.250	7.6387e-02
12.000	21.500	7.7489e-02
12.000	21.750	7.3192e-02
12.000	22.000	5.3050e-02
12.000	22.250	3.7553e-02
12.000	22.500	2.7954e-02
12.000	22.750	2.1897e-02
12.000	23.000	1.8411e-02
12.000	23.250	1.6403e-02
12.000	23.500	1.5219e-02
12.000	23.750	1.4685e-02
12.000	24.000	1.4405e-02
12.250	17.000	6.1745e-02
12.250	17.250	5.9180e-02
12.250	17.500	5.5992e-02
12.250	17.750	5.2743e-02
12.250	18.000	5.0230e-02
12.250	18.250	4.8669e-02
12.250	18.500	4.8036e-02
12.250	18.750	4.8159e-02
12.250	19.000	4.9152e-02
12.250	19.250	5.1308e-02
12.250	19.500	5.4316e-02
12.250	19.750	5.7280e-02
12.250	20.000	5.9619e-02
12.250	20.250	6.1667e-02
12.250	20.500	6.3252e-02
12.250	20.750	6.4241e-02
12.250	21.000	6.5905e-02
12.250	21.250	7.6557e-02
12.250	21.500	8.6776e-02
12.250	21.750	8.8714e-02
12.250	22.000	7.8017e-02
12.250	22.250	5.3765e-02
12.250	22.500	3.7807e-02
12.250	22.750	2.7971e-02
12.250	23.000	2.1898e-02
12.250	23.250	1.8414e-02
12.250	23.500	1.6405e-02
12.250	23.750	1.5218e-02
12.250	24.000	1.4684e-02
12.500	17.000	6.0799e-02
12.500	17.250	5.7494e-02
12.500	17.500	5.3881e-02
12.500	17.750	5.0810e-02
12.500	18.000	4.8735e-02
12.500	18.250	4.7622e-02
12.500	18.500	4.7200e-02
12.500	18.750	4.7296e-02
12.500	19.000	4.7858e-02
12.500	19.250	4.9180e-02
12.500	19.500	5.1655e-02
12.500	19.750	5.4978e-02
12.500	20.000	5.8274e-02
12.500	20.250	6.1106e-02
12.500	20.500	6.3896e-02
12.500	20.750	6.6857e-02
12.500	21.000	7.0638e-02
12.500	21.250	7.5271e-02
12.500	21.500	8.8958e-02
12.500	21.750	1.0035e-01
12.500	22.000	1.0075e-01
12.500	22.250	8.0166e-02
12.500	22.500	5.4394e-02
12.500	22.750	3.8129e-02
12.500	23.000	2.7984e-02
12.500	23.250	2.1898e-02
12.500	23.500	1.8417e-02
12.500	23.750	1.6407e-02
12.500	24.000	1.5217e-02
12.750	17.000	5.5974e-02
12.750	17.250	5.3628e-02
12.750	17.500	5.0838e-02
12.750	17.750	4.8760e-02
12.750	18.000	4.7350e-02
12.750	18.250	4.6628e-02
12.750	18.500	4.6492e-02
12.750	18.750	4.6765e-02
12.750	19.000	4.7321e-02
12.750	19.250	4.8227e-02
12.750	19.500	4.9873e-02
12.750	19.750	5.2660e-02
12.750	20.000	5.6242e-02
12.750	20.250	6.0175e-02
12.750	20.500	6.3618e-02
12.750	20.750	6.7834e-02
12.750	21.000	7.3202e-02
12.750	21.250	8.1484e-02
12.750	21.500	8.8795e-02
12.750	21.750	1.0419e-01
12.750	22.000	1.1638e-01
12.750	22.250	1.1153e-01
12.750	22.500	8.1962e-02
12.750	22.750	5.5016e-02
12.750	23.000	3.8333e-02
12.750	23.250	2.7988e-02
12.750	23.500	2.1894e-02
12.750	23.750	1.8419e-02
12.750	24.000	1.6409e-02
13.000	17.000	1.7907e-02
13.000	17.250	2.6335e-02
13.000	17.500	4.7967e-02
13.000	17.750	4.6964e-02
13.000	18.000	4.6047e-02
13.000	18.250	4.5641e-02
13.000	18.500	4.5734e-02
13.000	18.750	4.6222e-02
13.000	19.000	4.6996e-02
13.000	19.250	4.7963e-02
13.000	19.500	4.9230e-02
13.000	19.750	5.1207e-02
13.000	20.000	5.4223e-02
13.000	20.250	5.8234e-02
13.000	20.500	6.2987e-02
13.000	20.750	6.7832e-02
13.000	21.000	7.4717e-02
13.000	21.250	8.3777e-02
13.000	21.500	9.4076e-02
13.000	21.750	1.0646e-01
13.000	22.000	1.2526e-01
13.000	22.250	1.3241e-01
13.000	22.500	1.1905e-01
13.000	22.750	8.3688e-02
13.000	23.000	5.5917e-02
13.000	23.250	3.8360e-02
13.000	23.500	2.7987e-02
13.000	23.750	2.1886e-02
13.000	24.000	1.8419e-02
13.250	17.000	1.2619e-02
13.250	17.250	1.7613e-02
13.250	17.500	3.1622e-02
13.250	17.750	4.3385e-02
13.250	18.000	4.4799e-02
13.250	18.250	4.4634e-02
13.250	18.500	4.4892e-02
13.250	18.750	4.5562e-02
13.250	19.000	4.6539e-02
13.250	19.250	4.7736e-02
13.250	19.500	4.9130e-02
13.250	19.750	5.0828e-02
13.250	20.000	5.3184e-02
13.250	20.250	5.6474e-02
13.250	20.500	6.1010e-02
13.250	20.750	6.6777e-02
13.250	21.000	7.4265e-02
13.250	21.250	8.2890e-02
13.250	21.500	9.3508e-02
13.250	21.750	1.0442e-01
13.250	22.000	1.2547e-01
13.250	22.250	1.3633e-01
13.250	22.500	1.4319e-01
13.250	22.750	1.2364e-01
13.250	23.000	8.5285e-02
13.250	23.250	5.6435e-02
13.250	23.500	3.8471e-02
13.250	23.750	2.7978e-02
13.250	24.000	2.1875e-02
13.500	17.000	9.3912e-03
13.500	17.250	1.2896e-02
13.500	17.500	2.0830e-02
13.500	17.750	3.2305e-02
13.500	18.000	4.3032e-02
13.500	18.250	4.3408e-02
13.500	18.500	4.3882e-02
13.500	18.750	4.4737e-02
13.500	19.000	4.5906e-02
13.500	19.250	4.7321e-02
13.500	19.500	4.8943e-02
13.500	19.750	5.0823e-02
13.500	20.000	5.3120e-02
13.500	20.250	5.6176e-02
13.500	20.500	5.9886e-02
13.500	20.750	6.4713e-02
13.500	21.000	7.0691e-02
13.500	21.250	7.9195e-02
13.500	21.500	8.5963e-02
13.500	21.750	9.7704e-02
13.500	22.000	1.1239e-01
13.500	22.250	1.3552e-01
13.500	22.500	1.4660e-01
13.500	22.750	1.5112e-01
13.500	23.000	1.2698e-01
13.500	23.250	8.6498e-02
13.500	23.500	5.6812e-02
13.500	23.750	3.8666e-02
13.500	24.000	2.7963e-02
13.750	17.000	7.4806e-03
13.750	17.250	9.9459e-03
13.750	17.500	1.5193e-02
13.750	17.750	2.3295e-02
13.750	18.000	3.4603e-02
13.750	18.250	3.9909e-02
13.750	18.500	4.2605e-02
13.750	18.750	4.3608e-02
13.750	19.000	4.5001e-02
13.750	19.250	4.6679e-02
13.750	19.500	4.8565e-02
13.750	19.750	5.0712e-02
13.750	20.000	5.3264e-02
13.750	20.250	5.6377e-02
13.750	20.500	6.0207e-02
13.750	20.750	6.4758e-02
13.750	21.000	7.0066e-02
13.750	21.250	7.6116e-02
13.750	21.500	8.3077e-02
13.750	21.750	9.1633e-02
13.750	22.000	1.0404e-01
13.750	22.250	1.2503e-01
13.750	22.500	1.5120e-01
13.750	22.750	1.5820e-01
13.750	23.000	1.5662e-01
13.750	23.250	1.3054e-01
13.750	23.500	8.7781e-02
13.750	23.750	5.7107e-02
13.750	24.000	3.8690e-02
14.000	17.000	6.3302e-03
14.000	17.250	8.0207e-03
14.000	17.500	1.1825e-02
14.000	17.750	1.7175e-02
14.000	18.000	2.6403e-02
14.000	18.250	3.6369e-02
14.000	18.500	4.1223e-02
14.000	18.750	4.2273e-02
14.000	19.000	4.3760e-02
14.000	19.250	4.5686e-02
14.000	19.500	4.7929e-02
14.000	19.750	5.0407e-02
14.000	20.000	5.3228e-02
14.000	20.250	5.6618e-02
14.000	20.500	6.0777e-02
14.000	20.750	6.5696e-02
14.000	21.000	7.1362e-02
14.000	21.250	7.7862e-02
14.000	21.500	8.4015e-02
14.000	21.750	9.2149e-02
14.000	22.000	1.0278e-01
14.000	22.250	1.1990e-01
14.000	22.500	1.5133e-01
14.000	22.750	1.7721e-01
14.000	23.000	1.7969e-01
14.000	23.250	1.6604e-01
14.000	23.500	1.3522e-01
14.000	23.750	8.8741e-02
14.000	24.000	5.7375e-02
