nFnu 2.32440m  relative to Inci 1215.00A scaled to 1215A.
Hden   Phi(H)  Eq_Width (A)
 7.000	17.000	7.3514e-03
 7.000	17.250	3.8856e-03
 7.000	17.500	2.0493e-03
 7.000	17.750	1.0950e-03
 7.000	18.000	6.2469e-04
 7.000	18.250	3.6642e-04
 7.000	18.500	2.2000e-04
 7.000	18.750	1.5835e-04
 7.000	19.000	1.2716e-04
 7.000	19.250	1.1029e-04
 7.000	19.500	1.0387e-04
 7.000	19.750	1.0132e-04
 7.000	20.000	1.0033e-04
 7.000	20.250	9.9835e-05
 7.000	20.500	9.9588e-05
 7.000	20.750	9.9424e-05
 7.000	21.000	9.9424e-05
 7.000	21.250	9.9342e-05
 7.000	21.500	9.9342e-05
 7.000	21.750	9.9342e-05
 7.000	22.000	9.9342e-05
 7.000	22.250	9.9342e-05
 7.000	22.500	9.9342e-05
 7.000	22.750	9.9342e-05
 7.000	23.000	9.9342e-05
 7.000	23.250	9.9342e-05
 7.000	23.500	9.9342e-05
 7.000	23.750	9.9342e-05
 7.000	24.000	9.9342e-05
 7.250	17.000	1.2581e-02
 7.250	17.250	7.3441e-03
 7.250	17.500	3.8825e-03
 7.250	17.750	2.0472e-03
 7.250	18.000	1.0942e-03
 7.250	18.250	6.2453e-04
 7.250	18.500	3.6634e-04
 7.250	18.750	2.2000e-04
 7.250	19.000	1.5835e-04
 7.250	19.250	1.2716e-04
 7.250	19.500	1.1029e-04
 7.250	19.750	1.0387e-04
 7.250	20.000	1.0132e-04
 7.250	20.250	1.0033e-04
 7.250	20.500	9.9835e-05
 7.250	20.750	9.9588e-05
 7.250	21.000	9.9424e-05
 7.250	21.250	9.9424e-05
 7.250	21.500	9.9342e-05
 7.250	21.750	9.9342e-05
 7.250	22.000	9.9342e-05
 7.250	22.250	9.9342e-05
 7.250	22.500	9.9342e-05
 7.250	22.750	9.9342e-05
 7.250	23.000	9.9342e-05
 7.250	23.250	9.9342e-05
 7.250	23.500	9.9342e-05
 7.250	23.750	9.9342e-05
 7.250	24.000	9.9342e-05
 7.500	17.000	2.0244e-02
 7.500	17.250	1.2565e-02
 7.500	17.500	7.3384e-03
 7.500	17.750	3.8799e-03
 7.500	18.000	2.0449e-03
 7.500	18.250	1.0933e-03
 7.500	18.500	6.2428e-04
 7.500	18.750	3.6634e-04
 7.500	19.000	2.2000e-04
 7.500	19.250	1.5835e-04
 7.500	19.500	1.2716e-04
 7.500	19.750	1.1029e-04
 7.500	20.000	1.0387e-04
 7.500	20.250	1.0132e-04
 7.500	20.500	1.0033e-04
 7.500	20.750	9.9835e-05
 7.500	21.000	9.9588e-05
 7.500	21.250	9.9424e-05
 7.500	21.500	9.9424e-05
 7.500	21.750	9.9342e-05
 7.500	22.000	9.9342e-05
 7.500	22.250	9.9342e-05
 7.500	22.500	9.9342e-05
 7.500	22.750	9.9342e-05
 7.500	23.000	9.9342e-05
 7.500	23.250	9.9342e-05
 7.500	23.500	9.9342e-05
 7.500	23.750	9.9342e-05
 7.500	24.000	9.9342e-05
 7.750	17.000	2.2563e-02
 7.750	17.250	2.0289e-02
 7.750	17.500	1.2553e-02
 7.750	17.750	7.3348e-03
 7.750	18.000	3.8778e-03
 7.750	18.250	2.0425e-03
 7.750	18.500	1.0921e-03
 7.750	18.750	6.2395e-04
 7.750	19.000	3.6626e-04
 7.750	19.250	2.2000e-04
 7.750	19.500	1.5835e-04
 7.750	19.750	1.2716e-04
 7.750	20.000	1.1029e-04
 7.750	20.250	1.0387e-04
 7.750	20.500	1.0132e-04
 7.750	20.750	1.0033e-04
 7.750	21.000	9.9835e-05
 7.750	21.250	9.9588e-05
 7.750	21.500	9.9424e-05
 7.750	21.750	9.9424e-05
 7.750	22.000	9.9342e-05
 7.750	22.250	9.9342e-05
 7.750	22.500	9.9342e-05
 7.750	22.750	9.9342e-05
 7.750	23.000	9.9342e-05
 7.750	23.250	9.9342e-05
 7.750	23.500	9.9342e-05
 7.750	23.750	9.9342e-05
 7.750	24.000	9.9342e-05
 8.000	17.000	2.3861e-02
 8.000	17.250	2.2392e-02
 8.000	17.500	2.0098e-02
 8.000	17.750	1.2532e-02
 8.000	18.000	7.3322e-03
 8.000	18.250	3.8760e-03
 8.000	18.500	2.0397e-03
 8.000	18.750	1.0908e-03
 8.000	19.000	6.2362e-04
 8.000	19.250	3.6626e-04
 8.000	19.500	2.2000e-04
 8.000	19.750	1.5835e-04
 8.000	20.000	1.2716e-04
 8.000	20.250	1.1029e-04
 8.000	20.500	1.0387e-04
 8.000	20.750	1.0132e-04
 8.000	21.000	1.0033e-04
 8.000	21.250	9.9835e-05
 8.000	21.500	9.9588e-05
 8.000	21.750	9.9424e-05
 8.000	22.000	9.9424e-05
 8.000	22.250	9.9342e-05
 8.000	22.500	9.9342e-05
 8.000	22.750	9.9342e-05
 8.000	23.000	9.9342e-05
 8.000	23.250	9.9342e-05
 8.000	23.500	9.9342e-05
 8.000	23.750	9.9342e-05
 8.000	24.000	9.9342e-05
 8.250	17.000	2.4941e-02
 8.250	17.250	2.4091e-02
 8.250	17.500	2.2516e-02
 8.250	17.750	2.0119e-02
 8.250	18.000	1.2528e-02
 8.250	18.250	7.3317e-03
 8.250	18.500	3.8745e-03
 8.250	18.750	2.0366e-03
 8.250	19.000	1.0891e-03
 8.250	19.250	6.2313e-04
 8.250	19.500	3.6617e-04
 8.250	19.750	2.1992e-04
 8.250	20.000	1.5835e-04
 8.250	20.250	1.2716e-04
 8.250	20.500	1.1029e-04
 8.250	20.750	1.0387e-04
 8.250	21.000	1.0132e-04
 8.250	21.250	1.0033e-04
 8.250	21.500	9.9835e-05
 8.250	21.750	9.9588e-05
 8.250	22.000	9.9424e-05
 8.250	22.250	9.9424e-05
 8.250	22.500	9.9342e-05
 8.250	22.750	9.9342e-05
 8.250	23.000	9.9342e-05
 8.250	23.250	9.9342e-05
 8.250	23.500	9.9342e-05
 8.250	23.750	9.9342e-05
 8.250	24.000	9.9342e-05
 8.500	17.000	2.5753e-02
 8.500	17.250	2.5252e-02
 8.500	17.500	2.4379e-02
 8.500	17.750	2.2684e-02
 8.500	18.000	2.0160e-02
 8.500	18.250	1.2526e-02
 8.500	18.500	7.3325e-03
 8.500	18.750	3.8731e-03
 8.500	19.000	2.0331e-03
 8.500	19.250	1.0874e-03
 8.500	19.500	6.2255e-04
 8.500	19.750	3.6601e-04
 8.500	20.000	2.1992e-04
 8.500	20.250	1.5835e-04
 8.500	20.500	1.2716e-04
 8.500	20.750	1.1029e-04
 8.500	21.000	1.0387e-04
 8.500	21.250	1.0132e-04
 8.500	21.500	1.0033e-04
 8.500	21.750	9.9835e-05
 8.500	22.000	9.9588e-05
 8.500	22.250	9.9424e-05
 8.500	22.500	9.9424e-05
 8.500	22.750	9.9342e-05
 8.500	23.000	9.9342e-05
 8.500	23.250	9.9342e-05
 8.500	23.500	9.9342e-05
 8.500	23.750	9.9342e-05
 8.500	24.000	9.9342e-05
 8.750	17.000	2.6327e-02
 8.750	17.250	2.6147e-02
 8.750	17.500	2.5713e-02
 8.750	17.750	2.4864e-02
 8.750	18.000	2.3038e-02
 8.750	18.250	2.0299e-02
 8.750	18.500	1.2525e-02
 8.750	18.750	7.3347e-03
 8.750	19.000	3.8718e-03
 8.750	19.250	2.0294e-03
 8.750	19.500	1.0853e-03
 8.750	19.750	6.2206e-04
 8.750	20.000	3.6593e-04
 8.750	20.250	2.1992e-04
 8.750	20.500	1.5835e-04
 8.750	20.750	1.2716e-04
 8.750	21.000	1.1029e-04
 8.750	21.250	1.0387e-04
 8.750	21.500	1.0132e-04
 8.750	21.750	1.0033e-04
 8.750	22.000	9.9835e-05
 8.750	22.250	9.9588e-05
 8.750	22.500	9.9424e-05
 8.750	22.750	9.9424e-05
 8.750	23.000	9.9342e-05
 8.750	23.250	9.9342e-05
 8.750	23.500	9.9342e-05
 8.750	23.750	9.9342e-05
 8.750	24.000	9.9342e-05
 9.000	17.000	2.6656e-02
 9.000	17.250	2.6821e-02
 9.000	17.500	2.6820e-02
 9.000	17.750	2.6590e-02
 9.000	18.000	2.5784e-02
 9.000	18.250	2.3805e-02
 9.000	18.500	2.0585e-02
 9.000	18.750	1.2523e-02
 9.000	19.000	7.3378e-03
 9.000	19.250	3.8712e-03
 9.000	19.500	2.0257e-03
 9.000	19.750	1.0833e-03
 9.000	20.000	6.2148e-04
 9.000	20.250	3.6584e-04
 9.000	20.500	2.1984e-04
 9.000	20.750	1.5835e-04
 9.000	21.000	1.2716e-04
 9.000	21.250	1.1029e-04
 9.000	21.500	1.0387e-04
 9.000	21.750	1.0132e-04
 9.000	22.000	1.0033e-04
 9.000	22.250	9.9835e-05
 9.000	22.500	9.9588e-05
 9.000	22.750	9.9424e-05
 9.000	23.000	9.9424e-05
 9.000	23.250	9.9342e-05
 9.000	23.500	9.9342e-05
 9.000	23.750	9.9342e-05
 9.000	24.000	9.9342e-05
 9.250	17.000	2.6729e-02
 9.250	17.250	2.7245e-02
 9.250	17.500	2.7761e-02
 9.250	17.750	2.8241e-02
 9.250	18.000	2.8413e-02
 9.250	18.250	2.7741e-02
 9.250	18.500	2.5447e-02
 9.250	18.750	2.1296e-02
 9.250	19.000	1.2518e-02
 9.250	19.250	7.3421e-03
 9.250	19.500	3.8714e-03
 9.250	19.750	2.0223e-03
 9.250	20.000	1.0813e-03
 9.250	20.250	6.2091e-04
 9.250	20.500	3.6568e-04
 9.250	20.750	2.1984e-04
 9.250	21.000	1.5835e-04
 9.250	21.250	1.2716e-04
 9.250	21.500	1.1029e-04
 9.250	21.750	1.0387e-04
 9.250	22.000	1.0132e-04
 9.250	22.250	1.0025e-04
 9.250	22.500	9.9835e-05
 9.250	22.750	9.9588e-05
 9.250	23.000	9.9424e-05
 9.250	23.250	9.9424e-05
 9.250	23.500	9.9342e-05
 9.250	23.750	9.9342e-05
 9.250	24.000	9.9342e-05
 9.500	17.000	2.6618e-02
 9.500	17.250	2.7514e-02
 9.500	17.500	2.8552e-02
 9.500	17.750	2.9846e-02
 9.500	18.000	3.1194e-02
 9.500	18.250	3.2157e-02
 9.500	18.500	3.1575e-02
 9.500	18.750	2.8641e-02
 9.500	19.000	2.1349e-02
 9.500	19.250	1.2509e-02
 9.500	19.500	7.3464e-03
 9.500	19.750	3.8725e-03
 9.500	20.000	2.0198e-03
 9.500	20.250	1.0796e-03
 9.500	20.500	6.2041e-04
 9.500	20.750	3.6568e-04
 9.500	21.000	2.1975e-04
 9.500	21.250	1.5835e-04
 9.500	21.500	1.2716e-04
 9.500	21.750	1.1021e-04
 9.500	22.000	1.0387e-04
 9.500	22.250	1.0132e-04
 9.500	22.500	1.0025e-04
 9.500	22.750	9.9835e-05
 9.500	23.000	9.9588e-05
 9.500	23.250	9.9424e-05
 9.500	23.500	9.9342e-05
 9.500	23.750	9.9342e-05
 9.500	24.000	9.9342e-05
 9.750	17.000	2.6261e-02
 9.750	17.250	2.7544e-02
 9.750	17.500	2.9177e-02
 9.750	17.750	3.1435e-02
 9.750	18.000	3.4416e-02
 9.750	18.250	3.7222e-02
 9.750	18.500	3.8555e-02
 9.750	18.750	3.7127e-02
 9.750	19.000	3.3075e-02
 9.750	19.250	2.1405e-02
 9.750	19.500	1.2498e-02
 9.750	19.750	7.3508e-03
 9.750	20.000	3.8747e-03
 9.750	20.250	2.0184e-03
 9.750	20.500	1.0782e-03
 9.750	20.750	6.2008e-04
 9.750	21.000	3.6551e-04
 9.750	21.250	2.1975e-04
 9.750	21.500	1.5835e-04
 9.750	21.750	1.2716e-04
 9.750	22.000	1.1029e-04
 9.750	22.250	1.0387e-04
 9.750	22.500	1.0132e-04
 9.750	22.750	1.0025e-04
 9.750	23.000	9.9835e-05
 9.750	23.250	9.9588e-05
 9.750	23.500	9.9424e-05
 9.750	23.750	9.9342e-05
 9.750	24.000	9.9342e-05
10.000	17.000	2.5615e-02
10.000	17.250	2.7437e-02
10.000	17.500	2.9769e-02
10.000	17.750	3.3192e-02
10.000	18.000	3.8111e-02
10.000	18.250	4.2924e-02
10.000	18.500	4.6162e-02
10.000	18.750	4.6575e-02
10.000	19.000	4.3937e-02
10.000	19.250	3.5708e-02
10.000	19.500	2.1424e-02
10.000	19.750	1.2469e-02
10.000	20.000	7.3523e-03
10.000	20.250	3.8770e-03
10.000	20.500	2.0177e-03
10.000	20.750	1.0771e-03
10.000	21.000	6.1992e-04
10.000	21.250	3.6551e-04
10.000	21.500	2.1967e-04
10.000	21.750	1.5835e-04
10.000	22.000	1.2716e-04
10.000	22.250	1.1029e-04
10.000	22.500	1.0387e-04
10.000	22.750	1.0132e-04
10.000	23.000	1.0025e-04
10.000	23.250	9.9835e-05
10.000	23.500	9.9588e-05
10.000	23.750	9.9424e-05
10.000	24.000	9.9342e-05
10.250	17.000	2.5069e-02
10.250	17.250	2.7216e-02
10.250	17.500	3.0518e-02
10.250	17.750	3.5460e-02
10.250	18.000	4.2342e-02
10.250	18.250	4.9096e-02
10.250	18.500	5.4030e-02
10.250	18.750	5.6442e-02
10.250	19.000	5.5556e-02
10.250	19.250	5.1345e-02
10.250	19.500	3.7598e-02
10.250	19.750	2.1398e-02
10.250	20.000	1.2443e-02
10.250	20.250	7.3509e-03
10.250	20.500	3.8792e-03
10.250	20.750	2.0179e-03
10.250	21.000	1.0765e-03
10.250	21.250	6.1984e-04
10.250	21.500	3.6543e-04
10.250	21.750	2.1967e-04
10.250	22.000	1.5835e-04
10.250	22.250	1.2716e-04
10.250	22.500	1.1029e-04
10.250	22.750	1.0387e-04
10.250	23.000	1.0132e-04
10.250	23.250	1.0025e-04
10.250	23.500	9.9835e-05
10.250	23.750	9.9588e-05
10.250	24.000	9.9424e-05
10.500	17.000	2.4787e-02
10.500	17.250	2.7354e-02
10.500	17.500	3.1657e-02
10.500	17.750	3.8541e-02
10.500	18.000	4.7269e-02
10.500	18.250	5.5767e-02
10.500	18.500	6.1863e-02
10.500	18.750	6.5647e-02
10.500	19.000	6.6566e-02
10.500	19.250	6.4122e-02
10.500	19.500	5.7442e-02
10.500	19.750	3.7528e-02
10.500	20.000	2.1289e-02
10.500	20.250	1.2383e-02
10.500	20.500	7.3361e-03
10.500	20.750	3.8798e-03
10.500	21.000	2.0186e-03
10.500	21.250	1.0762e-03
10.500	21.500	6.2000e-04
10.500	21.750	3.6543e-04
10.500	22.000	2.1959e-04
10.500	22.250	1.5835e-04
10.500	22.500	1.2716e-04
10.500	22.750	1.1029e-04
10.500	23.000	1.0387e-04
10.500	23.250	1.0132e-04
10.500	23.500	1.0025e-04
10.500	23.750	9.9835e-05
10.500	24.000	9.9588e-05
10.750	17.000	2.4834e-02
10.750	17.250	2.7911e-02
10.750	17.500	3.3647e-02
10.750	17.750	4.2419e-02
10.750	18.000	5.2752e-02
10.750	18.250	6.2206e-02
10.750	18.500	6.9418e-02
10.750	18.750	7.4476e-02
10.750	19.000	7.6615e-02
10.750	19.250	7.5982e-02
10.750	19.500	7.2082e-02
10.750	19.750	6.3151e-02
10.750	20.000	3.7454e-02
10.750	20.250	2.1032e-02
10.750	20.500	1.2280e-02
10.750	20.750	7.3052e-03
10.750	21.000	3.8766e-03
10.750	21.250	2.0195e-03
10.750	21.500	1.0765e-03
10.750	21.750	6.2033e-04
10.750	22.000	3.6551e-04
10.750	22.250	2.1959e-04
10.750	22.500	1.5835e-04
10.750	22.750	1.2716e-04
10.750	23.000	1.1029e-04
10.750	23.250	1.0387e-04
10.750	23.500	1.0132e-04
10.750	23.750	1.0025e-04
10.750	24.000	9.9835e-05
11.000	17.000	2.5234e-02
11.000	17.250	2.8875e-02
11.000	17.500	3.6170e-02
11.000	17.750	4.6779e-02
11.000	18.000	5.8151e-02
11.000	18.250	6.8351e-02
11.000	18.500	7.6660e-02
11.000	18.750	8.2617e-02
11.000	19.000	8.5977e-02
11.000	19.250	8.6815e-02
11.000	19.500	8.4991e-02
11.000	19.750	8.0153e-02
11.000	20.000	6.7426e-02
11.000	20.250	3.7091e-02
11.000	20.500	2.0918e-02
11.000	20.750	1.2183e-02
11.000	21.000	7.2537e-03
11.000	21.250	3.8649e-03
11.000	21.500	2.0207e-03
11.000	21.750	1.0770e-03
11.000	22.000	6.2074e-04
11.000	22.250	3.6560e-04
11.000	22.500	2.1951e-04
11.000	22.750	1.5835e-04
11.000	23.000	1.2724e-04
11.000	23.250	1.1029e-04
11.000	23.500	1.0387e-04
11.000	23.750	1.0132e-04
11.000	24.000	1.0025e-04
11.250	17.000	2.6005e-02
11.250	17.250	3.0086e-02
11.250	17.500	3.8733e-02
11.250	17.750	5.0861e-02
11.250	18.000	6.3205e-02
11.250	18.250	7.3982e-02
11.250	18.500	8.2775e-02
11.250	18.750	8.9904e-02
11.250	19.000	9.4319e-02
11.250	19.250	9.6667e-02
11.250	19.500	9.6436e-02
11.250	19.750	9.3637e-02
11.250	20.000	8.7882e-02
11.250	20.250	6.7920e-02
11.250	20.500	3.6855e-02
11.250	20.750	2.0664e-02
11.250	21.000	1.2094e-02
11.250	21.250	7.1766e-03
11.250	21.500	3.8448e-03
11.250	21.750	2.0199e-03
11.250	22.000	1.0778e-03
11.250	22.250	6.2132e-04
11.250	22.500	3.6568e-04
11.250	22.750	2.1951e-04
11.250	23.000	1.5835e-04
11.250	23.250	1.2724e-04
11.250	23.500	1.1029e-04
11.250	23.750	1.0387e-04
11.250	24.000	1.0132e-04
11.500	17.000	2.7274e-02
11.500	17.250	3.1605e-02
11.500	17.500	4.1054e-02
11.500	17.750	5.4201e-02
11.500	18.000	6.7428e-02
11.500	18.250	7.8729e-02
11.500	18.500	8.8250e-02
11.500	18.750	9.6197e-02
11.500	19.000	1.0191e-01
11.500	19.250	1.0521e-01
11.500	19.500	1.0603e-01
11.500	19.750	1.0496e-01
11.500	20.000	1.0155e-01
11.500	20.250	9.5217e-02
11.500	20.500	6.7922e-02
11.500	20.750	3.6476e-02
11.500	21.000	2.0473e-02
11.500	21.250	1.2082e-02
11.500	21.500	7.0928e-03
11.500	21.750	3.8090e-03
11.500	22.000	2.0162e-03
11.500	22.250	1.0787e-03
11.500	22.500	6.2189e-04
11.500	22.750	3.6593e-04
11.500	23.000	2.1942e-04
11.500	23.250	1.5835e-04
11.500	23.500	1.2724e-04
11.500	23.750	1.1029e-04
11.500	24.000	1.0387e-04
11.750	17.000	2.9150e-02
11.750	17.250	3.3407e-02
11.750	17.500	4.3064e-02
11.750	17.750	5.6662e-02
11.750	18.000	7.0440e-02
11.750	18.250	8.2516e-02
11.750	18.500	9.2932e-02
11.750	18.750	1.0148e-01
11.750	19.000	1.0836e-01
11.750	19.250	1.1265e-01
11.750	19.500	1.1472e-01
11.750	19.750	1.1441e-01
11.750	20.000	1.1254e-01
11.750	20.250	1.0850e-01
11.750	20.500	1.0150e-01
11.750	20.750	6.7314e-02
11.750	21.000	3.6062e-02
11.750	21.250	2.0371e-02
11.750	21.500	1.2274e-02
11.750	21.750	6.9890e-03
11.750	22.000	3.7609e-03
11.750	22.250	2.0080e-03
11.750	22.500	1.0793e-03
11.750	22.750	6.2247e-04
11.750	23.000	3.6609e-04
11.750	23.250	2.1926e-04
11.750	23.500	1.5827e-04
11.750	23.750	1.2724e-04
11.750	24.000	1.1029e-04
12.000	17.000	3.1815e-02
12.000	17.250	3.5571e-02
12.000	17.500	4.4707e-02
12.000	17.750	5.7991e-02
12.000	18.000	7.2094e-02
12.000	18.250	8.5181e-02
12.000	18.500	9.6665e-02
12.000	18.750	1.0641e-01
12.000	19.000	1.1412e-01
12.000	19.250	1.1930e-01
12.000	19.500	1.2215e-01
12.000	19.750	1.2265e-01
12.000	20.000	1.2142e-01
12.000	20.250	1.1863e-01
12.000	20.500	1.1385e-01
12.000	20.750	1.0540e-01
12.000	21.000	6.6151e-02
12.000	21.250	3.5764e-02
12.000	21.500	2.0602e-02
12.000	21.750	1.2523e-02
12.000	22.000	6.8714e-03
12.000	22.250	3.7188e-03
12.000	22.500	1.9941e-03
12.000	22.750	1.0793e-03
12.000	23.000	6.2280e-04
12.000	23.250	3.6626e-04
12.000	23.500	2.1909e-04
12.000	23.750	1.5827e-04
12.000	24.000	1.2724e-04
12.250	17.000	3.5390e-02
12.250	17.250	3.8145e-02
12.250	17.500	4.5980e-02
12.250	17.750	5.8216e-02
12.250	18.000	7.2404e-02
12.250	18.250	8.6610e-02
12.250	18.500	9.9618e-02
12.250	18.750	1.1064e-01
12.250	19.000	1.1912e-01
12.250	19.250	1.2491e-01
12.250	19.500	1.2831e-01
12.250	19.750	1.2956e-01
12.250	20.000	1.2867e-01
12.250	20.250	1.2651e-01
12.250	20.500	1.2305e-01
12.250	20.750	1.1766e-01
12.250	21.000	1.0661e-01
12.250	21.250	6.4464e-02
12.250	21.500	3.5947e-02
12.250	21.750	2.0803e-02
12.250	22.000	1.2477e-02
12.250	22.250	6.7457e-03
12.250	22.500	3.6594e-03
12.250	22.750	1.9745e-03
12.250	23.000	1.0779e-03
12.250	23.250	6.2263e-04
12.250	23.500	3.6626e-04
12.250	23.750	2.1885e-04
12.250	24.000	1.5819e-04
12.500	17.000	3.9300e-02
12.500	17.250	4.0849e-02
12.500	17.500	4.6957e-02
12.500	17.750	5.7711e-02
12.500	18.000	7.1779e-02
12.500	18.250	8.6793e-02
12.500	18.500	1.0126e-01
12.500	18.750	1.1364e-01
12.500	19.000	1.2330e-01
12.500	19.250	1.2962e-01
12.500	19.500	1.3336e-01
12.500	19.750	1.3508e-01
12.500	20.000	1.3484e-01
12.500	20.250	1.3290e-01
12.500	20.500	1.2989e-01
12.500	20.750	1.2572e-01
12.500	21.000	1.1955e-01
12.500	21.250	1.0771e-01
12.500	21.500	6.3918e-02
12.500	21.750	3.5560e-02
12.500	22.000	2.1042e-02
12.500	22.250	1.2163e-02
12.500	22.500	6.6020e-03
12.500	22.750	3.5802e-03
12.500	23.000	1.9485e-03
12.500	23.250	1.0742e-03
12.500	23.500	6.2165e-04
12.500	23.750	3.6593e-04
12.500	24.000	2.1844e-04
12.750	17.000	4.1066e-02
12.750	17.250	4.2143e-02
12.750	17.500	4.7308e-02
12.750	17.750	5.7408e-02
12.750	18.000	7.0868e-02
12.750	18.250	8.6100e-02
12.750	18.500	1.0126e-01
12.750	18.750	1.1508e-01
12.750	19.000	1.2590e-01
12.750	19.250	1.3325e-01
12.750	19.500	1.3720e-01
12.750	19.750	1.3922e-01
12.750	20.000	1.3943e-01
12.750	20.250	1.3835e-01
12.750	20.500	1.3507e-01
12.750	20.750	1.3167e-01
12.750	21.000	1.2676e-01
12.750	21.250	1.1974e-01
12.750	21.500	1.0593e-01
12.750	21.750	6.1336e-02
12.750	22.000	3.5067e-02
12.750	22.250	2.1039e-02
12.750	22.500	1.1804e-02
12.750	22.750	6.4302e-03
12.750	23.000	3.4993e-03
12.750	23.250	1.9161e-03
12.750	23.500	1.0670e-03
12.750	23.750	6.1926e-04
12.750	24.000	3.6510e-04
13.000	17.000	2.9018e-02
13.000	17.250	3.6004e-02
13.000	17.500	4.8345e-02
13.000	17.750	5.7727e-02
13.000	18.000	7.0241e-02
13.000	18.250	8.5029e-02
13.000	18.500	1.0044e-01
13.000	18.750	1.1477e-01
13.000	19.000	1.2665e-01
13.000	19.250	1.3517e-01
13.000	19.500	1.4009e-01
13.000	19.750	1.4229e-01
13.000	20.000	1.4267e-01
13.000	20.250	1.4192e-01
13.000	20.500	1.3998e-01
13.000	20.750	1.3664e-01
13.000	21.000	1.3224e-01
13.000	21.250	1.2638e-01
13.000	21.500	1.2122e-01
13.000	21.750	9.8592e-02
13.000	22.000	5.8178e-02
13.000	22.250	3.4101e-02
13.000	22.500	2.0515e-02
13.000	22.750	1.1364e-02
13.000	23.000	6.2006e-03
13.000	23.250	3.4186e-03
13.000	23.500	1.8751e-03
13.000	23.750	1.0547e-03
13.000	24.000	6.1432e-04
13.250	17.000	2.8156e-02
13.250	17.250	3.4265e-02
13.250	17.500	4.6011e-02
13.250	17.750	5.8102e-02
13.250	18.000	7.0080e-02
13.250	18.250	8.4125e-02
13.250	18.500	9.9234e-02
13.250	18.750	1.1368e-01
13.250	19.000	1.2609e-01
13.250	19.250	1.3528e-01
13.250	19.500	1.4123e-01
13.250	19.750	1.4428e-01
13.250	20.000	1.4524e-01
13.250	20.250	1.4482e-01
13.250	20.500	1.4321e-01
13.250	20.750	1.4041e-01
13.250	21.000	1.3671e-01
13.250	21.250	1.3056e-01
13.250	21.500	1.2717e-01
13.250	21.750	1.1502e-01
13.250	22.000	8.8966e-02
13.250	22.250	5.3278e-02
13.250	22.500	3.2326e-02
13.250	22.750	1.9415e-02
13.250	23.000	1.0822e-02
13.250	23.250	5.9561e-03
13.250	23.500	3.3016e-03
13.250	23.750	1.8253e-03
13.250	24.000	1.0359e-03
13.500	17.000	2.7279e-02
13.500	17.250	3.3148e-02
13.500	17.500	4.3398e-02
13.500	17.750	5.6320e-02
13.500	18.000	7.0616e-02
13.500	18.250	8.3597e-02
13.500	18.500	9.7865e-02
13.500	18.750	1.1217e-01
13.500	19.000	1.2492e-01
13.500	19.250	1.3506e-01
13.500	19.500	1.4164e-01
13.500	19.750	1.4536e-01
13.500	20.000	1.4713e-01
13.500	20.250	1.4764e-01
13.500	20.500	1.4594e-01
13.500	20.750	1.4307e-01
13.500	21.000	1.3886e-01
13.500	21.250	1.3318e-01
13.500	21.500	1.2949e-01
13.500	21.750	1.1966e-01
13.500	22.000	1.0356e-01
13.500	22.250	7.6516e-02
13.500	22.500	4.7001e-02
13.500	22.750	2.9467e-02
13.500	23.000	1.7918e-02
13.500	23.250	1.0162e-02
13.500	23.500	5.6568e-03
13.500	23.750	3.1449e-03
13.500	24.000	1.7616e-03
13.750	17.000	2.6613e-02
13.750	17.250	3.2066e-02
13.750	17.500	4.1557e-02
13.750	17.750	5.4053e-02
13.750	18.000	6.9691e-02
13.750	18.250	8.3378e-02
13.750	18.500	9.7408e-02
13.750	18.750	1.1090e-01
13.750	19.000	1.2360e-01
13.750	19.250	1.3429e-01
13.750	19.500	1.4207e-01
13.750	19.750	1.4678e-01
13.750	20.000	1.4915e-01
13.750	20.250	1.4984e-01
13.750	20.500	1.4908e-01
13.750	20.750	1.4632e-01
13.750	21.000	1.4185e-01
13.750	21.250	1.3529e-01
13.750	21.500	1.3217e-01
13.750	21.750	1.2240e-01
13.750	22.000	1.0791e-01
13.750	22.250	8.7742e-02
13.750	22.500	6.2851e-02
13.750	22.750	3.9933e-02
13.750	23.000	2.5763e-02
13.750	23.250	1.6144e-02
13.750	23.500	9.3366e-03
13.750	23.750	5.2740e-03
13.750	24.000	2.9623e-03
14.000	17.000	2.6026e-02
14.000	17.250	3.0938e-02
14.000	17.500	3.9946e-02
14.000	17.750	5.1415e-02
14.000	18.000	6.7612e-02
14.000	18.250	8.4024e-02
14.000	18.500	9.7946e-02
14.000	18.750	1.1049e-01
14.000	19.000	1.2264e-01
14.000	19.250	1.3370e-01
14.000	19.500	1.4245e-01
14.000	19.750	1.4855e-01
14.000	20.000	1.5177e-01
14.000	20.250	1.5281e-01
14.000	20.500	1.5239e-01
14.000	20.750	1.5011e-01
14.000	21.000	1.4576e-01
14.000	21.250	1.3919e-01
14.000	21.500	1.3575e-01
14.000	21.750	1.2594e-01
14.000	22.000	1.1149e-01
14.000	22.250	8.3310e-02
14.000	22.500	5.5992e-02
14.000	22.750	4.1169e-02
14.000	23.000	3.2753e-02
14.000	23.250	2.1799e-02
14.000	23.500	1.4103e-02
14.000	23.750	8.3221e-03
14.000	24.000	4.7891e-03
