InwC 8078.61A  relative to Inci 1215.00A scaled to 1215A.
Hden   Phi(H)  Eq_Width (A)
 7.000	17.000	3.8681e-03
 7.000	17.250	3.8704e-03
 7.000	17.500	3.8721e-03
 7.000	17.750	3.8738e-03
 7.000	18.000	3.8756e-03
 7.000	18.250	3.8771e-03
 7.000	18.500	3.8781e-03
 7.000	18.750	3.8785e-03
 7.000	19.000	3.8790e-03
 7.000	19.250	3.8793e-03
 7.000	19.500	3.8795e-03
 7.000	19.750	3.8795e-03
 7.000	20.000	3.8796e-03
 7.000	20.250	3.8796e-03
 7.000	20.500	3.8796e-03
 7.000	20.750	3.8797e-03
 7.000	21.000	3.8797e-03
 7.000	21.250	3.8797e-03
 7.000	21.500	3.8797e-03
 7.000	21.750	3.8797e-03
 7.000	22.000	3.8797e-03
 7.000	22.250	3.8798e-03
 7.000	22.500	3.8797e-03
 7.000	22.750	3.8801e-03
 7.000	23.000	3.8801e-03
 7.000	23.250	3.8798e-03
 7.000	23.500	3.8800e-03
 7.000	23.750	3.8800e-03
 7.000	24.000	3.8802e-03
 7.250	17.000	3.7289e-03
 7.250	17.250	3.8681e-03
 7.250	17.500	3.8704e-03
 7.250	17.750	3.8721e-03
 7.250	18.000	3.8738e-03
 7.250	18.250	3.8756e-03
 7.250	18.500	3.8771e-03
 7.250	18.750	3.8781e-03
 7.250	19.000	3.8785e-03
 7.250	19.250	3.8790e-03
 7.250	19.500	3.8793e-03
 7.250	19.750	3.8795e-03
 7.250	20.000	3.8795e-03
 7.250	20.250	3.8796e-03
 7.250	20.500	3.8796e-03
 7.250	20.750	3.8796e-03
 7.250	21.000	3.8796e-03
 7.250	21.250	3.8796e-03
 7.250	21.500	3.8797e-03
 7.250	21.750	3.8797e-03
 7.250	22.000	3.8797e-03
 7.250	22.250	3.8797e-03
 7.250	22.500	3.8797e-03
 7.250	22.750	3.8797e-03
 7.250	23.000	3.8797e-03
 7.250	23.250	3.8797e-03
 7.250	23.500	3.8797e-03
 7.250	23.750	3.8797e-03
 7.250	24.000	3.8797e-03
 7.500	17.000	3.4909e-03
 7.500	17.250	3.7295e-03
 7.500	17.500	3.8681e-03
 7.500	17.750	3.8704e-03
 7.500	18.000	3.8721e-03
 7.500	18.250	3.8738e-03
 7.500	18.500	3.8756e-03
 7.500	18.750	3.8771e-03
 7.500	19.000	3.8781e-03
 7.500	19.250	3.8785e-03
 7.500	19.500	3.8790e-03
 7.500	19.750	3.8793e-03
 7.500	20.000	3.8795e-03
 7.500	20.250	3.8795e-03
 7.500	20.500	3.8796e-03
 7.500	20.750	3.8796e-03
 7.500	21.000	3.8796e-03
 7.500	21.250	3.8796e-03
 7.500	21.500	3.8796e-03
 7.500	21.750	3.8796e-03
 7.500	22.000	3.8796e-03
 7.500	22.250	3.8797e-03
 7.500	22.500	3.8797e-03
 7.500	22.750	3.8797e-03
 7.500	23.000	3.8797e-03
 7.500	23.250	3.8797e-03
 7.500	23.500	3.8801e-03
 7.500	23.750	3.8797e-03
 7.500	24.000	3.8797e-03
 7.750	17.000	2.5215e-03
 7.750	17.250	3.5012e-03
 7.750	17.500	3.7300e-03
 7.750	17.750	3.8681e-03
 7.750	18.000	3.8704e-03
 7.750	18.250	3.8721e-03
 7.750	18.500	3.8738e-03
 7.750	18.750	3.8756e-03
 7.750	19.000	3.8771e-03
 7.750	19.250	3.8781e-03
 7.750	19.500	3.8785e-03
 7.750	19.750	3.8790e-03
 7.750	20.000	3.8793e-03
 7.750	20.250	3.8795e-03
 7.750	20.500	3.8795e-03
 7.750	20.750	3.8796e-03
 7.750	21.000	3.8796e-03
 7.750	21.250	3.8796e-03
 7.750	21.500	3.8796e-03
 7.750	21.750	3.8796e-03
 7.750	22.000	3.8796e-03
 7.750	22.250	3.8796e-03
 7.750	22.500	3.8796e-03
 7.750	22.750	3.8797e-03
 7.750	23.000	3.8796e-03
 7.750	23.250	3.8796e-03
 7.750	23.500	3.8797e-03
 7.750	23.750	3.8797e-03
 7.750	24.000	3.8797e-03
 8.000	17.000	1.7700e-03
 8.000	17.250	2.5127e-03
 8.000	17.500	3.4820e-03
 8.000	17.750	3.7291e-03
 8.000	18.000	3.8681e-03
 8.000	18.250	3.8705e-03
 8.000	18.500	3.8721e-03
 8.000	18.750	3.8739e-03
 8.000	19.000	3.8756e-03
 8.000	19.250	3.8771e-03
 8.000	19.500	3.8781e-03
 8.000	19.750	3.8786e-03
 8.000	20.000	3.8790e-03
 8.000	20.250	3.8793e-03
 8.000	20.500	3.8795e-03
 8.000	20.750	3.8795e-03
 8.000	21.000	3.8796e-03
 8.000	21.250	3.8796e-03
 8.000	21.500	3.8796e-03
 8.000	21.750	3.8796e-03
 8.000	22.000	3.8796e-03
 8.000	22.250	3.8796e-03
 8.000	22.500	3.8796e-03
 8.000	22.750	3.8796e-03
 8.000	23.000	3.8796e-03
 8.000	23.250	3.8796e-03
 8.000	23.500	3.8796e-03
 8.000	23.750	3.8796e-03
 8.000	24.000	3.8797e-03
 8.250	17.000	1.2398e-03
 8.250	17.250	1.7887e-03
 8.250	17.500	2.5272e-03
 8.250	17.750	3.4872e-03
 8.250	18.000	3.7295e-03
 8.250	18.250	3.8681e-03
 8.250	18.500	3.8705e-03
 8.250	18.750	3.8721e-03
 8.250	19.000	3.8739e-03
 8.250	19.250	3.8756e-03
 8.250	19.500	3.8771e-03
 8.250	19.750	3.8781e-03
 8.250	20.000	3.8785e-03
 8.250	20.250	3.8790e-03
 8.250	20.500	3.8793e-03
 8.250	20.750	3.8795e-03
 8.250	21.000	3.8795e-03
 8.250	21.250	3.8796e-03
 8.250	21.500	3.8796e-03
 8.250	21.750	3.8796e-03
 8.250	22.000	3.8796e-03
 8.250	22.250	3.8796e-03
 8.250	22.500	3.8796e-03
 8.250	22.750	3.8798e-03
 8.250	23.000	3.8796e-03
 8.250	23.250	3.8797e-03
 8.250	23.500	3.8798e-03
 8.250	23.750	3.8796e-03
 8.250	24.000	3.8797e-03
 8.500	17.000	8.6872e-04
 8.500	17.250	1.2576e-03
 8.500	17.500	1.8110e-03
 8.500	17.750	2.5445e-03
 8.500	18.000	3.4939e-03
 8.500	18.250	3.7297e-03
 8.500	18.500	3.8681e-03
 8.500	18.750	3.8705e-03
 8.500	19.000	3.8721e-03
 8.500	19.250	3.8739e-03
 8.500	19.500	3.8756e-03
 8.500	19.750	3.8771e-03
 8.500	20.000	3.8781e-03
 8.500	20.250	3.8785e-03
 8.500	20.500	3.8790e-03
 8.500	20.750	3.8793e-03
 8.500	21.000	3.8795e-03
 8.500	21.250	3.8795e-03
 8.500	21.500	3.8796e-03
 8.500	21.750	3.8796e-03
 8.500	22.000	3.8796e-03
 8.500	22.250	3.8796e-03
 8.500	22.500	3.8796e-03
 8.500	22.750	3.8796e-03
 8.500	23.000	3.8796e-03
 8.500	23.250	3.8796e-03
 8.500	23.500	3.8796e-03
 8.500	23.750	3.8796e-03
 8.500	24.000	3.8796e-03
 8.750	17.000	6.1012e-04
 8.750	17.250	8.8395e-04
 8.750	17.500	1.2810e-03
 8.750	17.750	1.8445e-03
 8.750	18.000	2.5775e-03
 8.750	18.250	3.5112e-03
 8.750	18.500	3.7297e-03
 8.750	18.750	3.8681e-03
 8.750	19.000	3.8704e-03
 8.750	19.250	3.8722e-03
 8.750	19.500	3.8739e-03
 8.750	19.750	3.8756e-03
 8.750	20.000	3.8771e-03
 8.750	20.250	3.8781e-03
 8.750	20.500	3.8785e-03
 8.750	20.750	3.8790e-03
 8.750	21.000	3.8793e-03
 8.750	21.250	3.8795e-03
 8.750	21.500	3.8795e-03
 8.750	21.750	3.8796e-03
 8.750	22.000	3.8796e-03
 8.750	22.250	3.8796e-03
 8.750	22.500	3.8796e-03
 8.750	22.750	3.8796e-03
 8.750	23.000	3.8796e-03
 8.750	23.250	3.8796e-03
 8.750	23.500	3.8797e-03
 8.750	23.750	3.8796e-03
 8.750	24.000	3.8796e-03
 9.000	17.000	4.2938e-04
 9.000	17.250	6.2263e-04
 9.000	17.500	9.0650e-04
 9.000	17.750	1.3207e-03
 9.000	18.000	1.8987e-03
 9.000	18.250	2.6397e-03
 9.000	18.500	3.5444e-03
 9.000	18.750	3.7293e-03
 9.000	19.000	3.8681e-03
 9.000	19.250	3.8704e-03
 9.000	19.500	3.8722e-03
 9.000	19.750	3.8739e-03
 9.000	20.000	3.8756e-03
 9.000	20.250	3.8771e-03
 9.000	20.500	3.8781e-03
 9.000	20.750	3.8785e-03
 9.000	21.000	3.8790e-03
 9.000	21.250	3.8793e-03
 9.000	21.500	3.8795e-03
 9.000	21.750	3.8795e-03
 9.000	22.000	3.8795e-03
 9.000	22.250	3.8796e-03
 9.000	22.500	3.8796e-03
 9.000	22.750	3.8796e-03
 9.000	23.000	3.8796e-03
 9.000	23.250	3.8796e-03
 9.000	23.500	3.8796e-03
 9.000	23.750	3.8796e-03
 9.000	24.000	3.8796e-03
 9.250	17.000	3.0280e-04
 9.250	17.250	4.3893e-04
 9.250	17.500	6.4247e-04
 9.250	17.750	9.4708e-04
 9.250	18.000	1.3916e-03
 9.250	18.250	2.0001e-03
 9.250	18.500	2.7574e-03
 9.250	18.750	3.6246e-03
 9.250	19.000	3.7281e-03
 9.250	19.250	3.8679e-03
 9.250	19.500	3.8704e-03
 9.250	19.750	3.8722e-03
 9.250	20.000	3.8740e-03
 9.250	20.250	3.8756e-03
 9.250	20.500	3.8771e-03
 9.250	20.750	3.8781e-03
 9.250	21.000	3.8785e-03
 9.250	21.250	3.8790e-03
 9.250	21.500	3.8790e-03
 9.250	21.750	3.8791e-03
 9.250	22.000	3.8790e-03
 9.250	22.250	3.8792e-03
 9.250	22.500	3.8793e-03
 9.250	22.750	3.8794e-03
 9.250	23.000	3.8795e-03
 9.250	23.250	3.8795e-03
 9.250	23.500	3.8795e-03
 9.250	23.750	3.8796e-03
 9.250	24.000	3.8796e-03
 9.500	17.000	2.1391e-04
 9.500	17.250	3.1053e-04
 9.500	17.500	4.5630e-04
 9.500	17.750	6.8082e-04
 9.500	18.000	1.0216e-03
 9.500	18.250	1.5172e-03
 9.500	18.500	2.1756e-03
 9.500	18.750	2.9748e-03
 9.500	19.000	3.6223e-03
 9.500	19.250	3.7255e-03
 9.500	19.500	3.8673e-03
 9.500	19.750	3.8703e-03
 9.500	20.000	3.8722e-03
 9.500	20.250	3.8740e-03
 9.500	20.500	3.8756e-03
 9.500	20.750	3.8768e-03
 9.500	21.000	3.8777e-03
 9.500	21.250	3.8782e-03
 9.500	21.500	3.8786e-03
 9.500	21.750	3.8787e-03
 9.500	22.000	3.8788e-03
 9.500	22.250	3.8788e-03
 9.500	22.500	3.8789e-03
 9.500	22.750	3.8788e-03
 9.500	23.000	3.8788e-03
 9.500	23.250	3.8788e-03
 9.500	23.500	3.8789e-03
 9.500	23.750	3.8789e-03
 9.500	24.000	3.8789e-03
 9.750	17.000	1.5119e-04
 9.750	17.250	2.1934e-04
 9.750	17.500	3.2379e-04
 9.750	17.750	4.8922e-04
 9.750	18.000	7.5309e-04
 9.750	18.250	1.1503e-03
 9.750	18.500	1.7012e-03
 9.750	18.750	2.3980e-03
 9.750	19.000	3.2540e-03
 9.750	19.250	3.6143e-03
 9.750	19.500	3.7198e-03
 9.750	19.750	3.8658e-03
 9.750	20.000	3.8700e-03
 9.750	20.250	3.8721e-03
 9.750	20.500	3.8739e-03
 9.750	20.750	3.8756e-03
 9.750	21.000	3.8770e-03
 9.750	21.250	3.8777e-03
 9.750	21.500	3.8782e-03
 9.750	21.750	3.8786e-03
 9.750	22.000	3.8788e-03
 9.750	22.250	3.8788e-03
 9.750	22.500	3.8788e-03
 9.750	22.750	3.8788e-03
 9.750	23.000	3.8789e-03
 9.750	23.250	3.8789e-03
 9.750	23.500	3.8789e-03
 9.750	23.750	3.8789e-03
 9.750	24.000	3.8789e-03
10.000	17.000	1.0675e-04
10.000	17.250	1.5523e-04
10.000	17.500	2.3004e-04
10.000	17.750	3.5202e-04
10.000	18.000	5.5588e-04
10.000	18.250	8.6782e-04
10.000	18.500	1.3127e-03
10.000	18.750	1.8987e-03
10.000	19.000	2.6494e-03
10.000	19.250	3.4135e-03
10.000	19.500	3.6065e-03
10.000	19.750	3.7129e-03
10.000	20.000	3.8646e-03
10.000	20.250	3.8697e-03
10.000	20.500	3.8720e-03
10.000	20.750	3.8739e-03
10.000	21.000	3.8756e-03
10.000	21.250	3.8770e-03
10.000	21.500	3.8778e-03
10.000	21.750	3.8782e-03
10.000	22.000	3.8786e-03
10.000	22.250	3.8788e-03
10.000	22.500	3.8788e-03
10.000	22.750	3.8788e-03
10.000	23.000	3.8789e-03
10.000	23.250	3.8788e-03
10.000	23.500	3.8789e-03
10.000	23.750	3.8789e-03
10.000	24.000	3.8789e-03
10.250	17.000	7.5391e-05
10.250	17.250	1.0988e-04
10.250	17.500	1.6395e-04
10.250	17.750	2.5473e-04
10.250	18.000	4.1037e-04
10.250	18.250	6.5045e-04
10.250	18.500	9.9597e-04
10.250	18.750	1.4708e-03
10.250	19.000	2.0935e-03
10.250	19.250	2.9063e-03
10.250	19.500	3.5255e-03
10.250	19.750	3.5947e-03
10.250	20.000	3.6996e-03
10.250	20.250	3.8594e-03
10.250	20.500	3.8686e-03
10.250	20.750	3.8719e-03
10.250	21.000	3.8738e-03
10.250	21.250	3.8756e-03
10.250	21.500	3.8770e-03
10.250	21.750	3.8779e-03
10.250	22.000	3.8783e-03
10.250	22.250	3.8787e-03
10.250	22.500	3.8789e-03
10.250	22.750	3.8789e-03
10.250	23.000	3.8788e-03
10.250	23.250	3.8789e-03
10.250	23.500	3.8789e-03
10.250	23.750	3.8789e-03
10.250	24.000	3.8789e-03
10.500	17.000	5.3333e-05
10.500	17.250	7.8025e-05
10.500	17.500	1.1737e-04
10.500	17.750	1.8535e-04
10.500	18.000	3.0313e-04
10.500	18.250	4.8724e-04
10.500	18.500	7.4535e-04
10.500	18.750	1.1104e-03
10.500	19.000	1.6122e-03
10.500	19.250	2.2778e-03
10.500	19.500	3.1119e-03
10.500	19.750	3.5193e-03
10.500	20.000	3.5827e-03
10.500	20.250	3.6918e-03
10.500	20.500	3.8552e-03
10.500	20.750	3.8660e-03
10.500	21.000	3.8714e-03
10.500	21.250	3.8737e-03
10.500	21.500	3.8756e-03
10.500	21.750	3.8770e-03
10.500	22.000	3.8780e-03
10.500	22.250	3.8784e-03
10.500	22.500	3.8787e-03
10.500	22.750	3.8789e-03
10.500	23.000	3.8790e-03
10.500	23.250	3.8789e-03
10.500	23.500	3.8788e-03
10.500	23.750	3.8789e-03
10.500	24.000	3.8789e-03
10.750	17.000	3.7778e-05
10.750	17.250	5.5473e-05
10.750	17.500	8.4362e-05
10.750	17.750	1.3539e-04
10.750	18.000	2.2337e-04
10.750	18.250	3.5918e-04
10.750	18.500	5.5218e-04
10.750	18.750	8.2897e-04
10.750	19.000	1.2096e-03
10.750	19.250	1.7328e-03
10.750	19.500	2.4280e-03
10.750	19.750	3.2859e-03
10.750	20.000	3.5082e-03
10.750	20.250	3.5812e-03
10.750	20.500	3.6849e-03
10.750	20.750	3.8495e-03
10.750	21.000	3.8624e-03
10.750	21.250	3.8705e-03
10.750	21.500	3.8735e-03
10.750	21.750	3.8754e-03
10.750	22.000	3.8769e-03
10.750	22.250	3.8779e-03
10.750	22.500	3.8784e-03
10.750	22.750	3.8788e-03
10.750	23.000	3.8790e-03
10.750	23.250	3.8790e-03
10.750	23.500	3.8790e-03
10.750	23.750	3.8789e-03
10.750	24.000	3.8789e-03
11.000	17.000	2.6749e-05
11.000	17.250	3.9506e-05
11.000	17.500	6.0741e-05
11.000	17.750	9.8683e-05
11.000	18.000	1.6337e-04
11.000	18.250	2.6222e-04
11.000	18.500	4.0626e-04
11.000	18.750	6.1037e-04
11.000	19.000	8.9432e-04
11.000	19.250	1.2902e-03
11.000	19.500	1.8348e-03
11.000	19.750	2.5732e-03
11.000	20.000	3.4064e-03
11.000	20.250	3.5010e-03
11.000	20.500	3.5709e-03
11.000	20.750	3.6832e-03
11.000	21.000	3.8428e-03
11.000	21.250	3.8582e-03
11.000	21.500	3.8692e-03
11.000	21.750	3.8730e-03
11.000	22.000	3.8750e-03
11.000	22.250	3.8767e-03
11.000	22.500	3.8779e-03
11.000	22.750	3.8784e-03
11.000	23.000	3.8789e-03
11.000	23.250	3.8790e-03
11.000	23.500	3.8791e-03
11.000	23.750	3.8791e-03
11.000	24.000	3.8790e-03
11.250	17.000	1.9012e-05
11.250	17.250	2.8066e-05
11.250	17.500	4.3539e-05
11.250	17.750	7.1440e-05
11.250	18.000	1.1835e-04
11.250	18.250	1.8963e-04
11.250	18.500	2.9259e-04
11.250	18.750	4.4354e-04
11.250	19.000	6.5193e-04
11.250	19.250	9.4774e-04
11.250	19.500	1.3595e-03
11.250	19.750	1.9291e-03
11.250	20.000	2.7017e-03
11.250	20.250	3.4201e-03
11.250	20.500	3.4953e-03
11.250	20.750	3.5700e-03
11.250	21.000	3.6858e-03
11.250	21.250	3.8392e-03
11.250	21.500	3.8550e-03
11.250	21.750	3.8667e-03
11.250	22.000	3.8721e-03
11.250	22.250	3.8743e-03
11.250	22.500	3.8764e-03
11.250	22.750	3.8778e-03
11.250	23.000	3.8784e-03
11.250	23.250	3.8789e-03
11.250	23.500	3.8790e-03
11.250	23.750	3.8791e-03
11.250	24.000	3.8791e-03
11.500	17.000	1.3745e-05
11.500	17.250	2.0082e-05
11.500	17.500	3.1193e-05
11.500	17.750	5.1276e-05
11.500	18.000	8.4774e-05
11.500	18.250	1.3531e-04
11.500	18.500	2.0963e-04
11.500	18.750	3.1844e-04
11.500	19.000	4.7202e-04
11.500	19.250	6.8724e-04
11.500	19.500	9.8790e-04
11.500	19.750	1.4147e-03
11.500	20.000	2.0094e-03
11.500	20.250	2.8230e-03
11.500	20.500	3.4162e-03
11.500	20.750	3.4914e-03
11.500	21.000	3.5722e-03
11.500	21.250	3.7030e-03
11.500	21.500	3.8363e-03
11.500	21.750	3.8519e-03
11.500	22.000	3.8638e-03
11.500	22.250	3.8704e-03
11.500	22.500	3.8734e-03
11.500	22.750	3.8758e-03
11.500	23.000	3.8776e-03
11.500	23.250	3.8783e-03
11.500	23.500	3.8788e-03
11.500	23.750	3.8792e-03
11.500	24.000	3.8791e-03
11.750	17.000	1.0041e-05
11.750	17.250	1.4486e-05
11.750	17.500	2.2387e-05
11.750	17.750	3.6626e-05
11.750	18.000	5.9835e-05
11.750	18.250	9.5309e-05
11.750	18.500	1.4831e-04
11.750	18.750	2.2527e-04
11.750	19.000	3.3728e-04
11.750	19.250	4.9391e-04
11.750	19.500	7.1498e-04
11.750	19.750	1.0236e-03
11.750	20.000	1.4639e-03
11.750	20.250	2.0799e-03
11.750	20.500	2.9271e-03
11.750	20.750	3.3980e-03
11.750	21.000	3.4887e-03
11.750	21.250	3.5853e-03
11.750	21.500	3.7401e-03
11.750	21.750	3.8326e-03
11.750	22.000	3.8480e-03
11.750	22.250	3.8603e-03
11.750	22.500	3.8681e-03
11.750	22.750	3.8719e-03
11.750	23.000	3.8750e-03
11.750	23.250	3.8773e-03
11.750	23.500	3.8781e-03
11.750	23.750	3.8788e-03
11.750	24.000	3.8793e-03
12.000	17.000	7.4897e-06
12.000	17.250	1.0617e-05
12.000	17.500	1.6132e-05
12.000	17.750	2.5844e-05
12.000	18.000	4.1646e-05
12.000	18.250	6.6420e-05
12.000	18.500	1.0379e-04
12.000	18.750	1.5918e-04
12.000	19.000	2.3992e-04
12.000	19.250	3.5317e-04
12.000	19.500	5.1300e-04
12.000	19.750	7.3737e-04
12.000	20.000	1.0542e-03
12.000	20.250	1.5027e-03
12.000	20.500	2.1325e-03
12.000	20.750	2.9937e-03
12.000	21.000	3.3755e-03
12.000	21.250	3.4905e-03
12.000	21.500	3.6160e-03
12.000	21.750	3.7852e-03
12.000	22.000	3.8283e-03
12.000	22.250	3.8436e-03
12.000	22.500	3.8566e-03
12.000	22.750	3.8653e-03
12.000	23.000	3.8696e-03
12.000	23.250	3.8737e-03
12.000	23.500	3.8769e-03
12.000	23.750	3.8779e-03
12.000	24.000	3.8787e-03
12.250	17.000	5.7613e-06
12.250	17.250	7.9012e-06
12.250	17.500	1.1687e-05
12.250	17.750	1.8107e-05
12.250	18.000	2.8807e-05
12.250	18.250	4.5926e-05
12.250	18.500	7.2510e-05
12.250	18.750	1.1226e-04
12.250	19.000	1.7004e-04
12.250	19.250	2.5119e-04
12.250	19.500	3.6568e-04
12.250	19.750	5.2757e-04
12.250	20.000	7.5416e-04
12.250	20.250	1.0758e-03
12.250	20.500	1.5317e-03
12.250	20.750	2.1756e-03
12.250	21.000	3.0225e-03
12.250	21.250	3.3509e-03
12.250	21.500	3.5091e-03
12.250	21.750	3.6478e-03
12.250	22.000	3.8022e-03
12.250	22.250	3.8223e-03
12.250	22.500	3.8386e-03
12.250	22.750	3.8523e-03
12.250	23.000	3.8616e-03
12.250	23.250	3.8668e-03
12.250	23.500	3.8721e-03
12.250	23.750	3.8763e-03
12.250	24.000	3.8776e-03
12.500	17.000	4.3621e-06
12.500	17.250	5.9259e-06
12.500	17.500	8.3951e-06
12.500	17.750	1.2675e-05
12.500	18.000	1.9918e-05
12.500	18.250	3.1852e-05
12.500	18.500	5.0700e-05
12.500	18.750	7.8848e-05
12.500	19.000	1.2025e-04
12.500	19.250	1.7868e-04
12.500	19.500	2.6058e-04
12.500	19.750	3.7638e-04
12.500	20.000	5.3909e-04
12.500	20.250	7.6741e-04
12.500	20.500	1.0908e-03
12.500	20.750	1.5495e-03
12.500	21.000	2.1998e-03
12.500	21.250	3.0674e-03
12.500	21.500	3.3449e-03
12.500	21.750	3.5179e-03
12.500	22.000	3.6807e-03
12.500	22.250	3.7931e-03
12.500	22.500	3.8139e-03
12.500	22.750	3.8317e-03
12.500	23.000	3.8466e-03
12.500	23.250	3.8568e-03
12.500	23.500	3.8630e-03
12.500	23.750	3.8698e-03
12.500	24.000	3.8756e-03
12.750	17.000	3.2099e-06
12.750	17.250	4.2798e-06
12.750	17.500	6.0082e-06
12.750	17.750	8.8889e-06
12.750	18.000	1.3909e-05
12.750	18.250	2.2222e-05
12.750	18.500	3.5309e-05
12.750	18.750	5.5391e-05
12.750	19.000	8.4774e-05
12.750	19.250	1.2675e-04
12.750	19.500	1.8519e-04
12.750	19.750	2.6774e-04
12.750	20.000	3.8395e-04
12.750	20.250	5.4807e-04
12.750	20.500	7.7300e-04
12.750	20.750	1.0987e-03
12.750	21.000	1.5588e-03
12.750	21.250	2.2186e-03
12.750	21.500	3.0388e-03
12.750	21.750	3.3128e-03
12.750	22.000	3.5244e-03
12.750	22.250	3.6992e-03
12.750	22.500	3.7778e-03
12.750	22.750	3.8014e-03
12.750	23.000	3.8218e-03
12.750	23.250	3.8384e-03
12.750	23.500	3.8500e-03
12.750	23.750	3.8575e-03
12.750	24.000	3.8665e-03
13.000	17.000	9.8765e-07
13.000	17.250	1.9753e-06
13.000	17.500	4.3621e-06
13.000	17.750	6.5021e-06
13.000	18.000	9.9588e-06
13.000	18.250	1.5638e-05
13.000	18.500	2.4774e-05
13.000	18.750	3.8765e-05
13.000	19.000	5.9506e-05
13.000	19.250	8.9465e-05
13.000	19.500	1.3144e-04
13.000	19.750	1.9037e-04
13.000	20.000	2.7235e-04
13.000	20.250	3.8848e-04
13.000	20.500	5.5144e-04
13.000	20.750	7.8049e-04
13.000	21.000	1.1019e-03
13.000	21.250	1.5634e-03
13.000	21.500	2.2312e-03
13.000	21.750	2.9665e-03
13.000	22.000	3.2778e-03
13.000	22.250	3.5131e-03
13.000	22.500	3.6889e-03
13.000	22.750	3.7541e-03
13.000	23.000	3.7827e-03
13.000	23.250	3.8069e-03
13.000	23.500	3.8263e-03
13.000	23.750	3.8398e-03
13.000	24.000	3.8494e-03
13.250	17.000	1.0000e-07
13.250	17.250	1.1523e-06
13.250	17.500	2.5514e-06
13.250	17.750	4.6091e-06
13.250	18.000	7.0782e-06
13.250	18.250	1.1029e-05
13.250	18.500	1.7366e-05
13.250	18.750	2.7160e-05
13.250	19.000	4.1728e-05
13.250	19.250	6.2798e-05
13.250	19.500	9.2757e-05
13.250	19.750	1.3481e-04
13.250	20.000	1.9374e-04
13.250	20.250	2.7654e-04
13.250	20.500	3.9193e-04
13.250	20.750	5.5309e-04
13.250	21.000	7.8140e-04
13.250	21.250	1.0973e-03
13.250	21.500	1.5633e-03
13.250	21.750	2.1970e-03
13.250	22.000	2.8697e-03
13.250	22.250	3.1921e-03
13.250	22.500	3.4627e-03
13.250	22.750	3.6454e-03
13.250	23.000	3.7174e-03
13.250	23.250	3.7537e-03
13.250	23.500	3.7843e-03
13.250	23.750	3.8081e-03
13.250	24.000	3.8241e-03
13.500	17.000	1.0000e-07
13.500	17.250	1.0000e-07
13.500	17.500	1.3992e-06
13.500	17.750	2.8807e-06
13.500	18.000	5.1029e-06
13.500	18.250	7.8189e-06
13.500	18.500	1.2099e-05
13.500	18.750	1.8848e-05
13.500	19.000	2.9053e-05
13.500	19.250	4.4115e-05
13.500	19.500	6.5267e-05
13.500	19.750	9.5226e-05
13.500	20.000	1.3695e-04
13.500	20.250	1.9621e-04
13.500	20.500	2.7802e-04
13.500	20.750	3.9235e-04
13.500	21.000	5.5119e-04
13.500	21.250	7.7086e-04
13.500	21.500	1.0877e-03
13.500	21.750	1.5235e-03
13.500	22.000	2.1157e-03
13.500	22.250	2.7125e-03
13.500	22.500	3.0752e-03
13.500	22.750	3.3729e-03
13.500	23.000	3.5735e-03
13.500	23.250	3.6609e-03
13.500	23.500	3.7095e-03
13.500	23.750	3.7503e-03
13.500	24.000	3.7798e-03
13.750	17.000	1.0000e-07
13.750	17.250	1.0000e-07
13.750	17.500	8.2305e-07
13.750	17.750	1.7284e-06
13.750	18.000	3.3745e-06
13.750	18.250	5.5144e-06
13.750	18.500	8.5597e-06
13.750	18.750	1.3169e-05
13.750	19.000	2.0082e-05
13.750	19.250	3.0453e-05
13.750	19.500	4.5514e-05
13.750	19.750	6.6749e-05
13.750	20.000	9.6708e-05
13.750	20.250	1.3860e-04
13.750	20.500	1.9737e-04
13.750	20.750	2.7844e-04
13.750	21.000	3.9078e-04
13.750	21.250	5.4354e-04
13.750	21.500	7.6370e-04
13.750	21.750	1.0562e-03
13.750	22.000	1.4559e-03
13.750	22.250	2.0015e-03
13.750	22.500	2.5338e-03
13.750	22.750	2.9187e-03
13.750	23.000	3.2429e-03
13.750	23.250	3.4737e-03
13.750	23.500	3.5771e-03
13.750	23.750	3.6441e-03
13.750	24.000	3.6987e-03
14.000	17.000	1.0000e-07
14.000	17.250	1.0000e-07
14.000	17.500	1.0000e-07
14.000	17.750	9.8765e-07
14.000	18.000	2.0576e-06
14.000	18.250	3.8683e-06
14.000	18.500	6.1728e-06
14.000	18.750	9.2181e-06
14.000	19.000	1.3992e-05
14.000	19.250	2.1070e-05
14.000	19.500	3.1440e-05
14.000	19.750	4.6502e-05
14.000	20.000	6.7901e-05
14.000	20.250	9.7695e-05
14.000	20.500	1.3959e-04
14.000	20.750	1.9745e-04
14.000	21.000	2.7712e-04
14.000	21.250	3.8519e-04
14.000	21.500	5.3901e-04
14.000	21.750	7.3918e-04
14.000	22.000	1.0011e-03
14.000	22.250	1.3510e-03
14.000	22.500	1.8541e-03
14.000	22.750	2.3305e-03
14.000	23.000	2.7443e-03
14.000	23.250	3.0774e-03
14.000	23.500	3.3374e-03
14.000	23.750	3.4565e-03
14.000	24.000	3.5493e-03
