InwT 6500.00A  relative to Inci 1215.00A scaled to 1215A.
Hden   Phi(H)  Eq_Width (A)
 7.000	17.000	1.6758e-02
 7.000	17.250	1.1213e-02
 7.000	17.500	8.3881e-03
 7.000	17.750	6.9852e-03
 7.000	18.000	6.3236e-03
 7.000	18.250	5.9673e-03
 7.000	18.500	5.7692e-03
 7.000	18.750	5.6844e-03
 7.000	19.000	5.6414e-03
 7.000	19.250	5.6178e-03
 7.000	19.500	5.6085e-03
 7.000	19.750	5.6047e-03
 7.000	20.000	5.6031e-03
 7.000	20.250	5.6025e-03
 7.000	20.500	5.6021e-03
 7.000	20.750	5.6020e-03
 7.000	21.000	5.6019e-03
 7.000	21.250	5.6018e-03
 7.000	21.500	5.6018e-03
 7.000	21.750	5.6017e-03
 7.000	22.000	5.6017e-03
 7.000	22.250	5.6018e-03
 7.000	22.500	5.6017e-03
 7.000	22.750	5.6024e-03
 7.000	23.000	5.6024e-03
 7.000	23.250	5.6018e-03
 7.000	23.500	5.6023e-03
 7.000	23.750	5.6023e-03
 7.000	24.000	5.6026e-03
 7.250	17.000	2.6018e-02
 7.250	17.250	1.6739e-02
 7.250	17.500	1.1205e-02
 7.250	17.750	8.3836e-03
 7.250	18.000	6.9838e-03
 7.250	18.250	6.3232e-03
 7.250	18.500	5.9672e-03
 7.250	18.750	5.7691e-03
 7.250	19.000	5.6844e-03
 7.250	19.250	5.6414e-03
 7.250	19.500	5.6178e-03
 7.250	19.750	5.6085e-03
 7.250	20.000	5.6047e-03
 7.250	20.250	5.6031e-03
 7.250	20.500	5.6024e-03
 7.250	20.750	5.6021e-03
 7.250	21.000	5.6019e-03
 7.250	21.250	5.6018e-03
 7.250	21.500	5.6018e-03
 7.250	21.750	5.6018e-03
 7.250	22.000	5.6017e-03
 7.250	22.250	5.6017e-03
 7.250	22.500	5.6017e-03
 7.250	22.750	5.6017e-03
 7.250	23.000	5.6017e-03
 7.250	23.250	5.6017e-03
 7.250	23.500	5.6017e-03
 7.250	23.750	5.6017e-03
 7.250	24.000	5.6017e-03
 7.500	17.000	3.9675e-02
 7.500	17.250	2.5958e-02
 7.500	17.500	1.6725e-02
 7.500	17.750	1.1199e-02
 7.500	18.000	8.3788e-03
 7.500	18.250	6.9821e-03
 7.500	18.500	6.3228e-03
 7.500	18.750	5.9671e-03
 7.500	19.000	5.7691e-03
 7.500	19.250	5.6844e-03
 7.500	19.500	5.6414e-03
 7.500	19.750	5.6178e-03
 7.500	20.000	5.6085e-03
 7.500	20.250	5.6047e-03
 7.500	20.500	5.6031e-03
 7.500	20.750	5.6024e-03
 7.500	21.000	5.6021e-03
 7.500	21.250	5.6019e-03
 7.500	21.500	5.6018e-03
 7.500	21.750	5.6017e-03
 7.500	22.000	5.6017e-03
 7.500	22.250	5.6017e-03
 7.500	22.500	5.6017e-03
 7.500	22.750	5.6017e-03
 7.500	23.000	5.6017e-03
 7.500	23.250	5.6017e-03
 7.500	23.500	5.6024e-03
 7.500	23.750	5.6017e-03
 7.500	24.000	5.6017e-03
 7.750	17.000	4.3237e-02
 7.750	17.250	3.9706e-02
 7.750	17.500	2.5912e-02
 7.750	17.750	1.6716e-02
 7.750	18.000	1.1194e-02
 7.750	18.250	8.3738e-03
 7.750	18.500	6.9801e-03
 7.750	18.750	6.3222e-03
 7.750	19.000	5.9670e-03
 7.750	19.250	5.7691e-03
 7.750	19.500	5.6844e-03
 7.750	19.750	5.6414e-03
 7.750	20.000	5.6178e-03
 7.750	20.250	5.6085e-03
 7.750	20.500	5.6047e-03
 7.750	20.750	5.6031e-03
 7.750	21.000	5.6024e-03
 7.750	21.250	5.6021e-03
 7.750	21.500	5.6019e-03
 7.750	21.750	5.6017e-03
 7.750	22.000	5.6017e-03
 7.750	22.250	5.6017e-03
 7.750	22.500	5.6016e-03
 7.750	22.750	5.6017e-03
 7.750	23.000	5.6016e-03
 7.750	23.250	5.6017e-03
 7.750	23.500	5.6018e-03
 7.750	23.750	5.6018e-03
 7.750	24.000	5.6017e-03
 8.000	17.000	4.5248e-02
 8.000	17.250	4.2897e-02
 8.000	17.500	3.9321e-02
 8.000	17.750	2.5864e-02
 8.000	18.000	1.6709e-02
 8.000	18.250	1.1190e-02
 8.000	18.500	8.3684e-03
 8.000	18.750	6.9777e-03
 8.000	19.000	6.3216e-03
 8.000	19.250	5.9669e-03
 8.000	19.500	5.7691e-03
 8.000	19.750	5.6844e-03
 8.000	20.000	5.6414e-03
 8.000	20.250	5.6178e-03
 8.000	20.500	5.6085e-03
 8.000	20.750	5.6047e-03
 8.000	21.000	5.6031e-03
 8.000	21.250	5.6024e-03
 8.000	21.500	5.6021e-03
 8.000	21.750	5.6019e-03
 8.000	22.000	5.6017e-03
 8.000	22.250	5.6017e-03
 8.000	22.500	5.6016e-03
 8.000	22.750	5.6016e-03
 8.000	23.000	5.6016e-03
 8.000	23.250	5.6016e-03
 8.000	23.500	5.6016e-03
 8.000	23.750	5.6016e-03
 8.000	24.000	5.6017e-03
 8.250	17.000	4.7143e-02
 8.250	17.250	4.5681e-02
 8.250	17.500	4.3119e-02
 8.250	17.750	3.9334e-02
 8.250	18.000	2.5842e-02
 8.250	18.250	1.6708e-02
 8.250	18.500	1.1187e-02
 8.250	18.750	8.3626e-03
 8.250	19.000	6.9751e-03
 8.250	19.250	6.3209e-03
 8.250	19.500	5.9668e-03
 8.250	19.750	5.7691e-03
 8.250	20.000	5.6844e-03
 8.250	20.250	5.6414e-03
 8.250	20.500	5.6178e-03
 8.250	20.750	5.6085e-03
 8.250	21.000	5.6047e-03
 8.250	21.250	5.6031e-03
 8.250	21.500	5.6024e-03
 8.250	21.750	5.6021e-03
 8.250	22.000	5.6019e-03
 8.250	22.250	5.6017e-03
 8.250	22.500	5.6017e-03
 8.250	22.750	5.6020e-03
 8.250	23.000	5.6016e-03
 8.250	23.250	5.6017e-03
 8.250	23.500	5.6020e-03
 8.250	23.750	5.6016e-03
 8.250	24.000	5.6017e-03
 8.500	17.000	4.8805e-02
 8.500	17.250	4.7750e-02
 8.500	17.500	4.6246e-02
 8.500	17.750	4.3438e-02
 8.500	18.000	3.9393e-02
 8.500	18.250	2.5829e-02
 8.500	18.500	1.6710e-02
 8.500	18.750	1.1184e-02
 8.500	19.000	8.3559e-03
 8.500	19.250	6.9722e-03
 8.500	19.500	6.3201e-03
 8.500	19.750	5.9667e-03
 8.500	20.000	5.7690e-03
 8.500	20.250	5.6844e-03
 8.500	20.500	5.6413e-03
 8.500	20.750	5.6178e-03
 8.500	21.000	5.6085e-03
 8.500	21.250	5.6047e-03
 8.500	21.500	5.6031e-03
 8.500	21.750	5.6024e-03
 8.500	22.000	5.6021e-03
 8.500	22.250	5.6019e-03
 8.500	22.500	5.6017e-03
 8.500	22.750	5.6017e-03
 8.500	23.000	5.6016e-03
 8.500	23.250	5.6016e-03
 8.500	23.500	5.6016e-03
 8.500	23.750	5.6016e-03
 8.500	24.000	5.6016e-03
 8.750	17.000	5.0240e-02
 8.750	17.250	4.9582e-02
 8.750	17.500	4.8662e-02
 8.750	17.750	4.7207e-02
 8.750	18.000	4.4134e-02
 8.750	18.250	3.9645e-02
 8.750	18.500	2.5821e-02
 8.750	18.750	1.6715e-02
 8.750	19.000	1.1181e-02
 8.750	19.250	8.3489e-03
 8.750	19.500	6.9689e-03
 8.750	19.750	6.3193e-03
 8.750	20.000	5.9665e-03
 8.750	20.250	5.7690e-03
 8.750	20.500	5.6844e-03
 8.750	20.750	5.6413e-03
 8.750	21.000	5.6178e-03
 8.750	21.250	5.6085e-03
 8.750	21.500	5.6047e-03
 8.750	21.750	5.6031e-03
 8.750	22.000	5.6024e-03
 8.750	22.250	5.6021e-03
 8.750	22.500	5.6019e-03
 8.750	22.750	5.6017e-03
 8.750	23.000	5.6017e-03
 8.750	23.250	5.6016e-03
 8.750	23.500	5.6017e-03
 8.750	23.750	5.6016e-03
 8.750	24.000	5.6016e-03
 9.000	17.000	5.1397e-02
 9.000	17.250	5.1213e-02
 9.000	17.500	5.0910e-02
 9.000	17.750	5.0396e-02
 9.000	18.000	4.9018e-02
 9.000	18.250	4.5627e-02
 9.000	18.500	4.0175e-02
 9.000	18.750	2.5813e-02
 9.000	19.000	1.6722e-02
 9.000	19.250	1.1180e-02
 9.000	19.500	8.3419e-03
 9.000	19.750	6.9656e-03
 9.000	20.000	6.3184e-03
 9.000	20.250	5.9663e-03
 9.000	20.500	5.7689e-03
 9.000	20.750	5.6844e-03
 9.000	21.000	5.6414e-03
 9.000	21.250	5.6178e-03
 9.000	21.500	5.6085e-03
 9.000	21.750	5.6047e-03
 9.000	22.000	5.6031e-03
 9.000	22.250	5.6024e-03
 9.000	22.500	5.6021e-03
 9.000	22.750	5.6019e-03
 9.000	23.000	5.6017e-03
 9.000	23.250	5.6017e-03
 9.000	23.500	5.6016e-03
 9.000	23.750	5.6016e-03
 9.000	24.000	5.6016e-03
 9.250	17.000	5.2245e-02
 9.250	17.250	5.2555e-02
 9.250	17.500	5.3055e-02
 9.250	17.750	5.3698e-02
 9.250	18.000	5.3971e-02
 9.250	18.250	5.2829e-02
 9.250	18.500	4.8767e-02
 9.250	18.750	4.1498e-02
 9.250	19.000	2.5801e-02
 9.250	19.250	1.6732e-02
 9.250	19.500	1.1181e-02
 9.250	19.750	8.3357e-03
 9.250	20.000	6.9624e-03
 9.250	20.250	6.3176e-03
 9.250	20.500	5.9663e-03
 9.250	20.750	5.7689e-03
 9.250	21.000	5.6844e-03
 9.250	21.250	5.6413e-03
 9.250	21.500	5.6172e-03
 9.250	21.750	5.6078e-03
 9.250	22.000	5.6040e-03
 9.250	22.250	5.6026e-03
 9.250	22.500	5.6021e-03
 9.250	22.750	5.6018e-03
 9.250	23.000	5.6017e-03
 9.250	23.250	5.6016e-03
 9.250	23.500	5.6016e-03
 9.250	23.750	5.6016e-03
 9.250	24.000	5.6016e-03
 9.500	17.000	5.2941e-02
 9.500	17.250	5.3791e-02
 9.500	17.500	5.5114e-02
 9.500	17.750	5.7129e-02
 9.500	18.000	5.9472e-02
 9.500	18.250	6.1263e-02
 9.500	18.500	6.0233e-02
 9.500	18.750	5.4843e-02
 9.500	19.000	4.1569e-02
 9.500	19.250	2.5780e-02
 9.500	19.500	1.6741e-02
 9.500	19.750	1.1183e-02
 9.500	20.000	8.3311e-03
 9.500	20.250	6.9596e-03
 9.500	20.500	6.3170e-03
 9.500	20.750	5.9658e-03
 9.500	21.000	5.7683e-03
 9.500	21.250	5.6839e-03
 9.500	21.500	5.6407e-03
 9.500	21.750	5.6168e-03
 9.500	22.000	5.6075e-03
 9.500	22.250	5.6038e-03
 9.500	22.500	5.6022e-03
 9.500	22.750	5.6014e-03
 9.500	23.000	5.6010e-03
 9.500	23.250	5.6008e-03
 9.500	23.500	5.6007e-03
 9.500	23.750	5.6007e-03
 9.500	24.000	5.6007e-03
 9.750	17.000	5.3372e-02
 9.750	17.250	5.4770e-02
 9.750	17.500	5.7042e-02
 9.750	17.750	6.0743e-02
 9.750	18.000	6.6072e-02
 9.750	18.250	7.1227e-02
 9.750	18.500	7.3656e-02
 9.750	18.750	7.0859e-02
 9.750	19.000	6.3179e-02
 9.750	19.250	4.1710e-02
 9.750	19.500	2.5756e-02
 9.750	19.750	1.6750e-02
 9.750	20.000	1.1188e-02
 9.750	20.250	8.3285e-03
 9.750	20.500	6.9574e-03
 9.750	20.750	6.3164e-03
 9.750	21.000	5.9658e-03
 9.750	21.250	5.7682e-03
 9.750	21.500	5.6839e-03
 9.750	21.750	5.6407e-03
 9.750	22.000	5.6170e-03
 9.750	22.250	5.6075e-03
 9.750	22.500	5.6038e-03
 9.750	22.750	5.6021e-03
 9.750	23.000	5.6015e-03
 9.750	23.250	5.6011e-03
 9.750	23.500	5.6009e-03
 9.750	23.750	5.6008e-03
 9.750	24.000	5.6007e-03
10.000	17.000	5.3466e-02
10.000	17.250	5.5713e-02
10.000	17.500	5.9142e-02
10.000	17.750	6.4927e-02
10.000	18.000	7.3870e-02
10.000	18.250	8.2711e-02
10.000	18.500	8.8609e-02
10.000	18.750	8.9109e-02
10.000	19.000	8.3826e-02
10.000	19.250	6.7828e-02
10.000	19.500	4.1769e-02
10.000	19.750	2.5689e-02
10.000	20.000	1.6753e-02
10.000	20.250	1.1193e-02
10.000	20.500	8.3273e-03
10.000	20.750	6.9556e-03
10.000	21.000	6.3161e-03
10.000	21.250	5.9658e-03
10.000	21.500	5.7683e-03
10.000	21.750	5.6839e-03
10.000	22.000	5.6408e-03
10.000	22.250	5.6170e-03
10.000	22.500	5.6075e-03
10.000	22.750	5.6038e-03
10.000	23.000	5.6022e-03
10.000	23.250	5.6014e-03
10.000	23.500	5.6011e-03
10.000	23.750	5.6009e-03
10.000	24.000	5.6008e-03
10.250	17.000	5.3911e-02
10.250	17.250	5.6685e-02
10.250	17.500	6.1824e-02
10.250	17.750	7.0424e-02
10.250	18.000	8.3050e-02
10.250	18.250	9.5471e-02
10.250	18.500	1.0441e-01
10.250	18.750	1.0856e-01
10.250	19.000	1.0647e-01
10.250	19.250	9.7935e-02
10.250	19.500	7.1093e-02
10.250	19.750	4.1692e-02
10.250	20.000	2.5617e-02
10.250	20.250	1.6743e-02
10.250	20.500	1.1197e-02
10.250	20.750	8.3277e-03
10.250	21.000	6.9547e-03
10.250	21.250	6.3160e-03
10.250	21.500	5.9658e-03
10.250	21.750	5.7685e-03
10.250	22.000	5.6840e-03
10.250	22.250	5.6408e-03
10.250	22.500	5.6171e-03
10.250	22.750	5.6077e-03
10.250	23.000	5.6037e-03
10.250	23.250	5.6022e-03
10.250	23.500	5.6015e-03
10.250	23.750	5.6011e-03
10.250	24.000	5.6009e-03
10.500	17.000	5.5018e-02
10.500	17.250	5.8559e-02
10.500	17.500	6.5601e-02
10.500	17.750	7.7891e-02
10.500	18.000	9.4023e-02
10.500	18.250	1.0969e-01
10.500	18.500	1.2058e-01
10.500	18.750	1.2711e-01
10.500	19.000	1.2822e-01
10.500	19.250	1.2292e-01
10.500	19.500	1.0920e-01
10.500	19.750	7.0942e-02
10.500	20.000	4.1385e-02
10.500	20.250	2.5472e-02
10.500	20.500	1.6707e-02
10.500	20.750	1.1196e-02
10.500	21.000	8.3291e-03
10.500	21.250	6.9542e-03
10.500	21.500	6.3162e-03
10.500	21.750	5.9658e-03
10.500	22.000	5.7686e-03
10.500	22.250	5.6842e-03
10.500	22.500	5.6409e-03
10.500	22.750	5.6172e-03
10.500	23.000	5.6077e-03
10.500	23.250	5.6039e-03
10.500	23.500	5.6021e-03
10.500	23.750	5.6015e-03
10.500	24.000	5.6011e-03
10.750	17.000	5.6909e-02
10.750	17.250	6.1439e-02
10.750	17.500	7.1340e-02
10.750	17.750	8.7379e-02
10.750	18.000	1.0656e-01
10.750	18.250	1.2388e-01
10.750	18.500	1.3672e-01
10.750	18.750	1.4546e-01
10.750	19.000	1.4862e-01
10.750	19.250	1.4660e-01
10.750	19.500	1.3834e-01
10.750	19.750	1.1999e-01
10.750	20.000	7.0791e-02
10.750	20.250	4.0711e-02
10.750	20.500	2.5196e-02
10.750	20.750	1.6632e-02
10.750	21.000	1.1187e-02
10.750	21.250	8.3307e-03
10.750	21.500	6.9544e-03
10.750	21.750	6.3166e-03
10.750	22.000	5.9658e-03
10.750	22.250	5.7685e-03
10.750	22.500	5.6844e-03
10.750	22.750	5.6411e-03
10.750	23.000	5.6172e-03
10.750	23.250	5.6078e-03
10.750	23.500	5.6040e-03
10.750	23.750	5.6022e-03
10.750	24.000	5.6015e-03
11.000	17.000	5.9661e-02
11.000	17.250	6.5296e-02
11.000	17.500	7.8405e-02
11.000	17.750	9.8229e-02
11.000	18.000	1.1942e-01
11.000	18.250	1.3804e-01
11.000	18.500	1.5284e-01
11.000	18.750	1.6306e-01
11.000	19.000	1.6833e-01
11.000	19.250	1.6891e-01
11.000	19.500	1.6456e-01
11.000	19.750	1.5453e-01
11.000	20.000	1.2867e-01
11.000	20.250	6.9854e-02
11.000	20.500	4.0416e-02
11.000	20.750	2.4930e-02
11.000	21.000	1.6513e-02
11.000	21.250	1.1162e-02
11.000	21.500	8.3315e-03
11.000	21.750	6.9551e-03
11.000	22.000	6.3171e-03
11.000	22.250	5.9658e-03
11.000	22.500	5.7684e-03
11.000	22.750	5.6844e-03
11.000	23.000	5.6412e-03
11.000	23.250	5.6172e-03
11.000	23.500	5.6079e-03
11.000	23.750	5.6040e-03
11.000	24.000	5.6024e-03
11.250	17.000	6.3407e-02
11.250	17.250	6.9815e-02
11.250	17.500	8.5758e-02
11.250	17.750	1.0884e-01
11.250	18.000	1.3206e-01
11.250	18.250	1.5172e-01
11.250	18.500	1.6725e-01
11.250	18.750	1.7957e-01
11.250	19.000	1.8667e-01
11.250	19.250	1.8998e-01
11.250	19.500	1.8853e-01
11.250	19.750	1.8236e-01
11.250	20.000	1.7062e-01
11.250	20.250	1.2995e-01
11.250	20.500	6.9405e-02
11.250	20.750	3.9752e-02
11.250	21.000	2.4634e-02
11.250	21.250	1.6349e-02
11.250	21.500	1.1117e-02
11.250	21.750	8.3289e-03
11.250	22.000	6.9559e-03
11.250	22.250	6.3176e-03
11.250	22.500	5.9658e-03
11.250	22.750	5.7682e-03
11.250	23.000	5.6843e-03
11.250	23.250	5.6413e-03
11.250	23.500	5.6173e-03
11.250	23.750	5.6079e-03
11.250	24.000	5.6041e-03
11.500	17.000	6.8551e-02
11.500	17.250	7.5271e-02
11.500	17.500	9.2861e-02
11.500	17.750	1.1818e-01
11.500	18.000	1.4332e-01
11.500	18.250	1.6406e-01
11.500	18.500	1.8092e-01
11.500	18.750	1.9462e-01
11.500	19.000	2.0403e-01
11.500	19.250	2.0898e-01
11.500	19.500	2.0934e-01
11.500	19.750	2.0638e-01
11.500	20.000	1.9916e-01
11.500	20.250	1.8648e-01
11.500	20.500	1.3059e-01
11.500	20.750	6.8632e-02
11.500	21.000	3.9217e-02
11.500	21.250	2.4444e-02
11.500	21.500	1.6154e-02
11.500	21.750	1.1048e-02
11.500	22.000	8.3211e-03
11.500	22.250	6.9565e-03
11.500	22.500	6.3179e-03
11.500	22.750	5.9657e-03
11.500	23.000	5.7680e-03
11.500	23.250	5.6842e-03
11.500	23.500	5.6413e-03
11.500	23.750	5.6175e-03
11.500	24.000	5.6079e-03
11.750	17.000	7.5480e-02
11.750	17.250	8.1746e-02
11.750	17.500	9.9679e-02
11.750	17.750	1.2593e-01
11.750	18.000	1.5225e-01
11.750	18.250	1.7465e-01
11.750	18.500	1.9332e-01
11.750	18.750	2.0802e-01
11.750	19.000	2.1950e-01
11.750	19.250	2.2612e-01
11.750	19.500	2.2876e-01
11.750	19.750	2.2705e-01
11.750	20.000	2.2270e-01
11.750	20.250	2.1452e-01
11.750	20.500	2.0086e-01
11.750	20.750	1.3048e-01
11.750	21.000	6.7820e-02
11.750	21.250	3.8783e-02
11.750	21.500	2.4538e-02
11.750	21.750	1.5949e-02
11.750	22.000	1.0957e-02
11.750	22.250	8.3060e-03
11.750	22.500	6.9566e-03
11.750	22.750	6.3179e-03
11.750	23.000	5.9653e-03
11.750	23.250	5.7677e-03
11.750	23.500	5.6840e-03
11.750	23.750	5.6412e-03
11.750	24.000	5.6176e-03
12.000	17.000	8.4784e-02
12.000	17.250	8.9552e-02
12.000	17.500	1.0615e-01
12.000	17.750	1.3155e-01
12.000	18.000	1.5843e-01
12.000	18.250	1.8297e-01
12.000	18.500	2.0393e-01
12.000	18.750	2.2103e-01
12.000	19.000	2.3395e-01
12.000	19.250	2.4199e-01
12.000	19.500	2.4585e-01
12.000	19.750	2.4551e-01
12.000	20.000	2.4224e-01
12.000	20.250	2.3643e-01
12.000	20.500	2.2734e-01
12.000	20.750	2.1131e-01
12.000	21.000	1.2939e-01
12.000	21.250	6.7355e-02
12.000	21.500	3.8768e-02
12.000	21.750	2.4782e-02
12.000	22.000	1.5734e-02
12.000	22.250	1.0885e-02
12.000	22.500	8.2829e-03
12.000	22.750	6.9560e-03
12.000	23.000	6.3174e-03
12.000	23.250	5.9649e-03
12.000	23.500	5.7672e-03
12.000	23.750	5.6839e-03
12.000	24.000	5.6412e-03
12.250	17.000	9.6770e-02
12.250	17.250	9.8842e-02
12.250	17.500	1.1221e-01
12.250	17.750	1.3501e-01
12.250	18.000	1.6191e-01
12.250	18.250	1.8880e-01
12.250	18.500	2.1299e-01
12.250	18.750	2.3279e-01
12.250	19.000	2.4715e-01
12.250	19.250	2.5603e-01
12.250	19.500	2.6055e-01
12.250	19.750	2.6139e-01
12.250	20.000	2.5857e-01
12.250	20.250	2.5388e-01
12.250	20.500	2.4746e-01
12.250	20.750	2.3818e-01
12.250	21.000	2.1759e-01
12.250	21.250	1.2753e-01
12.250	21.500	6.7275e-02
12.250	21.750	3.8836e-02
12.250	22.000	2.4640e-02
12.250	22.250	1.5529e-02
12.250	22.500	1.0785e-02
12.250	22.750	8.2524e-03
12.250	23.000	6.9537e-03
12.250	23.250	6.3161e-03
12.250	23.500	5.9639e-03
12.250	23.750	5.7664e-03
12.250	24.000	5.6835e-03
12.500	17.000	1.0962e-01
12.500	17.250	1.0857e-01
12.500	17.500	1.1759e-01
12.500	17.750	1.3696e-01
12.500	18.000	1.6372e-01
12.500	18.250	1.9239e-01
12.500	18.500	2.1961e-01
12.500	18.750	2.4214e-01
12.500	19.000	2.5882e-01
12.500	19.250	2.6852e-01
12.500	19.500	2.7326e-01
12.500	19.750	2.7454e-01
12.500	20.000	2.7269e-01
12.500	20.250	2.6830e-01
12.500	20.500	2.6272e-01
12.500	20.750	2.5606e-01
12.500	21.000	2.4683e-01
12.500	21.250	2.2667e-01
12.500	21.500	1.2585e-01
12.500	21.750	6.6552e-02
12.500	22.000	3.9148e-02
12.500	22.250	2.4152e-02
12.500	22.500	1.5321e-02
12.500	22.750	1.0656e-02
12.500	23.000	8.2147e-03
12.500	23.250	6.9490e-03
12.500	23.500	6.3138e-03
12.500	23.750	5.9623e-03
12.500	24.000	5.7655e-03
12.750	17.000	1.1450e-01
12.750	17.250	1.1299e-01
12.750	17.500	1.2045e-01
12.750	17.750	1.3942e-01
12.750	18.000	1.6540e-01
12.750	18.250	1.9476e-01
12.750	18.500	2.2337e-01
12.750	18.750	2.4866e-01
12.750	19.000	2.6747e-01
12.750	19.250	2.7901e-01
12.750	19.500	2.8374e-01
12.750	19.750	2.8509e-01
12.750	20.000	2.8369e-01
12.750	20.250	2.8071e-01
12.750	20.500	2.7444e-01
12.750	20.750	2.6945e-01
12.750	21.000	2.6327e-01
12.750	21.250	2.5514e-01
12.750	21.500	2.2140e-01
12.750	21.750	1.2255e-01
12.750	22.000	6.5947e-02
12.750	22.250	3.9323e-02
12.750	22.500	2.3677e-02
12.750	22.750	1.5096e-02
12.750	23.000	1.0541e-02
12.750	23.250	8.1714e-03
12.750	23.500	6.9402e-03
12.750	23.750	6.3093e-03
12.750	24.000	5.9597e-03
13.000	17.000	7.9218e-02
13.000	17.250	9.5817e-02
13.000	17.500	1.2561e-01
13.000	17.750	1.4407e-01
13.000	18.000	1.6848e-01
13.000	18.250	1.9706e-01
13.000	18.500	2.2618e-01
13.000	18.750	2.5229e-01
13.000	19.000	2.7282e-01
13.000	19.250	2.8635e-01
13.000	19.500	2.9265e-01
13.000	19.750	2.9382e-01
13.000	20.000	2.9216e-01
13.000	20.250	2.8936e-01
13.000	20.500	2.8554e-01
13.000	20.750	2.8064e-01
13.000	21.000	2.7576e-01
13.000	21.250	2.7121e-01
13.000	21.500	2.5802e-01
13.000	21.750	2.1383e-01
13.000	22.000	1.1884e-01
13.000	22.250	6.4975e-02
13.000	22.500	3.8958e-02
13.000	22.750	2.3163e-02
13.000	23.000	1.4785e-02
13.000	23.250	1.0458e-02
13.000	23.500	8.1202e-03
13.000	23.750	6.9252e-03
13.000	24.000	6.3011e-03
13.250	17.000	7.8088e-02
13.250	17.250	9.2682e-02
13.250	17.500	1.2165e-01
13.250	17.750	1.4919e-01
13.250	18.000	1.7332e-01
13.250	18.250	2.0053e-01
13.250	18.500	2.2899e-01
13.250	18.750	2.5510e-01
13.250	19.000	2.7634e-01
13.250	19.250	2.9069e-01
13.250	19.500	2.9853e-01
13.250	19.750	3.0087e-01
13.250	20.000	2.9973e-01
13.250	20.250	2.9700e-01
13.250	20.500	2.9337e-01
13.250	20.750	2.8928e-01
13.250	21.000	2.8606e-01
13.250	21.250	2.8145e-01
13.250	21.500	2.7281e-01
13.250	21.750	2.5870e-01
13.250	22.000	2.0332e-01
13.250	22.250	1.1366e-01
13.250	22.500	6.3798e-02
13.250	22.750	3.7917e-02
13.250	23.000	2.2606e-02
13.250	23.250	1.4528e-02
13.250	23.500	1.0331e-02
13.250	23.750	8.0636e-03
13.250	24.000	6.9022e-03
13.500	17.000	7.6979e-02
13.500	17.250	9.1385e-02
13.500	17.500	1.1692e-01
13.500	17.750	1.4809e-01
13.500	18.000	1.8026e-01
13.500	18.250	2.0554e-01
13.500	18.500	2.3216e-01
13.500	18.750	2.5785e-01
13.500	19.000	2.7946e-01
13.500	19.250	2.9526e-01
13.500	19.500	3.0374e-01
13.500	19.750	3.0678e-01
13.500	20.000	3.0654e-01
13.500	20.250	3.0490e-01
13.500	20.500	3.0045e-01
13.500	20.750	2.9586e-01
13.500	21.000	2.9146e-01
13.500	21.250	2.8812e-01
13.500	21.500	2.7935e-01
13.500	21.750	2.7322e-01
13.500	22.000	2.5486e-01
13.500	22.250	1.8948e-01
13.500	22.500	1.0703e-01
13.500	22.750	6.1257e-02
13.500	23.000	3.6507e-02
13.500	23.250	2.2046e-02
13.500	23.500	1.4260e-02
13.500	23.750	1.0148e-02
13.500	24.000	7.9952e-03
13.750	17.000	7.6472e-02
13.750	17.250	9.0178e-02
13.750	17.500	1.1430e-01
13.750	17.750	1.4548e-01
13.750	18.000	1.8291e-01
13.750	18.250	2.1151e-01
13.750	18.500	2.3835e-01
13.750	18.750	2.6200e-01
13.750	19.000	2.8306e-01
13.750	19.250	2.9946e-01
13.750	19.500	3.0982e-01
13.750	19.750	3.1416e-01
13.750	20.000	3.1444e-01
13.750	20.250	3.1244e-01
13.750	20.500	3.0916e-01
13.750	20.750	3.0414e-01
13.750	21.000	2.9888e-01
13.750	21.250	2.9377e-01
13.750	21.500	2.8632e-01
13.750	21.750	2.8222e-01
13.750	22.000	2.7504e-01
13.750	22.250	2.4941e-01
13.750	22.500	1.7356e-01
13.750	22.750	9.9086e-02
13.750	23.000	5.7715e-02
13.750	23.250	3.5043e-02
13.750	23.500	2.1369e-02
13.750	23.750	1.3948e-02
13.750	24.000	9.9754e-03
14.000	17.000	7.6219e-02
14.000	17.250	8.8738e-02
14.000	17.500	1.1233e-01
14.000	17.750	1.4145e-01
14.000	18.000	1.8200e-01
14.000	18.250	2.1986e-01
14.000	18.500	2.4748e-01
14.000	18.750	2.6894e-01
14.000	19.000	2.8834e-01
14.000	19.250	3.0494e-01
14.000	19.500	3.1667e-01
14.000	19.750	3.2315e-01
14.000	20.000	3.2446e-01
14.000	20.250	3.2246e-01
14.000	20.500	3.1923e-01
14.000	20.750	3.1458e-01
14.000	21.000	3.0911e-01
14.000	21.250	3.0395e-01
14.000	21.500	2.9561e-01
14.000	21.750	2.9289e-01
14.000	22.000	2.9105e-01
14.000	22.250	2.8162e-01
14.000	22.500	2.4128e-01
14.000	22.750	1.5711e-01
14.000	23.000	9.2030e-02
14.000	23.250	5.4380e-02
14.000	23.500	3.3589e-02
14.000	23.750	2.0614e-02
14.000	24.000	1.3551e-02
