InwT 2071.34A  relative to Inci 1215.00A scaled to 1215A.
Hden   Phi(H)  Eq_Width (A)
 7.000	17.000	3.4650e-02
 7.000	17.250	2.5166e-02
 7.000	17.500	1.9576e-02
 7.000	17.750	1.6494e-02
 7.000	18.000	1.4953e-02
 7.000	18.250	1.4113e-02
 7.000	18.500	1.3646e-02
 7.000	18.750	1.3443e-02
 7.000	19.000	1.3339e-02
 7.000	19.250	1.3281e-02
 7.000	19.500	1.3258e-02
 7.000	19.750	1.3248e-02
 7.000	20.000	1.3244e-02
 7.000	20.250	1.3242e-02
 7.000	20.500	1.3241e-02
 7.000	20.750	1.3240e-02
 7.000	21.000	1.3240e-02
 7.000	21.250	1.3240e-02
 7.000	21.500	1.3240e-02
 7.000	21.750	1.3240e-02
 7.000	22.000	1.3240e-02
 7.000	22.250	1.3240e-02
 7.000	22.500	1.3240e-02
 7.000	22.750	1.3241e-02
 7.000	23.000	1.3241e-02
 7.000	23.250	1.3240e-02
 7.000	23.500	1.3241e-02
 7.000	23.750	1.3241e-02
 7.000	24.000	1.3242e-02
 7.250	17.000	4.5724e-02
 7.250	17.250	3.4600e-02
 7.250	17.500	2.5134e-02
 7.250	17.750	1.9557e-02
 7.250	18.000	1.6485e-02
 7.250	18.250	1.4949e-02
 7.250	18.500	1.4112e-02
 7.250	18.750	1.3645e-02
 7.250	19.000	1.3443e-02
 7.250	19.250	1.3339e-02
 7.250	19.500	1.3281e-02
 7.250	19.750	1.3258e-02
 7.250	20.000	1.3248e-02
 7.250	20.250	1.3244e-02
 7.250	20.500	1.3242e-02
 7.250	20.750	1.3241e-02
 7.250	21.000	1.3240e-02
 7.250	21.250	1.3240e-02
 7.250	21.500	1.3240e-02
 7.250	21.750	1.3240e-02
 7.250	22.000	1.3240e-02
 7.250	22.250	1.3240e-02
 7.250	22.500	1.3240e-02
 7.250	22.750	1.3240e-02
 7.250	23.000	1.3240e-02
 7.250	23.250	1.3240e-02
 7.250	23.500	1.3240e-02
 7.250	23.750	1.3240e-02
 7.250	24.000	1.3240e-02
 7.500	17.000	6.1506e-02
 7.500	17.250	4.5635e-02
 7.500	17.500	3.4570e-02
 7.500	17.750	2.5114e-02
 7.500	18.000	1.9543e-02
 7.500	18.250	1.6478e-02
 7.500	18.500	1.4946e-02
 7.500	18.750	1.4110e-02
 7.500	19.000	1.3645e-02
 7.500	19.250	1.3443e-02
 7.500	19.500	1.3339e-02
 7.500	19.750	1.3281e-02
 7.500	20.000	1.3258e-02
 7.500	20.250	1.3248e-02
 7.500	20.500	1.3244e-02
 7.500	20.750	1.3242e-02
 7.500	21.000	1.3241e-02
 7.500	21.250	1.3240e-02
 7.500	21.500	1.3240e-02
 7.500	21.750	1.3240e-02
 7.500	22.000	1.3240e-02
 7.500	22.250	1.3240e-02
 7.500	22.500	1.3240e-02
 7.500	22.750	1.3240e-02
 7.500	23.000	1.3240e-02
 7.500	23.250	1.3240e-02
 7.500	23.500	1.3241e-02
 7.500	23.750	1.3240e-02
 7.500	24.000	1.3240e-02
 7.750	17.000	5.9575e-02
 7.750	17.250	6.1473e-02
 7.750	17.500	4.5563e-02
 7.750	17.750	3.4553e-02
 7.750	18.000	2.5102e-02
 7.750	18.250	1.9532e-02
 7.750	18.500	1.6472e-02
 7.750	18.750	1.4944e-02
 7.750	19.000	1.4110e-02
 7.750	19.250	1.3644e-02
 7.750	19.500	1.3443e-02
 7.750	19.750	1.3339e-02
 7.750	20.000	1.3281e-02
 7.750	20.250	1.3258e-02
 7.750	20.500	1.3248e-02
 7.750	20.750	1.3244e-02
 7.750	21.000	1.3242e-02
 7.750	21.250	1.3241e-02
 7.750	21.500	1.3240e-02
 7.750	21.750	1.3240e-02
 7.750	22.000	1.3240e-02
 7.750	22.250	1.3240e-02
 7.750	22.500	1.3240e-02
 7.750	22.750	1.3240e-02
 7.750	23.000	1.3240e-02
 7.750	23.250	1.3240e-02
 7.750	23.500	1.3240e-02
 7.750	23.750	1.3240e-02
 7.750	24.000	1.3240e-02
 8.000	17.000	5.6615e-02
 8.000	17.250	5.8787e-02
 8.000	17.500	6.0721e-02
 8.000	17.750	4.5451e-02
 8.000	18.000	3.4543e-02
 8.000	18.250	2.5093e-02
 8.000	18.500	1.9521e-02
 8.000	18.750	1.6467e-02
 8.000	19.000	1.4942e-02
 8.000	19.250	1.4109e-02
 8.000	19.500	1.3644e-02
 8.000	19.750	1.3442e-02
 8.000	20.000	1.3339e-02
 8.000	20.250	1.3281e-02
 8.000	20.500	1.3258e-02
 8.000	20.750	1.3248e-02
 8.000	21.000	1.3244e-02
 8.000	21.250	1.3242e-02
 8.000	21.500	1.3241e-02
 8.000	21.750	1.3240e-02
 8.000	22.000	1.3240e-02
 8.000	22.250	1.3240e-02
 8.000	22.500	1.3240e-02
 8.000	22.750	1.3240e-02
 8.000	23.000	1.3240e-02
 8.000	23.250	1.3240e-02
 8.000	23.500	1.3240e-02
 8.000	23.750	1.3240e-02
 8.000	24.000	1.3240e-02
 8.250	17.000	5.4377e-02
 8.250	17.250	5.6717e-02
 8.250	17.500	5.8814e-02
 8.250	17.750	6.0670e-02
 8.250	18.000	4.5415e-02
 8.250	18.250	3.4536e-02
 8.250	18.500	2.5088e-02
 8.250	18.750	1.9511e-02
 8.250	19.000	1.6461e-02
 8.250	19.250	1.4940e-02
 8.250	19.500	1.4109e-02
 8.250	19.750	1.3644e-02
 8.250	20.000	1.3442e-02
 8.250	20.250	1.3339e-02
 8.250	20.500	1.3281e-02
 8.250	20.750	1.3258e-02
 8.250	21.000	1.3248e-02
 8.250	21.250	1.3244e-02
 8.250	21.500	1.3242e-02
 8.250	21.750	1.3241e-02
 8.250	22.000	1.3240e-02
 8.250	22.250	1.3240e-02
 8.250	22.500	1.3240e-02
 8.250	22.750	1.3240e-02
 8.250	23.000	1.3240e-02
 8.250	23.250	1.3240e-02
 8.250	23.500	1.3240e-02
 8.250	23.750	1.3240e-02
 8.250	24.000	1.3240e-02
 8.500	17.000	5.2315e-02
 8.500	17.250	5.4582e-02
 8.500	17.500	5.6961e-02
 8.500	17.750	5.8974e-02
 8.500	18.000	6.0696e-02
 8.500	18.250	4.5389e-02
 8.500	18.500	3.4530e-02
 8.500	18.750	2.5084e-02
 8.500	19.000	1.9501e-02
 8.500	19.250	1.6454e-02
 8.500	19.500	1.4938e-02
 8.500	19.750	1.4108e-02
 8.500	20.000	1.3644e-02
 8.500	20.250	1.3442e-02
 8.500	20.500	1.3339e-02
 8.500	20.750	1.3281e-02
 8.500	21.000	1.3258e-02
 8.500	21.250	1.3248e-02
 8.500	21.500	1.3244e-02
 8.500	21.750	1.3242e-02
 8.500	22.000	1.3241e-02
 8.500	22.250	1.3240e-02
 8.500	22.500	1.3240e-02
 8.500	22.750	1.3240e-02
 8.500	23.000	1.3240e-02
 8.500	23.250	1.3240e-02
 8.500	23.500	1.3240e-02
 8.500	23.750	1.3240e-02
 8.500	24.000	1.3240e-02
 8.750	17.000	5.0317e-02
 8.750	17.250	5.2648e-02
 8.750	17.500	5.5049e-02
 8.750	17.750	5.7511e-02
 8.750	18.000	5.9477e-02
 8.750	18.250	6.0987e-02
 8.750	18.500	4.5377e-02
 8.750	18.750	3.4525e-02
 8.750	19.000	2.5080e-02
 8.750	19.250	1.9490e-02
 8.750	19.500	1.6448e-02
 8.750	19.750	1.4936e-02
 8.750	20.000	1.4108e-02
 8.750	20.250	1.3644e-02
 8.750	20.500	1.3442e-02
 8.750	20.750	1.3339e-02
 8.750	21.000	1.3281e-02
 8.750	21.250	1.3258e-02
 8.750	21.500	1.3248e-02
 8.750	21.750	1.3244e-02
 8.750	22.000	1.3242e-02
 8.750	22.250	1.3241e-02
 8.750	22.500	1.3240e-02
 8.750	22.750	1.3240e-02
 8.750	23.000	1.3240e-02
 8.750	23.250	1.3240e-02
 8.750	23.500	1.3240e-02
 8.750	23.750	1.3240e-02
 8.750	24.000	1.3240e-02
 9.000	17.000	4.8190e-02
 9.000	17.250	5.0820e-02
 9.000	17.500	5.3400e-02
 9.000	17.750	5.6122e-02
 9.000	18.000	5.8782e-02
 9.000	18.250	6.0788e-02
 9.000	18.500	6.1670e-02
 9.000	18.750	4.5365e-02
 9.000	19.000	3.4518e-02
 9.000	19.250	2.5078e-02
 9.000	19.500	1.9479e-02
 9.000	19.750	1.6441e-02
 9.000	20.000	1.4934e-02
 9.000	20.250	1.4108e-02
 9.000	20.500	1.3644e-02
 9.000	20.750	1.3442e-02
 9.000	21.000	1.3339e-02
 9.000	21.250	1.3281e-02
 9.000	21.500	1.3258e-02
 9.000	21.750	1.3248e-02
 9.000	22.000	1.3244e-02
 9.000	22.250	1.3242e-02
 9.000	22.500	1.3241e-02
 9.000	22.750	1.3240e-02
 9.000	23.000	1.3240e-02
 9.000	23.250	1.3240e-02
 9.000	23.500	1.3240e-02
 9.000	23.750	1.3240e-02
 9.000	24.000	1.3240e-02
 9.250	17.000	4.5738e-02
 9.250	17.250	4.8853e-02
 9.250	17.500	5.1945e-02
 9.250	17.750	5.5171e-02
 9.250	18.000	5.8477e-02
 9.250	18.250	6.1646e-02
 9.250	18.500	6.3938e-02
 9.250	18.750	6.3472e-02
 9.250	19.000	4.5342e-02
 9.250	19.250	3.4509e-02
 9.250	19.500	2.5076e-02
 9.250	19.750	1.9470e-02
 9.250	20.000	1.6434e-02
 9.250	20.250	1.4933e-02
 9.250	20.500	1.4107e-02
 9.250	20.750	1.3644e-02
 9.250	21.000	1.3442e-02
 9.250	21.250	1.3339e-02
 9.250	21.500	1.3280e-02
 9.250	21.750	1.3256e-02
 9.250	22.000	1.3246e-02
 9.250	22.250	1.3242e-02
 9.250	22.500	1.3241e-02
 9.250	22.750	1.3240e-02
 9.250	23.000	1.3240e-02
 9.250	23.250	1.3240e-02
 9.250	23.500	1.3240e-02
 9.250	23.750	1.3240e-02
 9.250	24.000	1.3240e-02
 9.500	17.000	4.2904e-02
 9.500	17.250	4.6642e-02
 9.500	17.500	5.0467e-02
 9.500	17.750	5.4547e-02
 9.500	18.000	5.8810e-02
 9.500	18.250	6.3360e-02
 9.500	18.500	6.7522e-02
 9.500	18.750	7.0432e-02
 9.500	19.000	6.3344e-02
 9.500	19.250	4.5300e-02
 9.500	19.500	3.4497e-02
 9.500	19.750	2.5075e-02
 9.500	20.000	1.9463e-02
 9.500	20.250	1.6428e-02
 9.500	20.500	1.4931e-02
 9.500	20.750	1.4106e-02
 9.500	21.000	1.3642e-02
 9.500	21.250	1.3441e-02
 9.500	21.500	1.3337e-02
 9.500	21.750	1.3279e-02
 9.500	22.000	1.3255e-02
 9.500	22.250	1.3246e-02
 9.500	22.500	1.3241e-02
 9.500	22.750	1.3239e-02
 9.500	23.000	1.3238e-02
 9.500	23.250	1.3238e-02
 9.500	23.500	1.3238e-02
 9.500	23.750	1.3237e-02
 9.500	24.000	1.3237e-02
 9.750	17.000	3.9539e-02
 9.750	17.250	4.3928e-02
 9.750	17.500	4.8684e-02
 9.750	17.750	5.3967e-02
 9.750	18.000	5.9840e-02
 9.750	18.250	6.6039e-02
 9.750	18.500	7.1863e-02
 9.750	18.750	7.6463e-02
 9.750	19.000	7.9876e-02
 9.750	19.250	6.2918e-02
 9.750	19.500	4.5215e-02
 9.750	19.750	3.4478e-02
 9.750	20.000	2.5075e-02
 9.750	20.250	1.9458e-02
 9.750	20.500	1.6424e-02
 9.750	20.750	1.4930e-02
 9.750	21.000	1.4106e-02
 9.750	21.250	1.3642e-02
 9.750	21.500	1.3441e-02
 9.750	21.750	1.3337e-02
 9.750	22.000	1.3279e-02
 9.750	22.250	1.3255e-02
 9.750	22.500	1.3246e-02
 9.750	22.750	1.3241e-02
 9.750	23.000	1.3239e-02
 9.750	23.250	1.3238e-02
 9.750	23.500	1.3238e-02
 9.750	23.750	1.3238e-02
 9.750	24.000	1.3237e-02
10.000	17.000	3.5543e-02
10.000	17.250	4.0724e-02
10.000	17.500	4.6511e-02
10.000	17.750	5.3289e-02
10.000	18.000	6.1276e-02
10.000	18.250	6.9399e-02
10.000	18.500	7.6602e-02
10.000	18.750	8.2595e-02
10.000	19.000	8.7721e-02
10.000	19.250	8.6848e-02
10.000	19.500	6.2631e-02
10.000	19.750	4.5159e-02
10.000	20.000	3.4456e-02
10.000	20.250	2.5072e-02
10.000	20.500	1.9456e-02
10.000	20.750	1.6420e-02
10.000	21.000	1.4929e-02
10.000	21.250	1.4106e-02
10.000	21.500	1.3642e-02
10.000	21.750	1.3441e-02
10.000	22.000	1.3338e-02
10.000	22.250	1.3280e-02
10.000	22.500	1.3255e-02
10.000	22.750	1.3246e-02
10.000	23.000	1.3241e-02
10.000	23.250	1.3239e-02
10.000	23.500	1.3238e-02
10.000	23.750	1.3238e-02
10.000	24.000	1.3238e-02
10.250	17.000	3.1804e-02
10.250	17.250	3.7021e-02
10.250	17.500	4.4034e-02
10.250	17.750	5.2537e-02
10.250	18.000	6.2645e-02
10.250	18.250	7.2720e-02
10.250	18.500	8.1242e-02
10.250	18.750	8.8327e-02
10.250	19.000	9.4024e-02
10.250	19.250	9.9733e-02
10.250	19.500	9.2046e-02
10.250	19.750	6.2510e-02
10.250	20.000	4.5060e-02
10.250	20.250	3.4429e-02
10.250	20.500	2.5068e-02
10.250	20.750	1.9455e-02
10.250	21.000	1.6418e-02
10.250	21.250	1.4929e-02
10.250	21.500	1.4106e-02
10.250	21.750	1.3643e-02
10.250	22.000	1.3441e-02
10.250	22.250	1.3338e-02
10.250	22.500	1.3280e-02
10.250	22.750	1.3256e-02
10.250	23.000	1.3246e-02
10.250	23.250	1.3241e-02
10.250	23.500	1.3239e-02
10.250	23.750	1.3238e-02
10.250	24.000	1.3238e-02
10.500	17.000	2.8598e-02
10.500	17.250	3.3753e-02
10.500	17.500	4.1331e-02
10.500	17.750	5.1788e-02
10.500	18.000	6.3587e-02
10.500	18.250	7.5121e-02
10.500	18.500	8.4905e-02
10.500	18.750	9.2922e-02
10.500	19.000	9.9699e-02
10.500	19.250	1.0563e-01
10.500	19.500	1.1154e-01
10.500	19.750	9.2240e-02
10.500	20.000	6.2732e-02
10.500	20.250	4.5096e-02
10.500	20.500	3.4408e-02
10.500	20.750	2.5060e-02
10.500	21.000	1.9456e-02
10.500	21.250	1.6417e-02
10.500	21.500	1.4929e-02
10.500	21.750	1.4106e-02
10.500	22.000	1.3643e-02
10.500	22.250	1.3442e-02
10.500	22.500	1.3338e-02
10.500	22.750	1.3280e-02
10.500	23.000	1.3256e-02
10.500	23.250	1.3246e-02
10.500	23.500	1.3241e-02
10.500	23.750	1.3239e-02
10.500	24.000	1.3238e-02
10.750	17.000	2.6055e-02
10.750	17.250	3.1100e-02
10.750	17.500	3.9237e-02
10.750	17.750	5.0718e-02
10.750	18.000	6.3712e-02
10.750	18.250	7.6019e-02
10.750	18.500	8.6672e-02
10.750	18.750	9.5849e-02
10.750	19.000	1.0347e-01
10.750	19.250	1.0981e-01
10.750	19.500	1.1567e-01
10.750	19.750	1.2031e-01
10.750	20.000	9.2067e-02
10.750	20.250	6.3683e-02
10.750	20.500	4.5358e-02
10.750	20.750	3.4393e-02
10.750	21.000	2.5047e-02
10.750	21.250	1.9456e-02
10.750	21.500	1.6417e-02
10.750	21.750	1.4930e-02
10.750	22.000	1.4106e-02
10.750	22.250	1.3643e-02
10.750	22.500	1.3442e-02
10.750	22.750	1.3338e-02
10.750	23.000	1.3280e-02
10.750	23.250	1.3256e-02
10.750	23.500	1.3246e-02
10.750	23.750	1.3242e-02
10.750	24.000	1.3239e-02
11.000	17.000	2.4050e-02
11.000	17.250	2.9066e-02
11.000	17.500	3.7490e-02
11.000	17.750	4.9219e-02
11.000	18.000	6.2284e-02
11.000	18.250	7.4802e-02
11.000	18.500	8.6233e-02
11.000	18.750	9.6294e-02
11.000	19.000	1.0491e-01
11.000	19.250	1.1203e-01
11.000	19.500	1.1794e-01
11.000	19.750	1.2305e-01
11.000	20.000	1.2423e-01
11.000	20.250	9.3331e-02
11.000	20.500	6.3915e-02
11.000	20.750	4.5675e-02
11.000	21.000	3.4391e-02
11.000	21.250	2.5025e-02
11.000	21.500	1.9456e-02
11.000	21.750	1.6418e-02
11.000	22.000	1.4932e-02
11.000	22.250	1.4107e-02
11.000	22.500	1.3643e-02
11.000	22.750	1.3442e-02
11.000	23.000	1.3339e-02
11.000	23.250	1.3280e-02
11.000	23.500	1.3256e-02
11.000	23.750	1.3246e-02
11.000	24.000	1.3242e-02
11.250	17.000	2.2402e-02
11.250	17.250	2.7396e-02
11.250	17.500	3.5747e-02
11.250	17.750	4.6986e-02
11.250	18.000	5.9453e-02
11.250	18.250	7.1768e-02
11.250	18.500	8.3572e-02
11.250	18.750	9.4543e-02
11.250	19.000	1.0399e-01
11.250	19.250	1.1200e-01
11.250	19.500	1.1830e-01
11.250	19.750	1.2332e-01
11.250	20.000	1.2770e-01
11.250	20.250	1.2587e-01
11.250	20.500	9.3809e-02
11.250	20.750	6.4894e-02
11.250	21.000	4.6210e-02
11.250	21.250	3.4380e-02
11.250	21.500	2.4989e-02
11.250	21.750	1.9452e-02
11.250	22.000	1.6420e-02
11.250	22.250	1.4933e-02
11.250	22.500	1.4107e-02
11.250	22.750	1.3643e-02
11.250	23.000	1.3442e-02
11.250	23.250	1.3339e-02
11.250	23.500	1.3280e-02
11.250	23.750	1.3256e-02
11.250	24.000	1.3247e-02
11.500	17.000	2.1048e-02
11.500	17.250	2.5915e-02
11.500	17.500	3.3855e-02
11.500	17.750	4.4235e-02
11.500	18.000	5.5727e-02
11.500	18.250	6.7526e-02
11.500	18.500	7.9464e-02
11.500	18.750	9.1098e-02
11.500	19.000	1.0163e-01
11.500	19.250	1.1025e-01
11.500	19.500	1.1704e-01
11.500	19.750	1.2261e-01
11.500	20.000	1.2726e-01
11.500	20.250	1.3145e-01
11.500	20.500	1.2614e-01
11.500	20.750	9.4942e-02
11.500	21.000	6.5936e-02
11.500	21.250	4.7072e-02
11.500	21.500	3.4355e-02
11.500	21.750	2.4934e-02
11.500	22.000	1.9441e-02
11.500	22.250	1.6423e-02
11.500	22.500	1.4935e-02
11.500	22.750	1.4107e-02
11.500	23.000	1.3642e-02
11.500	23.250	1.3442e-02
11.500	23.500	1.3339e-02
11.500	23.750	1.3281e-02
11.500	24.000	1.3256e-02
11.750	17.000	1.9926e-02
11.750	17.250	2.4445e-02
11.750	17.500	3.1778e-02
11.750	17.750	4.1312e-02
11.750	18.000	5.1815e-02
11.750	18.250	6.2991e-02
11.750	18.500	7.4850e-02
11.750	18.750	8.6918e-02
11.750	19.000	9.8300e-02
11.750	19.250	1.0791e-01
11.750	19.500	1.1544e-01
11.750	19.750	1.2140e-01
11.750	20.000	1.2663e-01
11.750	20.250	1.3126e-01
11.750	20.500	1.3588e-01
11.750	20.750	1.2505e-01
11.750	21.000	9.6520e-02
11.750	21.250	6.7631e-02
11.750	21.500	4.8332e-02
11.750	21.750	3.4296e-02
11.750	22.000	2.4859e-02
11.750	22.250	1.9421e-02
11.750	22.500	1.6426e-02
11.750	22.750	1.4937e-02
11.750	23.000	1.4108e-02
11.750	23.250	1.3642e-02
11.750	23.500	1.3442e-02
11.750	23.750	1.3339e-02
11.750	24.000	1.3281e-02
12.000	17.000	1.8934e-02
12.000	17.250	2.2955e-02
12.000	17.500	2.9474e-02
12.000	17.750	3.8207e-02
12.000	18.000	4.8165e-02
12.000	18.250	5.8930e-02
12.000	18.500	7.0554e-02
12.000	18.750	8.2833e-02
12.000	19.000	9.4908e-02
12.000	19.250	1.0564e-01
12.000	19.500	1.1427e-01
12.000	19.750	1.2081e-01
12.000	20.000	1.2639e-01
12.000	20.250	1.3155e-01
12.000	20.500	1.3640e-01
12.000	20.750	1.4154e-01
12.000	21.000	1.2622e-01
12.000	21.250	9.8515e-02
12.000	21.500	6.9718e-02
12.000	21.750	4.9825e-02
12.000	22.000	3.4225e-02
12.000	22.250	2.4790e-02
12.000	22.500	1.9389e-02
12.000	22.750	1.6428e-02
12.000	23.000	1.4939e-02
12.000	23.250	1.4109e-02
12.000	23.500	1.3642e-02
12.000	23.750	1.3442e-02
12.000	24.000	1.3339e-02
12.250	17.000	1.8041e-02
12.250	17.250	2.1426e-02
12.250	17.500	2.6980e-02
12.250	17.750	3.4907e-02
12.250	18.000	4.4580e-02
12.250	18.250	5.5529e-02
12.250	18.500	6.7434e-02
12.250	18.750	7.9736e-02
12.250	19.000	9.1990e-02
12.250	19.250	1.0362e-01
12.250	19.500	1.1349e-01
12.250	19.750	1.2127e-01
12.250	20.000	1.2720e-01
12.250	20.250	1.3273e-01
12.250	20.500	1.3824e-01
12.250	20.750	1.4402e-01
12.250	21.000	1.4978e-01
12.250	21.250	1.3009e-01
12.250	21.500	1.0102e-01
12.250	21.750	7.2211e-02
12.250	22.000	5.0504e-02
12.250	22.250	3.4114e-02
12.250	22.500	2.4691e-02
12.250	22.750	1.9346e-02
12.250	23.000	1.6429e-02
12.250	23.250	1.4941e-02
12.250	23.500	1.4109e-02
12.250	23.750	1.3641e-02
12.250	24.000	1.3442e-02
12.500	17.000	1.7002e-02
12.500	17.250	1.9780e-02
12.500	17.500	2.4475e-02
12.500	17.750	3.1551e-02
12.500	18.000	4.0948e-02
12.500	18.250	5.2201e-02
12.500	18.500	6.4827e-02
12.500	18.750	7.7809e-02
12.500	19.000	9.0474e-02
12.500	19.250	1.0232e-01
12.500	19.500	1.1326e-01
12.500	19.750	1.2239e-01
12.500	20.000	1.2955e-01
12.500	20.250	1.3541e-01
12.500	20.500	1.4131e-01
12.500	20.750	1.4799e-01
12.500	21.000	1.5616e-01
12.500	21.250	1.6245e-01
12.500	21.500	1.3495e-01
12.500	21.750	1.0504e-01
12.500	22.000	7.4681e-02
12.500	22.250	5.0492e-02
12.500	22.500	3.3978e-02
12.500	22.750	2.4561e-02
12.500	23.000	1.9293e-02
12.500	23.250	1.6428e-02
12.500	23.500	1.4943e-02
12.500	23.750	1.4110e-02
12.500	24.000	1.3640e-02
12.750	17.000	1.5585e-02
12.750	17.250	1.7894e-02
12.750	17.500	2.2011e-02
12.750	17.750	2.8474e-02
12.750	18.000	3.7419e-02
12.750	18.250	4.8653e-02
12.750	18.500	6.1717e-02
12.750	18.750	7.5864e-02
12.750	19.000	8.9518e-02
12.750	19.250	1.0209e-01
12.750	19.500	1.1352e-01
12.750	19.750	1.2397e-01
12.750	20.000	1.3258e-01
12.750	20.250	1.3996e-01
12.750	20.500	1.4593e-01
12.750	20.750	1.5337e-01
12.750	21.000	1.6245e-01
12.750	21.250	1.7488e-01
12.750	21.500	1.7619e-01
12.750	21.750	1.4257e-01
12.750	22.000	1.0952e-01
12.750	22.250	7.6675e-02
12.750	22.500	5.0380e-02
12.750	22.750	3.3812e-02
12.750	23.000	2.4433e-02
12.750	23.250	1.9234e-02
12.750	23.500	1.6423e-02
12.750	23.750	1.4943e-02
12.750	24.000	1.4110e-02
13.000	17.000	1.0733e-02
13.000	17.250	1.4106e-02
13.000	17.500	1.9769e-02
13.000	17.750	2.5624e-02
13.000	18.000	3.4008e-02
13.000	18.250	4.4950e-02
13.000	18.500	5.8122e-02
13.000	18.750	7.2792e-02
13.000	19.000	8.7798e-02
13.000	19.250	1.0174e-01
13.000	19.500	1.1423e-01
13.000	19.750	1.2553e-01
13.000	20.000	1.3566e-01
13.000	20.250	1.4462e-01
13.000	20.500	1.5280e-01
13.000	20.750	1.6070e-01
13.000	21.000	1.7072e-01
13.000	21.250	1.8404e-01
13.000	21.500	1.9422e-01
13.000	21.750	1.9379e-01
13.000	22.000	1.5279e-01
13.000	22.250	1.1391e-01
13.000	22.500	7.7738e-02
13.000	22.750	5.0213e-02
13.000	23.000	3.3608e-02
13.000	23.250	2.4324e-02
13.000	23.500	1.9169e-02
13.000	23.750	1.6412e-02
13.000	24.000	1.4941e-02
13.250	17.000	8.9709e-03
13.250	17.250	1.1825e-02
13.250	17.500	1.6759e-02
13.250	17.750	2.3021e-02
13.250	18.000	3.0872e-02
13.250	18.250	4.1307e-02
13.250	18.500	5.4212e-02
13.250	18.750	6.9001e-02
13.250	19.000	8.4656e-02
13.250	19.250	9.9792e-02
13.250	19.500	1.1377e-01
13.250	19.750	1.2647e-01
13.250	20.000	1.3823e-01
13.250	20.250	1.4904e-01
13.250	20.500	1.5909e-01
13.250	20.750	1.6884e-01
13.250	21.000	1.8003e-01
13.250	21.250	1.9281e-01
13.250	21.500	2.0418e-01
13.250	21.750	2.1881e-01
13.250	22.000	2.1437e-01
13.250	22.250	1.5978e-01
13.250	22.500	1.1602e-01
13.250	22.750	7.7929e-02
13.250	23.000	4.9975e-02
13.250	23.250	3.3395e-02
13.250	23.500	2.4185e-02
13.250	23.750	1.9105e-02
13.250	24.000	1.6396e-02
13.500	17.000	7.5842e-03
13.500	17.250	1.0085e-02
13.500	17.500	1.4231e-02
13.500	17.750	2.0130e-02
13.500	18.000	2.8076e-02
13.500	18.250	3.7855e-02
13.500	18.500	5.0279e-02
13.500	18.750	6.4865e-02
13.500	19.000	8.0808e-02
13.500	19.250	9.6869e-02
13.500	19.500	1.1195e-01
13.500	19.750	1.2593e-01
13.500	20.000	1.3954e-01
13.500	20.250	1.5314e-01
13.500	20.500	1.6469e-01
13.500	20.750	1.7570e-01
13.500	21.000	1.8675e-01
13.500	21.250	2.0016e-01
13.500	21.500	2.0910e-01
13.500	21.750	2.2693e-01
13.500	22.000	2.4462e-01
13.500	22.250	2.2977e-01
13.500	22.500	1.6575e-01
13.500	22.750	1.1714e-01
13.500	23.000	7.7615e-02
13.500	23.250	4.9669e-02
13.500	23.500	3.3173e-02
13.500	23.750	2.4007e-02
13.500	24.000	1.9038e-02
13.750	17.000	6.5312e-03
13.750	17.250	8.6627e-03
13.750	17.500	1.2263e-02
13.750	17.750	1.7529e-02
13.750	18.000	2.5132e-02
13.750	18.250	3.4611e-02
13.750	18.500	4.6578e-02
13.750	18.750	6.0751e-02
13.750	19.000	7.6718e-02
13.750	19.250	9.3490e-02
13.750	19.500	1.0986e-01
13.750	19.750	1.2522e-01
13.750	20.000	1.3995e-01
13.750	20.250	1.5465e-01
13.750	20.500	1.6918e-01
13.750	20.750	1.8255e-01
13.750	21.000	1.9486e-01
13.750	21.250	2.0719e-01
13.750	21.500	2.1713e-01
13.750	21.750	2.3360e-01
13.750	22.000	2.5526e-01
13.750	22.250	2.7644e-01
13.750	22.500	2.4501e-01
13.750	22.750	1.7109e-01
13.750	23.000	1.1707e-01
13.750	23.250	7.7197e-02
13.750	23.500	4.9291e-02
13.750	23.750	3.2917e-02
13.750	24.000	2.3842e-02
14.000	17.000	5.6918e-03
14.000	17.250	7.5128e-03
14.000	17.500	1.0587e-02
14.000	17.750	1.5269e-02
14.000	18.000	2.2331e-02
14.000	18.250	3.1750e-02
14.000	18.500	4.3268e-02
14.000	18.750	5.6927e-02
14.000	19.000	7.2660e-02
14.000	19.250	8.9903e-02
14.000	19.500	1.0750e-01
14.000	19.750	1.2455e-01
14.000	20.000	1.4054e-01
14.000	20.250	1.5613e-01
14.000	20.500	1.7200e-01
14.000	20.750	1.8753e-01
14.000	21.000	2.0232e-01
14.000	21.250	2.1689e-01
14.000	21.500	2.2704e-01
14.000	21.750	2.4381e-01
14.000	22.000	2.6644e-01
14.000	22.250	2.9591e-01
14.000	22.500	3.1688e-01
14.000	22.750	2.6026e-01
14.000	23.000	1.7683e-01
14.000	23.250	1.1732e-01
14.000	23.500	7.6919e-02
14.000	23.750	4.8825e-02
14.000	24.000	3.2603e-02
