InwT 913.000A  relative to Inci 1215.00A scaled to 1215A.
Hden   Phi(H)  Eq_Width (A)
 7.000	17.000	2.1454e-02
 7.000	17.250	2.0677e-02
 7.000	17.500	1.9497e-02
 7.000	17.750	1.7930e-02
 7.000	18.000	1.6429e-02
 7.000	18.250	1.5461e-02
 7.000	18.500	1.4812e-02
 7.000	18.750	1.4469e-02
 7.000	19.000	1.4286e-02
 7.000	19.250	1.4181e-02
 7.000	19.500	1.4136e-02
 7.000	19.750	1.4117e-02
 7.000	20.000	1.4109e-02
 7.000	20.250	1.4105e-02
 7.000	20.500	1.4103e-02
 7.000	20.750	1.4102e-02
 7.000	21.000	1.4102e-02
 7.000	21.250	1.4101e-02
 7.000	21.500	1.4101e-02
 7.000	21.750	1.4101e-02
 7.000	22.000	1.4101e-02
 7.000	22.250	1.4101e-02
 7.000	22.500	1.4101e-02
 7.000	22.750	1.4103e-02
 7.000	23.000	1.4103e-02
 7.000	23.250	1.4101e-02
 7.000	23.500	1.4102e-02
 7.000	23.750	1.4102e-02
 7.000	24.000	1.4103e-02
 7.250	17.000	2.2521e-02
 7.250	17.250	2.1127e-02
 7.250	17.500	2.0517e-02
 7.250	17.750	1.9427e-02
 7.250	18.000	1.7892e-02
 7.250	18.250	1.6408e-02
 7.250	18.500	1.5450e-02
 7.250	18.750	1.4808e-02
 7.250	19.000	1.4468e-02
 7.250	19.250	1.4285e-02
 7.250	19.500	1.4181e-02
 7.250	19.750	1.4136e-02
 7.250	20.000	1.4117e-02
 7.250	20.250	1.4109e-02
 7.250	20.500	1.4105e-02
 7.250	20.750	1.4103e-02
 7.250	21.000	1.4102e-02
 7.250	21.250	1.4101e-02
 7.250	21.500	1.4101e-02
 7.250	21.750	1.4101e-02
 7.250	22.000	1.4101e-02
 7.250	22.250	1.4101e-02
 7.250	22.500	1.4101e-02
 7.250	22.750	1.4101e-02
 7.250	23.000	1.4101e-02
 7.250	23.250	1.4101e-02
 7.250	23.500	1.4101e-02
 7.250	23.750	1.4101e-02
 7.250	24.000	1.4101e-02
 7.500	17.000	2.4581e-02
 7.500	17.250	2.1501e-02
 7.500	17.500	2.0937e-02
 7.500	17.750	2.0426e-02
 7.500	18.000	1.9393e-02
 7.500	18.250	1.7872e-02
 7.500	18.500	1.6396e-02
 7.500	18.750	1.5444e-02
 7.500	19.000	1.4806e-02
 7.500	19.250	1.4467e-02
 7.500	19.500	1.4285e-02
 7.500	19.750	1.4181e-02
 7.500	20.000	1.4136e-02
 7.500	20.250	1.4117e-02
 7.500	20.500	1.4109e-02
 7.500	20.750	1.4105e-02
 7.500	21.000	1.4103e-02
 7.500	21.250	1.4102e-02
 7.500	21.500	1.4101e-02
 7.500	21.750	1.4101e-02
 7.500	22.000	1.4101e-02
 7.500	22.250	1.4101e-02
 7.500	22.500	1.4101e-02
 7.500	22.750	1.4101e-02
 7.500	23.000	1.4101e-02
 7.500	23.250	1.4101e-02
 7.500	23.500	1.4102e-02
 7.500	23.750	1.4101e-02
 7.500	24.000	1.4101e-02
 7.750	17.000	2.0498e-02
 7.750	17.250	2.2360e-02
 7.750	17.500	2.0696e-02
 7.750	17.750	2.0827e-02
 7.750	18.000	2.0378e-02
 7.750	18.250	1.9384e-02
 7.750	18.500	1.7865e-02
 7.750	18.750	1.6389e-02
 7.750	19.000	1.5440e-02
 7.750	19.250	1.4804e-02
 7.750	19.500	1.4466e-02
 7.750	19.750	1.4285e-02
 7.750	20.000	1.4181e-02
 7.750	20.250	1.4136e-02
 7.750	20.500	1.4117e-02
 7.750	20.750	1.4109e-02
 7.750	21.000	1.4105e-02
 7.750	21.250	1.4103e-02
 7.750	21.500	1.4102e-02
 7.750	21.750	1.4101e-02
 7.750	22.000	1.4101e-02
 7.750	22.250	1.4101e-02
 7.750	22.500	1.4101e-02
 7.750	22.750	1.4101e-02
 7.750	23.000	1.4101e-02
 7.750	23.250	1.4101e-02
 7.750	23.500	1.4101e-02
 7.750	23.750	1.4101e-02
 7.750	24.000	1.4101e-02
 8.000	17.000	1.5565e-02
 8.000	17.250	1.8073e-02
 8.000	17.500	2.0497e-02
 8.000	17.750	2.0037e-02
 8.000	18.000	2.0764e-02
 8.000	18.250	2.0353e-02
 8.000	18.500	1.9391e-02
 8.000	18.750	1.7865e-02
 8.000	19.000	1.6385e-02
 8.000	19.250	1.5437e-02
 8.000	19.500	1.4803e-02
 8.000	19.750	1.4466e-02
 8.000	20.000	1.4285e-02
 8.000	20.250	1.4181e-02
 8.000	20.500	1.4136e-02
 8.000	20.750	1.4117e-02
 8.000	21.000	1.4109e-02
 8.000	21.250	1.4105e-02
 8.000	21.500	1.4103e-02
 8.000	21.750	1.4102e-02
 8.000	22.000	1.4101e-02
 8.000	22.250	1.4101e-02
 8.000	22.500	1.4101e-02
 8.000	22.750	1.4101e-02
 8.000	23.000	1.4101e-02
 8.000	23.250	1.4101e-02
 8.000	23.500	1.4101e-02
 8.000	23.750	1.4101e-02
 8.000	24.000	1.4101e-02
 8.250	17.000	1.1837e-02
 8.250	17.250	1.3544e-02
 8.250	17.500	1.6420e-02
 8.250	17.750	1.9273e-02
 8.250	18.000	1.9594e-02
 8.250	18.250	2.0721e-02
 8.250	18.500	2.0344e-02
 8.250	18.750	1.9407e-02
 8.250	19.000	1.7870e-02
 8.250	19.250	1.6384e-02
 8.250	19.500	1.5436e-02
 8.250	19.750	1.4803e-02
 8.250	20.000	1.4465e-02
 8.250	20.250	1.4285e-02
 8.250	20.500	1.4181e-02
 8.250	20.750	1.4136e-02
 8.250	21.000	1.4117e-02
 8.250	21.250	1.4109e-02
 8.250	21.500	1.4105e-02
 8.250	21.750	1.4103e-02
 8.250	22.000	1.4102e-02
 8.250	22.250	1.4101e-02
 8.250	22.500	1.4101e-02
 8.250	22.750	1.4101e-02
 8.250	23.000	1.4101e-02
 8.250	23.250	1.4101e-02
 8.250	23.500	1.4101e-02
 8.250	23.750	1.4101e-02
 8.250	24.000	1.4101e-02
 8.500	17.000	9.2424e-03
 8.500	17.250	1.0216e-02
 8.500	17.500	1.2204e-02
 8.500	17.750	1.5385e-02
 8.500	18.000	1.8479e-02
 8.500	18.250	1.9267e-02
 8.500	18.500	2.0688e-02
 8.500	18.750	2.0343e-02
 8.500	19.000	1.9432e-02
 8.500	19.250	1.7878e-02
 8.500	19.500	1.6384e-02
 8.500	19.750	1.5435e-02
 8.500	20.000	1.4802e-02
 8.500	20.250	1.4465e-02
 8.500	20.500	1.4285e-02
 8.500	20.750	1.4181e-02
 8.500	21.000	1.4136e-02
 8.500	21.250	1.4117e-02
 8.500	21.500	1.4109e-02
 8.500	21.750	1.4105e-02
 8.500	22.000	1.4103e-02
 8.500	22.250	1.4102e-02
 8.500	22.500	1.4101e-02
 8.500	22.750	1.4101e-02
 8.500	23.000	1.4101e-02
 8.500	23.250	1.4101e-02
 8.500	23.500	1.4101e-02
 8.500	23.750	1.4101e-02
 8.500	24.000	1.4101e-02
 8.750	17.000	7.5304e-03
 8.750	17.250	8.0365e-03
 8.750	17.500	9.2045e-03
 8.750	17.750	1.1357e-02
 8.750	18.000	1.4773e-02
 8.750	18.250	1.7991e-02
 8.750	18.500	1.9084e-02
 8.750	18.750	2.0657e-02
 8.750	19.000	2.0347e-02
 8.750	19.250	1.9461e-02
 8.750	19.500	1.7889e-02
 8.750	19.750	1.6385e-02
 8.750	20.000	1.5435e-02
 8.750	20.250	1.4802e-02
 8.750	20.500	1.4465e-02
 8.750	20.750	1.4285e-02
 8.750	21.000	1.4181e-02
 8.750	21.250	1.4136e-02
 8.750	21.500	1.4117e-02
 8.750	21.750	1.4109e-02
 8.750	22.000	1.4105e-02
 8.750	22.250	1.4103e-02
 8.750	22.500	1.4102e-02
 8.750	22.750	1.4101e-02
 8.750	23.000	1.4101e-02
 8.750	23.250	1.4101e-02
 8.750	23.500	1.4101e-02
 8.750	23.750	1.4101e-02
 8.750	24.000	1.4101e-02
 9.000	17.000	6.4033e-03
 9.000	17.250	6.6547e-03
 9.000	17.500	7.3108e-03
 9.000	17.750	8.6103e-03
 9.000	18.000	1.0936e-02
 9.000	18.250	1.4522e-02
 9.000	18.500	1.7710e-02
 9.000	18.750	1.8963e-02
 9.000	19.000	2.0626e-02
 9.000	19.250	2.0348e-02
 9.000	19.500	1.9492e-02
 9.000	19.750	1.7901e-02
 9.000	20.000	1.6386e-02
 9.000	20.250	1.5435e-02
 9.000	20.500	1.4802e-02
 9.000	20.750	1.4465e-02
 9.000	21.000	1.4284e-02
 9.000	21.250	1.4181e-02
 9.000	21.500	1.4136e-02
 9.000	21.750	1.4117e-02
 9.000	22.000	1.4109e-02
 9.000	22.250	1.4105e-02
 9.000	22.500	1.4103e-02
 9.000	22.750	1.4102e-02
 9.000	23.000	1.4101e-02
 9.000	23.250	1.4101e-02
 9.000	23.500	1.4101e-02
 9.000	23.750	1.4101e-02
 9.000	24.000	1.4101e-02
 9.250	17.000	5.6370e-03
 9.250	17.250	5.7600e-03
 9.250	17.500	6.1462e-03
 9.250	17.750	6.9325e-03
 9.250	18.000	8.4077e-03
 9.250	18.250	1.0928e-02
 9.250	18.500	1.4678e-02
 9.250	18.750	1.7525e-02
 9.250	19.000	1.8875e-02
 9.250	19.250	2.0589e-02
 9.250	19.500	2.0343e-02
 9.250	19.750	1.9519e-02
 9.250	20.000	1.7912e-02
 9.250	20.250	1.6388e-02
 9.250	20.500	1.5434e-02
 9.250	20.750	1.4802e-02
 9.250	21.000	1.4465e-02
 9.250	21.250	1.4284e-02
 9.250	21.500	1.4180e-02
 9.250	21.750	1.4135e-02
 9.250	22.000	1.4115e-02
 9.250	22.250	1.4107e-02
 9.250	22.500	1.4104e-02
 9.250	22.750	1.4102e-02
 9.250	23.000	1.4102e-02
 9.250	23.250	1.4101e-02
 9.250	23.500	1.4101e-02
 9.250	23.750	1.4101e-02
 9.250	24.000	1.4101e-02
 9.500	17.000	5.0944e-03
 9.500	17.250	5.1434e-03
 9.500	17.500	5.4058e-03
 9.500	17.750	5.9424e-03
 9.500	18.000	6.8941e-03
 9.500	18.250	8.5719e-03
 9.500	18.500	1.1406e-02
 9.500	18.750	1.5279e-02
 9.500	19.000	1.7395e-02
 9.500	19.250	1.8804e-02
 9.500	19.500	2.0552e-02
 9.500	19.750	2.0331e-02
 9.500	20.000	1.9540e-02
 9.500	20.250	1.7922e-02
 9.500	20.500	1.6389e-02
 9.500	20.750	1.5433e-02
 9.500	21.000	1.4800e-02
 9.500	21.250	1.4464e-02
 9.500	21.500	1.4283e-02
 9.500	21.750	1.4179e-02
 9.500	22.000	1.4134e-02
 9.500	22.250	1.4115e-02
 9.500	22.500	1.4107e-02
 9.500	22.750	1.4102e-02
 9.500	23.000	1.4100e-02
 9.500	23.250	1.4099e-02
 9.500	23.500	1.4099e-02
 9.500	23.750	1.4099e-02
 9.500	24.000	1.4098e-02
 9.750	17.000	4.7329e-03
 9.750	17.250	4.6908e-03
 9.750	17.500	4.8782e-03
 9.750	17.750	5.2950e-03
 9.750	18.000	6.0151e-03
 9.750	18.250	7.2073e-03
 9.750	18.500	9.2089e-03
 9.750	18.750	1.2367e-02
 9.750	19.000	1.5996e-02
 9.750	19.250	1.7302e-02
 9.750	19.500	1.8735e-02
 9.750	19.750	2.0512e-02
 9.750	20.000	2.0310e-02
 9.750	20.250	1.9551e-02
 9.750	20.500	1.7930e-02
 9.750	20.750	1.6390e-02
 9.750	21.000	1.5434e-02
 9.750	21.250	1.4800e-02
 9.750	21.500	1.4464e-02
 9.750	21.750	1.4283e-02
 9.750	22.000	1.4179e-02
 9.750	22.250	1.4134e-02
 9.750	22.500	1.4115e-02
 9.750	22.750	1.4107e-02
 9.750	23.000	1.4103e-02
 9.750	23.250	1.4101e-02
 9.750	23.500	1.4100e-02
 9.750	23.750	1.4099e-02
 9.750	24.000	1.4099e-02
10.000	17.000	4.5342e-03
10.000	17.250	4.3712e-03
10.000	17.500	4.4541e-03
10.000	17.750	4.8062e-03
10.000	18.000	5.4574e-03
10.000	18.250	6.4183e-03
10.000	18.500	7.8898e-03
10.000	18.750	1.0198e-02
10.000	19.000	1.3573e-02
10.000	19.250	1.6220e-02
10.000	19.500	1.7251e-02
10.000	19.750	1.8681e-02
10.000	20.000	2.0487e-02
10.000	20.250	2.0285e-02
10.000	20.500	1.9555e-02
10.000	20.750	1.7936e-02
10.000	21.000	1.6391e-02
10.000	21.250	1.5434e-02
10.000	21.500	1.4800e-02
10.000	21.750	1.4464e-02
10.000	22.000	1.4283e-02
10.000	22.250	1.4179e-02
10.000	22.500	1.4134e-02
10.000	22.750	1.4115e-02
10.000	23.000	1.4107e-02
10.000	23.250	1.4102e-02
10.000	23.500	1.4100e-02
10.000	23.750	1.4099e-02
10.000	24.000	1.4099e-02
10.250	17.000	4.4957e-03
10.250	17.250	4.2016e-03
10.250	17.500	4.1619e-03
10.250	17.750	4.4284e-03
10.250	18.000	5.0370e-03
10.250	18.250	5.9048e-03
10.250	18.500	7.0988e-03
10.250	18.750	8.8622e-03
10.250	19.000	1.1494e-02
10.250	19.250	1.4635e-02
10.250	19.500	1.6277e-02
10.250	19.750	1.7241e-02
10.250	20.000	1.8648e-02
10.250	20.250	2.0476e-02
10.250	20.500	2.0260e-02
10.250	20.750	1.9552e-02
10.250	21.000	1.7940e-02
10.250	21.250	1.6391e-02
10.250	21.500	1.5434e-02
10.250	21.750	1.4801e-02
10.250	22.000	1.4464e-02
10.250	22.250	1.4283e-02
10.250	22.500	1.4180e-02
10.250	22.750	1.4134e-02
10.250	23.000	1.4115e-02
10.250	23.250	1.4107e-02
10.250	23.500	1.4103e-02
10.250	23.750	1.4101e-02
10.250	24.000	1.4099e-02
10.500	17.000	4.5635e-03
10.500	17.250	4.1822e-03
10.500	17.500	4.0184e-03
10.500	17.750	4.1806e-03
10.500	18.000	4.7024e-03
10.500	18.250	5.5058e-03
10.500	18.500	6.5276e-03
10.500	18.750	7.8506e-03
10.500	19.000	9.6777e-03
10.500	19.250	1.2331e-02
10.500	19.500	1.5136e-02
10.500	19.750	1.6327e-02
10.500	20.000	1.7310e-02
10.500	20.250	1.8694e-02
10.500	20.500	2.0541e-02
10.500	20.750	2.0243e-02
10.500	21.000	1.9543e-02
10.500	21.250	1.7941e-02
10.500	21.500	1.6391e-02
10.500	21.750	1.5434e-02
10.500	22.000	1.4801e-02
10.500	22.250	1.4465e-02
10.500	22.500	1.4283e-02
10.500	22.750	1.4180e-02
10.500	23.000	1.4135e-02
10.500	23.250	1.4115e-02
10.500	23.500	1.4106e-02
10.500	23.750	1.4103e-02
10.500	24.000	1.4101e-02
10.750	17.000	4.6852e-03
10.750	17.250	4.2681e-03
10.750	17.500	4.0274e-03
10.750	17.750	4.0855e-03
10.750	18.000	4.4679e-03
10.750	18.250	5.1050e-03
10.750	18.500	5.9339e-03
10.750	18.750	6.9205e-03
10.750	19.000	8.2529e-03
10.750	19.250	1.0249e-02
10.750	19.500	1.3065e-02
10.750	19.750	1.5504e-02
10.750	20.000	1.6457e-02
10.750	20.250	1.7529e-02
10.750	20.500	1.8881e-02
10.750	20.750	2.0711e-02
10.750	21.000	2.0254e-02
10.750	21.250	1.9530e-02
10.750	21.500	1.7940e-02
10.750	21.750	1.6390e-02
10.750	22.000	1.5434e-02
10.750	22.250	1.4801e-02
10.750	22.500	1.4465e-02
10.750	22.750	1.4284e-02
10.750	23.000	1.4180e-02
10.750	23.250	1.4135e-02
10.750	23.500	1.4115e-02
10.750	23.750	1.4107e-02
10.750	24.000	1.4103e-02
11.000	17.000	4.8171e-03
11.000	17.250	4.4065e-03
11.000	17.500	4.1356e-03
11.000	17.750	4.1198e-03
11.000	18.000	4.3495e-03
11.000	18.250	4.7554e-03
11.000	18.500	5.3404e-03
11.000	18.750	6.1091e-03
11.000	19.000	7.1277e-03
11.000	19.250	8.5949e-03
11.000	19.500	1.0785e-02
11.000	19.750	1.3721e-02
11.000	20.000	1.5673e-02
11.000	20.250	1.6752e-02
11.000	20.500	1.7808e-02
11.000	20.750	1.9248e-02
11.000	21.000	2.1027e-02
11.000	21.250	2.0328e-02
11.000	21.500	1.9519e-02
11.000	21.750	1.7936e-02
11.000	22.000	1.6388e-02
11.000	22.250	1.5434e-02
11.000	22.500	1.4801e-02
11.000	22.750	1.4465e-02
11.000	23.000	1.4284e-02
11.000	23.250	1.4180e-02
11.000	23.500	1.4135e-02
11.000	23.750	1.4116e-02
11.000	24.000	1.4107e-02
11.250	17.000	4.9026e-03
11.250	17.250	4.5406e-03
11.250	17.500	4.2721e-03
11.250	17.750	4.2138e-03
11.250	18.000	4.3263e-03
11.250	18.250	4.5174e-03
11.250	18.500	4.8374e-03
11.250	18.750	5.4156e-03
11.250	19.000	6.2072e-03
11.250	19.250	7.3091e-03
11.250	19.500	8.9173e-03
11.250	19.750	1.1295e-02
11.250	20.000	1.4322e-02
11.250	20.250	1.6010e-02
11.250	20.500	1.7137e-02
11.250	20.750	1.8343e-02
11.250	21.000	1.9902e-02
11.250	21.250	2.1532e-02
11.250	21.500	2.0488e-02
11.250	21.750	1.9517e-02
11.250	22.000	1.7930e-02
11.250	22.250	1.6386e-02
11.250	22.500	1.5434e-02
11.250	22.750	1.4801e-02
11.250	23.000	1.4465e-02
11.250	23.250	1.4285e-02
11.250	23.500	1.4180e-02
11.250	23.750	1.4135e-02
11.250	24.000	1.4116e-02
11.500	17.000	4.8732e-03
11.500	17.250	4.6133e-03
11.500	17.500	4.3779e-03
11.500	17.750	4.2984e-03
11.500	18.000	4.3328e-03
11.500	18.250	4.3853e-03
11.500	18.500	4.5237e-03
11.500	18.750	4.8623e-03
11.500	19.000	5.4570e-03
11.500	19.250	6.2858e-03
11.500	19.500	7.4737e-03
11.500	19.750	9.2324e-03
11.500	20.000	1.1808e-02
11.500	20.250	1.4894e-02
11.500	20.500	1.6443e-02
11.500	20.750	1.7718e-02
11.500	21.000	1.9146e-02
11.500	21.250	2.0998e-02
11.500	21.500	2.2181e-02
11.500	21.750	2.0752e-02
11.500	22.000	1.9537e-02
11.500	22.250	1.7922e-02
11.500	22.500	1.6384e-02
11.500	22.750	1.5434e-02
11.500	23.000	1.4801e-02
11.500	23.250	1.4465e-02
11.500	23.500	1.4285e-02
11.500	23.750	1.4181e-02
11.500	24.000	1.4135e-02
11.750	17.000	4.6349e-03
11.750	17.250	4.5428e-03
11.750	17.500	4.3893e-03
11.750	17.750	4.3235e-03
11.750	18.000	4.3276e-03
11.750	18.250	4.3348e-03
11.750	18.500	4.3673e-03
11.750	18.750	4.5034e-03
11.750	19.000	4.8508e-03
11.750	19.250	5.4682e-03
11.750	19.500	6.3452e-03
11.750	19.750	7.6259e-03
11.750	20.000	9.5450e-03
11.750	20.250	1.2332e-02
11.750	20.500	1.5468e-02
11.750	20.750	1.6993e-02
11.750	21.000	1.8580e-02
11.750	21.250	2.0444e-02
11.750	21.500	2.2668e-02
11.750	21.750	2.2906e-02
11.750	22.000	2.1120e-02
11.750	22.250	1.9588e-02
11.750	22.500	1.7913e-02
11.750	22.750	1.6381e-02
11.750	23.000	1.5434e-02
11.750	23.250	1.4800e-02
11.750	23.500	1.4465e-02
11.750	23.750	1.4285e-02
11.750	24.000	1.4181e-02
12.000	17.000	4.0974e-03
12.000	17.250	4.2342e-03
12.000	17.500	4.2348e-03
12.000	17.750	4.2533e-03
12.000	18.000	4.2872e-03
12.000	18.250	4.2938e-03
12.000	18.500	4.2752e-03
12.000	18.750	4.2955e-03
12.000	19.000	4.4397e-03
12.000	19.250	4.8026e-03
12.000	19.500	5.4565e-03
12.000	19.750	6.3888e-03
12.000	20.000	7.7764e-03
12.000	20.250	9.8775e-03
12.000	20.500	1.2894e-02
12.000	20.750	1.6079e-02
12.000	21.000	1.7829e-02
12.000	21.250	1.9906e-02
12.000	21.500	2.2318e-02
12.000	21.750	2.4844e-02
12.000	22.000	2.3696e-02
12.000	22.250	2.1428e-02
12.000	22.500	1.9673e-02
12.000	22.750	1.7904e-02
12.000	23.000	1.6378e-02
12.000	23.250	1.5434e-02
12.000	23.500	1.4800e-02
12.000	23.750	1.4465e-02
12.000	24.000	1.4285e-02
12.250	17.000	3.2937e-03
12.250	17.250	3.6528e-03
12.250	17.500	3.8702e-03
12.250	17.750	4.0430e-03
12.250	18.000	4.1494e-03
12.250	18.250	4.1713e-03
12.250	18.500	4.1472e-03
12.250	18.750	4.1310e-03
12.250	19.000	4.1729e-03
12.250	19.250	4.3410e-03
12.250	19.500	4.7424e-03
12.250	19.750	5.4370e-03
12.250	20.000	6.4349e-03
12.250	20.250	7.9521e-03
12.250	20.500	1.0247e-02
12.250	20.750	1.3556e-02
12.250	21.000	1.6962e-02
12.250	21.250	1.9177e-02
12.250	21.500	2.1777e-02
12.250	21.750	2.4794e-02
12.250	22.000	2.6782e-02
12.250	22.250	2.4469e-02
12.250	22.500	2.1861e-02
12.250	22.750	1.9784e-02
12.250	23.000	1.7898e-02
12.250	23.250	1.6374e-02
12.250	23.500	1.5433e-02
12.250	23.750	1.4800e-02
12.250	24.000	1.4465e-02
12.500	17.000	2.5068e-03
12.500	17.250	2.9649e-03
12.500	17.500	3.3572e-03
12.500	17.750	3.6436e-03
12.500	18.000	3.8130e-03
12.500	18.250	3.8908e-03
12.500	18.500	3.9143e-03
12.500	18.750	3.9295e-03
12.500	19.000	3.9584e-03
12.500	19.250	4.0396e-03
12.500	19.500	4.2440e-03
12.500	19.750	4.6825e-03
12.500	20.000	5.4172e-03
12.500	20.250	6.4957e-03
12.500	20.500	8.1627e-03
12.500	20.750	1.0729e-02
12.500	21.000	1.4518e-02
12.500	21.250	1.8255e-02
12.500	21.500	2.1040e-02
12.500	21.750	2.4219e-02
12.500	22.000	2.7696e-02
12.500	22.250	2.8374e-02
12.500	22.500	2.5252e-02
12.500	22.750	2.2422e-02
12.500	23.000	1.9915e-02
12.500	23.250	1.7895e-02
12.500	23.500	1.6371e-02
12.500	23.750	1.5433e-02
12.500	24.000	1.4799e-02
12.750	17.000	1.9468e-03
12.750	17.250	2.3539e-03
12.750	17.500	2.7294e-03
12.750	17.750	3.0278e-03
12.750	18.000	3.2622e-03
12.750	18.250	3.4342e-03
12.750	18.500	3.5565e-03
12.750	18.750	3.6480e-03
12.750	19.000	3.7239e-03
12.750	19.250	3.8016e-03
12.750	19.500	3.9146e-03
12.750	19.750	4.1466e-03
12.750	20.000	4.6129e-03
12.750	20.250	5.4103e-03
12.750	20.500	6.5803e-03
12.750	20.750	8.4658e-03
12.750	21.000	1.1429e-02
12.750	21.250	1.5911e-02
12.750	21.500	2.0006e-02
12.750	21.750	2.3358e-02
12.750	22.000	2.7228e-02
12.750	22.250	3.0711e-02
12.750	22.500	2.9953e-02
12.750	22.750	2.6117e-02
12.750	23.000	2.2901e-02
12.750	23.250	2.0050e-02
12.750	23.500	1.7899e-02
12.750	23.750	1.6368e-02
12.750	24.000	1.5433e-02
13.000	17.000	1.4988e-03
13.000	17.250	1.8079e-03
13.000	17.500	2.0790e-03
13.000	17.750	2.3429e-03
13.000	18.000	2.6067e-03
13.000	18.250	2.8624e-03
13.000	18.500	3.0853e-03
13.000	18.750	3.2686e-03
13.000	19.000	3.4217e-03
13.000	19.250	3.5469e-03
13.000	19.500	3.6587e-03
13.000	19.750	3.7947e-03
13.000	20.000	4.0444e-03
13.000	20.250	4.5395e-03
13.000	20.500	5.4013e-03
13.000	20.750	6.7214e-03
13.000	21.000	8.9272e-03
13.000	21.250	1.2429e-02
13.000	21.500	1.7467e-02
13.000	21.750	2.2231e-02
13.000	22.000	2.6420e-02
13.000	22.250	3.0474e-02
13.000	22.500	3.3581e-02
13.000	22.750	3.1618e-02
13.000	23.000	2.7305e-02
13.000	23.250	2.3202e-02
13.000	23.500	2.0197e-02
13.000	23.750	1.7911e-02
13.000	24.000	1.6367e-02
13.250	17.000	1.2287e-03
13.250	17.250	1.4423e-03
13.250	17.500	1.6400e-03
13.250	17.750	1.8275e-03
13.250	18.000	2.0502e-03
13.250	18.250	2.3049e-03
13.250	18.500	2.5695e-03
13.250	18.750	2.8193e-03
13.250	19.000	3.0419e-03
13.250	19.250	3.2329e-03
13.250	19.500	3.3923e-03
13.250	19.750	3.5298e-03
13.250	20.000	3.6857e-03
13.250	20.250	3.9449e-03
13.250	20.500	4.4534e-03
13.250	20.750	5.3686e-03
13.250	21.000	6.9232e-03
13.250	21.250	9.3505e-03
13.250	21.500	1.3180e-02
13.250	21.750	1.8718e-02
13.250	22.000	2.4610e-02
13.250	22.250	2.8689e-02
13.250	22.500	3.3522e-02
13.250	22.750	3.6378e-02
13.250	23.000	3.3343e-02
13.250	23.250	2.8233e-02
13.250	23.500	2.3622e-02
13.250	23.750	2.0335e-02
13.250	24.000	1.7927e-02
13.500	17.000	1.0531e-03
13.500	17.250	1.2107e-03
13.500	17.500	1.3613e-03
13.500	17.750	1.5016e-03
13.500	18.000	1.6751e-03
13.500	18.250	1.8908e-03
13.500	18.500	2.1304e-03
13.500	18.750	2.3755e-03
13.500	19.000	2.6213e-03
13.500	19.250	2.8557e-03
13.500	19.500	3.0639e-03
13.500	19.750	3.2410e-03
13.500	20.000	3.3970e-03
13.500	20.250	3.5732e-03
13.500	20.500	3.8379e-03
13.500	20.750	4.3458e-03
13.500	21.000	5.2598e-03
13.500	21.250	6.8972e-03
13.500	21.500	9.3283e-03
13.500	21.750	1.3483e-02
13.500	22.000	1.9712e-02
13.500	22.250	2.6020e-02
13.500	22.500	3.1268e-02
13.500	22.750	3.6710e-02
13.500	23.000	3.9316e-02
13.500	23.250	3.4925e-02
13.500	23.500	2.9061e-02
13.500	23.750	2.4188e-02
13.500	24.000	2.0467e-02
13.750	17.000	9.3580e-04
13.750	17.250	1.0604e-03
13.750	17.500	1.1819e-03
13.750	17.750	1.2955e-03
13.750	18.000	1.4348e-03
13.750	18.250	1.6114e-03
13.750	18.500	1.8101e-03
13.750	18.750	2.0192e-03
13.750	19.000	2.2393e-03
13.750	19.250	2.4696e-03
13.750	19.500	2.7012e-03
13.750	19.750	2.9166e-03
13.750	20.000	3.1076e-03
13.750	20.250	3.2823e-03
13.750	20.500	3.4773e-03
13.750	20.750	3.7641e-03
13.750	21.000	4.2791e-03
13.750	21.250	5.1901e-03
13.750	21.500	6.7809e-03
13.750	21.750	9.4000e-03
13.750	22.000	1.3814e-02
13.750	22.250	2.0996e-02
13.750	22.500	2.8212e-02
13.750	22.750	3.4285e-02
13.750	23.000	4.0186e-02
13.750	23.250	4.2522e-02
13.750	23.500	3.6695e-02
13.750	23.750	2.9880e-02
13.750	24.000	2.4568e-02
14.000	17.000	8.5243e-04
14.000	17.250	9.5901e-04
14.000	17.500	1.0652e-03
14.000	17.750	1.1621e-03
14.000	18.000	1.2789e-03
14.000	18.250	1.4247e-03
14.000	18.500	1.5880e-03
14.000	18.750	1.7594e-03
14.000	19.000	1.9403e-03
14.000	19.250	2.1383e-03
14.000	19.500	2.3543e-03
14.000	19.750	2.5790e-03
14.000	20.000	2.7987e-03
14.000	20.250	3.0040e-03
14.000	20.500	3.2046e-03
14.000	20.750	3.4347e-03
14.000	21.000	3.7670e-03
14.000	21.250	4.3414e-03
14.000	21.500	5.2965e-03
14.000	21.750	6.9930e-03
14.000	22.000	9.8918e-03
14.000	22.250	1.5016e-02
14.000	22.500	2.3480e-02
14.000	22.750	3.1502e-02
14.000	23.000	3.8921e-02
14.000	23.250	4.4574e-02
14.000	23.500	4.6120e-02
14.000	23.750	3.8375e-02
14.000	24.000	3.0770e-02
