InwT 3704.34A  relative to Inci 1215.00A scaled to 1215A.
Hden   Phi(H)  Eq_Width (A)
 7.000	17.000	2.2951e-02
 7.000	17.250	1.7230e-02
 7.000	17.500	1.3923e-02
 7.000	17.750	1.2095e-02
 7.000	18.000	1.1160e-02
 7.000	18.250	1.0645e-02
 7.000	18.500	1.0353e-02
 7.000	18.750	1.0224e-02
 7.000	19.000	1.0158e-02
 7.000	19.250	1.0122e-02
 7.000	19.500	1.0107e-02
 7.000	19.750	1.0101e-02
 7.000	20.000	1.0099e-02
 7.000	20.250	1.0098e-02
 7.000	20.500	1.0097e-02
 7.000	20.750	1.0097e-02
 7.000	21.000	1.0097e-02
 7.000	21.250	1.0096e-02
 7.000	21.500	1.0096e-02
 7.000	21.750	1.0096e-02
 7.000	22.000	1.0096e-02
 7.000	22.250	1.0097e-02
 7.000	22.500	1.0096e-02
 7.000	22.750	1.0098e-02
 7.000	23.000	1.0098e-02
 7.000	23.250	1.0097e-02
 7.000	23.500	1.0097e-02
 7.000	23.750	1.0097e-02
 7.000	24.000	1.0098e-02
 7.250	17.000	2.8475e-02
 7.250	17.250	2.2939e-02
 7.250	17.500	1.7221e-02
 7.250	17.750	1.3917e-02
 7.250	18.000	1.2092e-02
 7.250	18.250	1.1159e-02
 7.250	18.500	1.0645e-02
 7.250	18.750	1.0353e-02
 7.250	19.000	1.0224e-02
 7.250	19.250	1.0158e-02
 7.250	19.500	1.0122e-02
 7.250	19.750	1.0107e-02
 7.250	20.000	1.0101e-02
 7.250	20.250	1.0099e-02
 7.250	20.500	1.0097e-02
 7.250	20.750	1.0097e-02
 7.250	21.000	1.0097e-02
 7.250	21.250	1.0096e-02
 7.250	21.500	1.0096e-02
 7.250	21.750	1.0097e-02
 7.250	22.000	1.0096e-02
 7.250	22.250	1.0096e-02
 7.250	22.500	1.0096e-02
 7.250	22.750	1.0096e-02
 7.250	23.000	1.0096e-02
 7.250	23.250	1.0096e-02
 7.250	23.500	1.0096e-02
 7.250	23.750	1.0096e-02
 7.250	24.000	1.0096e-02
 7.500	17.000	3.6154e-02
 7.500	17.250	2.8484e-02
 7.500	17.500	2.2932e-02
 7.500	17.750	1.7216e-02
 7.500	18.000	1.3913e-02
 7.500	18.250	1.2090e-02
 7.500	18.500	1.1158e-02
 7.500	18.750	1.0645e-02
 7.500	19.000	1.0353e-02
 7.500	19.250	1.0224e-02
 7.500	19.500	1.0158e-02
 7.500	19.750	1.0122e-02
 7.500	20.000	1.0107e-02
 7.500	20.250	1.0101e-02
 7.500	20.500	1.0099e-02
 7.500	20.750	1.0097e-02
 7.500	21.000	1.0097e-02
 7.500	21.250	1.0097e-02
 7.500	21.500	1.0096e-02
 7.500	21.750	1.0096e-02
 7.500	22.000	1.0096e-02
 7.500	22.250	1.0096e-02
 7.500	22.500	1.0096e-02
 7.500	22.750	1.0096e-02
 7.500	23.000	1.0096e-02
 7.500	23.250	1.0096e-02
 7.500	23.500	1.0098e-02
 7.500	23.750	1.0096e-02
 7.500	24.000	1.0096e-02
 7.750	17.000	3.4508e-02
 7.750	17.250	3.6265e-02
 7.750	17.500	2.8493e-02
 7.750	17.750	2.2928e-02
 7.750	18.000	1.7212e-02
 7.750	18.250	1.3908e-02
 7.750	18.500	1.2087e-02
 7.750	18.750	1.1157e-02
 7.750	19.000	1.0644e-02
 7.750	19.250	1.0353e-02
 7.750	19.500	1.0224e-02
 7.750	19.750	1.0158e-02
 7.750	20.000	1.0122e-02
 7.750	20.250	1.0107e-02
 7.750	20.500	1.0101e-02
 7.750	20.750	1.0099e-02
 7.750	21.000	1.0097e-02
 7.750	21.250	1.0097e-02
 7.750	21.500	1.0097e-02
 7.750	21.750	1.0096e-02
 7.750	22.000	1.0096e-02
 7.750	22.250	1.0096e-02
 7.750	22.500	1.0096e-02
 7.750	22.750	1.0096e-02
 7.750	23.000	1.0096e-02
 7.750	23.250	1.0096e-02
 7.750	23.500	1.0096e-02
 7.750	23.750	1.0096e-02
 7.750	24.000	1.0096e-02
 8.000	17.000	3.2500e-02
 8.000	17.250	3.4210e-02
 8.000	17.500	3.5943e-02
 8.000	17.750	2.8455e-02
 8.000	18.000	2.2926e-02
 8.000	18.250	1.7209e-02
 8.000	18.500	1.3904e-02
 8.000	18.750	1.2085e-02
 8.000	19.000	1.1156e-02
 8.000	19.250	1.0644e-02
 8.000	19.500	1.0353e-02
 8.000	19.750	1.0224e-02
 8.000	20.000	1.0158e-02
 8.000	20.250	1.0122e-02
 8.000	20.500	1.0107e-02
 8.000	20.750	1.0101e-02
 8.000	21.000	1.0099e-02
 8.000	21.250	1.0097e-02
 8.000	21.500	1.0097e-02
 8.000	21.750	1.0097e-02
 8.000	22.000	1.0096e-02
 8.000	22.250	1.0096e-02
 8.000	22.500	1.0096e-02
 8.000	22.750	1.0096e-02
 8.000	23.000	1.0096e-02
 8.000	23.250	1.0096e-02
 8.000	23.500	1.0096e-02
 8.000	23.750	1.0096e-02
 8.000	24.000	1.0096e-02
 8.250	17.000	3.1096e-02
 8.250	17.250	3.2718e-02
 8.250	17.500	3.4351e-02
 8.250	17.750	3.5995e-02
 8.250	18.000	2.8463e-02
 8.250	18.250	2.2925e-02
 8.250	18.500	1.7207e-02
 8.250	18.750	1.3900e-02
 8.250	19.000	1.2082e-02
 8.250	19.250	1.1156e-02
 8.250	19.500	1.0644e-02
 8.250	19.750	1.0353e-02
 8.250	20.000	1.0224e-02
 8.250	20.250	1.0158e-02
 8.250	20.500	1.0122e-02
 8.250	20.750	1.0107e-02
 8.250	21.000	1.0101e-02
 8.250	21.250	1.0099e-02
 8.250	21.500	1.0097e-02
 8.250	21.750	1.0097e-02
 8.250	22.000	1.0097e-02
 8.250	22.250	1.0096e-02
 8.250	22.500	1.0096e-02
 8.250	22.750	1.0097e-02
 8.250	23.000	1.0096e-02
 8.250	23.250	1.0096e-02
 8.250	23.500	1.0097e-02
 8.250	23.750	1.0096e-02
 8.250	24.000	1.0096e-02
 8.500	17.000	2.9960e-02
 8.500	17.250	3.1368e-02
 8.500	17.500	3.2992e-02
 8.500	17.750	3.4540e-02
 8.500	18.000	3.6071e-02
 8.500	18.250	2.8471e-02
 8.500	18.500	2.2924e-02
 8.500	18.750	1.7206e-02
 8.500	19.000	1.3895e-02
 8.500	19.250	1.2079e-02
 8.500	19.500	1.1155e-02
 8.500	19.750	1.0644e-02
 8.500	20.000	1.0353e-02
 8.500	20.250	1.0224e-02
 8.500	20.500	1.0158e-02
 8.500	20.750	1.0122e-02
 8.500	21.000	1.0107e-02
 8.500	21.250	1.0101e-02
 8.500	21.500	1.0099e-02
 8.500	21.750	1.0097e-02
 8.500	22.000	1.0097e-02
 8.500	22.250	1.0097e-02
 8.500	22.500	1.0096e-02
 8.500	22.750	1.0096e-02
 8.500	23.000	1.0096e-02
 8.500	23.250	1.0096e-02
 8.500	23.500	1.0096e-02
 8.500	23.750	1.0096e-02
 8.500	24.000	1.0096e-02
 8.750	17.000	2.8992e-02
 8.750	17.250	3.0298e-02
 8.750	17.500	3.1775e-02
 8.750	17.750	3.3446e-02
 8.750	18.000	3.4927e-02
 8.750	18.250	3.6284e-02
 8.750	18.500	2.8478e-02
 8.750	18.750	2.2923e-02
 8.750	19.000	1.7204e-02
 8.750	19.250	1.3889e-02
 8.750	19.500	1.2076e-02
 8.750	19.750	1.1154e-02
 8.750	20.000	1.0644e-02
 8.750	20.250	1.0353e-02
 8.750	20.500	1.0224e-02
 8.750	20.750	1.0158e-02
 8.750	21.000	1.0122e-02
 8.750	21.250	1.0107e-02
 8.750	21.500	1.0101e-02
 8.750	21.750	1.0099e-02
 8.750	22.000	1.0097e-02
 8.750	22.250	1.0097e-02
 8.750	22.500	1.0097e-02
 8.750	22.750	1.0096e-02
 8.750	23.000	1.0096e-02
 8.750	23.250	1.0096e-02
 8.750	23.500	1.0096e-02
 8.750	23.750	1.0096e-02
 8.750	24.000	1.0096e-02
 9.000	17.000	2.8062e-02
 9.000	17.250	2.9426e-02
 9.000	17.500	3.0879e-02
 9.000	17.750	3.2551e-02
 9.000	18.000	3.4319e-02
 9.000	18.250	3.5781e-02
 9.000	18.500	3.6714e-02
 9.000	18.750	2.8481e-02
 9.000	19.000	2.2923e-02
 9.000	19.250	1.7204e-02
 9.000	19.500	1.3884e-02
 9.000	19.750	1.2073e-02
 9.000	20.000	1.1153e-02
 9.000	20.250	1.0643e-02
 9.000	20.500	1.0353e-02
 9.000	20.750	1.0224e-02
 9.000	21.000	1.0158e-02
 9.000	21.250	1.0122e-02
 9.000	21.500	1.0107e-02
 9.000	21.750	1.0101e-02
 9.000	22.000	1.0099e-02
 9.000	22.250	1.0097e-02
 9.000	22.500	1.0097e-02
 9.000	22.750	1.0097e-02
 9.000	23.000	1.0096e-02
 9.000	23.250	1.0096e-02
 9.000	23.500	1.0096e-02
 9.000	23.750	1.0096e-02
 9.000	24.000	1.0096e-02
 9.250	17.000	2.7052e-02
 9.250	17.250	2.8591e-02
 9.250	17.500	3.0233e-02
 9.250	17.750	3.2086e-02
 9.250	18.000	3.4120e-02
 9.250	18.250	3.6156e-02
 9.250	18.500	3.7659e-02
 9.250	18.750	3.7777e-02
 9.250	19.000	2.8474e-02
 9.250	19.250	2.2922e-02
 9.250	19.500	1.7204e-02
 9.250	19.750	1.3880e-02
 9.250	20.000	1.2069e-02
 9.250	20.250	1.1152e-02
 9.250	20.500	1.0643e-02
 9.250	20.750	1.0353e-02
 9.250	21.000	1.0224e-02
 9.250	21.250	1.0158e-02
 9.250	21.500	1.0121e-02
 9.250	21.750	1.0106e-02
 9.250	22.000	1.0100e-02
 9.250	22.250	1.0098e-02
 9.250	22.500	1.0097e-02
 9.250	22.750	1.0096e-02
 9.250	23.000	1.0096e-02
 9.250	23.250	1.0096e-02
 9.250	23.500	1.0096e-02
 9.250	23.750	1.0096e-02
 9.250	24.000	1.0096e-02
 9.500	17.000	2.5932e-02
 9.500	17.250	2.7743e-02
 9.500	17.500	2.9703e-02
 9.500	17.750	3.1952e-02
 9.500	18.000	3.4462e-02
 9.500	18.250	3.7230e-02
 9.500	18.500	3.9729e-02
 9.500	18.750	4.1370e-02
 9.500	19.000	3.7757e-02
 9.500	19.250	2.8454e-02
 9.500	19.500	2.2921e-02
 9.500	19.750	1.7204e-02
 9.500	20.000	1.3876e-02
 9.500	20.250	1.2067e-02
 9.500	20.500	1.1151e-02
 9.500	20.750	1.0643e-02
 9.500	21.000	1.0352e-02
 9.500	21.250	1.0223e-02
 9.500	21.500	1.0157e-02
 9.500	21.750	1.0120e-02
 9.500	22.000	1.0105e-02
 9.500	22.250	1.0099e-02
 9.500	22.500	1.0097e-02
 9.500	22.750	1.0096e-02
 9.500	23.000	1.0095e-02
 9.500	23.250	1.0095e-02
 9.500	23.500	1.0095e-02
 9.500	23.750	1.0094e-02
 9.500	24.000	1.0094e-02
 9.750	17.000	2.4609e-02
 9.750	17.250	2.6715e-02
 9.750	17.500	2.9122e-02
 9.750	17.750	3.1980e-02
 9.750	18.000	3.5366e-02
 9.750	18.250	3.9021e-02
 9.750	18.500	4.2412e-02
 9.750	18.750	4.4916e-02
 9.750	19.000	4.6605e-02
 9.750	19.250	3.7558e-02
 9.750	19.500	2.8408e-02
 9.750	19.750	2.2919e-02
 9.750	20.000	1.7206e-02
 9.750	20.250	1.3874e-02
 9.750	20.500	1.2064e-02
 9.750	20.750	1.1150e-02
 9.750	21.000	1.0643e-02
 9.750	21.250	1.0352e-02
 9.750	21.500	1.0223e-02
 9.750	21.750	1.0157e-02
 9.750	22.000	1.0120e-02
 9.750	22.250	1.0105e-02
 9.750	22.500	1.0099e-02
 9.750	22.750	1.0097e-02
 9.750	23.000	1.0096e-02
 9.750	23.250	1.0095e-02
 9.750	23.500	1.0095e-02
 9.750	23.750	1.0095e-02
 9.750	24.000	1.0095e-02
10.000	17.000	2.3023e-02
10.000	17.250	2.5529e-02
10.000	17.500	2.8459e-02
10.000	17.750	3.2107e-02
10.000	18.000	3.6656e-02
10.000	18.250	4.1334e-02
10.000	18.500	4.5458e-02
10.000	18.750	4.8714e-02
10.000	19.000	5.1255e-02
10.000	19.250	5.0348e-02
10.000	19.500	3.7397e-02
10.000	19.750	2.8369e-02
10.000	20.000	2.2917e-02
10.000	20.250	1.7207e-02
10.000	20.500	1.3873e-02
10.000	20.750	1.2063e-02
10.000	21.000	1.1150e-02
10.000	21.250	1.0643e-02
10.000	21.500	1.0352e-02
10.000	21.750	1.0223e-02
10.000	22.000	1.0157e-02
10.000	22.250	1.0121e-02
10.000	22.500	1.0105e-02
10.000	22.750	1.0100e-02
10.000	23.000	1.0097e-02
10.000	23.250	1.0096e-02
10.000	23.500	1.0095e-02
10.000	23.750	1.0095e-02
10.000	24.000	1.0095e-02
10.250	17.000	2.1678e-02
10.250	17.250	2.4181e-02
10.250	17.500	2.7775e-02
10.250	17.750	3.2388e-02
10.250	18.000	3.8094e-02
10.250	18.250	4.3771e-02
10.250	18.500	4.8523e-02
10.250	18.750	5.2376e-02
10.250	19.000	5.5253e-02
10.250	19.250	5.7917e-02
10.250	19.500	5.3110e-02
10.250	19.750	3.7297e-02
10.250	20.000	2.8295e-02
10.250	20.250	2.2912e-02
10.250	20.500	1.7209e-02
10.250	20.750	1.3874e-02
10.250	21.000	1.2062e-02
10.250	21.250	1.1150e-02
10.250	21.500	1.0643e-02
10.250	21.750	1.0352e-02
10.250	22.000	1.0224e-02
10.250	22.250	1.0157e-02
10.250	22.500	1.0121e-02
10.250	22.750	1.0106e-02
10.250	23.000	1.0099e-02
10.250	23.250	1.0097e-02
10.250	23.500	1.0096e-02
10.250	23.750	1.0095e-02
10.250	24.000	1.0095e-02
10.500	17.000	2.0782e-02
10.500	17.250	2.3218e-02
10.500	17.500	2.7159e-02
10.500	17.750	3.2898e-02
10.500	18.000	3.9538e-02
10.500	18.250	4.5947e-02
10.500	18.500	5.1192e-02
10.500	18.750	5.5445e-02
10.500	19.000	5.8972e-02
10.500	19.250	6.1859e-02
10.500	19.500	6.4434e-02
10.500	19.750	5.3053e-02
10.500	20.000	3.7363e-02
10.500	20.250	2.8295e-02
10.500	20.500	2.2908e-02
10.500	20.750	1.7208e-02
10.500	21.000	1.3875e-02
10.500	21.250	1.2062e-02
10.500	21.500	1.1150e-02
10.500	21.750	1.0643e-02
10.500	22.000	1.0352e-02
10.500	22.250	1.0224e-02
10.500	22.500	1.0158e-02
10.500	22.750	1.0121e-02
10.500	23.000	1.0106e-02
10.500	23.250	1.0100e-02
10.500	23.500	1.0097e-02
10.500	23.750	1.0096e-02
10.500	24.000	1.0095e-02
10.750	17.000	2.0423e-02
10.750	17.250	2.2775e-02
10.750	17.500	2.7107e-02
10.750	17.750	3.3523e-02
10.750	18.000	4.0824e-02
10.750	18.250	4.7556e-02
10.750	18.500	5.3182e-02
10.750	18.750	5.7992e-02
10.750	19.000	6.1887e-02
10.750	19.250	6.5005e-02
10.750	19.500	6.7694e-02
10.750	19.750	6.9504e-02
10.750	20.000	5.2925e-02
10.750	20.250	3.7781e-02
10.750	20.500	2.8415e-02
10.750	20.750	2.2903e-02
10.750	21.000	1.7205e-02
10.750	21.250	1.3876e-02
10.750	21.500	1.2062e-02
10.750	21.750	1.1151e-02
10.750	22.000	1.0643e-02
10.750	22.250	1.0352e-02
10.750	22.500	1.0224e-02
10.750	22.750	1.0158e-02
10.750	23.000	1.0121e-02
10.750	23.250	1.0106e-02
10.750	23.500	1.0100e-02
10.750	23.750	1.0097e-02
10.750	24.000	1.0096e-02
11.000	17.000	2.0533e-02
11.000	17.250	2.2884e-02
11.000	17.500	2.7502e-02
11.000	17.750	3.4238e-02
11.000	18.000	4.1615e-02
11.000	18.250	4.8415e-02
11.000	18.500	5.4435e-02
11.000	18.750	5.9592e-02
11.000	19.000	6.3878e-02
11.000	19.250	6.7310e-02
11.000	19.500	7.0071e-02
11.000	19.750	7.2372e-02
11.000	20.000	7.2240e-02
11.000	20.250	5.3492e-02
11.000	20.500	3.7879e-02
11.000	20.750	2.8601e-02
11.000	21.000	2.2896e-02
11.000	21.250	1.7196e-02
11.000	21.500	1.3878e-02
11.000	21.750	1.2063e-02
11.000	22.000	1.1152e-02
11.000	22.250	1.0643e-02
11.000	22.500	1.0352e-02
11.000	22.750	1.0224e-02
11.000	23.000	1.0158e-02
11.000	23.250	1.0121e-02
11.000	23.500	1.0106e-02
11.000	23.750	1.0100e-02
11.000	24.000	1.0097e-02
11.250	17.000	2.1021e-02
11.250	17.250	2.3381e-02
11.250	17.500	2.8156e-02
11.250	17.750	3.4841e-02
11.250	18.000	4.1983e-02
11.250	18.250	4.8658e-02
11.250	18.500	5.4787e-02
11.250	18.750	6.0311e-02
11.250	19.000	6.4857e-02
11.250	19.250	6.8653e-02
11.250	19.500	7.1561e-02
11.250	19.750	7.3848e-02
11.250	20.000	7.5789e-02
11.250	20.250	7.3011e-02
11.250	20.500	5.3701e-02
11.250	20.750	3.8389e-02
11.250	21.000	2.8967e-02
11.250	21.250	2.2887e-02
11.250	21.500	1.7180e-02
11.250	21.750	1.3877e-02
11.250	22.000	1.2064e-02
11.250	22.250	1.1153e-02
11.250	22.500	1.0643e-02
11.250	22.750	1.0352e-02
11.250	23.000	1.0224e-02
11.250	23.250	1.0158e-02
11.250	23.500	1.0121e-02
11.250	23.750	1.0106e-02
11.250	24.000	1.0100e-02
11.500	17.000	2.1853e-02
11.500	17.250	2.4212e-02
11.500	17.500	2.8950e-02
11.500	17.750	3.5370e-02
11.500	18.000	4.2094e-02
11.500	18.250	4.8494e-02
11.500	18.500	5.4599e-02
11.500	18.750	6.0310e-02
11.500	19.000	6.5285e-02
11.500	19.250	6.9240e-02
11.500	19.500	7.2251e-02
11.500	19.750	7.4773e-02
11.500	20.000	7.6937e-02
11.500	20.250	7.8864e-02
11.500	20.500	7.3125e-02
11.500	20.750	5.4293e-02
11.500	21.000	3.9049e-02
11.500	21.250	2.9646e-02
11.500	21.500	2.2868e-02
11.500	21.750	1.7153e-02
11.500	22.000	1.3873e-02
11.500	22.250	1.2066e-02
11.500	22.500	1.1154e-02
11.500	22.750	1.0644e-02
11.500	23.000	1.0352e-02
11.500	23.250	1.0224e-02
11.500	23.500	1.0158e-02
11.500	23.750	1.0122e-02
11.500	24.000	1.0106e-02
11.750	17.000	2.2976e-02
11.750	17.250	2.5258e-02
11.750	17.500	2.9811e-02
11.750	17.750	3.5889e-02
11.750	18.000	4.2136e-02
11.750	18.250	4.8232e-02
11.750	18.500	5.4263e-02
11.750	18.750	6.0056e-02
11.750	19.000	6.5332e-02
11.750	19.250	6.9635e-02
11.750	19.500	7.2907e-02
11.750	19.750	7.5445e-02
11.750	20.000	7.7848e-02
11.750	20.250	8.0098e-02
11.750	20.500	8.2352e-02
11.750	20.750	7.2791e-02
11.750	21.000	5.5230e-02
11.750	21.250	4.0250e-02
11.750	21.500	3.0753e-02
11.750	21.750	2.2833e-02
11.750	22.000	1.7115e-02
11.750	22.250	1.3863e-02
11.750	22.500	1.2068e-02
11.750	22.750	1.1155e-02
11.750	23.000	1.0644e-02
11.750	23.250	1.0352e-02
11.750	23.500	1.0224e-02
11.750	23.750	1.0158e-02
11.750	24.000	1.0122e-02
12.000	17.000	2.4317e-02
12.000	17.250	2.6425e-02
12.000	17.500	3.0555e-02
12.000	17.750	3.6124e-02
12.000	18.000	4.2109e-02
12.000	18.250	4.8139e-02
12.000	18.500	5.4170e-02
12.000	18.750	6.0090e-02
12.000	19.000	6.5568e-02
12.000	19.250	7.0253e-02
12.000	19.500	7.3862e-02
12.000	19.750	7.6516e-02
12.000	20.000	7.8886e-02
12.000	20.250	8.1312e-02
12.000	20.500	8.3805e-02
12.000	20.750	8.6474e-02
12.000	21.000	7.3629e-02
12.000	21.250	5.6636e-02
12.000	21.500	4.1924e-02
12.000	21.750	3.2116e-02
12.000	22.000	2.2781e-02
12.000	22.250	1.7078e-02
12.000	22.500	1.3847e-02
12.000	22.750	1.2069e-02
12.000	23.000	1.1156e-02
12.000	23.250	1.0644e-02
12.000	23.500	1.0351e-02
12.000	23.750	1.0224e-02
12.000	24.000	1.0158e-02
12.250	17.000	2.5637e-02
12.250	17.250	2.7463e-02
12.250	17.500	3.0897e-02
12.250	17.750	3.5817e-02
12.250	18.000	4.1779e-02
12.250	18.250	4.8319e-02
12.250	18.500	5.4840e-02
12.250	18.750	6.0897e-02
12.250	19.000	6.6350e-02
12.250	19.250	7.1208e-02
12.250	19.500	7.5131e-02
12.250	19.750	7.8159e-02
12.250	20.000	8.0446e-02
12.250	20.250	8.2859e-02
12.250	20.500	8.5642e-02
12.250	20.750	8.8887e-02
12.250	21.000	9.1804e-02
12.250	21.250	7.5981e-02
12.250	21.500	5.8578e-02
12.250	21.750	4.3990e-02
12.250	22.000	3.2720e-02
12.250	22.250	2.2715e-02
12.250	22.500	1.7028e-02
12.250	22.750	1.3824e-02
12.250	23.000	1.2068e-02
12.250	23.250	1.1156e-02
12.250	23.500	1.0644e-02
12.250	23.750	1.0351e-02
12.250	24.000	1.0224e-02
12.500	17.000	2.6088e-02
12.500	17.250	2.7610e-02
12.500	17.500	3.0311e-02
12.500	17.750	3.4847e-02
12.500	18.000	4.1256e-02
12.500	18.250	4.8575e-02
12.500	18.500	5.5973e-02
12.500	18.750	6.2585e-02
12.500	19.000	6.8241e-02
12.500	19.250	7.2877e-02
12.500	19.500	7.6954e-02
12.500	19.750	8.0299e-02
12.500	20.000	8.2912e-02
12.500	20.250	8.5175e-02
12.500	20.500	8.7888e-02
12.500	20.750	9.1509e-02
12.500	21.000	9.6377e-02
12.500	21.250	1.0016e-01
12.500	21.500	7.9048e-02
12.500	21.750	6.1348e-02
12.500	22.000	4.6175e-02
12.500	22.250	3.2668e-02
12.500	22.500	2.2631e-02
12.500	22.750	1.6962e-02
12.500	23.000	1.3795e-02
12.500	23.250	1.2066e-02
12.500	23.500	1.1156e-02
12.500	23.750	1.0644e-02
12.500	24.000	1.0350e-02
12.750	17.000	2.3521e-02
12.750	17.250	2.5178e-02
12.750	17.500	2.8356e-02
12.750	17.750	3.3850e-02
12.750	18.000	4.0857e-02
12.750	18.250	4.8888e-02
12.750	18.500	5.7044e-02
12.750	18.750	6.4554e-02
12.750	19.000	7.0722e-02
12.750	19.250	7.5540e-02
12.750	19.500	7.9426e-02
12.750	19.750	8.2997e-02
12.750	20.000	8.5903e-02
12.750	20.250	8.8599e-02
12.750	20.500	9.0848e-02
12.750	20.750	9.4652e-02
12.750	21.000	9.9921e-02
12.750	21.250	1.0755e-01
12.750	21.500	1.0753e-01
12.750	21.750	8.3387e-02
12.750	22.000	6.4582e-02
12.750	22.250	4.7969e-02
12.750	22.500	3.2561e-02
12.750	22.750	2.2529e-02
12.750	23.000	1.6893e-02
12.750	23.250	1.3761e-02
12.750	23.500	1.2060e-02
12.750	23.750	1.1154e-02
12.750	24.000	1.0642e-02
13.000	17.000	1.7669e-02
13.000	17.250	2.1433e-02
13.000	17.500	2.7767e-02
13.000	17.750	3.3586e-02
13.000	18.000	4.0877e-02
13.000	18.250	4.9343e-02
13.000	18.500	5.8111e-02
13.000	18.750	6.6258e-02
13.000	19.000	7.3179e-02
13.000	19.250	7.8634e-02
13.000	19.500	8.2703e-02
13.000	19.750	8.6115e-02
13.000	20.000	8.9197e-02
13.000	20.250	9.2180e-02
13.000	20.500	9.5354e-02
13.000	20.750	9.8869e-02
13.000	21.000	1.0428e-01
13.000	21.250	1.1214e-01
13.000	21.500	1.1849e-01
13.000	21.750	1.1631e-01
13.000	22.000	8.9279e-02
13.000	22.250	6.7695e-02
13.000	22.500	4.8850e-02
13.000	22.750	3.2412e-02
13.000	23.000	2.2401e-02
13.000	23.250	1.6829e-02
13.000	23.500	1.3721e-02
13.000	23.750	1.2050e-02
13.000	24.000	1.1149e-02
13.250	17.000	1.7356e-02
13.250	17.250	2.0688e-02
13.250	17.500	2.6721e-02
13.250	17.750	3.3784e-02
13.250	18.000	4.1359e-02
13.250	18.250	5.0048e-02
13.250	18.500	5.9192e-02
13.250	18.750	6.7847e-02
13.250	19.000	7.5349e-02
13.250	19.250	8.1346e-02
13.250	19.500	8.5947e-02
13.250	19.750	8.9619e-02
13.250	20.000	9.2937e-02
13.250	20.250	9.6180e-02
13.250	20.500	9.9652e-02
13.250	20.750	1.0365e-01
13.250	21.000	1.0922e-01
13.250	21.250	1.1622e-01
13.250	21.500	1.2300e-01
13.250	21.750	1.3150e-01
13.250	22.000	1.2582e-01
13.250	22.250	9.2408e-02
13.250	22.500	6.9183e-02
13.250	22.750	4.8836e-02
13.250	23.000	3.2210e-02
13.250	23.250	2.2265e-02
13.250	23.500	1.6742e-02
13.250	23.750	1.3678e-02
13.250	24.000	1.2034e-02
13.500	17.000	1.7267e-02
13.500	17.250	2.0446e-02
13.500	17.500	2.5937e-02
13.500	17.750	3.3379e-02
13.500	18.000	4.2226e-02
13.500	18.250	5.0981e-02
13.500	18.500	6.0304e-02
13.500	18.750	6.9385e-02
13.500	19.000	7.7453e-02
13.500	19.250	8.4068e-02
13.500	19.500	8.9091e-02
13.500	19.750	9.3093e-02
13.500	20.000	9.6817e-02
13.500	20.250	1.0088e-01
13.500	20.500	1.0429e-01
13.500	20.750	1.0816e-01
13.500	21.000	1.1281e-01
13.500	21.250	1.1960e-01
13.500	21.500	1.2421e-01
13.500	21.750	1.3456e-01
13.500	22.000	1.4408e-01
13.500	22.250	1.3150e-01
13.500	22.500	9.4351e-02
13.500	22.750	6.9478e-02
13.500	23.000	4.8377e-02
13.500	23.250	3.1959e-02
13.500	23.500	2.2112e-02
13.500	23.750	1.6625e-02
13.500	24.000	1.3628e-02
13.750	17.000	1.7476e-02
13.750	17.250	2.0438e-02
13.750	17.500	2.5661e-02
13.750	17.750	3.3105e-02
13.750	18.000	4.2631e-02
13.750	18.250	5.2071e-02
13.750	18.500	6.1824e-02
13.750	18.750	7.1050e-02
13.750	19.000	7.9568e-02
13.750	19.250	8.6888e-02
13.750	19.500	9.2699e-02
13.750	19.750	9.7218e-02
13.750	20.000	1.0117e-01
13.750	20.250	1.0519e-01
13.750	20.500	1.0950e-01
13.750	20.750	1.1374e-01
13.750	21.000	1.1819e-01
13.750	21.250	1.2344e-01
13.750	21.500	1.2807e-01
13.750	21.750	1.3720e-01
13.750	22.000	1.4951e-01
13.750	22.250	1.5924e-01
13.750	22.500	1.3635e-01
13.750	22.750	9.5653e-02
13.750	23.000	6.8629e-02
13.750	23.250	4.7890e-02
13.750	23.500	3.1642e-02
13.750	23.750	2.1921e-02
13.750	24.000	1.6501e-02
14.000	17.000	1.7913e-02
14.000	17.250	2.0641e-02
14.000	17.500	2.5680e-02
14.000	17.750	3.2833e-02
14.000	18.000	4.2873e-02
14.000	18.250	5.3614e-02
14.000	18.500	6.3801e-02
14.000	18.750	7.3095e-02
14.000	19.000	8.1811e-02
14.000	19.250	8.9818e-02
14.000	19.500	9.6691e-02
14.000	19.750	1.0214e-01
14.000	20.000	1.0650e-01
14.000	20.250	1.1051e-01
14.000	20.500	1.1495e-01
14.000	20.750	1.1965e-01
14.000	21.000	1.2461e-01
14.000	21.250	1.3029e-01
14.000	21.500	1.3421e-01
14.000	21.750	1.4314e-01
14.000	22.000	1.5636e-01
14.000	22.250	1.7285e-01
14.000	22.500	1.7837e-01
14.000	22.750	1.4134e-01
14.000	23.000	9.7938e-02
14.000	23.250	6.8340e-02
14.000	23.500	4.7553e-02
14.000	23.750	3.1238e-02
14.000	24.000	2.1670e-02
