nFnu 399.153A  relative to Inci 1215.00A scaled to 1215A.
Hden   Phi(H)  Eq_Width (A)
 7.000	17.000	2.6495e-02
 7.000	17.250	2.9237e-02
 7.000	17.500	3.1924e-02
 7.000	17.750	2.9100e-02
 7.000	18.000	2.2980e-02
 7.000	18.250	1.8429e-02
 7.000	18.500	1.5261e-02
 7.000	18.750	1.3818e-02
 7.000	19.000	1.3088e-02
 7.000	19.250	1.2690e-02
 7.000	19.500	1.2520e-02
 7.000	19.750	1.2446e-02
 7.000	20.000	1.2413e-02
 7.000	20.250	1.2397e-02
 7.000	20.500	1.2389e-02
 7.000	20.750	1.2385e-02
 7.000	21.000	1.2383e-02
 7.000	21.250	1.2382e-02
 7.000	21.500	1.2381e-02
 7.000	21.750	1.2381e-02
 7.000	22.000	1.2380e-02
 7.000	22.250	1.2380e-02
 7.000	22.500	1.2380e-02
 7.000	22.750	1.2382e-02
 7.000	23.000	1.2381e-02
 7.000	23.250	1.2380e-02
 7.000	23.500	1.2381e-02
 7.000	23.750	1.2381e-02
 7.000	24.000	1.2382e-02
 7.250	17.000	2.4871e-02
 7.250	17.250	2.3364e-02
 7.250	17.500	2.7666e-02
 7.250	17.750	3.1214e-02
 7.250	18.000	2.8730e-02
 7.250	18.250	2.2779e-02
 7.250	18.500	1.8330e-02
 7.250	18.750	1.5226e-02
 7.250	19.000	1.3804e-02
 7.250	19.250	1.3083e-02
 7.250	19.500	1.2689e-02
 7.250	19.750	1.2520e-02
 7.250	20.000	1.2446e-02
 7.250	20.250	1.2413e-02
 7.250	20.500	1.2397e-02
 7.250	20.750	1.2389e-02
 7.250	21.000	1.2385e-02
 7.250	21.250	1.2383e-02
 7.250	21.500	1.2382e-02
 7.250	21.750	1.2381e-02
 7.250	22.000	1.2381e-02
 7.250	22.250	1.2380e-02
 7.250	22.500	1.2380e-02
 7.250	22.750	1.2380e-02
 7.250	23.000	1.2380e-02
 7.250	23.250	1.2380e-02
 7.250	23.500	1.2380e-02
 7.250	23.750	1.2380e-02
 7.250	24.000	1.2380e-02
 7.500	17.000	1.2071e-02
 7.500	17.250	2.3240e-02
 7.500	17.500	2.1493e-02
 7.500	17.750	2.6744e-02
 7.500	18.000	3.0844e-02
 7.500	18.250	2.8527e-02
 7.500	18.500	2.2656e-02
 7.500	18.750	1.8268e-02
 7.500	19.000	1.5202e-02
 7.500	19.250	1.3795e-02
 7.500	19.500	1.3080e-02
 7.500	19.750	1.2689e-02
 7.500	20.000	1.2520e-02
 7.500	20.250	1.2446e-02
 7.500	20.500	1.2413e-02
 7.500	20.750	1.2397e-02
 7.500	21.000	1.2389e-02
 7.500	21.250	1.2385e-02
 7.500	21.500	1.2383e-02
 7.500	21.750	1.2381e-02
 7.500	22.000	1.2381e-02
 7.500	22.250	1.2380e-02
 7.500	22.500	1.2380e-02
 7.500	22.750	1.2380e-02
 7.500	23.000	1.2380e-02
 7.500	23.250	1.2380e-02
 7.500	23.500	1.2381e-02
 7.500	23.750	1.2380e-02
 7.500	24.000	1.2380e-02
 7.750	17.000	8.9385e-03
 7.750	17.250	1.1632e-02
 7.750	17.500	2.2303e-02
 7.750	17.750	2.0388e-02
 7.750	18.000	2.6227e-02
 7.750	18.250	3.0693e-02
 7.750	18.500	2.8431e-02
 7.750	18.750	2.2586e-02
 7.750	19.000	1.8230e-02
 7.750	19.250	1.5188e-02
 7.750	19.500	1.3790e-02
 7.750	19.750	1.3078e-02
 7.750	20.000	1.2688e-02
 7.750	20.250	1.2520e-02
 7.750	20.500	1.2446e-02
 7.750	20.750	1.2413e-02
 7.750	21.000	1.2397e-02
 7.750	21.250	1.2389e-02
 7.750	21.500	1.2385e-02
 7.750	21.750	1.2383e-02
 7.750	22.000	1.2381e-02
 7.750	22.250	1.2381e-02
 7.750	22.500	1.2380e-02
 7.750	22.750	1.2380e-02
 7.750	23.000	1.2380e-02
 7.750	23.250	1.2380e-02
 7.750	23.500	1.2380e-02
 7.750	23.750	1.2380e-02
 7.750	24.000	1.2380e-02
 8.000	17.000	7.0865e-03
 8.000	17.250	8.6601e-03
 8.000	17.500	1.1325e-02
 8.000	17.750	2.1763e-02
 8.000	18.000	1.9747e-02
 8.000	18.250	2.5948e-02
 8.000	18.500	3.0686e-02
 8.000	18.750	2.8405e-02
 8.000	19.000	2.2548e-02
 8.000	19.250	1.8208e-02
 8.000	19.500	1.5179e-02
 8.000	19.750	1.3787e-02
 8.000	20.000	1.3077e-02
 8.000	20.250	1.2688e-02
 8.000	20.500	1.2520e-02
 8.000	20.750	1.2446e-02
 8.000	21.000	1.2413e-02
 8.000	21.250	1.2397e-02
 8.000	21.500	1.2389e-02
 8.000	21.750	1.2385e-02
 8.000	22.000	1.2383e-02
 8.000	22.250	1.2381e-02
 8.000	22.500	1.2381e-02
 8.000	22.750	1.2380e-02
 8.000	23.000	1.2380e-02
 8.000	23.250	1.2380e-02
 8.000	23.500	1.2380e-02
 8.000	23.750	1.2380e-02
 8.000	24.000	1.2380e-02
 8.250	17.000	5.9816e-03
 8.250	17.250	6.9548e-03
 8.250	17.500	8.5240e-03
 8.250	17.750	1.1176e-02
 8.250	18.000	2.1447e-02
 8.250	18.250	1.9355e-02
 8.250	18.500	2.5812e-02
 8.250	18.750	3.0768e-02
 8.250	19.000	2.8424e-02
 8.250	19.250	2.2530e-02
 8.250	19.500	1.8194e-02
 8.250	19.750	1.5174e-02
 8.250	20.000	1.3785e-02
 8.250	20.250	1.3076e-02
 8.250	20.500	1.2688e-02
 8.250	20.750	1.2520e-02
 8.250	21.000	1.2446e-02
 8.250	21.250	1.2413e-02
 8.250	21.500	1.2397e-02
 8.250	21.750	1.2389e-02
 8.250	22.000	1.2385e-02
 8.250	22.250	1.2383e-02
 8.250	22.500	1.2381e-02
 8.250	22.750	1.2381e-02
 8.250	23.000	1.2380e-02
 8.250	23.250	1.2380e-02
 8.250	23.500	1.2381e-02
 8.250	23.750	1.2380e-02
 8.250	24.000	1.2380e-02
 8.500	17.000	5.2531e-03
 8.500	17.250	5.9119e-03
 8.500	17.500	6.8807e-03
 8.500	17.750	8.4365e-03
 8.500	18.000	1.1091e-02
 8.500	18.250	2.1223e-02
 8.500	18.500	1.9108e-02
 8.500	18.750	2.5759e-02
 8.500	19.000	3.0917e-02
 8.500	19.250	2.8471e-02
 8.500	19.500	2.2524e-02
 8.500	19.750	1.8186e-02
 8.500	20.000	1.5171e-02
 8.500	20.250	1.3783e-02
 8.500	20.500	1.3076e-02
 8.500	20.750	1.2688e-02
 8.500	21.000	1.2520e-02
 8.500	21.250	1.2446e-02
 8.500	21.500	1.2413e-02
 8.500	21.750	1.2397e-02
 8.500	22.000	1.2389e-02
 8.500	22.250	1.2385e-02
 8.500	22.500	1.2383e-02
 8.500	22.750	1.2381e-02
 8.500	23.000	1.2381e-02
 8.500	23.250	1.2380e-02
 8.500	23.500	1.2380e-02
 8.500	23.750	1.2380e-02
 8.500	24.000	1.2380e-02
 8.750	17.000	4.6974e-03
 8.750	17.250	5.2237e-03
 8.750	17.500	5.8797e-03
 8.750	17.750	6.8463e-03
 8.750	18.000	8.4082e-03
 8.750	18.250	1.1063e-02
 8.750	18.500	2.1089e-02
 8.750	18.750	1.8936e-02
 8.750	19.000	2.5752e-02
 8.750	19.250	3.1103e-02
 8.750	19.500	2.8536e-02
 8.750	19.750	2.2525e-02
 8.750	20.000	1.8181e-02
 8.750	20.250	1.5168e-02
 8.750	20.500	1.3783e-02
 8.750	20.750	1.3076e-02
 8.750	21.000	1.2687e-02
 8.750	21.250	1.2520e-02
 8.750	21.500	1.2446e-02
 8.750	21.750	1.2413e-02
 8.750	22.000	1.2397e-02
 8.750	22.250	1.2389e-02
 8.750	22.500	1.2385e-02
 8.750	22.750	1.2383e-02
 8.750	23.000	1.2381e-02
 8.750	23.250	1.2381e-02
 8.750	23.500	1.2380e-02
 8.750	23.750	1.2380e-02
 8.750	24.000	1.2380e-02
 9.000	17.000	4.2060e-03
 9.000	17.250	4.7146e-03
 9.000	17.500	5.2383e-03
 9.000	17.750	5.8956e-03
 9.000	18.000	6.8665e-03
 9.000	18.250	8.4398e-03
 9.000	18.500	1.1111e-02
 9.000	18.750	2.1023e-02
 9.000	19.000	1.8804e-02
 9.000	19.250	2.5747e-02
 9.000	19.500	3.1305e-02
 9.000	19.750	2.8610e-02
 9.000	20.000	2.2529e-02
 9.000	20.250	1.8178e-02
 9.000	20.500	1.5167e-02
 9.000	20.750	1.3782e-02
 9.000	21.000	1.3075e-02
 9.000	21.250	1.2687e-02
 9.000	21.500	1.2520e-02
 9.000	21.750	1.2446e-02
 9.000	22.000	1.2413e-02
 9.000	22.250	1.2397e-02
 9.000	22.500	1.2389e-02
 9.000	22.750	1.2385e-02
 9.000	23.000	1.2383e-02
 9.000	23.250	1.2381e-02
 9.000	23.500	1.2381e-02
 9.000	23.750	1.2380e-02
 9.000	24.000	1.2380e-02
 9.250	17.000	3.6885e-03
 9.250	17.250	4.2628e-03
 9.250	17.500	4.7888e-03
 9.250	17.750	5.3263e-03
 9.250	18.000	5.9953e-03
 9.250	18.250	6.9876e-03
 9.250	18.500	8.6221e-03
 9.250	18.750	1.1341e-02
 9.250	19.000	2.1081e-02
 9.250	19.250	1.8685e-02
 9.250	19.500	2.5724e-02
 9.250	19.750	3.1488e-02
 9.250	20.000	2.8684e-02
 9.250	20.250	2.2535e-02
 9.250	20.500	1.8176e-02
 9.250	20.750	1.5166e-02
 9.250	21.000	1.3782e-02
 9.250	21.250	1.3075e-02
 9.250	21.500	1.2686e-02
 9.250	21.750	1.2518e-02
 9.250	22.000	1.2445e-02
 9.250	22.250	1.2412e-02
 9.250	22.500	1.2397e-02
 9.250	22.750	1.2389e-02
 9.250	23.000	1.2385e-02
 9.250	23.250	1.2383e-02
 9.250	23.500	1.2381e-02
 9.250	23.750	1.2381e-02
 9.250	24.000	1.2380e-02
 9.500	17.000	3.0971e-03
 9.500	17.250	3.7765e-03
 9.500	17.500	4.3945e-03
 9.500	17.750	4.9612e-03
 9.500	18.000	5.5147e-03
 9.500	18.250	6.2055e-03
 9.500	18.500	7.2643e-03
 9.500	18.750	9.0710e-03
 9.500	19.000	1.4260e-02
 9.500	19.250	2.1284e-02
 9.500	19.500	1.8587e-02
 9.500	19.750	2.5669e-02
 9.500	20.000	3.1627e-02
 9.500	20.250	2.8748e-02
 9.500	20.500	2.2541e-02
 9.500	20.750	1.8174e-02
 9.500	21.000	1.5163e-02
 9.500	21.250	1.3780e-02
 9.500	21.500	1.3074e-02
 9.500	21.750	1.2685e-02
 9.500	22.000	1.2517e-02
 9.500	22.250	1.2444e-02
 9.500	22.500	1.2411e-02
 9.500	22.750	1.2395e-02
 9.500	23.000	1.2387e-02
 9.500	23.250	1.2383e-02
 9.500	23.500	1.2380e-02
 9.500	23.750	1.2379e-02
 9.500	24.000	1.2379e-02
 9.750	17.000	2.3949e-03
 9.750	17.250	3.1922e-03
 9.750	17.500	3.9486e-03
 9.750	17.750	4.6435e-03
 9.750	18.000	5.2424e-03
 9.750	18.250	5.8337e-03
 9.750	18.500	6.6068e-03
 9.750	18.750	7.8347e-03
 9.750	19.000	9.9391e-03
 9.750	19.250	1.9097e-02
 9.750	19.500	2.1721e-02
 9.750	19.750	1.8515e-02
 9.750	20.000	2.5578e-02
 9.750	20.250	3.1706e-02
 9.750	20.500	2.8798e-02
 9.750	20.750	2.2545e-02
 9.750	21.000	1.8173e-02
 9.750	21.250	1.5162e-02
 9.750	21.500	1.3780e-02
 9.750	21.750	1.3074e-02
 9.750	22.000	1.2686e-02
 9.750	22.250	1.2517e-02
 9.750	22.500	1.2444e-02
 9.750	22.750	1.2411e-02
 9.750	23.000	1.2395e-02
 9.750	23.250	1.2387e-02
 9.750	23.500	1.2383e-02
 9.750	23.750	1.2381e-02
 9.750	24.000	1.2379e-02
10.000	17.000	1.5879e-03
10.000	17.250	2.4723e-03
10.000	17.500	3.3724e-03
10.000	17.750	4.2300e-03
10.000	18.000	5.0008e-03
10.000	18.250	5.6662e-03
10.000	18.500	6.3440e-03
10.000	18.750	7.2746e-03
10.000	19.000	8.7704e-03
10.000	19.250	1.1125e-02
10.000	19.500	2.2495e-02
10.000	19.750	2.2467e-02
10.000	20.000	1.8518e-02
10.000	20.250	2.5476e-02
10.000	20.500	3.1742e-02
10.000	20.750	2.8838e-02
10.000	21.000	2.2549e-02
10.000	21.250	1.8173e-02
10.000	21.500	1.5162e-02
10.000	21.750	1.3780e-02
10.000	22.000	1.3074e-02
10.000	22.250	1.2686e-02
10.000	22.500	1.2517e-02
10.000	22.750	1.2444e-02
10.000	23.000	1.2411e-02
10.000	23.250	1.2395e-02
10.000	23.500	1.2387e-02
10.000	23.750	1.2383e-02
10.000	24.000	1.2381e-02
10.250	17.000	9.8329e-04
10.250	17.250	1.6392e-03
10.250	17.500	2.6265e-03
10.250	17.750	3.6389e-03
10.250	18.000	4.6104e-03
10.250	18.250	5.4952e-03
10.250	18.500	6.2635e-03
10.250	18.750	7.1044e-03
10.250	19.000	8.2351e-03
10.250	19.250	1.0003e-02
10.250	19.500	1.4405e-02
10.250	19.750	2.5194e-02
10.250	20.000	2.3433e-02
10.250	20.250	1.8644e-02
10.250	20.500	2.5384e-02
10.250	20.750	3.1727e-02
10.250	21.000	2.8862e-02
10.250	21.250	2.2550e-02
10.250	21.500	1.8173e-02
10.250	21.750	1.5162e-02
10.250	22.000	1.3781e-02
10.250	22.250	1.3074e-02
10.250	22.500	1.2686e-02
10.250	22.750	1.2518e-02
10.250	23.000	1.2444e-02
10.250	23.250	1.2411e-02
10.250	23.500	1.2395e-02
10.250	23.750	1.2387e-02
10.250	24.000	1.2383e-02
10.500	17.000	5.9136e-04
10.500	17.250	1.0045e-03
10.500	17.500	1.7377e-03
10.500	17.750	2.8467e-03
10.500	18.000	3.9938e-03
10.500	18.250	5.0972e-03
10.500	18.500	6.1008e-03
10.500	18.750	7.0205e-03
10.500	19.000	8.0215e-03
10.500	19.250	9.3843e-03
10.500	19.500	1.1455e-02
10.500	19.750	2.2454e-02
10.500	20.000	2.7665e-02
10.500	20.250	2.4647e-02
10.500	20.500	1.8938e-02
10.500	20.750	2.5358e-02
10.500	21.000	3.1678e-02
10.500	21.250	2.8873e-02
10.500	21.500	2.2550e-02
10.500	21.750	1.8173e-02
10.500	22.000	1.5162e-02
10.500	22.250	1.3781e-02
10.500	22.500	1.3074e-02
10.500	22.750	1.2686e-02
10.500	23.000	1.2518e-02
10.500	23.250	1.2444e-02
10.500	23.500	1.2411e-02
10.500	23.750	1.2395e-02
10.500	24.000	1.2387e-02
10.750	17.000	3.7136e-04
10.750	17.250	5.9391e-04
10.750	17.500	1.0516e-03
10.750	17.750	1.9095e-03
10.750	18.000	3.1270e-03
10.750	18.250	4.4361e-03
10.750	18.500	5.6674e-03
10.750	18.750	6.7947e-03
10.750	19.000	7.8657e-03
10.750	19.250	9.0776e-03
10.750	19.500	1.0727e-02
10.750	19.750	1.3105e-02
10.750	20.000	2.7193e-02
10.750	20.250	3.1104e-02
10.750	20.500	2.6316e-02
10.750	20.750	1.9517e-02
10.750	21.000	2.5479e-02
10.750	21.250	3.1614e-02
10.750	21.500	2.8873e-02
10.750	21.750	2.2547e-02
10.750	22.000	1.8174e-02
10.750	22.250	1.5161e-02
10.750	22.500	1.3782e-02
10.750	22.750	1.3075e-02
10.750	23.000	1.2686e-02
10.750	23.250	1.2518e-02
10.750	23.500	1.2444e-02
10.750	23.750	1.2411e-02
10.750	24.000	1.2395e-02
11.000	17.000	2.4872e-04
11.000	17.250	3.6395e-04
11.000	17.500	6.0263e-04
11.000	17.750	1.1231e-03
11.000	18.000	2.0908e-03
11.000	18.250	3.4292e-03
11.000	18.500	4.8951e-03
11.000	18.750	6.2719e-03
11.000	19.000	7.5414e-03
11.000	19.250	8.8143e-03
11.000	19.500	1.0289e-02
11.000	19.750	1.2270e-02
11.000	20.000	1.4857e-02
11.000	20.250	3.1366e-02
11.000	20.500	3.4075e-02
11.000	20.750	2.8041e-02
11.000	21.000	2.0503e-02
11.000	21.250	2.5879e-02
11.000	21.500	3.1565e-02
11.000	21.750	2.8857e-02
11.000	22.000	2.2544e-02
11.000	22.250	1.8176e-02
11.000	22.500	1.5160e-02
11.000	22.750	1.3782e-02
11.000	23.000	1.3076e-02
11.000	23.250	1.2686e-02
11.000	23.500	1.2518e-02
11.000	23.750	1.2445e-02
11.000	24.000	1.2411e-02
11.250	17.000	1.7202e-04
11.250	17.250	2.3572e-04
11.250	17.500	3.5498e-04
11.250	17.750	6.1251e-04
11.250	18.000	1.1846e-03
11.250	18.250	2.2533e-03
11.250	18.500	3.7416e-03
11.250	18.750	5.3816e-03
11.250	19.000	6.8993e-03
11.250	19.250	8.3588e-03
11.250	19.500	9.8919e-03
11.250	19.750	1.1686e-02
11.250	20.000	1.4010e-02
11.250	20.250	1.6930e-02
11.250	20.500	3.5940e-02
11.250	20.750	3.8070e-02
11.250	21.000	2.9839e-02
11.250	21.250	2.1973e-02
11.250	21.500	2.6682e-02
11.250	21.750	3.1588e-02
11.250	22.000	2.8832e-02
11.250	22.250	2.2540e-02
11.250	22.500	1.8179e-02
11.250	22.750	1.5160e-02
11.250	23.000	1.3782e-02
11.250	23.250	1.3076e-02
11.250	23.500	1.2687e-02
11.250	23.750	1.2518e-02
11.250	24.000	1.2445e-02
11.500	17.000	1.2099e-04
11.500	17.250	1.5852e-04
11.500	17.500	2.2140e-04
11.500	17.750	3.4198e-04
11.500	18.000	6.1160e-04
11.500	18.250	1.2351e-03
11.500	18.500	2.4180e-03
11.500	18.750	4.0820e-03
11.500	19.000	5.9090e-03
11.500	19.250	7.5873e-03
11.500	19.500	9.2647e-03
11.500	19.750	1.1132e-02
11.500	20.000	1.3280e-02
11.500	20.250	1.5929e-02
11.500	20.500	1.9393e-02
11.500	20.750	4.0840e-02
11.500	21.000	4.1533e-02
11.500	21.250	3.0959e-02
11.500	21.500	2.3988e-02
11.500	21.750	2.7987e-02
11.500	22.000	3.1754e-02
11.500	22.250	2.8800e-02
11.500	22.500	2.2536e-02
11.500	22.750	1.8184e-02
11.500	23.000	1.5159e-02
11.500	23.250	1.3782e-02
11.500	23.500	1.3076e-02
11.500	23.750	1.2687e-02
11.500	24.000	1.2518e-02
11.750	17.000	8.5514e-05
11.750	17.250	1.0864e-04
11.750	17.500	1.4461e-04
11.750	17.750	2.0535e-04
11.750	18.000	3.2568e-04
11.750	18.250	6.1243e-04
11.750	18.500	1.3010e-03
11.750	18.750	2.6217e-03
11.750	19.000	4.4859e-03
11.750	19.250	6.4914e-03
11.750	19.500	8.3518e-03
11.750	19.750	1.0317e-02
11.750	20.000	1.2551e-02
11.750	20.250	1.5060e-02
11.750	20.500	1.8063e-02
11.750	20.750	2.4228e-02
11.750	21.000	4.5524e-02
11.750	21.250	4.4309e-02
11.750	21.500	3.0030e-02
11.750	21.750	2.6516e-02
11.750	22.000	2.9861e-02
11.750	22.250	3.2123e-02
11.750	22.500	2.8765e-02
11.750	22.750	2.2534e-02
11.750	23.000	1.8191e-02
11.750	23.250	1.5159e-02
11.750	23.500	1.3783e-02
11.750	23.750	1.3077e-02
11.750	24.000	1.2687e-02
12.000	17.000	6.0905e-05
12.000	17.250	7.5802e-05
12.000	17.500	9.7613e-05
12.000	17.750	1.3193e-04
12.000	18.000	1.9177e-04
12.000	18.250	3.1852e-04
12.000	18.500	6.3358e-04
12.000	18.750	1.4040e-03
12.000	19.000	2.8938e-03
12.000	19.250	4.9736e-03
12.000	19.500	7.1777e-03
12.000	19.750	9.2650e-03
12.000	20.000	1.1569e-02
12.000	20.250	1.4202e-02
12.000	20.500	1.7066e-02
12.000	20.750	2.0229e-02
12.000	21.000	2.8658e-02
12.000	21.250	4.9044e-02
12.000	21.500	4.4871e-02
12.000	21.750	2.7745e-02
12.000	22.000	2.9476e-02
12.000	22.250	3.1616e-02
12.000	22.500	3.2715e-02
12.000	22.750	2.8733e-02
12.000	23.000	2.2531e-02
12.000	23.250	1.8200e-02
12.000	23.500	1.5158e-02
12.000	23.750	1.3783e-02
12.000	24.000	1.3077e-02
12.250	17.000	4.4033e-05
12.250	17.250	5.4074e-05
12.250	17.500	6.7819e-05
12.250	17.750	8.9218e-05
12.250	18.000	1.2403e-04
12.250	18.250	1.8938e-04
12.250	18.500	3.3317e-04
12.250	18.750	6.9309e-04
12.250	19.000	1.5684e-03
12.250	19.250	3.2581e-03
12.250	19.500	5.5818e-03
12.250	19.750	8.0006e-03
12.250	20.000	1.0381e-02
12.250	20.250	1.3061e-02
12.250	20.500	1.6043e-02
12.250	20.750	1.9144e-02
12.250	21.000	2.2355e-02
12.250	21.250	3.3981e-02
12.250	21.500	5.0764e-02
12.250	21.750	4.4535e-02
12.250	22.000	2.8584e-02
12.250	22.250	3.2718e-02
12.250	22.500	3.4031e-02
12.250	22.750	3.3483e-02
12.250	23.000	2.8715e-02
12.250	23.250	2.2527e-02
12.250	23.500	1.8209e-02
12.250	23.750	1.5157e-02
12.250	24.000	1.3783e-02
12.500	17.000	3.1934e-05
12.500	17.250	3.9506e-05
12.500	17.500	4.8889e-05
12.500	17.750	6.2963e-05
12.500	18.000	8.5926e-05
12.500	18.250	1.2700e-04
12.500	18.500	2.0823e-04
12.500	18.750	3.8403e-04
12.500	19.000	8.1193e-04
12.500	19.250	1.8258e-03
12.500	19.500	3.7519e-03
12.500	19.750	6.3270e-03
12.500	20.000	8.9857e-03
12.500	20.250	1.1696e-02
12.500	20.500	1.4741e-02
12.500	20.750	1.7959e-02
12.500	21.000	2.1142e-02
12.500	21.250	2.4098e-02
12.500	21.500	3.8358e-02
12.500	21.750	5.3710e-02
12.500	22.000	4.2530e-02
12.500	22.250	3.3215e-02
12.500	22.500	3.6315e-02
12.500	22.750	3.7186e-02
12.500	23.000	3.4391e-02
12.500	23.250	2.8715e-02
12.500	23.500	2.2522e-02
12.500	23.750	1.8218e-02
12.500	24.000	1.5155e-02
12.750	17.000	2.3374e-05
12.750	17.250	2.9136e-05
12.750	17.500	3.6296e-05
12.750	17.750	4.6584e-05
12.750	18.000	6.3045e-05
12.750	18.250	9.2922e-05
12.750	18.500	1.5053e-04
12.750	18.750	2.6156e-04
12.750	19.000	4.8642e-04
12.750	19.250	1.0043e-03
12.750	19.500	2.1825e-03
12.750	19.750	4.3490e-03
12.750	20.000	7.1534e-03
12.750	20.250	1.0109e-02
12.750	20.500	1.3119e-02
12.750	20.750	1.6491e-02
12.750	21.000	1.9904e-02
12.750	21.250	2.2869e-02
12.750	21.500	2.5746e-02
12.750	21.750	4.3281e-02
12.750	22.000	5.6092e-02
12.750	22.250	4.0702e-02
12.750	22.500	3.8653e-02
12.750	22.750	4.0560e-02
12.750	23.000	4.0107e-02
12.750	23.250	3.5336e-02
12.750	23.500	2.8753e-02
12.750	23.750	2.2516e-02
12.750	24.000	1.8226e-02
13.000	17.000	1.7284e-05
13.000	17.250	2.1893e-05
13.000	17.500	2.7490e-05
13.000	17.750	3.5473e-05
13.000	18.000	4.8477e-05
13.000	18.250	7.2428e-05
13.000	18.500	1.1992e-04
13.000	18.750	2.0938e-04
13.000	19.000	3.6840e-04
13.000	19.250	6.6280e-04
13.000	19.500	1.2853e-03
13.000	19.750	2.6237e-03
13.000	20.000	4.9618e-03
13.000	20.250	8.0165e-03
13.000	20.500	1.1258e-02
13.000	20.750	1.4634e-02
13.000	21.000	1.8154e-02
13.000	21.250	2.1706e-02
13.000	21.500	2.4838e-02
13.000	21.750	2.7784e-02
13.000	22.000	4.8512e-02
13.000	22.250	6.0056e-02
13.000	22.500	4.2321e-02
13.000	22.750	4.4927e-02
13.000	23.000	4.6285e-02
13.000	23.250	4.2262e-02
13.000	23.500	3.6353e-02
13.000	23.750	2.8838e-02
13.000	24.000	2.2519e-02
13.250	17.000	1.2757e-05
13.250	17.250	1.6543e-05
13.250	17.500	2.1152e-05
13.250	17.750	2.7901e-05
13.250	18.000	3.9177e-05
13.250	18.250	5.9753e-05
13.250	18.500	1.0148e-04
13.250	18.750	1.8321e-04
13.250	19.000	3.2395e-04
13.250	19.250	5.5095e-04
13.250	19.500	9.3868e-04
13.250	19.750	1.6742e-03
13.250	20.000	3.1370e-03
13.250	20.250	5.5933e-03
13.250	20.500	8.9016e-03
13.250	20.750	1.2509e-02
13.250	21.000	1.6197e-02
13.250	21.250	1.9944e-02
13.250	21.500	2.3193e-02
13.250	21.750	2.7337e-02
13.250	22.000	3.1038e-02
13.250	22.250	5.6576e-02
13.250	22.500	6.4340e-02
13.250	22.750	4.9303e-02
13.250	23.000	5.1997e-02
13.250	23.250	5.1397e-02
13.250	23.500	4.5009e-02
13.250	23.750	3.7306e-02
13.250	24.000	2.8948e-02
13.500	17.000	9.3827e-06
13.500	17.250	1.2510e-05
13.500	17.500	1.6543e-05
13.500	17.750	2.2469e-05
13.500	18.000	3.2840e-05
13.500	18.250	5.2346e-05
13.500	18.500	9.0370e-05
13.500	18.750	1.6675e-04
13.500	19.000	3.0436e-04
13.500	19.250	5.1984e-04
13.500	19.500	8.4551e-04
13.500	19.750	1.3615e-03
13.500	20.000	2.2472e-03
13.500	20.250	3.8619e-03
13.500	20.500	6.4635e-03
13.500	20.750	9.9594e-03
13.500	21.000	1.3887e-02
13.500	21.250	1.8039e-02
13.500	21.500	2.2399e-02
13.500	21.750	2.7109e-02
13.500	22.000	3.1684e-02
13.500	22.250	3.5846e-02
13.500	22.500	7.3329e-02
13.500	22.750	7.7216e-02
13.500	23.000	6.0433e-02
13.500	23.250	5.9228e-02
13.500	23.500	5.6275e-02
13.500	23.750	4.8514e-02
13.500	24.000	3.8213e-02
13.750	17.000	6.9959e-06
13.750	17.250	9.4650e-06
13.750	17.500	1.3086e-05
13.750	17.750	1.8519e-05
13.750	18.000	2.8395e-05
13.750	18.250	4.7490e-05
13.750	18.500	8.5103e-05
13.750	18.750	1.5720e-04
13.750	19.000	2.8881e-04
13.750	19.250	5.0626e-04
13.750	19.500	8.2724e-04
13.750	19.750	1.2943e-03
13.750	20.000	2.0012e-03
13.750	20.250	3.1171e-03
13.750	20.500	4.9360e-03
13.750	20.750	7.7484e-03
13.750	21.000	1.1546e-02
13.750	21.250	1.6007e-02
13.750	21.500	2.0677e-02
13.750	21.750	2.6180e-02
13.750	22.000	3.2225e-02
13.750	22.250	3.8657e-02
13.750	22.500	4.7768e-02
13.750	22.750	9.6926e-02
13.750	23.000	9.6835e-02
13.750	23.250	7.2797e-02
13.750	23.500	6.7663e-02
13.750	23.750	6.1340e-02
13.750	24.000	5.1154e-02
14.000	17.000	5.1852e-06
14.000	17.250	7.2428e-06
14.000	17.500	1.0123e-05
14.000	17.750	1.5473e-05
14.000	18.000	2.5103e-05
14.000	18.250	4.3951e-05
14.000	18.500	8.1070e-05
14.000	18.750	1.5128e-04
14.000	19.000	2.7687e-04
14.000	19.250	4.8658e-04
14.000	19.500	8.1095e-04
14.000	19.750	1.2774e-03
14.000	20.000	1.9379e-03
14.000	20.250	2.8945e-03
14.000	20.500	4.3196e-03
14.000	20.750	6.4505e-03
14.000	21.000	9.5723e-03
14.000	21.250	1.3852e-02
14.000	21.500	1.8856e-02
14.000	21.750	2.4665e-02
14.000	22.000	3.1124e-02
14.000	22.250	3.8499e-02
14.000	22.500	4.6617e-02
14.000	22.750	6.7869e-02
14.000	23.000	1.2341e-01
14.000	23.250	1.1557e-01
14.000	23.500	8.4281e-02
14.000	23.750	7.6560e-02
14.000	24.000	6.6985e-02
