InwC 1103.23A  relative to Inci 1215.00A scaled to 1215A.
Hden   Phi(H)  Eq_Width (A)
 7.000	17.000	1.4161e-02
 7.000	17.250	1.4169e-02
 7.000	17.500	1.4175e-02
 7.000	17.750	1.4181e-02
 7.000	18.000	1.4188e-02
 7.000	18.250	1.4193e-02
 7.000	18.500	1.4197e-02
 7.000	18.750	1.4199e-02
 7.000	19.000	1.4200e-02
 7.000	19.250	1.4201e-02
 7.000	19.500	1.4202e-02
 7.000	19.750	1.4202e-02
 7.000	20.000	1.4202e-02
 7.000	20.250	1.4202e-02
 7.000	20.500	1.4202e-02
 7.000	20.750	1.4203e-02
 7.000	21.000	1.4203e-02
 7.000	21.250	1.4203e-02
 7.000	21.500	1.4203e-02
 7.000	21.750	1.4203e-02
 7.000	22.000	1.4203e-02
 7.000	22.250	1.4203e-02
 7.000	22.500	1.4203e-02
 7.000	22.750	1.4204e-02
 7.000	23.000	1.4204e-02
 7.000	23.250	1.4203e-02
 7.000	23.500	1.4204e-02
 7.000	23.750	1.4204e-02
 7.000	24.000	1.4205e-02
 7.250	17.000	1.3618e-02
 7.250	17.250	1.4161e-02
 7.250	17.500	1.4169e-02
 7.250	17.750	1.4175e-02
 7.250	18.000	1.4181e-02
 7.250	18.250	1.4188e-02
 7.250	18.500	1.4193e-02
 7.250	18.750	1.4197e-02
 7.250	19.000	1.4199e-02
 7.250	19.250	1.4200e-02
 7.250	19.500	1.4201e-02
 7.250	19.750	1.4202e-02
 7.250	20.000	1.4202e-02
 7.250	20.250	1.4202e-02
 7.250	20.500	1.4202e-02
 7.250	20.750	1.4202e-02
 7.250	21.000	1.4202e-02
 7.250	21.250	1.4202e-02
 7.250	21.500	1.4203e-02
 7.250	21.750	1.4203e-02
 7.250	22.000	1.4203e-02
 7.250	22.250	1.4203e-02
 7.250	22.500	1.4203e-02
 7.250	22.750	1.4203e-02
 7.250	23.000	1.4203e-02
 7.250	23.250	1.4203e-02
 7.250	23.500	1.4203e-02
 7.250	23.750	1.4203e-02
 7.250	24.000	1.4203e-02
 7.500	17.000	1.4519e-02
 7.500	17.250	1.3620e-02
 7.500	17.500	1.4161e-02
 7.500	17.750	1.4169e-02
 7.500	18.000	1.4175e-02
 7.500	18.250	1.4181e-02
 7.500	18.500	1.4188e-02
 7.500	18.750	1.4193e-02
 7.500	19.000	1.4197e-02
 7.500	19.250	1.4199e-02
 7.500	19.500	1.4200e-02
 7.500	19.750	1.4201e-02
 7.500	20.000	1.4202e-02
 7.500	20.250	1.4202e-02
 7.500	20.500	1.4202e-02
 7.500	20.750	1.4202e-02
 7.500	21.000	1.4202e-02
 7.500	21.250	1.4202e-02
 7.500	21.500	1.4202e-02
 7.500	21.750	1.4202e-02
 7.500	22.000	1.4202e-02
 7.500	22.250	1.4202e-02
 7.500	22.500	1.4203e-02
 7.500	22.750	1.4203e-02
 7.500	23.000	1.4203e-02
 7.500	23.250	1.4203e-02
 7.500	23.500	1.4204e-02
 7.500	23.750	1.4203e-02
 7.500	24.000	1.4203e-02
 7.750	17.000	2.2663e-02
 7.750	17.250	1.4429e-02
 7.750	17.500	1.3623e-02
 7.750	17.750	1.4161e-02
 7.750	18.000	1.4169e-02
 7.750	18.250	1.4175e-02
 7.750	18.500	1.4181e-02
 7.750	18.750	1.4188e-02
 7.750	19.000	1.4193e-02
 7.750	19.250	1.4197e-02
 7.750	19.500	1.4199e-02
 7.750	19.750	1.4200e-02
 7.750	20.000	1.4201e-02
 7.750	20.250	1.4202e-02
 7.750	20.500	1.4202e-02
 7.750	20.750	1.4202e-02
 7.750	21.000	1.4202e-02
 7.750	21.250	1.4202e-02
 7.750	21.500	1.4202e-02
 7.750	21.750	1.4202e-02
 7.750	22.000	1.4202e-02
 7.750	22.250	1.4202e-02
 7.750	22.500	1.4202e-02
 7.750	22.750	1.4203e-02
 7.750	23.000	1.4202e-02
 7.750	23.250	1.4202e-02
 7.750	23.500	1.4203e-02
 7.750	23.750	1.4203e-02
 7.750	24.000	1.4202e-02
 8.000	17.000	2.9395e-02
 8.000	17.250	2.2716e-02
 8.000	17.500	1.4580e-02
 8.000	17.750	1.3619e-02
 8.000	18.000	1.4161e-02
 8.000	18.250	1.4169e-02
 8.000	18.500	1.4175e-02
 8.000	18.750	1.4181e-02
 8.000	19.000	1.4188e-02
 8.000	19.250	1.4193e-02
 8.000	19.500	1.4197e-02
 8.000	19.750	1.4199e-02
 8.000	20.000	1.4200e-02
 8.000	20.250	1.4201e-02
 8.000	20.500	1.4202e-02
 8.000	20.750	1.4202e-02
 8.000	21.000	1.4202e-02
 8.000	21.250	1.4202e-02
 8.000	21.500	1.4202e-02
 8.000	21.750	1.4202e-02
 8.000	22.000	1.4202e-02
 8.000	22.250	1.4202e-02
 8.000	22.500	1.4202e-02
 8.000	22.750	1.4202e-02
 8.000	23.000	1.4202e-02
 8.000	23.250	1.4202e-02
 8.000	23.500	1.4202e-02
 8.000	23.750	1.4202e-02
 8.000	24.000	1.4203e-02
 8.250	17.000	3.4187e-02
 8.250	17.250	2.9173e-02
 8.250	17.500	2.2542e-02
 8.250	17.750	1.4532e-02
 8.250	18.000	1.3621e-02
 8.250	18.250	1.4161e-02
 8.250	18.500	1.4169e-02
 8.250	18.750	1.4175e-02
 8.250	19.000	1.4181e-02
 8.250	19.250	1.4188e-02
 8.250	19.500	1.4193e-02
 8.250	19.750	1.4197e-02
 8.250	20.000	1.4199e-02
 8.250	20.250	1.4200e-02
 8.250	20.500	1.4201e-02
 8.250	20.750	1.4202e-02
 8.250	21.000	1.4202e-02
 8.250	21.250	1.4202e-02
 8.250	21.500	1.4202e-02
 8.250	21.750	1.4202e-02
 8.250	22.000	1.4202e-02
 8.250	22.250	1.4202e-02
 8.250	22.500	1.4202e-02
 8.250	22.750	1.4203e-02
 8.250	23.000	1.4202e-02
 8.250	23.250	1.4203e-02
 8.250	23.500	1.4203e-02
 8.250	23.750	1.4202e-02
 8.250	24.000	1.4203e-02
 8.500	17.000	3.7419e-02
 8.500	17.250	3.3961e-02
 8.500	17.500	2.8902e-02
 8.500	17.750	2.2341e-02
 8.500	18.000	1.4468e-02
 8.500	18.250	1.3622e-02
 8.500	18.500	1.4161e-02
 8.500	18.750	1.4169e-02
 8.500	19.000	1.4175e-02
 8.500	19.250	1.4182e-02
 8.500	19.500	1.4188e-02
 8.500	19.750	1.4193e-02
 8.500	20.000	1.4197e-02
 8.500	20.250	1.4199e-02
 8.500	20.500	1.4200e-02
 8.500	20.750	1.4201e-02
 8.500	21.000	1.4202e-02
 8.500	21.250	1.4202e-02
 8.500	21.500	1.4202e-02
 8.500	21.750	1.4202e-02
 8.500	22.000	1.4202e-02
 8.500	22.250	1.4202e-02
 8.500	22.500	1.4202e-02
 8.500	22.750	1.4202e-02
 8.500	23.000	1.4202e-02
 8.500	23.250	1.4202e-02
 8.500	23.500	1.4202e-02
 8.500	23.750	1.4202e-02
 8.500	24.000	1.4202e-02
 8.750	17.000	3.9454e-02
 8.750	17.250	3.7202e-02
 8.750	17.500	3.3650e-02
 8.750	17.750	2.8484e-02
 8.750	18.000	2.1957e-02
 8.750	18.250	1.4300e-02
 8.750	18.500	1.3623e-02
 8.750	18.750	1.4160e-02
 8.750	19.000	1.4169e-02
 8.750	19.250	1.4175e-02
 8.750	19.500	1.4182e-02
 8.750	19.750	1.4188e-02
 8.750	20.000	1.4193e-02
 8.750	20.250	1.4197e-02
 8.750	20.500	1.4199e-02
 8.750	20.750	1.4200e-02
 8.750	21.000	1.4201e-02
 8.750	21.250	1.4202e-02
 8.750	21.500	1.4202e-02
 8.750	21.750	1.4202e-02
 8.750	22.000	1.4202e-02
 8.750	22.250	1.4202e-02
 8.750	22.500	1.4202e-02
 8.750	22.750	1.4202e-02
 8.750	23.000	1.4202e-02
 8.750	23.250	1.4202e-02
 8.750	23.500	1.4202e-02
 8.750	23.750	1.4202e-02
 8.750	24.000	1.4202e-02
 9.000	17.000	4.0578e-02
 9.000	17.250	3.9244e-02
 9.000	17.500	3.6873e-02
 9.000	17.750	3.3136e-02
 9.000	18.000	2.7827e-02
 9.000	18.250	2.1265e-02
 9.000	18.500	1.3991e-02
 9.000	18.750	1.3623e-02
 9.000	19.000	1.4160e-02
 9.000	19.250	1.4169e-02
 9.000	19.500	1.4175e-02
 9.000	19.750	1.4182e-02
 9.000	20.000	1.4188e-02
 9.000	20.250	1.4193e-02
 9.000	20.500	1.4197e-02
 9.000	20.750	1.4199e-02
 9.000	21.000	1.4200e-02
 9.000	21.250	1.4201e-02
 9.000	21.500	1.4202e-02
 9.000	21.750	1.4202e-02
 9.000	22.000	1.4202e-02
 9.000	22.250	1.4202e-02
 9.000	22.500	1.4202e-02
 9.000	22.750	1.4202e-02
 9.000	23.000	1.4202e-02
 9.000	23.250	1.4202e-02
 9.000	23.500	1.4202e-02
 9.000	23.750	1.4202e-02
 9.000	24.000	1.4202e-02
 9.250	17.000	4.0990e-02
 9.250	17.250	4.0374e-02
 9.250	17.500	3.8905e-02
 9.250	17.750	3.6293e-02
 9.250	18.000	3.2225e-02
 9.250	18.250	2.6624e-02
 9.250	18.500	2.0033e-02
 9.250	18.750	1.3271e-02
 9.250	19.000	1.3621e-02
 9.250	19.250	1.4160e-02
 9.250	19.500	1.4169e-02
 9.250	19.750	1.4175e-02
 9.250	20.000	1.4182e-02
 9.250	20.250	1.4188e-02
 9.250	20.500	1.4193e-02
 9.250	20.750	1.4197e-02
 9.250	21.000	1.4199e-02
 9.250	21.250	1.4200e-02
 9.250	21.500	1.4200e-02
 9.250	21.750	1.4200e-02
 9.250	22.000	1.4200e-02
 9.250	22.250	1.4201e-02
 9.250	22.500	1.4202e-02
 9.250	22.750	1.4202e-02
 9.250	23.000	1.4202e-02
 9.250	23.250	1.4202e-02
 9.250	23.500	1.4202e-02
 9.250	23.750	1.4202e-02
 9.250	24.000	1.4202e-02
 9.500	17.000	4.0820e-02
 9.500	17.250	4.0773e-02
 9.500	17.500	4.0025e-02
 9.500	17.750	3.8309e-02
 9.500	18.000	3.5285e-02
 9.500	18.250	3.0688e-02
 9.500	18.500	2.4674e-02
 9.500	18.750	1.7926e-02
 9.500	19.000	1.3220e-02
 9.500	19.250	1.3617e-02
 9.500	19.500	1.4159e-02
 9.500	19.750	1.4168e-02
 9.500	20.000	1.4175e-02
 9.500	20.250	1.4182e-02
 9.500	20.500	1.4188e-02
 9.500	20.750	1.4192e-02
 9.500	21.000	1.4195e-02
 9.500	21.250	1.4197e-02
 9.500	21.500	1.4199e-02
 9.500	21.750	1.4199e-02
 9.500	22.000	1.4200e-02
 9.500	22.250	1.4200e-02
 9.500	22.500	1.4200e-02
 9.500	22.750	1.4200e-02
 9.500	23.000	1.4200e-02
 9.500	23.250	1.4200e-02
 9.500	23.500	1.4200e-02
 9.500	23.750	1.4200e-02
 9.500	24.000	1.4200e-02
 9.750	17.000	4.0173e-02
 9.750	17.250	4.0588e-02
 9.750	17.500	4.0412e-02
 9.750	17.750	3.9404e-02
 9.750	18.000	3.7207e-02
 9.750	18.250	3.3604e-02
 9.750	18.500	2.8545e-02
 9.750	18.750	2.2366e-02
 9.750	19.000	1.5411e-02
 9.750	19.250	1.3214e-02
 9.750	19.500	1.3610e-02
 9.750	19.750	1.4157e-02
 9.750	20.000	1.4168e-02
 9.750	20.250	1.4175e-02
 9.750	20.500	1.4182e-02
 9.750	20.750	1.4188e-02
 9.750	21.000	1.4193e-02
 9.750	21.250	1.4196e-02
 9.750	21.500	1.4197e-02
 9.750	21.750	1.4199e-02
 9.750	22.000	1.4199e-02
 9.750	22.250	1.4200e-02
 9.750	22.500	1.4200e-02
 9.750	22.750	1.4200e-02
 9.750	23.000	1.4200e-02
 9.750	23.250	1.4200e-02
 9.750	23.500	1.4200e-02
 9.750	23.750	1.4200e-02
 9.750	24.000	1.4200e-02
10.000	17.000	3.9121e-02
10.000	17.250	3.9906e-02
10.000	17.500	4.0178e-02
10.000	17.750	3.9707e-02
10.000	18.000	3.8194e-02
10.000	18.250	3.5526e-02
10.000	18.500	3.1561e-02
10.000	18.750	2.6344e-02
10.000	19.000	1.9904e-02
10.000	19.250	1.4008e-02
10.000	19.500	1.3213e-02
10.000	19.750	1.3601e-02
10.000	20.000	1.4155e-02
10.000	20.250	1.4167e-02
10.000	20.500	1.4175e-02
10.000	20.750	1.4182e-02
10.000	21.000	1.4188e-02
10.000	21.250	1.4193e-02
10.000	21.500	1.4196e-02
10.000	21.750	1.4197e-02
10.000	22.000	1.4199e-02
10.000	22.250	1.4200e-02
10.000	22.500	1.4200e-02
10.000	22.750	1.4200e-02
10.000	23.000	1.4200e-02
10.000	23.250	1.4200e-02
10.000	23.500	1.4200e-02
10.000	23.750	1.4200e-02
10.000	24.000	1.4200e-02
10.250	17.000	3.7708e-02
10.250	17.250	3.8793e-02
10.250	17.500	3.9404e-02
10.250	17.750	3.9318e-02
10.250	18.000	3.8343e-02
10.250	18.250	3.6539e-02
10.250	18.500	3.3697e-02
10.250	18.750	2.9606e-02
10.250	19.000	2.4219e-02
10.250	19.250	1.7474e-02
10.250	19.500	1.2983e-02
10.250	19.750	1.3213e-02
10.250	20.000	1.3593e-02
10.250	20.250	1.4153e-02
10.250	20.500	1.4167e-02
10.250	20.750	1.4175e-02
10.250	21.000	1.4182e-02
10.250	21.250	1.4188e-02
10.250	21.500	1.4193e-02
10.250	21.750	1.4196e-02
10.250	22.000	1.4197e-02
10.250	22.250	1.4199e-02
10.250	22.500	1.4200e-02
10.250	22.750	1.4200e-02
10.250	23.000	1.4200e-02
10.250	23.250	1.4200e-02
10.250	23.500	1.4200e-02
10.250	23.750	1.4200e-02
10.250	24.000	1.4200e-02
10.500	17.000	3.5918e-02
10.500	17.250	3.7271e-02
10.500	17.500	3.8122e-02
10.500	17.750	3.8286e-02
10.500	18.000	3.7716e-02
10.500	18.250	3.6600e-02
10.500	18.500	3.4884e-02
10.500	18.750	3.2092e-02
10.500	19.000	2.8025e-02
10.500	19.250	2.2432e-02
10.500	19.500	1.5650e-02
10.500	19.750	1.2995e-02
10.500	20.000	1.3212e-02
10.500	20.250	1.3586e-02
10.500	20.500	1.4150e-02
10.500	20.750	1.4165e-02
10.500	21.000	1.4175e-02
10.500	21.250	1.4182e-02
10.500	21.500	1.4188e-02
10.500	21.750	1.4193e-02
10.500	22.000	1.4197e-02
10.500	22.250	1.4198e-02
10.500	22.500	1.4199e-02
10.500	22.750	1.4200e-02
10.500	23.000	1.4200e-02
10.500	23.250	1.4200e-02
10.500	23.500	1.4200e-02
10.500	23.750	1.4200e-02
10.500	24.000	1.4200e-02
10.750	17.000	3.3728e-02
10.750	17.250	3.5333e-02
10.750	17.500	3.6349e-02
10.750	17.750	3.6632e-02
10.750	18.000	3.6378e-02
10.750	18.250	3.5918e-02
10.750	18.500	3.5132e-02
10.750	18.750	3.3543e-02
10.750	19.000	3.0889e-02
10.750	19.250	2.6740e-02
10.750	19.500	2.0982e-02
10.750	19.750	1.3931e-02
10.750	20.000	1.3000e-02
10.750	20.250	1.3218e-02
10.750	20.500	1.3586e-02
10.750	20.750	1.4147e-02
10.750	21.000	1.4164e-02
10.750	21.250	1.4174e-02
10.750	21.500	1.4182e-02
10.750	21.750	1.4188e-02
10.750	22.000	1.4193e-02
10.750	22.250	1.4197e-02
10.750	22.500	1.4198e-02
10.750	22.750	1.4200e-02
10.750	23.000	1.4200e-02
10.750	23.250	1.4200e-02
10.750	23.500	1.4200e-02
10.750	23.750	1.4200e-02
10.750	24.000	1.4200e-02
11.000	17.000	3.1078e-02
11.000	17.250	3.2935e-02
11.000	17.500	3.4049e-02
11.000	17.750	3.4399e-02
11.000	18.000	3.4410e-02
11.000	18.250	3.4460e-02
11.000	18.500	3.4419e-02
11.000	18.750	3.3928e-02
11.000	19.000	3.2552e-02
11.000	19.250	2.9908e-02
11.000	19.500	2.5656e-02
11.000	19.750	1.9507e-02
11.000	20.000	1.2777e-02
11.000	20.250	1.3003e-02
11.000	20.500	1.3224e-02
11.000	20.750	1.3596e-02
11.000	21.000	1.4145e-02
11.000	21.250	1.4163e-02
11.000	21.500	1.4174e-02
11.000	21.750	1.4182e-02
11.000	22.000	1.4188e-02
11.000	22.250	1.4193e-02
11.000	22.500	1.4197e-02
11.000	22.750	1.4199e-02
11.000	23.000	1.4200e-02
11.000	23.250	1.4200e-02
11.000	23.500	1.4200e-02
11.000	23.750	1.4200e-02
11.000	24.000	1.4200e-02
11.250	17.000	2.7745e-02
11.250	17.250	2.9991e-02
11.250	17.500	3.1195e-02
11.250	17.750	3.1585e-02
11.250	18.000	3.1825e-02
11.250	18.250	3.2311e-02
11.250	18.500	3.2925e-02
11.250	18.750	3.3267e-02
11.250	19.000	3.3010e-02
11.250	19.250	3.1704e-02
11.250	19.500	2.9019e-02
11.250	19.750	2.4570e-02
11.250	20.000	1.8114e-02
11.250	20.250	1.2780e-02
11.250	20.500	1.3010e-02
11.250	20.750	1.3236e-02
11.250	21.000	1.3625e-02
11.250	21.250	1.4143e-02
11.250	21.500	1.4161e-02
11.250	21.750	1.4173e-02
11.250	22.000	1.4181e-02
11.250	22.250	1.4188e-02
11.250	22.500	1.4193e-02
11.250	22.750	1.4197e-02
11.250	23.000	1.4199e-02
11.250	23.250	1.4200e-02
11.250	23.500	1.4200e-02
11.250	23.750	1.4201e-02
11.250	24.000	1.4201e-02
11.500	17.000	2.3466e-02
11.500	17.250	2.6228e-02
11.500	17.500	2.7669e-02
11.500	17.750	2.8155e-02
11.500	18.000	2.8654e-02
11.500	18.250	2.9591e-02
11.500	18.500	3.0678e-02
11.500	18.750	3.1652e-02
11.500	19.000	3.2298e-02
11.500	19.250	3.2169e-02
11.500	19.500	3.0961e-02
11.500	19.750	2.8222e-02
11.500	20.000	2.3568e-02
11.500	20.250	1.6732e-02
11.500	20.500	1.2821e-02
11.500	20.750	1.3019e-02
11.500	21.000	1.3262e-02
11.500	21.250	1.3695e-02
11.500	21.500	1.4140e-02
11.500	21.750	1.4159e-02
11.500	22.000	1.4172e-02
11.500	22.250	1.4181e-02
11.500	22.500	1.4188e-02
11.500	22.750	1.4193e-02
11.500	23.000	1.4197e-02
11.500	23.250	1.4199e-02
11.500	23.500	1.4200e-02
11.500	23.750	1.4201e-02
11.500	24.000	1.4201e-02
11.750	17.000	1.8258e-02
11.750	17.250	2.1459e-02
11.750	17.500	2.3280e-02
11.750	17.750	2.4062e-02
11.750	18.000	2.4983e-02
11.750	18.250	2.6329e-02
11.750	18.500	2.7813e-02
11.750	18.750	2.9294e-02
11.750	19.000	3.0545e-02
11.750	19.250	3.1393e-02
11.750	19.500	3.1382e-02
11.750	19.750	3.0230e-02
11.750	20.000	2.7447e-02
11.750	20.250	2.2607e-02
11.750	20.500	1.5421e-02
11.750	20.750	1.2811e-02
11.750	21.000	1.3037e-02
11.750	21.250	1.3326e-02
11.750	21.500	1.3833e-02
11.750	21.750	1.4137e-02
11.750	22.000	1.4157e-02
11.750	22.250	1.4171e-02
11.750	22.500	1.4181e-02
11.750	22.750	1.4188e-02
11.750	23.000	1.4193e-02
11.750	23.250	1.4197e-02
11.750	23.500	1.4199e-02
11.750	23.750	1.4200e-02
11.750	24.000	1.4201e-02
12.000	17.000	1.2595e-02
12.000	17.250	1.5863e-02
12.000	17.500	1.8075e-02
12.000	17.750	1.9471e-02
12.000	18.000	2.0947e-02
12.000	18.250	2.2583e-02
12.000	18.500	2.4385e-02
12.000	18.750	2.6194e-02
12.000	19.000	2.7919e-02
12.000	19.250	2.9451e-02
12.000	19.500	3.0488e-02
12.000	19.750	3.0622e-02
12.000	20.000	2.9515e-02
12.000	20.250	2.6719e-02
12.000	20.500	2.1719e-02
12.000	20.750	1.4388e-02
12.000	21.000	1.2810e-02
12.000	21.250	1.3083e-02
12.000	21.500	1.3436e-02
12.000	21.750	1.4014e-02
12.000	22.000	1.4135e-02
12.000	22.250	1.4155e-02
12.000	22.500	1.4170e-02
12.000	22.750	1.4180e-02
12.000	23.000	1.4187e-02
12.000	23.250	1.4193e-02
12.000	23.500	1.4197e-02
12.000	23.750	1.4199e-02
12.000	24.000	1.4200e-02
12.250	17.000	7.5091e-03
12.250	17.250	1.0309e-02
12.250	17.500	1.2680e-02
12.250	17.750	1.4704e-02
12.250	18.000	1.6615e-02
12.250	18.250	1.8443e-02
12.250	18.500	2.0370e-02
12.250	18.750	2.2438e-02
12.250	19.000	2.4551e-02
12.250	19.250	2.6618e-02
12.250	19.500	2.8401e-02
12.250	19.750	2.9626e-02
12.250	20.000	2.9888e-02
12.250	20.250	2.8853e-02
12.250	20.500	2.6002e-02
12.250	20.750	2.0825e-02
12.250	21.000	1.3627e-02
12.250	21.250	1.2841e-02
12.250	21.500	1.3155e-02
12.250	21.750	1.3577e-02
12.250	22.000	1.4099e-02
12.250	22.250	1.4132e-02
12.250	22.500	1.4153e-02
12.250	22.750	1.4169e-02
12.250	23.000	1.4180e-02
12.250	23.250	1.4187e-02
12.250	23.500	1.4193e-02
12.250	23.750	1.4197e-02
12.250	24.000	1.4199e-02
12.500	17.000	4.2493e-03
12.500	17.250	6.1933e-03
12.500	17.500	8.2871e-03
12.500	17.750	1.0298e-02
12.500	18.000	1.2154e-02
12.500	18.250	1.3991e-02
12.500	18.500	1.5939e-02
12.500	18.750	1.8182e-02
12.500	19.000	2.0592e-02
12.500	19.250	2.3053e-02
12.500	19.500	2.5389e-02
12.500	19.750	2.7382e-02
12.500	20.000	2.8771e-02
12.500	20.250	2.9147e-02
12.500	20.500	2.8172e-02
12.500	20.750	2.5310e-02
12.500	21.000	1.9956e-02
12.500	21.250	1.2332e-02
12.500	21.500	1.2884e-02
12.500	21.750	1.3244e-02
12.500	22.000	1.3741e-02
12.500	22.250	1.4099e-02
12.500	22.500	1.4127e-02
12.500	22.750	1.4150e-02
12.500	23.000	1.4167e-02
12.500	23.250	1.4179e-02
12.500	23.500	1.4187e-02
12.500	23.750	1.4192e-02
12.500	24.000	1.4197e-02
12.750	17.000	2.6678e-03
12.750	17.250	3.8723e-03
12.750	17.500	5.1951e-03
12.750	17.750	6.5370e-03
12.750	18.000	7.9721e-03
12.750	18.250	9.5747e-03
12.750	18.500	1.1463e-02
12.750	18.750	1.3664e-02
12.750	19.000	1.6205e-02
12.750	19.250	1.8928e-02
12.750	19.500	2.1666e-02
12.750	19.750	2.4210e-02
12.750	20.000	2.6369e-02
12.750	20.250	2.7897e-02
12.750	20.500	2.8417e-02
12.750	20.750	2.7465e-02
12.750	21.000	2.4534e-02
12.750	21.250	1.8930e-02
12.750	21.500	1.2397e-02
12.750	21.750	1.2940e-02
12.750	22.000	1.3358e-02
12.750	22.250	1.3883e-02
12.750	22.500	1.4097e-02
12.750	22.750	1.4126e-02
12.750	23.000	1.4148e-02
12.750	23.250	1.4165e-02
12.750	23.500	1.4177e-02
12.750	23.750	1.4186e-02
12.750	24.000	1.4192e-02
13.000	17.000	1.6240e-03
13.000	17.250	2.3286e-03
13.000	17.500	2.9967e-03
13.000	17.750	3.7363e-03
13.000	18.000	4.6377e-03
13.000	18.250	5.8285e-03
13.000	18.500	7.3733e-03
13.000	18.750	9.3279e-03
13.000	19.000	1.1734e-02
13.000	19.250	1.4489e-02
13.000	19.500	1.7426e-02
13.000	19.750	2.0326e-02
13.000	20.000	2.3030e-02
13.000	20.250	2.5342e-02
13.000	20.500	2.6998e-02
13.000	20.750	2.7552e-02
13.000	21.000	2.6659e-02
13.000	21.250	2.3606e-02
13.000	21.500	1.8153e-02
13.000	21.750	1.2493e-02
13.000	22.000	1.3029e-02
13.000	22.250	1.3463e-02
13.000	22.500	1.3961e-02
13.000	22.750	1.4095e-02
13.000	23.000	1.4124e-02
13.000	23.250	1.4146e-02
13.000	23.500	1.4164e-02
13.000	23.750	1.4176e-02
13.000	24.000	1.4185e-02
13.250	17.000	1.0237e-03
13.250	17.250	1.4230e-03
13.250	17.500	1.7848e-03
13.250	17.750	2.1358e-03
13.250	18.000	2.6138e-03
13.250	18.250	3.3035e-03
13.250	18.500	4.3035e-03
13.250	18.750	5.7334e-03
13.250	19.000	7.6695e-03
13.250	19.250	1.0122e-02
13.250	19.500	1.2961e-02
13.250	19.750	1.5989e-02
13.250	20.000	1.8999e-02
13.250	20.250	2.1798e-02
13.250	20.500	2.4237e-02
13.250	20.750	2.5987e-02
13.250	21.000	2.6613e-02
13.250	21.250	2.5673e-02
13.250	21.500	2.2799e-02
13.250	21.750	1.7123e-02
13.250	22.000	1.2605e-02
13.250	22.250	1.3053e-02
13.250	22.500	1.3522e-02
13.250	22.750	1.3972e-02
13.250	23.000	1.4093e-02
13.250	23.250	1.4122e-02
13.250	23.500	1.4145e-02
13.250	23.750	1.4162e-02
13.250	24.000	1.4175e-02
13.500	17.000	6.7868e-04
13.500	17.250	9.1259e-04
13.500	17.500	1.1214e-03
13.500	17.750	1.2985e-03
13.500	18.000	1.5418e-03
13.500	18.250	1.9271e-03
13.500	18.500	2.5043e-03
13.500	18.750	3.3496e-03
13.500	19.000	4.5956e-03
13.500	19.250	6.3804e-03
13.500	19.500	8.7263e-03
13.500	19.750	1.1514e-02
13.500	20.000	1.4534e-02
13.500	20.250	1.7601e-02
13.500	20.500	2.0461e-02
13.500	20.750	2.2975e-02
13.500	21.000	2.4761e-02
13.500	21.250	2.5416e-02
13.500	21.500	2.4660e-02
13.500	21.750	2.1496e-02
13.500	22.000	1.5972e-02
13.500	22.250	1.2625e-02
13.500	22.500	1.3046e-02
13.500	22.750	1.3524e-02
13.500	23.000	1.3955e-02
13.500	23.250	1.4089e-02
13.500	23.500	1.4119e-02
13.500	23.750	1.4143e-02
13.500	24.000	1.4160e-02
13.750	17.000	4.7457e-04
13.750	17.250	6.1975e-04
13.750	17.500	7.4469e-04
13.750	17.750	8.4132e-04
13.750	18.000	9.6996e-04
13.750	18.250	1.1827e-03
13.750	18.500	1.5059e-03
13.750	18.750	1.9900e-03
13.750	19.000	2.7148e-03
13.750	19.250	3.7940e-03
13.750	19.500	5.3668e-03
13.750	19.750	7.5142e-03
13.750	20.000	1.0148e-02
13.750	20.250	1.3075e-02
13.750	20.500	1.6092e-02
13.750	20.750	1.8981e-02
13.750	21.000	2.1469e-02
13.750	21.250	2.3227e-02
13.750	21.500	2.4045e-02
13.750	21.750	2.2959e-02
13.750	22.000	1.9627e-02
13.750	22.250	1.4540e-02
13.750	22.500	1.2623e-02
13.750	22.750	1.3015e-02
13.750	23.000	1.3477e-02
13.750	23.250	1.3947e-02
13.750	23.500	1.4084e-02
13.750	23.750	1.4115e-02
13.750	24.000	1.4139e-02
14.000	17.000	3.4658e-04
14.000	17.250	4.4650e-04
14.000	17.500	5.2691e-04
14.000	17.750	5.8469e-04
14.000	18.000	6.5391e-04
14.000	18.250	7.6996e-04
14.000	18.500	9.5062e-04
14.000	18.750	1.2241e-03
14.000	19.000	1.6361e-03
14.000	19.250	2.2583e-03
14.000	19.500	3.1920e-03
14.000	19.750	4.5482e-03
14.000	20.000	6.4495e-03
14.000	20.250	8.8734e-03
14.000	20.500	1.1635e-02
14.000	20.750	1.4533e-02
14.000	21.000	1.7308e-02
14.000	21.250	1.9731e-02
14.000	21.500	2.1584e-02
14.000	21.750	2.1959e-02
14.000	22.000	2.0520e-02
14.000	22.250	1.7009e-02
14.000	22.500	1.3059e-02
14.000	22.750	1.2617e-02
14.000	23.000	1.3032e-02
14.000	23.250	1.3467e-02
14.000	23.500	1.3962e-02
14.000	23.750	1.4074e-02
14.000	24.000	1.4108e-02
