InwT 5600.00A  relative to Inci 1215.00A scaled to 1215A.
Hden   Phi(H)  Eq_Width (A)
 7.000	17.000	1.9382e-02
 7.000	17.250	1.3158e-02
 7.000	17.500	9.9808e-03
 7.000	17.750	8.4015e-03
 7.000	18.000	7.6575e-03
 7.000	18.250	7.2573e-03
 7.000	18.500	7.0351e-03
 7.000	18.750	6.9401e-03
 7.000	19.000	6.8917e-03
 7.000	19.250	6.8651e-03
 7.000	19.500	6.8546e-03
 7.000	19.750	6.8504e-03
 7.000	20.000	6.8486e-03
 7.000	20.250	6.8477e-03
 7.000	20.500	6.8473e-03
 7.000	20.750	6.8472e-03
 7.000	21.000	6.8471e-03
 7.000	21.250	6.8470e-03
 7.000	21.500	6.8470e-03
 7.000	21.750	6.8470e-03
 7.000	22.000	6.8469e-03
 7.000	22.250	6.8471e-03
 7.000	22.500	6.8469e-03
 7.000	22.750	6.8477e-03
 7.000	23.000	6.8477e-03
 7.000	23.250	6.8471e-03
 7.000	23.500	6.8477e-03
 7.000	23.750	6.8477e-03
 7.000	24.000	6.8479e-03
 7.250	17.000	2.8211e-02
 7.250	17.250	1.9360e-02
 7.250	17.500	1.3149e-02
 7.250	17.750	9.9756e-03
 7.250	18.000	8.3998e-03
 7.250	18.250	7.6570e-03
 7.250	18.500	7.2571e-03
 7.250	18.750	7.0351e-03
 7.250	19.000	6.9401e-03
 7.250	19.250	6.8916e-03
 7.250	19.500	6.8651e-03
 7.250	19.750	6.8546e-03
 7.250	20.000	6.8503e-03
 7.250	20.250	6.8486e-03
 7.250	20.500	6.8477e-03
 7.250	20.750	6.8473e-03
 7.250	21.000	6.8471e-03
 7.250	21.250	6.8470e-03
 7.250	21.500	6.8470e-03
 7.250	21.750	6.8471e-03
 7.250	22.000	6.8470e-03
 7.250	22.250	6.8470e-03
 7.250	22.500	6.8469e-03
 7.250	22.750	6.8469e-03
 7.250	23.000	6.8469e-03
 7.250	23.250	6.8469e-03
 7.250	23.500	6.8469e-03
 7.250	23.750	6.8469e-03
 7.250	24.000	6.8469e-03
 7.500	17.000	4.0799e-02
 7.500	17.250	2.8171e-02
 7.500	17.500	1.9343e-02
 7.500	17.750	1.3142e-02
 7.500	18.000	9.9700e-03
 7.500	18.250	8.3977e-03
 7.500	18.500	7.6565e-03
 7.500	18.750	7.2570e-03
 7.500	19.000	7.0351e-03
 7.500	19.250	6.9400e-03
 7.500	19.500	6.8916e-03
 7.500	19.750	6.8651e-03
 7.500	20.000	6.8546e-03
 7.500	20.250	6.8504e-03
 7.500	20.500	6.8486e-03
 7.500	20.750	6.8477e-03
 7.500	21.000	6.8473e-03
 7.500	21.250	6.8471e-03
 7.500	21.500	6.8470e-03
 7.500	21.750	6.8469e-03
 7.500	22.000	6.8469e-03
 7.500	22.250	6.8469e-03
 7.500	22.500	6.8469e-03
 7.500	22.750	6.8469e-03
 7.500	23.000	6.8469e-03
 7.500	23.250	6.8469e-03
 7.500	23.500	6.8477e-03
 7.500	23.750	6.8469e-03
 7.500	24.000	6.8469e-03
 7.750	17.000	4.2947e-02
 7.750	17.250	4.0865e-02
 7.750	17.500	2.8141e-02
 7.750	17.750	1.9333e-02
 7.750	18.000	1.3137e-02
 7.750	18.250	9.9643e-03
 7.750	18.500	8.3954e-03
 7.750	18.750	7.6558e-03
 7.750	19.000	7.2570e-03
 7.750	19.250	7.0351e-03
 7.750	19.500	6.9400e-03
 7.750	19.750	6.8916e-03
 7.750	20.000	6.8651e-03
 7.750	20.250	6.8546e-03
 7.750	20.500	6.8503e-03
 7.750	20.750	6.8486e-03
 7.750	21.000	6.8477e-03
 7.750	21.250	6.8473e-03
 7.750	21.500	6.8471e-03
 7.750	21.750	6.8470e-03
 7.750	22.000	6.8469e-03
 7.750	22.250	6.8469e-03
 7.750	22.500	6.8468e-03
 7.750	22.750	6.8470e-03
 7.750	23.000	6.8469e-03
 7.750	23.250	6.8469e-03
 7.750	23.500	6.8470e-03
 7.750	23.750	6.8470e-03
 7.750	24.000	6.8469e-03
 8.000	17.000	4.3811e-02
 8.000	17.250	4.2598e-02
 8.000	17.500	4.0477e-02
 8.000	17.750	2.8089e-02
 8.000	18.000	1.9326e-02
 8.000	18.250	1.3132e-02
 8.000	18.500	9.9581e-03
 8.000	18.750	8.3928e-03
 8.000	19.000	7.6551e-03
 8.000	19.250	7.2568e-03
 8.000	19.500	7.0350e-03
 8.000	19.750	6.9400e-03
 8.000	20.000	6.8916e-03
 8.000	20.250	6.8651e-03
 8.000	20.500	6.8546e-03
 8.000	20.750	6.8503e-03
 8.000	21.000	6.8486e-03
 8.000	21.250	6.8477e-03
 8.000	21.500	6.8472e-03
 8.000	21.750	6.8471e-03
 8.000	22.000	6.8469e-03
 8.000	22.250	6.8469e-03
 8.000	22.500	6.8468e-03
 8.000	22.750	6.8468e-03
 8.000	23.000	6.8468e-03
 8.000	23.250	6.8468e-03
 8.000	23.500	6.8468e-03
 8.000	23.750	6.8468e-03
 8.000	24.000	6.8469e-03
 8.250	17.000	4.4779e-02
 8.250	17.250	4.4199e-02
 8.250	17.500	4.2810e-02
 8.250	17.750	4.0509e-02
 8.250	18.000	2.8079e-02
 8.250	18.250	1.9324e-02
 8.250	18.500	1.3129e-02
 8.250	18.750	9.9514e-03
 8.250	19.000	8.3897e-03
 8.250	19.250	7.6542e-03
 8.250	19.500	7.2566e-03
 8.250	19.750	7.0350e-03
 8.250	20.000	6.9400e-03
 8.250	20.250	6.8916e-03
 8.250	20.500	6.8651e-03
 8.250	20.750	6.8546e-03
 8.250	21.000	6.8504e-03
 8.250	21.250	6.8486e-03
 8.250	21.500	6.8477e-03
 8.250	21.750	6.8473e-03
 8.250	22.000	6.8471e-03
 8.250	22.250	6.8469e-03
 8.250	22.500	6.8469e-03
 8.250	22.750	6.8472e-03
 8.250	23.000	6.8468e-03
 8.250	23.250	6.8469e-03
 8.250	23.500	6.8472e-03
 8.250	23.750	6.8468e-03
 8.250	24.000	6.8469e-03
 8.500	17.000	4.5638e-02
 8.500	17.250	4.5308e-02
 8.500	17.500	4.4697e-02
 8.500	17.750	4.3106e-02
 8.500	18.000	4.0582e-02
 8.500	18.250	2.8075e-02
 8.500	18.500	1.9326e-02
 8.500	18.750	1.3125e-02
 8.500	19.000	9.9440e-03
 8.500	19.250	8.3864e-03
 8.500	19.500	7.6533e-03
 8.500	19.750	7.2565e-03
 8.500	20.000	7.0349e-03
 8.500	20.250	6.9400e-03
 8.500	20.500	6.8916e-03
 8.500	20.750	6.8651e-03
 8.500	21.000	6.8546e-03
 8.500	21.250	6.8503e-03
 8.500	21.500	6.8486e-03
 8.500	21.750	6.8477e-03
 8.500	22.000	6.8472e-03
 8.500	22.250	6.8471e-03
 8.500	22.500	6.8469e-03
 8.500	22.750	6.8469e-03
 8.500	23.000	6.8468e-03
 8.500	23.250	6.8468e-03
 8.500	23.500	6.8468e-03
 8.500	23.750	6.8468e-03
 8.500	24.000	6.8468e-03
 8.750	17.000	4.6366e-02
 8.750	17.250	4.6308e-02
 8.750	17.500	4.6093e-02
 8.750	17.750	4.5533e-02
 8.750	18.000	4.3734e-02
 8.750	18.250	4.0839e-02
 8.750	18.500	2.8075e-02
 8.750	18.750	1.9332e-02
 8.750	19.000	1.3122e-02
 8.750	19.250	9.9360e-03
 8.750	19.500	8.3827e-03
 8.750	19.750	7.6524e-03
 8.750	20.000	7.2563e-03
 8.750	20.250	7.0349e-03
 8.750	20.500	6.9400e-03
 8.750	20.750	6.8916e-03
 8.750	21.000	6.8651e-03
 8.750	21.250	6.8546e-03
 8.750	21.500	6.8503e-03
 8.750	21.750	6.8486e-03
 8.750	22.000	6.8477e-03
 8.750	22.250	6.8472e-03
 8.750	22.500	6.8471e-03
 8.750	22.750	6.8469e-03
 8.750	23.000	6.8469e-03
 8.750	23.250	6.8468e-03
 8.750	23.500	6.8469e-03
 8.750	23.750	6.8468e-03
 8.750	24.000	6.8468e-03
 9.000	17.000	4.6895e-02
 9.000	17.250	4.7203e-02
 9.000	17.500	4.7441e-02
 9.000	17.750	4.7579e-02
 9.000	18.000	4.7110e-02
 9.000	18.250	4.5089e-02
 9.000	18.500	4.1372e-02
 9.000	18.750	2.8074e-02
 9.000	19.000	1.9339e-02
 9.000	19.250	1.3121e-02
 9.000	19.500	9.9281e-03
 9.000	19.750	8.3789e-03
 9.000	20.000	7.6514e-03
 9.000	20.250	7.2561e-03
 9.000	20.500	7.0348e-03
 9.000	20.750	6.9400e-03
 9.000	21.000	6.8916e-03
 9.000	21.250	6.8651e-03
 9.000	21.500	6.8546e-03
 9.000	21.750	6.8503e-03
 9.000	22.000	6.8485e-03
 9.000	22.250	6.8477e-03
 9.000	22.500	6.8472e-03
 9.000	22.750	6.8471e-03
 9.000	23.000	6.8469e-03
 9.000	23.250	6.8469e-03
 9.000	23.500	6.8468e-03
 9.000	23.750	6.8468e-03
 9.000	24.000	6.8468e-03
 9.250	17.000	4.7173e-02
 9.250	17.250	4.7891e-02
 9.250	17.500	4.8770e-02
 9.250	17.750	4.9809e-02
 9.250	18.000	5.0625e-02
 9.250	18.250	5.0429e-02
 9.250	18.500	4.7975e-02
 9.250	18.750	4.2700e-02
 9.250	19.000	2.8066e-02
 9.250	19.250	1.9350e-02
 9.250	19.500	1.3122e-02
 9.250	19.750	9.9211e-03
 9.250	20.000	8.3753e-03
 9.250	20.250	7.6505e-03
 9.250	20.500	7.2560e-03
 9.250	20.750	7.0348e-03
 9.250	21.000	6.9400e-03
 9.250	21.250	6.8916e-03
 9.250	21.500	6.8644e-03
 9.250	21.750	6.8538e-03
 9.250	22.000	6.8495e-03
 9.250	22.250	6.8478e-03
 9.250	22.500	6.8473e-03
 9.250	22.750	6.8470e-03
 9.250	23.000	6.8469e-03
 9.250	23.250	6.8468e-03
 9.250	23.500	6.8468e-03
 9.250	23.750	6.8468e-03
 9.250	24.000	6.8467e-03
 9.500	17.000	4.7300e-02
 9.500	17.250	4.8496e-02
 9.500	17.500	5.0064e-02
 9.500	17.750	5.2210e-02
 9.500	18.000	5.4659e-02
 9.500	18.250	5.6800e-02
 9.500	18.500	5.6875e-02
 9.500	18.750	5.3596e-02
 9.500	19.000	4.2757e-02
 9.500	19.250	2.8046e-02
 9.500	19.500	1.9362e-02
 9.500	19.750	1.3124e-02
 9.500	20.000	9.9159e-03
 9.500	20.250	8.3722e-03
 9.500	20.500	7.6498e-03
 9.500	20.750	7.2555e-03
 9.500	21.000	7.0341e-03
 9.500	21.250	6.9393e-03
 9.500	21.500	6.8909e-03
 9.500	21.750	6.8640e-03
 9.500	22.000	6.8534e-03
 9.500	22.250	6.8491e-03
 9.500	22.500	6.8474e-03
 9.500	22.750	6.8465e-03
 9.500	23.000	6.8460e-03
 9.500	23.250	6.8458e-03
 9.500	23.500	6.8458e-03
 9.500	23.750	6.8457e-03
 9.500	24.000	6.8456e-03
 9.750	17.000	4.7149e-02
 9.750	17.250	4.8857e-02
 9.750	17.500	5.1249e-02
 9.750	17.750	5.4778e-02
 9.750	18.000	5.9603e-02
 9.750	18.250	6.4403e-02
 9.750	18.500	6.7232e-02
 9.750	18.750	6.6150e-02
 9.750	19.000	6.1391e-02
 9.750	19.250	4.2802e-02
 9.750	19.500	2.8013e-02
 9.750	19.750	1.9372e-02
 9.750	20.000	1.3130e-02
 9.750	20.250	9.9129e-03
 9.750	20.500	8.3696e-03
 9.750	20.750	7.6492e-03
 9.750	21.000	7.2556e-03
 9.750	21.250	7.0341e-03
 9.750	21.500	6.9393e-03
 9.750	21.750	6.8909e-03
 9.750	22.000	6.8640e-03
 9.750	22.250	6.8534e-03
 9.750	22.500	6.8491e-03
 9.750	22.750	6.8473e-03
 9.750	23.000	6.8465e-03
 9.750	23.250	6.8461e-03
 9.750	23.500	6.8459e-03
 9.750	23.750	6.8458e-03
 9.750	24.000	6.8457e-03
10.000	17.000	4.6609e-02
10.000	17.250	4.9119e-02
10.000	17.500	5.2527e-02
10.000	17.750	5.7772e-02
10.000	18.000	6.5479e-02
10.000	18.250	7.3163e-02
10.000	18.500	7.8633e-02
10.000	18.750	8.0135e-02
10.000	19.000	7.7459e-02
10.000	19.250	6.6106e-02
10.000	19.500	4.2789e-02
10.000	19.750	2.7947e-02
10.000	20.000	1.9376e-02
10.000	20.250	1.3135e-02
10.000	20.500	9.9117e-03
10.000	20.750	8.3677e-03
10.000	21.000	7.6489e-03
10.000	21.250	7.2556e-03
10.000	21.500	7.0342e-03
10.000	21.750	6.9393e-03
10.000	22.000	6.8909e-03
10.000	22.250	6.8642e-03
10.000	22.500	6.8534e-03
10.000	22.750	6.8492e-03
10.000	23.000	6.8473e-03
10.000	23.250	6.8465e-03
10.000	23.500	6.8461e-03
10.000	23.750	6.8458e-03
10.000	24.000	6.8458e-03
10.250	17.000	4.6348e-02
10.250	17.250	4.9281e-02
10.250	17.500	5.4180e-02
10.250	17.750	6.1723e-02
10.250	18.000	7.2332e-02
10.250	18.250	8.2770e-02
10.250	18.500	9.0492e-02
10.250	18.750	9.4657e-02
10.250	19.000	9.4259e-02
10.250	19.250	8.9629e-02
10.250	19.500	6.9449e-02
10.250	19.750	4.2689e-02
10.250	20.000	2.7863e-02
10.250	20.250	1.9368e-02
10.250	20.500	1.3140e-02
10.250	20.750	9.9122e-03
10.250	21.000	8.3667e-03
10.250	21.250	7.6488e-03
10.250	21.500	7.2556e-03
10.250	21.750	7.0344e-03
10.250	22.000	6.9394e-03
10.250	22.250	6.8909e-03
10.250	22.500	6.8643e-03
10.250	22.750	6.8536e-03
10.250	23.000	6.8491e-03
10.250	23.250	6.8474e-03
10.250	23.500	6.8466e-03
10.250	23.750	6.8461e-03
10.250	24.000	6.8459e-03
10.500	17.000	4.6681e-02
10.500	17.250	5.0145e-02
10.500	17.500	5.6538e-02
10.500	17.750	6.7067e-02
10.500	18.000	8.0370e-02
10.500	18.250	9.3185e-02
10.500	18.500	1.0236e-01
10.500	18.750	1.0826e-01
10.500	19.000	1.1036e-01
10.500	19.250	1.0802e-01
10.500	19.500	1.0019e-01
10.500	19.750	6.9288e-02
10.500	20.000	4.2461e-02
10.500	20.250	2.7735e-02
10.500	20.500	1.9331e-02
10.500	20.750	1.3141e-02
10.500	21.000	9.9139e-03
10.500	21.250	8.3662e-03
10.500	21.500	7.6491e-03
10.500	21.750	7.2556e-03
10.500	22.000	7.0344e-03
10.500	22.250	6.9398e-03
10.500	22.500	6.8910e-03
10.500	22.750	6.8644e-03
10.500	23.000	6.8537e-03
10.500	23.250	6.8492e-03
10.500	23.500	6.8473e-03
10.500	23.750	6.8465e-03
10.500	24.000	6.8461e-03
10.750	17.000	4.7788e-02
10.750	17.250	5.1850e-02
10.750	17.500	6.0359e-02
10.750	17.750	7.3723e-02
10.750	18.000	8.9347e-02
10.750	18.250	1.0337e-01
10.750	18.500	1.1395e-01
10.750	18.750	1.2155e-01
10.750	19.000	1.2521e-01
10.750	19.250	1.2514e-01
10.750	19.500	1.2084e-01
10.750	19.750	1.0966e-01
10.750	20.000	6.9085e-02
10.750	20.250	4.2052e-02
10.750	20.500	2.7535e-02
10.750	20.750	1.9253e-02
10.750	21.000	1.3133e-02
10.750	21.250	9.9160e-03
10.750	21.500	8.3665e-03
10.750	21.750	7.6495e-03
10.750	22.000	7.2556e-03
10.750	22.250	7.0344e-03
10.750	22.500	6.9399e-03
10.750	22.750	6.8913e-03
10.750	23.000	6.8644e-03
10.750	23.250	6.8538e-03
10.750	23.500	6.8494e-03
10.750	23.750	6.8475e-03
10.750	24.000	6.8465e-03
11.000	17.000	4.9733e-02
11.000	17.250	5.4450e-02
11.000	17.500	6.5164e-02
11.000	17.750	8.1209e-02
11.000	18.000	9.8259e-02
11.000	18.250	1.1319e-01
11.000	18.500	1.2521e-01
11.000	18.750	1.3392e-01
11.000	19.000	1.3911e-01
11.000	19.250	1.4090e-01
11.000	19.500	1.3918e-01
11.000	19.750	1.3352e-01
11.000	20.000	1.1671e-01
11.000	20.250	6.8533e-02
11.000	20.500	4.1816e-02
11.000	20.750	2.7352e-02
11.000	21.000	1.9125e-02
11.000	21.250	1.3106e-02
11.000	21.500	9.9174e-03
11.000	21.750	8.3674e-03
11.000	22.000	7.6502e-03
11.000	22.250	7.2556e-03
11.000	22.500	7.0343e-03
11.000	22.750	6.9399e-03
11.000	23.000	6.8915e-03
11.000	23.250	6.8644e-03
11.000	23.500	6.8538e-03
11.000	23.750	6.8495e-03
11.000	24.000	6.8477e-03
11.250	17.000	5.2574e-02
11.250	17.250	5.7718e-02
11.250	17.500	7.0262e-02
11.250	17.750	8.8373e-02
11.250	18.000	1.0671e-01
11.250	18.250	1.2235e-01
11.250	18.500	1.3495e-01
11.250	18.750	1.4514e-01
11.250	19.000	1.5159e-01
11.250	19.250	1.5529e-01
11.250	19.500	1.5551e-01
11.250	19.750	1.5234e-01
11.250	20.000	1.4539e-01
11.250	20.250	1.1783e-01
11.250	20.500	6.8199e-02
11.250	20.750	4.1424e-02
11.250	21.000	2.7200e-02
11.250	21.250	1.8946e-02
11.250	21.500	1.3058e-02
11.250	21.750	9.9154e-03
11.250	22.000	8.3686e-03
11.250	22.250	7.6509e-03
11.250	22.500	7.2556e-03
11.250	22.750	7.0342e-03
11.250	23.000	6.9399e-03
11.250	23.250	6.8916e-03
11.250	23.500	6.8645e-03
11.250	23.750	6.8539e-03
11.250	24.000	6.8496e-03
11.500	17.000	5.6558e-02
11.500	17.250	6.1837e-02
11.500	17.500	7.5332e-02
11.500	17.750	9.4658e-02
11.500	18.000	1.1404e-01
11.500	18.250	1.3035e-01
11.500	18.500	1.4388e-01
11.500	18.750	1.5506e-01
11.500	19.000	1.6313e-01
11.500	19.250	1.6792e-01
11.500	19.500	1.6936e-01
11.500	19.750	1.6838e-01
11.500	20.000	1.6443e-01
11.500	20.250	1.5683e-01
11.500	20.500	1.1814e-01
11.500	20.750	6.7755e-02
11.500	21.000	4.1185e-02
11.500	21.250	2.7236e-02
11.500	21.500	1.8731e-02
11.500	21.750	1.2982e-02
11.500	22.000	9.9077e-03
11.500	22.250	8.3698e-03
11.500	22.500	7.6516e-03
11.500	22.750	7.2556e-03
11.500	23.000	7.0339e-03
11.500	23.250	6.9398e-03
11.500	23.500	6.8916e-03
11.500	23.750	6.8649e-03
11.500	24.000	6.8539e-03
11.750	17.000	6.1901e-02
11.750	17.250	6.6811e-02
11.750	17.500	8.0360e-02
11.750	17.750	1.0001e-01
11.750	18.000	1.1981e-01
11.750	18.250	1.3707e-01
11.750	18.500	1.5183e-01
11.750	18.750	1.6379e-01
11.750	19.000	1.7332e-01
11.750	19.250	1.7929e-01
11.750	19.500	1.8226e-01
11.750	19.750	1.8211e-01
11.750	20.000	1.8017e-01
11.750	20.250	1.7565e-01
11.750	20.500	1.6762e-01
11.750	20.750	1.1772e-01
11.750	21.000	6.7420e-02
11.750	21.250	4.1231e-02
11.750	21.500	2.7656e-02
11.750	21.750	1.8503e-02
11.750	22.000	1.2882e-02
11.750	22.250	9.8919e-03
11.750	22.500	8.3706e-03
11.750	22.750	7.6520e-03
11.750	23.000	7.2556e-03
11.750	23.250	7.0336e-03
11.750	23.500	6.9397e-03
11.750	23.750	6.8916e-03
11.750	24.000	6.8649e-03
12.000	17.000	6.8929e-02
12.000	17.250	7.2788e-02
12.000	17.500	8.5209e-02
12.000	17.750	1.0395e-01
12.000	18.000	1.2387e-01
12.000	18.250	1.4240e-01
12.000	18.500	1.5869e-01
12.000	18.750	1.7238e-01
12.000	19.000	1.8302e-01
12.000	19.250	1.9008e-01
12.000	19.500	1.9393e-01
12.000	19.750	1.9470e-01
12.000	20.000	1.9347e-01
12.000	20.250	1.9062e-01
12.000	20.500	1.8569e-01
12.000	20.750	1.7654e-01
12.000	21.000	1.1720e-01
12.000	21.250	6.7549e-02
12.000	21.500	4.1791e-02
12.000	21.750	2.8288e-02
12.000	22.000	1.8264e-02
12.000	22.250	1.2801e-02
12.000	22.500	9.8668e-03
12.000	22.750	8.3708e-03
12.000	23.000	7.6519e-03
12.000	23.250	7.2552e-03
12.000	23.500	7.0332e-03
12.000	23.750	6.9395e-03
12.000	24.000	6.8915e-03
12.250	17.000	7.7638e-02
12.250	17.250	7.9685e-02
12.250	17.500	8.9651e-02
12.250	17.750	1.0631e-01
12.250	18.000	1.2614e-01
12.250	18.250	1.4638e-01
12.250	18.500	1.6497e-01
12.250	18.750	1.8054e-01
12.250	19.000	1.9222e-01
12.250	19.250	1.9999e-01
12.250	19.500	2.0442e-01
12.250	19.750	2.0608e-01
12.250	20.000	2.0510e-01
12.250	20.250	2.0302e-01
12.250	20.500	2.0003e-01
12.250	20.750	1.9546e-01
12.250	21.000	1.8361e-01
12.250	21.250	1.1693e-01
12.250	21.500	6.8177e-02
12.250	21.750	4.2564e-02
12.250	22.000	2.8287e-02
12.250	22.250	1.8035e-02
12.250	22.500	1.2690e-02
12.250	22.750	9.8333e-03
12.250	23.000	8.3691e-03
12.250	23.250	7.6512e-03
12.250	23.500	7.2545e-03
12.250	23.750	7.0324e-03
12.250	24.000	6.9392e-03
12.500	17.000	8.6187e-02
12.500	17.250	8.6239e-02
12.500	17.500	9.3036e-02
12.500	17.750	1.0731e-01
12.500	18.000	1.2734e-01
12.500	18.250	1.4911e-01
12.500	18.500	1.7007e-01
12.500	18.750	1.8767e-01
12.500	19.000	2.0105e-01
12.500	19.250	2.0933e-01
12.500	19.500	2.1406e-01
12.500	19.750	2.1615e-01
12.500	20.000	2.1593e-01
12.500	20.250	2.1398e-01
12.500	20.500	2.1155e-01
12.500	20.750	2.0895e-01
12.500	21.000	2.0534e-01
12.500	21.250	1.9412e-01
12.500	21.500	1.1701e-01
12.500	21.750	6.8649e-02
12.500	22.000	4.3587e-02
12.500	22.250	2.7752e-02
12.500	22.500	1.7806e-02
12.500	22.750	1.2545e-02
12.500	23.000	9.7919e-03
12.500	23.250	8.3648e-03
12.500	23.500	7.6493e-03
12.500	23.750	7.2533e-03
12.500	24.000	7.0315e-03
12.750	17.000	8.6974e-02
12.750	17.250	8.7102e-02
12.750	17.500	9.3523e-02
12.750	17.750	1.0850e-01
12.750	18.000	1.2856e-01
12.750	18.250	1.5124e-01
12.750	18.500	1.7349e-01
12.750	18.750	1.9327e-01
12.750	19.000	2.0827e-01
12.750	19.250	2.1791e-01
12.750	19.500	2.2264e-01
12.750	19.750	2.2497e-01
12.750	20.000	2.2518e-01
12.750	20.250	2.2432e-01
12.750	20.500	2.2123e-01
12.750	20.750	2.1983e-01
12.750	21.000	2.1848e-01
12.750	21.250	2.1706e-01
12.750	21.500	1.9453e-01
12.750	21.750	1.1659e-01
12.750	22.000	6.9431e-02
12.750	22.250	4.4330e-02
12.750	22.500	2.7234e-02
12.750	22.750	1.7558e-02
12.750	23.000	1.2419e-02
12.750	23.250	9.7446e-03
12.750	23.500	8.3560e-03
12.750	23.750	7.6453e-03
12.750	24.000	7.2509e-03
13.000	17.000	6.0902e-02
13.000	17.250	7.3670e-02
13.000	17.500	9.6288e-02
13.000	17.750	1.1148e-01
13.000	18.000	1.3096e-01
13.000	18.250	1.5352e-01
13.000	18.500	1.7645e-01
13.000	18.750	1.9706e-01
13.000	19.000	2.1348e-01
13.000	19.250	2.2470e-01
13.000	19.500	2.3058e-01
13.000	19.750	2.3279e-01
13.000	20.000	2.3296e-01
13.000	20.250	2.3237e-01
13.000	20.500	2.3131e-01
13.000	20.750	2.2981e-01
13.000	21.000	2.2940e-01
13.000	21.250	2.3046e-01
13.000	21.500	2.2464e-01
13.000	21.750	1.9391e-01
13.000	22.000	1.1651e-01
13.000	22.250	6.9887e-02
13.000	22.500	4.4231e-02
13.000	22.750	2.6677e-02
13.000	23.000	1.7217e-02
13.000	23.250	1.2329e-02
13.000	23.500	9.6895e-03
13.000	23.750	8.3412e-03
13.000	24.000	7.6375e-03
13.250	17.000	6.0163e-02
13.250	17.250	7.1403e-02
13.250	17.500	9.3332e-02
13.250	17.750	1.1508e-01
13.250	18.000	1.3477e-01
13.250	18.250	1.5674e-01
13.250	18.500	1.7953e-01
13.250	18.750	2.0041e-01
13.250	19.000	2.1752e-01
13.250	19.250	2.2945e-01
13.250	19.500	2.3652e-01
13.250	19.750	2.3961e-01
13.250	20.000	2.4027e-01
13.250	20.250	2.3986e-01
13.250	20.500	2.3906e-01
13.250	20.750	2.3833e-01
13.250	21.000	2.3905e-01
13.250	21.250	2.3968e-01
13.250	21.500	2.3710e-01
13.250	21.750	2.3185e-01
13.250	22.000	1.9108e-01
13.250	22.250	1.1400e-01
13.250	22.500	6.9465e-02
13.250	22.750	4.3188e-02
13.250	23.000	2.6083e-02
13.250	23.250	1.6941e-02
13.250	23.500	1.2193e-02
13.250	23.750	9.6304e-03
13.250	24.000	8.3187e-03
13.500	17.000	5.9581e-02
13.500	17.250	7.0605e-02
13.500	17.500	9.0102e-02
13.500	17.750	1.1442e-01
13.500	18.000	1.4010e-01
13.500	18.250	1.6107e-01
13.500	18.500	1.8291e-01
13.500	18.750	2.0381e-01
13.500	19.000	2.2142e-01
13.500	19.250	2.3450e-01
13.500	19.500	2.4207e-01
13.500	19.750	2.4567e-01
13.500	20.000	2.4706e-01
13.500	20.250	2.4776e-01
13.500	20.500	2.4631e-01
13.500	20.750	2.4513e-01
13.500	21.000	2.4458e-01
13.500	21.250	2.4592e-01
13.500	21.500	2.4217e-01
13.500	21.750	2.4327e-01
13.500	22.000	2.3529e-01
13.500	22.250	1.8370e-01
13.500	22.500	1.0956e-01
13.500	22.750	6.7336e-02
13.500	23.000	4.1690e-02
13.500	23.250	2.5498e-02
13.500	23.500	1.6662e-02
13.500	23.750	1.1999e-02
13.500	24.000	9.5609e-03
13.750	17.000	5.9577e-02
13.750	17.250	7.0022e-02
13.750	17.500	8.8501e-02
13.750	17.750	1.1291e-01
13.750	18.000	1.4243e-01
13.750	18.250	1.6608e-01
13.750	18.500	1.8848e-01
13.750	18.750	2.0823e-01
13.750	19.000	2.2575e-01
13.750	19.250	2.3953e-01
13.750	19.500	2.4860e-01
13.750	19.750	2.5316e-01
13.750	20.000	2.5487e-01
13.750	20.250	2.5518e-01
13.750	20.500	2.5486e-01
13.750	20.750	2.5345e-01
13.750	21.000	2.5210e-01
13.750	21.250	2.5142e-01
13.750	21.500	2.4856e-01
13.750	21.750	2.5053e-01
13.750	22.000	2.5179e-01
13.750	22.250	2.3811e-01
13.750	22.500	1.7362e-01
13.750	22.750	1.0365e-01
13.750	23.000	6.3869e-02
13.750	23.250	4.0192e-02
13.750	23.500	2.4798e-02
13.750	23.750	1.6341e-02
13.750	24.000	1.1822e-02
14.000	17.000	5.9905e-02
14.000	17.250	6.9446e-02
14.000	17.500	8.7500e-02
14.000	17.750	1.1048e-01
14.000	18.000	1.4240e-01
14.000	18.250	1.7281e-01
14.000	18.500	1.9614e-01
14.000	18.750	2.1465e-01
14.000	19.000	2.3125e-01
14.000	19.250	2.4551e-01
14.000	19.500	2.5599e-01
14.000	19.750	2.6230e-01
14.000	20.000	2.6472e-01
14.000	20.250	2.6488e-01
14.000	20.500	2.6453e-01
14.000	20.750	2.6344e-01
14.000	21.000	2.6205e-01
14.000	21.250	2.6138e-01
14.000	21.500	2.5745e-01
14.000	21.750	2.6027e-01
14.000	22.000	2.6590e-01
14.000	22.250	2.6740e-01
14.000	22.500	2.3991e-01
14.000	22.750	1.6269e-01
14.000	23.000	9.8814e-02
14.000	23.250	6.0916e-02
14.000	23.500	3.8807e-02
14.000	23.750	2.4034e-02
14.000	24.000	1.5939e-02
