InwT 925.144A  relative to Inci 1215.00A scaled to 1215A.
Hden   Phi(H)  Eq_Width (A)
 7.000	17.000	2.1520e-02
 7.000	17.250	2.0749e-02
 7.000	17.500	1.9548e-02
 7.000	17.750	1.7950e-02
 7.000	18.000	1.6438e-02
 7.000	18.250	1.5465e-02
 7.000	18.500	1.4817e-02
 7.000	18.750	1.4476e-02
 7.000	19.000	1.4294e-02
 7.000	19.250	1.4190e-02
 7.000	19.500	1.4146e-02
 7.000	19.750	1.4127e-02
 7.000	20.000	1.4119e-02
 7.000	20.250	1.4115e-02
 7.000	20.500	1.4113e-02
 7.000	20.750	1.4112e-02
 7.000	21.000	1.4111e-02
 7.000	21.250	1.4111e-02
 7.000	21.500	1.4111e-02
 7.000	21.750	1.4111e-02
 7.000	22.000	1.4111e-02
 7.000	22.250	1.4111e-02
 7.000	22.500	1.4111e-02
 7.000	22.750	1.4112e-02
 7.000	23.000	1.4112e-02
 7.000	23.250	1.4111e-02
 7.000	23.500	1.4112e-02
 7.000	23.750	1.4112e-02
 7.000	24.000	1.4113e-02
 7.250	17.000	2.2512e-02
 7.250	17.250	2.1203e-02
 7.250	17.500	2.0594e-02
 7.250	17.750	1.9479e-02
 7.250	18.000	1.7913e-02
 7.250	18.250	1.6418e-02
 7.250	18.500	1.5455e-02
 7.250	18.750	1.4813e-02
 7.250	19.000	1.4475e-02
 7.250	19.250	1.4293e-02
 7.250	19.500	1.4190e-02
 7.250	19.750	1.4146e-02
 7.250	20.000	1.4127e-02
 7.250	20.250	1.4119e-02
 7.250	20.500	1.4115e-02
 7.250	20.750	1.4113e-02
 7.250	21.000	1.4112e-02
 7.250	21.250	1.4111e-02
 7.250	21.500	1.4111e-02
 7.250	21.750	1.4111e-02
 7.250	22.000	1.4111e-02
 7.250	22.250	1.4111e-02
 7.250	22.500	1.4111e-02
 7.250	22.750	1.4111e-02
 7.250	23.000	1.4111e-02
 7.250	23.250	1.4111e-02
 7.250	23.500	1.4111e-02
 7.250	23.750	1.4111e-02
 7.250	24.000	1.4111e-02
 7.500	17.000	2.4531e-02
 7.500	17.250	2.1514e-02
 7.500	17.500	2.1020e-02
 7.500	17.750	2.0506e-02
 7.500	18.000	1.9447e-02
 7.500	18.250	1.7894e-02
 7.500	18.500	1.6405e-02
 7.500	18.750	1.5449e-02
 7.500	19.000	1.4811e-02
 7.500	19.250	1.4474e-02
 7.500	19.500	1.4293e-02
 7.500	19.750	1.4190e-02
 7.500	20.000	1.4146e-02
 7.500	20.250	1.4127e-02
 7.500	20.500	1.4119e-02
 7.500	20.750	1.4115e-02
 7.500	21.000	1.4113e-02
 7.500	21.250	1.4112e-02
 7.500	21.500	1.4111e-02
 7.500	21.750	1.4111e-02
 7.500	22.000	1.4111e-02
 7.500	22.250	1.4111e-02
 7.500	22.500	1.4111e-02
 7.500	22.750	1.4111e-02
 7.500	23.000	1.4111e-02
 7.500	23.250	1.4111e-02
 7.500	23.500	1.4112e-02
 7.500	23.750	1.4111e-02
 7.500	24.000	1.4111e-02
 7.750	17.000	2.0478e-02
 7.750	17.250	2.2350e-02
 7.750	17.500	2.0725e-02
 7.750	17.750	2.0913e-02
 7.750	18.000	2.0460e-02
 7.750	18.250	1.9438e-02
 7.750	18.500	1.7886e-02
 7.750	18.750	1.6399e-02
 7.750	19.000	1.5445e-02
 7.750	19.250	1.4810e-02
 7.750	19.500	1.4473e-02
 7.750	19.750	1.4293e-02
 7.750	20.000	1.4190e-02
 7.750	20.250	1.4146e-02
 7.750	20.500	1.4127e-02
 7.750	20.750	1.4119e-02
 7.750	21.000	1.4115e-02
 7.750	21.250	1.4113e-02
 7.750	21.500	1.4112e-02
 7.750	21.750	1.4111e-02
 7.750	22.000	1.4111e-02
 7.750	22.250	1.4111e-02
 7.750	22.500	1.4110e-02
 7.750	22.750	1.4111e-02
 7.750	23.000	1.4110e-02
 7.750	23.250	1.4110e-02
 7.750	23.500	1.4111e-02
 7.750	23.750	1.4111e-02
 7.750	24.000	1.4110e-02
 8.000	17.000	1.5578e-02
 8.000	17.250	1.8091e-02
 8.000	17.500	2.0518e-02
 8.000	17.750	2.0078e-02
 8.000	18.000	2.0853e-02
 8.000	18.250	2.0436e-02
 8.000	18.500	1.9445e-02
 8.000	18.750	1.7886e-02
 8.000	19.000	1.6395e-02
 8.000	19.250	1.5443e-02
 8.000	19.500	1.4809e-02
 8.000	19.750	1.4473e-02
 8.000	20.000	1.4293e-02
 8.000	20.250	1.4190e-02
 8.000	20.500	1.4146e-02
 8.000	20.750	1.4127e-02
 8.000	21.000	1.4119e-02
 8.000	21.250	1.4115e-02
 8.000	21.500	1.4113e-02
 8.000	21.750	1.4112e-02
 8.000	22.000	1.4111e-02
 8.000	22.250	1.4111e-02
 8.000	22.500	1.4111e-02
 8.000	22.750	1.4110e-02
 8.000	23.000	1.4110e-02
 8.000	23.250	1.4110e-02
 8.000	23.500	1.4110e-02
 8.000	23.750	1.4110e-02
 8.000	24.000	1.4111e-02
 8.250	17.000	1.1874e-02
 8.250	17.250	1.3590e-02
 8.250	17.500	1.6465e-02
 8.250	17.750	1.9315e-02
 8.250	18.000	1.9643e-02
 8.250	18.250	2.0811e-02
 8.250	18.500	2.0428e-02
 8.250	18.750	1.9461e-02
 8.250	19.000	1.7891e-02
 8.250	19.250	1.6394e-02
 8.250	19.500	1.5441e-02
 8.250	19.750	1.4808e-02
 8.250	20.000	1.4473e-02
 8.250	20.250	1.4293e-02
 8.250	20.500	1.4190e-02
 8.250	20.750	1.4146e-02
 8.250	21.000	1.4127e-02
 8.250	21.250	1.4119e-02
 8.250	21.500	1.4115e-02
 8.250	21.750	1.4113e-02
 8.250	22.000	1.4112e-02
 8.250	22.250	1.4111e-02
 8.250	22.500	1.4111e-02
 8.250	22.750	1.4111e-02
 8.250	23.000	1.4110e-02
 8.250	23.250	1.4111e-02
 8.250	23.500	1.4111e-02
 8.250	23.750	1.4110e-02
 8.250	24.000	1.4111e-02
 8.500	17.000	9.2940e-03
 8.500	17.250	1.0279e-02
 8.500	17.500	1.2271e-02
 8.500	17.750	1.5448e-02
 8.500	18.000	1.8534e-02
 8.500	18.250	1.9322e-02
 8.500	18.500	2.0779e-02
 8.500	18.750	2.0427e-02
 8.500	19.000	1.9486e-02
 8.500	19.250	1.7899e-02
 8.500	19.500	1.6394e-02
 8.500	19.750	1.5441e-02
 8.500	20.000	1.4808e-02
 8.500	20.250	1.4472e-02
 8.500	20.500	1.4293e-02
 8.500	20.750	1.4190e-02
 8.500	21.000	1.4146e-02
 8.500	21.250	1.4127e-02
 8.500	21.500	1.4119e-02
 8.500	21.750	1.4115e-02
 8.500	22.000	1.4113e-02
 8.500	22.250	1.4112e-02
 8.500	22.500	1.4111e-02
 8.500	22.750	1.4111e-02
 8.500	23.000	1.4110e-02
 8.500	23.250	1.4110e-02
 8.500	23.500	1.4110e-02
 8.500	23.750	1.4110e-02
 8.500	24.000	1.4110e-02
 8.750	17.000	7.5861e-03
 8.750	17.250	8.1071e-03
 8.750	17.500	9.2840e-03
 8.750	17.750	1.1438e-02
 8.750	18.000	1.4847e-02
 8.750	18.250	1.8055e-02
 8.750	18.500	1.9142e-02
 8.750	18.750	2.0748e-02
 8.750	19.000	2.0431e-02
 8.750	19.250	1.9515e-02
 8.750	19.500	1.7909e-02
 8.750	19.750	1.6395e-02
 8.750	20.000	1.5440e-02
 8.750	20.250	1.4807e-02
 8.750	20.500	1.4472e-02
 8.750	20.750	1.4293e-02
 8.750	21.000	1.4190e-02
 8.750	21.250	1.4146e-02
 8.750	21.500	1.4127e-02
 8.750	21.750	1.4119e-02
 8.750	22.000	1.4115e-02
 8.750	22.250	1.4113e-02
 8.750	22.500	1.4112e-02
 8.750	22.750	1.4111e-02
 8.750	23.000	1.4111e-02
 8.750	23.250	1.4110e-02
 8.750	23.500	1.4111e-02
 8.750	23.750	1.4110e-02
 8.750	24.000	1.4110e-02
 9.000	17.000	6.4563e-03
 9.000	17.250	6.7247e-03
 9.000	17.500	7.3935e-03
 9.000	17.750	8.7001e-03
 9.000	18.000	1.1025e-02
 9.000	18.250	1.4603e-02
 9.000	18.500	1.7779e-02
 9.000	18.750	1.9022e-02
 9.000	19.000	2.0716e-02
 9.000	19.250	2.0432e-02
 9.000	19.500	1.9545e-02
 9.000	19.750	1.7921e-02
 9.000	20.000	1.6396e-02
 9.000	20.250	1.5440e-02
 9.000	20.500	1.4807e-02
 9.000	20.750	1.4472e-02
 9.000	21.000	1.4293e-02
 9.000	21.250	1.4190e-02
 9.000	21.500	1.4146e-02
 9.000	21.750	1.4127e-02
 9.000	22.000	1.4118e-02
 9.000	22.250	1.4115e-02
 9.000	22.500	1.4113e-02
 9.000	22.750	1.4112e-02
 9.000	23.000	1.4111e-02
 9.000	23.250	1.4111e-02
 9.000	23.500	1.4110e-02
 9.000	23.750	1.4110e-02
 9.000	24.000	1.4110e-02
 9.250	17.000	5.6838e-03
 9.250	17.250	5.8242e-03
 9.250	17.500	6.2257e-03
 9.250	17.750	7.0236e-03
 9.250	18.000	8.5048e-03
 9.250	18.250	1.1024e-02
 9.250	18.500	1.4763e-02
 9.250	18.750	1.7597e-02
 9.250	19.000	1.8935e-02
 9.250	19.250	2.0679e-02
 9.250	19.500	2.0428e-02
 9.250	19.750	1.9572e-02
 9.250	20.000	1.7932e-02
 9.250	20.250	1.6397e-02
 9.250	20.500	1.5440e-02
 9.250	20.750	1.4807e-02
 9.250	21.000	1.4472e-02
 9.250	21.250	1.4293e-02
 9.250	21.500	1.4189e-02
 9.250	21.750	1.4144e-02
 9.250	22.000	1.4125e-02
 9.250	22.250	1.4117e-02
 9.250	22.500	1.4114e-02
 9.250	22.750	1.4112e-02
 9.250	23.000	1.4111e-02
 9.250	23.250	1.4111e-02
 9.250	23.500	1.4110e-02
 9.250	23.750	1.4111e-02
 9.250	24.000	1.4110e-02
 9.500	17.000	5.1342e-03
 9.500	17.250	5.1994e-03
 9.500	17.500	5.4784e-03
 9.500	17.750	6.0295e-03
 9.500	18.000	6.9922e-03
 9.500	18.250	8.6753e-03
 9.500	18.500	1.1507e-02
 9.500	18.750	1.5368e-02
 9.500	19.000	1.7468e-02
 9.500	19.250	1.8864e-02
 9.500	19.500	2.0641e-02
 9.500	19.750	2.0415e-02
 9.500	20.000	1.9593e-02
 9.500	20.250	1.7942e-02
 9.500	20.500	1.6399e-02
 9.500	20.750	1.5439e-02
 9.500	21.000	1.4806e-02
 9.500	21.250	1.4471e-02
 9.500	21.500	1.4291e-02
 9.500	21.750	1.4188e-02
 9.500	22.000	1.4143e-02
 9.500	22.250	1.4124e-02
 9.500	22.500	1.4116e-02
 9.500	22.750	1.4112e-02
 9.500	23.000	1.4110e-02
 9.500	23.250	1.4109e-02
 9.500	23.500	1.4108e-02
 9.500	23.750	1.4108e-02
 9.500	24.000	1.4108e-02
 9.750	17.000	4.7672e-03
 9.750	17.250	4.7381e-03
 9.750	17.500	4.9416e-03
 9.750	17.750	5.3751e-03
 9.750	18.000	6.1100e-03
 9.750	18.250	7.3128e-03
 9.750	18.500	9.3185e-03
 9.750	18.750	1.2473e-02
 9.750	19.000	1.6088e-02
 9.750	19.250	1.7372e-02
 9.750	19.500	1.8795e-02
 9.750	19.750	2.0600e-02
 9.750	20.000	2.0394e-02
 9.750	20.250	1.9604e-02
 9.750	20.500	1.7949e-02
 9.750	20.750	1.6399e-02
 9.750	21.000	1.5439e-02
 9.750	21.250	1.4806e-02
 9.750	21.500	1.4471e-02
 9.750	21.750	1.4291e-02
 9.750	22.000	1.4188e-02
 9.750	22.250	1.4143e-02
 9.750	22.500	1.4124e-02
 9.750	22.750	1.4116e-02
 9.750	23.000	1.4112e-02
 9.750	23.250	1.4110e-02
 9.750	23.500	1.4109e-02
 9.750	23.750	1.4109e-02
 9.750	24.000	1.4108e-02
10.000	17.000	4.5672e-03
10.000	17.250	4.4118e-03
10.000	17.500	4.5080e-03
10.000	17.750	4.8771e-03
10.000	18.000	5.5461e-03
10.000	18.250	6.5214e-03
10.000	18.500	8.0019e-03
10.000	18.750	1.0313e-02
10.000	19.000	1.3682e-02
10.000	19.250	1.6315e-02
10.000	19.500	1.7320e-02
10.000	19.750	1.8741e-02
10.000	20.000	2.0575e-02
10.000	20.250	2.0369e-02
10.000	20.500	1.9608e-02
10.000	20.750	1.7955e-02
10.000	21.000	1.6400e-02
10.000	21.250	1.5440e-02
10.000	21.500	1.4806e-02
10.000	21.750	1.4471e-02
10.000	22.000	1.4291e-02
10.000	22.250	1.4188e-02
10.000	22.500	1.4143e-02
10.000	22.750	1.4124e-02
10.000	23.000	1.4116e-02
10.000	23.250	1.4112e-02
10.000	23.500	1.4110e-02
10.000	23.750	1.4109e-02
10.000	24.000	1.4109e-02
10.250	17.000	4.5345e-03
10.250	17.250	4.2405e-03
10.250	17.500	4.2089e-03
10.250	17.750	4.4903e-03
10.250	18.000	5.1175e-03
10.250	18.250	6.0021e-03
10.250	18.500	7.2086e-03
10.250	18.750	8.9791e-03
10.250	19.000	1.1612e-02
10.250	19.250	1.4749e-02
10.250	19.500	1.6377e-02
10.250	19.750	1.7312e-02
10.250	20.000	1.8709e-02
10.250	20.250	2.0564e-02
10.250	20.500	2.0343e-02
10.250	20.750	1.9605e-02
10.250	21.000	1.7958e-02
10.250	21.250	1.6400e-02
10.250	21.500	1.5440e-02
10.250	21.750	1.4806e-02
10.250	22.000	1.4471e-02
10.250	22.250	1.4291e-02
10.250	22.500	1.4189e-02
10.250	22.750	1.4144e-02
10.250	23.000	1.4124e-02
10.250	23.250	1.4116e-02
10.250	23.500	1.4112e-02
10.250	23.750	1.4110e-02
10.250	24.000	1.4109e-02
10.500	17.000	4.6155e-03
10.500	17.250	4.2273e-03
10.500	17.500	4.0646e-03
10.500	17.750	4.2374e-03
10.500	18.000	4.7752e-03
10.500	18.250	5.5953e-03
10.500	18.500	6.6313e-03
10.500	18.750	7.9649e-03
10.500	19.000	9.7987e-03
10.500	19.250	1.2454e-02
10.500	19.500	1.5254e-02
10.500	19.750	1.6433e-02
10.500	20.000	1.7387e-02
10.500	20.250	1.8760e-02
10.500	20.500	2.0632e-02
10.500	20.750	2.0326e-02
10.500	21.000	1.9596e-02
10.500	21.250	1.7960e-02
10.500	21.500	1.6400e-02
10.500	21.750	1.5440e-02
10.500	22.000	1.4806e-02
10.500	22.250	1.4472e-02
10.500	22.500	1.4292e-02
10.500	22.750	1.4189e-02
10.500	23.000	1.4144e-02
10.500	23.250	1.4125e-02
10.500	23.500	1.4116e-02
10.500	23.750	1.4112e-02
10.500	24.000	1.4110e-02
10.750	17.000	4.7565e-03
10.750	17.250	4.3272e-03
10.750	17.500	4.0821e-03
10.750	17.750	4.1450e-03
10.750	18.000	4.5379e-03
10.750	18.250	5.1877e-03
10.750	18.500	6.0300e-03
10.750	18.750	7.0289e-03
10.750	19.000	8.3711e-03
10.750	19.250	1.0375e-02
10.750	19.500	1.3194e-02
10.750	19.750	1.5629e-02
10.750	20.000	1.6571e-02
10.750	20.250	1.7623e-02
10.750	20.500	1.8959e-02
10.750	20.750	2.0807e-02
10.750	21.000	2.0337e-02
10.750	21.250	1.9583e-02
10.750	21.500	1.7958e-02
10.750	21.750	1.6399e-02
10.750	22.000	1.5440e-02
10.750	22.250	1.4806e-02
10.750	22.500	1.4472e-02
10.750	22.750	1.4292e-02
10.750	23.000	1.4189e-02
10.750	23.250	1.4144e-02
10.750	23.500	1.4125e-02
10.750	23.750	1.4116e-02
10.750	24.000	1.4112e-02
11.000	17.000	4.9129e-03
11.000	17.250	4.4860e-03
11.000	17.500	4.2076e-03
11.000	17.750	4.1923e-03
11.000	18.000	4.4251e-03
11.000	18.250	4.8365e-03
11.000	18.500	5.4305e-03
11.000	18.750	6.2107e-03
11.000	19.000	7.2402e-03
11.000	19.250	8.7170e-03
11.000	19.500	1.0916e-02
11.000	19.750	1.3858e-02
11.000	20.000	1.5806e-02
11.000	20.250	1.6886e-02
11.000	20.500	1.7919e-02
11.000	20.750	1.9342e-02
11.000	21.000	2.1132e-02
11.000	21.250	2.0412e-02
11.000	21.500	1.9572e-02
11.000	21.750	1.7955e-02
11.000	22.000	1.6398e-02
11.000	22.250	1.5440e-02
11.000	22.500	1.4806e-02
11.000	22.750	1.4472e-02
11.000	23.000	1.4293e-02
11.000	23.250	1.4189e-02
11.000	23.500	1.4144e-02
11.000	23.750	1.4125e-02
11.000	24.000	1.4117e-02
11.250	17.000	5.0277e-03
11.250	17.250	4.6458e-03
11.250	17.500	4.3682e-03
11.250	17.750	4.3080e-03
11.250	18.000	4.4180e-03
11.250	18.250	4.6060e-03
11.250	18.500	4.9270e-03
11.250	18.750	5.5120e-03
11.250	19.000	6.3130e-03
11.250	19.250	7.4250e-03
11.250	19.500	9.0442e-03
11.250	19.750	1.1433e-02
11.250	20.000	1.4470e-02
11.250	20.250	1.6159e-02
11.250	20.500	1.7291e-02
11.250	20.750	1.8481e-02
11.250	21.000	2.0022e-02
11.250	21.250	2.1648e-02
11.250	21.500	2.0574e-02
11.250	21.750	1.9570e-02
11.250	22.000	1.7949e-02
11.250	22.250	1.6396e-02
11.250	22.500	1.5439e-02
11.250	22.750	1.4806e-02
11.250	23.000	1.4472e-02
11.250	23.250	1.4293e-02
11.250	23.500	1.4189e-02
11.250	23.750	1.4144e-02
11.250	24.000	1.4125e-02
11.500	17.000	5.0322e-03
11.500	17.250	4.7494e-03
11.500	17.500	4.5035e-03
11.500	17.750	4.4204e-03
11.500	18.000	4.4488e-03
11.500	18.250	4.4915e-03
11.500	18.500	4.6217e-03
11.500	18.750	4.9585e-03
11.500	19.000	5.5582e-03
11.500	19.250	6.3952e-03
11.500	19.500	7.5937e-03
11.500	19.750	9.3663e-03
11.500	20.000	1.1958e-02
11.500	20.250	1.5058e-02
11.500	20.500	1.6613e-02
11.500	20.750	1.7902e-02
11.500	21.000	1.9318e-02
11.500	21.250	2.1152e-02
11.500	21.500	2.2310e-02
11.500	21.750	2.0840e-02
11.500	22.000	1.9590e-02
11.500	22.250	1.7941e-02
11.500	22.500	1.6394e-02
11.500	22.750	1.5439e-02
11.500	23.000	1.4806e-02
11.500	23.250	1.4472e-02
11.500	23.500	1.4293e-02
11.500	23.750	1.4190e-02
11.500	24.000	1.4144e-02
11.750	17.000	4.8304e-03
11.750	17.250	4.7139e-03
11.750	17.500	4.5484e-03
11.750	17.750	4.4772e-03
11.750	18.000	4.4723e-03
11.750	18.250	4.4663e-03
11.750	18.500	4.4842e-03
11.750	18.750	4.6088e-03
11.750	19.000	4.9524e-03
11.750	19.250	5.5736e-03
11.750	19.500	6.4587e-03
11.750	19.750	7.7521e-03
11.750	20.000	9.6895e-03
11.750	20.250	1.2498e-02
11.750	20.500	1.5654e-02
11.750	20.750	1.7191e-02
11.750	21.000	1.8803e-02
11.750	21.250	2.0663e-02
11.750	21.500	2.2864e-02
11.750	21.750	2.3047e-02
11.750	22.000	2.1210e-02
11.750	22.250	1.9640e-02
11.750	22.500	1.7933e-02
11.750	22.750	1.6391e-02
11.750	23.000	1.5439e-02
11.750	23.250	1.4806e-02
11.750	23.500	1.4472e-02
11.750	23.750	1.4293e-02
11.750	24.000	1.4190e-02
12.000	17.000	4.3274e-03
12.000	17.250	4.4410e-03
12.000	17.500	4.4286e-03
12.000	17.750	4.4393e-03
12.000	18.000	4.4623e-03
12.000	18.250	4.4545e-03
12.000	18.500	4.4187e-03
12.000	18.750	4.4212e-03
12.000	19.000	4.5516e-03
12.000	19.250	4.9092e-03
12.000	19.500	5.5665e-03
12.000	19.750	6.5078e-03
12.000	20.000	7.9116e-03
12.000	20.250	1.0037e-02
12.000	20.500	1.3081e-02
12.000	20.750	1.6293e-02
12.000	21.000	1.8066e-02
12.000	21.250	2.0181e-02
12.000	21.500	2.2595e-02
12.000	21.750	2.5089e-02
12.000	22.000	2.3847e-02
12.000	22.250	2.1519e-02
12.000	22.500	1.9724e-02
12.000	22.750	1.7924e-02
12.000	23.000	1.6388e-02
12.000	23.250	1.5439e-02
12.000	23.500	1.4805e-02
12.000	23.750	1.4472e-02
12.000	24.000	1.4293e-02
12.250	17.000	3.5479e-03
12.250	17.250	3.8890e-03
12.250	17.500	4.0942e-03
12.250	17.750	4.2580e-03
12.250	18.000	4.3543e-03
12.250	18.250	4.3633e-03
12.250	18.500	4.3222e-03
12.250	18.750	4.2858e-03
12.250	19.000	4.3067e-03
12.250	19.250	4.4585e-03
12.250	19.500	4.8538e-03
12.250	19.750	5.5523e-03
12.250	20.000	6.5616e-03
12.250	20.250	8.1001e-03
12.250	20.500	1.0426e-02
12.250	20.750	1.3771e-02
12.250	21.000	1.7216e-02
12.250	21.250	1.9475e-02
12.250	21.500	2.2120e-02
12.250	21.750	2.5141e-02
12.250	22.000	2.7062e-02
12.250	22.250	2.4626e-02
12.250	22.500	2.1951e-02
12.250	22.750	1.9833e-02
12.250	23.000	1.7918e-02
12.250	23.250	1.6385e-02
12.250	23.500	1.5439e-02
12.250	23.750	1.4805e-02
12.250	24.000	1.4472e-02
12.500	17.000	2.7669e-03
12.500	17.250	3.2161e-03
12.500	17.500	3.6009e-03
12.500	17.750	3.8823e-03
12.500	18.000	4.0463e-03
12.500	18.250	4.1146e-03
12.500	18.500	4.1234e-03
12.500	18.750	4.1180e-03
12.500	19.000	4.1230e-03
12.500	19.250	4.1800e-03
12.500	19.500	4.3668e-03
12.500	19.750	4.7993e-03
12.500	20.000	5.5394e-03
12.500	20.250	6.6331e-03
12.500	20.500	8.3277e-03
12.500	20.750	1.0935e-02
12.500	21.000	1.4780e-02
12.500	21.250	1.8575e-02
12.500	21.500	2.1418e-02
12.500	21.750	2.4648e-02
12.500	22.000	2.8121e-02
12.500	22.250	2.8675e-02
12.500	22.500	2.5413e-02
12.500	22.750	2.2512e-02
12.500	23.000	1.9962e-02
12.500	23.250	1.7916e-02
12.500	23.500	1.6381e-02
12.500	23.750	1.5439e-02
12.500	24.000	1.4804e-02
12.750	17.000	2.1989e-03
12.750	17.250	2.6067e-03
12.750	17.500	2.9843e-03
12.750	17.750	3.2853e-03
12.750	18.000	3.5203e-03
12.750	18.250	3.6881e-03
12.750	18.500	3.7987e-03
12.750	18.750	3.8715e-03
12.750	19.000	3.9230e-03
12.750	19.250	3.9733e-03
12.750	19.500	4.0602e-03
12.750	19.750	4.2742e-03
12.750	20.000	4.7356e-03
12.750	20.250	5.5417e-03
12.750	20.500	6.7313e-03
12.750	20.750	8.6548e-03
12.750	21.000	1.1676e-02
12.750	21.250	1.6241e-02
12.750	21.500	2.0404e-02
12.750	21.750	2.3831e-02
12.750	22.000	2.7760e-02
12.750	22.250	3.1210e-02
12.750	22.500	3.0269e-02
12.750	22.750	2.6281e-02
12.750	23.000	2.2988e-02
12.750	23.250	2.0095e-02
12.750	23.500	1.7919e-02
12.750	23.750	1.6378e-02
12.750	24.000	1.5439e-02
13.000	17.000	1.7425e-03
13.000	17.250	2.0601e-03
13.000	17.500	2.3401e-03
13.000	17.750	2.6123e-03
13.000	18.000	2.8830e-03
13.000	18.250	3.1405e-03
13.000	18.500	3.3569e-03
13.000	18.750	3.5249e-03
13.000	19.000	3.6552e-03
13.000	19.250	3.7529e-03
13.000	19.500	3.8353e-03
13.000	19.750	3.9446e-03
13.000	20.000	4.1766e-03
13.000	20.250	4.6684e-03
13.000	20.500	5.5435e-03
13.000	20.750	6.8922e-03
13.000	21.000	9.1525e-03
13.000	21.250	1.2736e-02
13.000	21.500	1.7873e-02
13.000	21.750	2.2727e-02
13.000	22.000	2.7020e-02
13.000	22.250	3.1111e-02
13.000	22.500	3.4134e-02
13.000	22.750	3.1946e-02
13.000	23.000	2.7471e-02
13.000	23.250	2.3284e-02
13.000	23.500	2.0239e-02
13.000	23.750	1.7930e-02
13.000	24.000	1.6377e-02
13.250	17.000	1.4705e-03
13.250	17.250	1.6933e-03
13.250	17.500	1.9016e-03
13.250	17.750	2.1002e-03
13.250	18.000	2.3341e-03
13.250	18.250	2.5968e-03
13.250	18.500	2.8618e-03
13.250	18.750	3.1021e-03
13.250	19.000	3.3063e-03
13.250	19.250	3.4721e-03
13.250	19.500	3.6026e-03
13.250	19.750	3.7103e-03
13.250	20.000	3.8399e-03
13.250	20.250	4.0820e-03
13.250	20.500	4.5891e-03
13.250	20.750	5.5225e-03
13.250	21.000	7.1205e-03
13.250	21.250	9.6134e-03
13.250	21.500	1.3536e-02
13.250	21.750	1.9178e-02
13.250	22.000	2.5205e-02
13.250	22.250	2.9360e-02
13.250	22.500	3.4237e-02
13.250	22.750	3.6969e-02
13.250	23.000	3.3678e-02
13.250	23.250	2.8395e-02
13.250	23.500	2.3700e-02
13.250	23.750	2.0374e-02
13.250	24.000	1.7946e-02
13.500	17.000	1.2912e-03
13.500	17.250	1.4589e-03
13.500	17.500	1.6199e-03
13.500	17.750	1.7717e-03
13.500	18.000	1.9584e-03
13.500	18.250	2.1857e-03
13.500	18.500	2.4314e-03
13.500	18.750	2.6740e-03
13.500	19.000	2.9083e-03
13.500	19.250	3.1230e-03
13.500	19.500	3.3053e-03
13.500	19.750	3.4537e-03
13.500	20.000	3.5812e-03
13.500	20.250	3.7333e-03
13.500	20.500	3.9820e-03
13.500	20.750	4.4895e-03
13.500	21.000	5.4228e-03
13.500	21.250	7.1093e-03
13.500	21.500	9.5998e-03
13.500	21.750	1.3855e-02
13.500	22.000	2.0204e-02
13.500	22.250	2.6654e-02
13.500	22.500	3.2010e-02
13.500	22.750	3.7491e-02
13.500	23.000	3.9933e-02
13.500	23.250	3.5260e-02
13.500	23.500	2.9218e-02
13.500	23.750	2.4261e-02
13.500	24.000	2.0502e-02
13.750	17.000	1.1704e-03
13.750	17.250	1.3053e-03
13.750	17.500	1.4366e-03
13.750	17.750	1.5607e-03
13.750	18.000	1.7131e-03
13.750	18.250	1.9031e-03
13.750	18.500	2.1115e-03
13.750	18.750	2.3232e-03
13.750	19.000	2.5384e-03
13.750	19.250	2.7560e-03
13.750	19.500	2.9682e-03
13.750	19.750	3.1591e-03
13.750	20.000	3.3233e-03
13.750	20.250	3.4723e-03
13.750	20.500	3.6459e-03
13.750	20.750	3.9201e-03
13.750	21.000	4.4369e-03
13.750	21.250	5.3685e-03
13.750	21.500	7.0024e-03
13.750	21.750	9.6896e-03
13.750	22.000	1.4206e-02
13.750	22.250	2.1537e-02
13.750	22.500	2.8923e-02
13.750	22.750	3.5107e-02
13.750	23.000	4.1020e-02
13.750	23.250	4.3158e-02
13.750	23.500	3.7027e-02
13.750	23.750	3.0029e-02
13.750	24.000	2.4634e-02
14.000	17.000	1.0832e-03
14.000	17.250	1.2005e-03
14.000	17.500	1.3168e-03
14.000	17.750	1.4224e-03
14.000	18.000	1.5511e-03
14.000	18.250	1.7103e-03
14.000	18.500	1.8848e-03
14.000	18.750	2.0621e-03
14.000	19.000	2.2429e-03
14.000	19.250	2.4344e-03
14.000	19.500	2.6380e-03
14.000	19.750	2.8451e-03
14.000	20.000	3.0428e-03
14.000	20.250	3.2247e-03
14.000	20.500	3.4038e-03
14.000	20.750	3.6176e-03
14.000	21.000	3.9430e-03
14.000	21.250	4.5259e-03
14.000	21.500	5.5044e-03
14.000	21.750	7.2518e-03
14.000	22.000	1.0231e-02
14.000	22.250	1.5483e-02
14.000	22.500	2.4141e-02
14.000	22.750	3.2356e-02
14.000	23.000	3.9892e-02
14.000	23.250	4.5479e-02
14.000	23.500	4.6773e-02
14.000	23.750	3.8698e-02
14.000	24.000	3.0909e-02
