InwC 1.11867m  relative to Inci 1215.00A scaled to 1215A.
Hden   Phi(H)  Eq_Width (A)
 7.000	17.000	1.8430e-03
 7.000	17.250	1.8441e-03
 7.000	17.500	1.8449e-03
 7.000	17.750	1.8458e-03
 7.000	18.000	1.8466e-03
 7.000	18.250	1.8473e-03
 7.000	18.500	1.8478e-03
 7.000	18.750	1.8480e-03
 7.000	19.000	1.8482e-03
 7.000	19.250	1.8484e-03
 7.000	19.500	1.8485e-03
 7.000	19.750	1.8485e-03
 7.000	20.000	1.8485e-03
 7.000	20.250	1.8485e-03
 7.000	20.500	1.8485e-03
 7.000	20.750	1.8486e-03
 7.000	21.000	1.8486e-03
 7.000	21.250	1.8486e-03
 7.000	21.500	1.8486e-03
 7.000	21.750	1.8486e-03
 7.000	22.000	1.8486e-03
 7.000	22.250	1.8486e-03
 7.000	22.500	1.8486e-03
 7.000	22.750	1.8487e-03
 7.000	23.000	1.8487e-03
 7.000	23.250	1.8486e-03
 7.000	23.500	1.8487e-03
 7.000	23.750	1.8487e-03
 7.000	24.000	1.8488e-03
 7.250	17.000	1.7767e-03
 7.250	17.250	1.8430e-03
 7.250	17.500	1.8441e-03
 7.250	17.750	1.8449e-03
 7.250	18.000	1.8458e-03
 7.250	18.250	1.8466e-03
 7.250	18.500	1.8473e-03
 7.250	18.750	1.8478e-03
 7.250	19.000	1.8480e-03
 7.250	19.250	1.8482e-03
 7.250	19.500	1.8484e-03
 7.250	19.750	1.8485e-03
 7.250	20.000	1.8485e-03
 7.250	20.250	1.8485e-03
 7.250	20.500	1.8485e-03
 7.250	20.750	1.8485e-03
 7.250	21.000	1.8485e-03
 7.250	21.250	1.8486e-03
 7.250	21.500	1.8486e-03
 7.250	21.750	1.8486e-03
 7.250	22.000	1.8486e-03
 7.250	22.250	1.8486e-03
 7.250	22.500	1.8486e-03
 7.250	22.750	1.8486e-03
 7.250	23.000	1.8486e-03
 7.250	23.250	1.8486e-03
 7.250	23.500	1.8486e-03
 7.250	23.750	1.8486e-03
 7.250	24.000	1.8486e-03
 7.500	17.000	1.6633e-03
 7.500	17.250	1.7770e-03
 7.500	17.500	1.8430e-03
 7.500	17.750	1.8441e-03
 7.500	18.000	1.8449e-03
 7.500	18.250	1.8458e-03
 7.500	18.500	1.8466e-03
 7.500	18.750	1.8473e-03
 7.500	19.000	1.8478e-03
 7.500	19.250	1.8480e-03
 7.500	19.500	1.8482e-03
 7.500	19.750	1.8484e-03
 7.500	20.000	1.8485e-03
 7.500	20.250	1.8485e-03
 7.500	20.500	1.8485e-03
 7.500	20.750	1.8485e-03
 7.500	21.000	1.8485e-03
 7.500	21.250	1.8485e-03
 7.500	21.500	1.8485e-03
 7.500	21.750	1.8485e-03
 7.500	22.000	1.8485e-03
 7.500	22.250	1.8486e-03
 7.500	22.500	1.8486e-03
 7.500	22.750	1.8486e-03
 7.500	23.000	1.8486e-03
 7.500	23.250	1.8486e-03
 7.500	23.500	1.8487e-03
 7.500	23.750	1.8486e-03
 7.500	24.000	1.8486e-03
 7.750	17.000	1.2013e-03
 7.750	17.250	1.6682e-03
 7.750	17.500	1.7773e-03
 7.750	17.750	1.8430e-03
 7.750	18.000	1.8441e-03
 7.750	18.250	1.8449e-03
 7.750	18.500	1.8458e-03
 7.750	18.750	1.8466e-03
 7.750	19.000	1.8473e-03
 7.750	19.250	1.8478e-03
 7.750	19.500	1.8480e-03
 7.750	19.750	1.8482e-03
 7.750	20.000	1.8484e-03
 7.750	20.250	1.8485e-03
 7.750	20.500	1.8485e-03
 7.750	20.750	1.8485e-03
 7.750	21.000	1.8485e-03
 7.750	21.250	1.8485e-03
 7.750	21.500	1.8485e-03
 7.750	21.750	1.8485e-03
 7.750	22.000	1.8485e-03
 7.750	22.250	1.8485e-03
 7.750	22.500	1.8485e-03
 7.750	22.750	1.8486e-03
 7.750	23.000	1.8485e-03
 7.750	23.250	1.8486e-03
 7.750	23.500	1.8486e-03
 7.750	23.750	1.8486e-03
 7.750	24.000	1.8486e-03
 8.000	17.000	8.4321e-04
 8.000	17.250	1.1972e-03
 8.000	17.500	1.6591e-03
 8.000	17.750	1.7768e-03
 8.000	18.000	1.8430e-03
 8.000	18.250	1.8441e-03
 8.000	18.500	1.8449e-03
 8.000	18.750	1.8458e-03
 8.000	19.000	1.8466e-03
 8.000	19.250	1.8473e-03
 8.000	19.500	1.8478e-03
 8.000	19.750	1.8480e-03
 8.000	20.000	1.8482e-03
 8.000	20.250	1.8484e-03
 8.000	20.500	1.8485e-03
 8.000	20.750	1.8485e-03
 8.000	21.000	1.8485e-03
 8.000	21.250	1.8485e-03
 8.000	21.500	1.8485e-03
 8.000	21.750	1.8485e-03
 8.000	22.000	1.8485e-03
 8.000	22.250	1.8485e-03
 8.000	22.500	1.8485e-03
 8.000	22.750	1.8485e-03
 8.000	23.000	1.8485e-03
 8.000	23.250	1.8485e-03
 8.000	23.500	1.8485e-03
 8.000	23.750	1.8485e-03
 8.000	24.000	1.8486e-03
 8.250	17.000	5.9062e-04
 8.250	17.250	8.5218e-04
 8.250	17.500	1.2042e-03
 8.250	17.750	1.6616e-03
 8.250	18.000	1.7770e-03
 8.250	18.250	1.8430e-03
 8.250	18.500	1.8441e-03
 8.250	18.750	1.8449e-03
 8.250	19.000	1.8458e-03
 8.250	19.250	1.8466e-03
 8.250	19.500	1.8473e-03
 8.250	19.750	1.8478e-03
 8.250	20.000	1.8480e-03
 8.250	20.250	1.8482e-03
 8.250	20.500	1.8484e-03
 8.250	20.750	1.8485e-03
 8.250	21.000	1.8485e-03
 8.250	21.250	1.8485e-03
 8.250	21.500	1.8485e-03
 8.250	21.750	1.8485e-03
 8.250	22.000	1.8485e-03
 8.250	22.250	1.8485e-03
 8.250	22.500	1.8485e-03
 8.250	22.750	1.8486e-03
 8.250	23.000	1.8485e-03
 8.250	23.250	1.8486e-03
 8.250	23.500	1.8486e-03
 8.250	23.750	1.8485e-03
 8.250	24.000	1.8486e-03
 8.500	17.000	4.1383e-04
 8.500	17.250	5.9918e-04
 8.500	17.500	8.6296e-04
 8.500	17.750	1.2125e-03
 8.500	18.000	1.6649e-03
 8.500	18.250	1.7771e-03
 8.500	18.500	1.8430e-03
 8.500	18.750	1.8441e-03
 8.500	19.000	1.8449e-03
 8.500	19.250	1.8458e-03
 8.500	19.500	1.8466e-03
 8.500	19.750	1.8473e-03
 8.500	20.000	1.8478e-03
 8.500	20.250	1.8480e-03
 8.500	20.500	1.8482e-03
 8.500	20.750	1.8484e-03
 8.500	21.000	1.8485e-03
 8.500	21.250	1.8485e-03
 8.500	21.500	1.8485e-03
 8.500	21.750	1.8485e-03
 8.500	22.000	1.8485e-03
 8.500	22.250	1.8485e-03
 8.500	22.500	1.8485e-03
 8.500	22.750	1.8485e-03
 8.500	23.000	1.8485e-03
 8.500	23.250	1.8485e-03
 8.500	23.500	1.8485e-03
 8.500	23.750	1.8485e-03
 8.500	24.000	1.8485e-03
 8.750	17.000	2.9053e-04
 8.750	17.250	4.2107e-04
 8.750	17.500	6.1045e-04
 8.750	17.750	8.7926e-04
 8.750	18.000	1.2287e-03
 8.750	18.250	1.6736e-03
 8.750	18.500	1.7772e-03
 8.750	18.750	1.8430e-03
 8.750	19.000	1.8441e-03
 8.750	19.250	1.8449e-03
 8.750	19.500	1.8458e-03
 8.750	19.750	1.8466e-03
 8.750	20.000	1.8473e-03
 8.750	20.250	1.8478e-03
 8.750	20.500	1.8480e-03
 8.750	20.750	1.8482e-03
 8.750	21.000	1.8484e-03
 8.750	21.250	1.8485e-03
 8.750	21.500	1.8485e-03
 8.750	21.750	1.8485e-03
 8.750	22.000	1.8485e-03
 8.750	22.250	1.8485e-03
 8.750	22.500	1.8485e-03
 8.750	22.750	1.8485e-03
 8.750	23.000	1.8485e-03
 8.750	23.250	1.8485e-03
 8.750	23.500	1.8486e-03
 8.750	23.750	1.8485e-03
 8.750	24.000	1.8485e-03
 9.000	17.000	2.0444e-04
 9.000	17.250	2.9663e-04
 9.000	17.500	4.3202e-04
 9.000	17.750	6.2979e-04
 9.000	18.000	9.0601e-04
 9.000	18.250	1.2596e-03
 9.000	18.500	1.6901e-03
 9.000	18.750	1.7771e-03
 9.000	19.000	1.8430e-03
 9.000	19.250	1.8441e-03
 9.000	19.500	1.8449e-03
 9.000	19.750	1.8458e-03
 9.000	20.000	1.8466e-03
 9.000	20.250	1.8473e-03
 9.000	20.500	1.8478e-03
 9.000	20.750	1.8480e-03
 9.000	21.000	1.8482e-03
 9.000	21.250	1.8484e-03
 9.000	21.500	1.8485e-03
 9.000	21.750	1.8485e-03
 9.000	22.000	1.8485e-03
 9.000	22.250	1.8485e-03
 9.000	22.500	1.8485e-03
 9.000	22.750	1.8485e-03
 9.000	23.000	1.8485e-03
 9.000	23.250	1.8485e-03
 9.000	23.500	1.8485e-03
 9.000	23.750	1.8485e-03
 9.000	24.000	1.8485e-03
 9.250	17.000	1.4412e-04
 9.250	17.250	2.0905e-04
 9.250	17.500	3.0626e-04
 9.250	17.750	4.5193e-04
 9.250	18.000	6.6494e-04
 9.250	18.250	9.5638e-04
 9.250	18.500	1.3179e-03
 9.250	18.750	1.7301e-03
 9.250	19.000	1.7769e-03
 9.250	19.250	1.8430e-03
 9.250	19.500	1.8441e-03
 9.250	19.750	1.8449e-03
 9.250	20.000	1.8458e-03
 9.250	20.250	1.8467e-03
 9.250	20.500	1.8473e-03
 9.250	20.750	1.8478e-03
 9.250	21.000	1.8480e-03
 9.250	21.250	1.8482e-03
 9.250	21.500	1.8482e-03
 9.250	21.750	1.8482e-03
 9.250	22.000	1.8482e-03
 9.250	22.250	1.8483e-03
 9.250	22.500	1.8484e-03
 9.250	22.750	1.8484e-03
 9.250	23.000	1.8485e-03
 9.250	23.250	1.8485e-03
 9.250	23.500	1.8485e-03
 9.250	23.750	1.8485e-03
 9.250	24.000	1.8485e-03
 9.500	17.000	1.0173e-04
 9.500	17.250	1.4790e-04
 9.500	17.500	2.1753e-04
 9.500	17.750	3.2510e-04
 9.500	18.000	4.8881e-04
 9.500	18.250	7.2716e-04
 9.500	18.500	1.0434e-03
 9.500	18.750	1.4249e-03
 9.500	19.000	1.7318e-03
 9.500	19.250	1.7763e-03
 9.500	19.500	1.8430e-03
 9.500	19.750	1.8441e-03
 9.500	20.000	1.8449e-03
 9.500	20.250	1.8458e-03
 9.500	20.500	1.8467e-03
 9.500	20.750	1.8472e-03
 9.500	21.000	1.8476e-03
 9.500	21.250	1.8478e-03
 9.500	21.500	1.8480e-03
 9.500	21.750	1.8481e-03
 9.500	22.000	1.8481e-03
 9.500	22.250	1.8481e-03
 9.500	22.500	1.8481e-03
 9.500	22.750	1.8481e-03
 9.500	23.000	1.8481e-03
 9.500	23.250	1.8481e-03
 9.500	23.500	1.8481e-03
 9.500	23.750	1.8481e-03
 9.500	24.000	1.8481e-03
 9.750	17.000	7.1852e-05
 9.750	17.250	1.0436e-04
 9.750	17.500	1.5432e-04
 9.750	17.750	2.3366e-04
 9.750	18.000	3.6066e-04
 9.750	18.250	5.5251e-04
 9.750	18.500	8.1852e-04
 9.750	18.750	1.1538e-03
 9.750	19.000	1.5627e-03
 9.750	19.250	1.7308e-03
 9.750	19.500	1.7751e-03
 9.750	19.750	1.8428e-03
 9.750	20.000	1.8440e-03
 9.750	20.250	1.8449e-03
 9.750	20.500	1.8458e-03
 9.750	20.750	1.8466e-03
 9.750	21.000	1.8472e-03
 9.750	21.250	1.8476e-03
 9.750	21.500	1.8478e-03
 9.750	21.750	1.8481e-03
 9.750	22.000	1.8481e-03
 9.750	22.250	1.8481e-03
 9.750	22.500	1.8481e-03
 9.750	22.750	1.8481e-03
 9.750	23.000	1.8481e-03
 9.750	23.250	1.8481e-03
 9.750	23.500	1.8481e-03
 9.750	23.750	1.8481e-03
 9.750	24.000	1.8481e-03
10.000	17.000	5.0700e-05
10.000	17.250	7.3827e-05
10.000	17.500	1.0963e-04
10.000	17.750	1.6823e-04
10.000	18.000	2.6642e-04
10.000	18.250	4.1745e-04
10.000	18.500	6.3342e-04
10.000	18.750	9.1778e-04
10.000	19.000	1.2797e-03
10.000	19.250	1.6451e-03
10.000	19.500	1.7296e-03
10.000	19.750	1.7738e-03
10.000	20.000	1.8426e-03
10.000	20.250	1.8440e-03
10.000	20.500	1.8449e-03
10.000	20.750	1.8458e-03
10.000	21.000	1.8466e-03
10.000	21.250	1.8472e-03
10.000	21.500	1.8477e-03
10.000	21.750	1.8478e-03
10.000	22.000	1.8481e-03
10.000	22.250	1.8481e-03
10.000	22.500	1.8481e-03
10.000	22.750	1.8481e-03
10.000	23.000	1.8481e-03
10.000	23.250	1.8481e-03
10.000	23.500	1.8481e-03
10.000	23.750	1.8481e-03
10.000	24.000	1.8481e-03
10.250	17.000	3.5720e-05
10.250	17.250	5.2181e-05
10.250	17.500	7.8107e-05
10.250	17.750	1.2173e-04
10.250	18.000	1.9679e-04
10.250	18.250	3.1325e-04
10.250	18.500	4.8156e-04
10.250	18.750	7.1366e-04
10.250	19.000	1.0170e-03
10.250	19.250	1.4095e-03
10.250	19.500	1.7045e-03
10.250	19.750	1.7281e-03
10.250	20.000	1.7720e-03
10.250	20.250	1.8420e-03
10.250	20.500	1.8437e-03
10.250	20.750	1.8448e-03
10.250	21.000	1.8458e-03
10.250	21.250	1.8466e-03
10.250	21.500	1.8472e-03
10.250	21.750	1.8477e-03
10.250	22.000	1.8479e-03
10.250	22.250	1.8481e-03
10.250	22.500	1.8482e-03
10.250	22.750	1.8481e-03
10.250	23.000	1.8481e-03
10.250	23.250	1.8481e-03
10.250	23.500	1.8481e-03
10.250	23.750	1.8481e-03
10.250	24.000	1.8481e-03
10.500	17.000	2.5185e-05
10.500	17.250	3.7037e-05
10.500	17.500	5.5885e-05
10.500	17.750	8.8560e-05
10.500	18.000	1.4543e-04
10.500	18.250	2.3473e-04
10.500	18.500	3.6066e-04
10.500	18.750	5.3951e-04
10.500	19.000	7.8527e-04
10.500	19.250	1.1102e-03
10.500	19.500	1.5126e-03
10.500	19.750	1.7034e-03
10.500	20.000	1.7264e-03
10.500	20.250	1.7701e-03
10.500	20.500	1.8413e-03
10.500	20.750	1.8434e-03
10.500	21.000	1.8447e-03
10.500	21.250	1.8457e-03
10.500	21.500	1.8466e-03
10.500	21.750	1.8472e-03
10.500	22.000	1.8477e-03
10.500	22.250	1.8479e-03
10.500	22.500	1.8481e-03
10.500	22.750	1.8482e-03
10.500	23.000	1.8482e-03
10.500	23.250	1.8481e-03
10.500	23.500	1.8481e-03
10.500	23.750	1.8481e-03
10.500	24.000	1.8481e-03
10.750	17.000	1.7778e-05
10.750	17.250	2.6255e-05
10.750	17.500	4.0082e-05
10.750	17.750	6.4609e-05
10.750	18.000	1.0708e-04
10.750	18.250	1.7292e-04
10.750	18.500	2.6708e-04
10.750	18.750	4.0247e-04
10.750	19.000	5.8947e-04
10.750	19.250	8.4675e-04
10.750	19.500	1.1872e-03
10.750	19.750	1.6060e-03
10.750	20.000	1.7017e-03
10.750	20.250	1.7253e-03
10.750	20.500	1.7691e-03
10.750	20.750	1.8404e-03
10.750	21.000	1.8428e-03
10.750	21.250	1.8444e-03
10.750	21.500	1.8456e-03
10.750	21.750	1.8465e-03
10.750	22.000	1.8472e-03
10.750	22.250	1.8477e-03
10.750	22.500	1.8480e-03
10.750	22.750	1.8481e-03
10.750	23.000	1.8482e-03
10.750	23.250	1.8482e-03
10.750	23.500	1.8482e-03
10.750	23.750	1.8482e-03
10.750	24.000	1.8481e-03
11.000	17.000	1.2510e-05
11.000	17.250	1.8601e-05
11.000	17.500	2.8807e-05
11.000	17.750	4.7078e-05
11.000	18.000	7.8272e-05
11.000	18.250	1.2617e-04
11.000	18.500	1.9621e-04
11.000	18.750	2.9588e-04
11.000	19.000	4.3531e-04
11.000	19.250	6.3045e-04
11.000	19.500	8.9926e-04
11.000	19.750	1.2625e-03
11.000	20.000	1.6689e-03
11.000	20.250	1.6999e-03
11.000	20.500	1.7238e-03
11.000	20.750	1.7691e-03
11.000	21.000	1.8392e-03
11.000	21.250	1.8419e-03
11.000	21.500	1.8442e-03
11.000	21.750	1.8454e-03
11.000	22.000	1.8463e-03
11.000	22.250	1.8471e-03
11.000	22.500	1.8477e-03
11.000	22.750	1.8480e-03
11.000	23.000	1.8481e-03
11.000	23.250	1.8482e-03
11.000	23.500	1.8482e-03
11.000	23.750	1.8482e-03
11.000	24.000	1.8482e-03
11.250	17.000	8.8889e-06
11.250	17.250	1.3169e-05
11.250	17.500	2.0576e-05
11.250	17.750	3.3992e-05
11.250	18.000	5.6626e-05
11.250	18.250	9.1111e-05
11.250	18.500	1.4107e-04
11.250	18.750	2.1465e-04
11.250	19.000	3.1679e-04
11.250	19.250	4.6247e-04
11.250	19.500	6.6617e-04
11.250	19.750	9.4848e-04
11.250	20.000	1.3302e-03
11.250	20.250	1.6766e-03
11.250	20.500	1.6976e-03
11.250	20.750	1.7231e-03
11.250	21.000	1.7714e-03
11.250	21.250	1.8377e-03
11.250	21.500	1.8414e-03
11.250	21.750	1.8436e-03
11.250	22.000	1.8451e-03
11.250	22.250	1.8461e-03
11.250	22.500	1.8470e-03
11.250	22.750	1.8477e-03
11.250	23.000	1.8479e-03
11.250	23.250	1.8481e-03
11.250	23.500	1.8482e-03
11.250	23.750	1.8482e-03
11.250	24.000	1.8483e-03
11.500	17.000	6.3374e-06
11.500	17.250	9.3827e-06
11.500	17.500	1.4733e-05
11.500	17.750	2.4362e-05
11.500	18.000	4.0494e-05
11.500	18.250	6.4856e-05
11.500	18.500	1.0082e-04
11.500	18.750	1.5374e-04
11.500	19.000	2.2881e-04
11.500	19.250	3.3457e-04
11.500	19.500	4.8305e-04
11.500	19.750	6.9498e-04
11.500	20.000	9.9095e-04
11.500	20.250	1.3947e-03
11.500	20.500	1.6759e-03
11.500	20.750	1.6947e-03
11.500	21.000	1.7236e-03
11.500	21.250	1.7784e-03
11.500	21.500	1.8374e-03
11.500	21.750	1.8402e-03
11.500	22.000	1.8428e-03
11.500	22.250	1.8446e-03
11.500	22.500	1.8457e-03
11.500	22.750	1.8467e-03
11.500	23.000	1.8476e-03
11.500	23.250	1.8479e-03
11.500	23.500	1.8481e-03
11.500	23.750	1.8483e-03
11.500	24.000	1.8482e-03
11.750	17.000	4.5267e-06
11.750	17.250	6.6667e-06
11.750	17.500	1.0535e-05
11.750	17.750	1.7366e-05
11.750	18.000	2.8477e-05
11.750	18.250	4.5597e-05
11.750	18.500	7.1193e-05
11.750	18.750	1.0856e-04
11.750	19.000	1.6305e-04
11.750	19.250	2.3975e-04
11.750	19.500	3.4856e-04
11.750	19.750	5.0148e-04
11.750	20.000	7.2066e-04
11.750	20.250	1.0284e-03
11.750	20.500	1.4498e-03
11.750	20.750	1.6663e-03
11.750	21.000	1.6911e-03
11.750	21.250	1.7275e-03
11.750	21.500	1.7961e-03
11.750	21.750	1.8354e-03
11.750	22.000	1.8385e-03
11.750	22.250	1.8415e-03
11.750	22.500	1.8437e-03
11.750	22.750	1.8450e-03
11.750	23.000	1.8463e-03
11.750	23.250	1.8474e-03
11.750	23.500	1.8478e-03
11.750	23.750	1.8481e-03
11.750	24.000	1.8483e-03
12.000	17.000	3.3745e-06
12.000	17.250	4.8560e-06
12.000	17.500	7.4897e-06
12.000	17.750	1.2181e-05
12.000	18.000	1.9753e-05
12.000	18.250	3.1687e-05
12.000	18.500	4.9712e-05
12.000	18.750	7.6543e-05
12.000	19.000	1.1572e-04
12.000	19.250	1.7095e-04
12.000	19.500	2.4930e-04
12.000	19.750	3.6000e-04
12.000	20.000	5.1728e-04
12.000	20.250	7.4115e-04
12.000	20.500	1.0563e-03
12.000	20.750	1.4844e-03
12.000	21.000	1.6525e-03
12.000	21.250	1.6878e-03
12.000	21.500	1.7410e-03
12.000	21.750	1.8160e-03
12.000	22.000	1.8323e-03
12.000	22.250	1.8360e-03
12.000	22.500	1.8397e-03
12.000	22.750	1.8425e-03
12.000	23.000	1.8440e-03
12.000	23.250	1.8457e-03
12.000	23.500	1.8472e-03
12.000	23.750	1.8477e-03
12.000	24.000	1.8481e-03
12.250	17.000	2.4691e-06
12.250	17.250	3.5391e-06
12.250	17.500	5.3498e-06
12.250	17.750	8.4774e-06
12.250	18.000	1.3580e-05
12.250	18.250	2.1811e-05
12.250	18.500	3.4650e-05
12.250	18.750	5.3827e-05
12.250	19.000	8.1811e-05
12.250	19.250	1.2132e-04
12.250	19.500	1.7720e-04
12.250	19.750	2.5663e-04
12.250	20.000	3.6856e-04
12.250	20.250	5.2848e-04
12.250	20.500	7.5630e-04
12.250	20.750	1.0785e-03
12.250	21.000	1.4975e-03
12.250	21.250	1.6340e-03
12.250	21.500	1.6943e-03
12.250	21.750	1.7520e-03
12.250	22.000	1.8212e-03
12.250	22.250	1.8274e-03
12.250	22.500	1.8323e-03
12.250	22.750	1.8370e-03
12.250	23.000	1.8404e-03
12.250	23.250	1.8425e-03
12.250	23.500	1.8448e-03
12.250	23.750	1.8468e-03
12.250	24.000	1.8475e-03
12.500	17.000	1.8930e-06
12.500	17.250	2.6337e-06
12.500	17.500	3.7860e-06
12.500	17.750	5.8436e-06
12.500	18.000	9.3004e-06
12.500	18.250	1.5062e-05
12.500	18.500	2.4115e-05
12.500	18.750	3.7695e-05
12.500	19.000	5.7695e-05
12.500	19.250	8.6091e-05
12.500	19.500	1.2593e-04
12.500	19.750	1.8255e-04
12.500	20.000	2.6247e-04
12.500	20.250	3.7539e-04
12.500	20.500	5.3630e-04
12.500	20.750	7.6543e-04
12.500	21.000	1.0896e-03
12.500	21.250	1.5166e-03
12.500	21.500	1.6284e-03
12.500	21.750	1.6910e-03
12.500	22.000	1.7618e-03
12.500	22.250	1.8123e-03
12.500	22.500	1.8199e-03
12.500	22.750	1.8266e-03
12.500	23.000	1.8327e-03
12.500	23.250	1.8372e-03
12.500	23.500	1.8399e-03
12.500	23.750	1.8432e-03
12.500	24.000	1.8463e-03
12.750	17.000	1.3169e-06
12.750	17.250	1.8107e-06
12.750	17.500	2.6337e-06
12.750	17.750	4.0329e-06
12.750	18.000	6.4198e-06
12.750	18.250	1.0453e-05
12.750	18.500	1.6708e-05
12.750	18.750	2.6420e-05
12.750	19.000	4.0576e-05
12.750	19.250	6.0905e-05
12.750	19.500	8.9300e-05
12.750	19.750	1.2947e-04
12.750	20.000	1.8634e-04
12.750	20.250	2.6708e-04
12.750	20.500	3.7827e-04
12.750	20.750	5.4016e-04
12.750	21.000	7.6922e-04
12.750	21.250	1.0951e-03
12.750	21.500	1.5008e-03
12.750	21.750	1.6013e-03
12.750	22.000	1.6838e-03
12.750	22.250	1.7622e-03
12.750	22.500	1.7984e-03
12.750	22.750	1.8087e-03
12.750	23.000	1.8179e-03
12.750	23.250	1.8260e-03
12.750	23.500	1.8319e-03
12.750	23.750	1.8357e-03
12.750	24.000	1.8407e-03
13.000	17.000	1.0000e-07
13.000	17.250	8.2305e-07
13.000	17.500	1.8107e-06
13.000	17.750	2.8807e-06
13.000	18.000	4.5267e-06
13.000	18.250	7.2428e-06
13.000	18.500	1.1687e-05
13.000	18.750	1.8436e-05
13.000	19.000	2.8395e-05
13.000	19.250	4.2881e-05
13.000	19.500	6.3210e-05
13.000	19.750	9.1852e-05
13.000	20.000	1.3185e-04
13.000	20.250	1.8864e-04
13.000	20.500	2.6881e-04
13.000	20.750	3.8206e-04
13.000	21.000	5.4123e-04
13.000	21.250	7.6889e-04
13.000	21.500	1.1027e-03
13.000	21.750	1.4496e-03
13.000	22.000	1.5676e-03
13.000	22.250	1.6644e-03
13.000	22.500	1.7458e-03
13.000	22.750	1.7777e-03
13.000	23.000	1.7923e-03
13.000	23.250	1.8049e-03
13.000	23.500	1.8157e-03
13.000	23.750	1.8235e-03
13.000	24.000	1.8290e-03
13.250	17.000	1.0000e-07
13.250	17.250	1.0000e-07
13.250	17.500	1.0700e-06
13.250	17.750	1.9753e-06
13.250	18.000	3.1276e-06
13.250	18.250	5.1029e-06
13.250	18.500	8.1481e-06
13.250	18.750	1.2840e-05
13.250	19.000	1.9835e-05
13.250	19.250	3.0041e-05
13.250	19.500	4.4527e-05
13.250	19.750	6.4856e-05
13.250	20.000	9.3580e-05
13.250	20.250	1.3391e-04
13.250	20.500	1.9045e-04
13.250	20.750	2.6971e-04
13.250	21.000	3.8222e-04
13.250	21.250	5.3737e-04
13.250	21.500	7.7070e-04
13.250	21.750	1.0756e-03
13.250	22.000	1.3797e-03
13.250	22.250	1.5060e-03
13.250	22.500	1.6221e-03
13.250	22.750	1.7091e-03
13.250	23.000	1.7469e-03
13.250	23.250	1.7673e-03
13.250	23.500	1.7853e-03
13.250	23.750	1.7999e-03
13.250	24.000	1.8101e-03
13.500	17.000	1.0000e-07
13.500	17.250	1.0000e-07
13.500	17.500	1.0000e-07
13.500	17.750	1.2346e-06
13.500	18.000	2.2222e-06
13.500	18.250	3.5391e-06
13.500	18.500	5.5967e-06
13.500	18.750	8.8066e-06
13.500	19.000	1.3745e-05
13.500	19.250	2.0988e-05
13.500	19.500	3.1276e-05
13.500	19.750	4.5761e-05
13.500	20.000	6.6008e-05
13.500	20.250	9.4815e-05
13.500	20.500	1.3481e-04
13.500	20.750	1.9078e-04
13.500	21.000	2.6872e-04
13.500	21.250	3.7638e-04
13.500	21.500	5.3523e-04
13.500	21.750	7.4601e-04
13.500	22.000	1.0189e-03
13.500	22.250	1.2760e-03
13.500	22.500	1.4240e-03
13.500	22.750	1.5555e-03
13.500	23.000	1.6536e-03
13.500	23.250	1.7012e-03
13.500	23.500	1.7305e-03
13.500	23.750	1.7563e-03
13.500	24.000	1.7757e-03
13.750	17.000	1.0000e-07
13.750	17.250	1.0000e-07
13.750	17.500	1.0000e-07
13.750	17.750	1.0000e-07
13.750	18.000	1.3992e-06
13.750	18.250	2.3868e-06
13.750	18.500	3.8683e-06
13.750	18.750	6.0905e-06
13.750	19.000	9.4650e-06
13.750	19.250	1.4403e-05
13.750	19.500	2.1728e-05
13.750	19.750	3.2016e-05
13.750	20.000	4.6502e-05
13.750	20.250	6.6831e-05
13.750	20.500	9.5473e-05
13.750	20.750	1.3514e-04
13.750	21.000	1.9012e-04
13.750	21.250	2.6486e-04
13.750	21.500	3.7547e-04
13.750	21.750	5.1802e-04
13.750	22.000	7.0428e-04
13.750	22.250	9.3844e-04
13.750	22.500	1.1563e-03
13.750	22.750	1.3177e-03
13.750	23.000	1.4637e-03
13.750	23.250	1.5775e-03
13.750	23.500	1.6354e-03
13.750	23.750	1.6775e-03
13.750	24.000	1.7135e-03
14.000	17.000	1.0000e-07
14.000	17.250	1.0000e-07
14.000	17.500	1.0000e-07
14.000	17.750	1.0000e-07
14.000	18.000	8.2305e-07
14.000	18.250	1.6461e-06
14.000	18.500	2.7160e-06
14.000	18.750	4.1975e-06
14.000	19.000	6.5021e-06
14.000	19.250	9.8765e-06
14.000	19.500	1.4897e-05
14.000	19.750	2.2222e-05
14.000	20.000	3.2510e-05
14.000	20.250	4.6996e-05
14.000	20.500	6.7407e-05
14.000	20.750	9.5638e-05
14.000	21.000	1.3465e-04
14.000	21.250	1.8749e-04
14.000	21.500	2.6510e-04
14.000	21.750	3.6346e-04
14.000	22.000	4.8774e-04
14.000	22.250	6.3901e-04
14.000	22.500	8.3342e-04
14.000	22.750	1.0204e-03
14.000	23.000	1.1951e-03
14.000	23.250	1.3470e-03
14.000	23.500	1.4753e-03
14.000	23.750	1.5435e-03
14.000	24.000	1.6027e-03
