He 2 1215.23A  relative to Inci 1215.00A scaled to 1215A.
Hden   Phi(H)  Eq_Width (A)
 7.000	17.000	9.2579e-03
 7.000	17.250	3.9114e-03
 7.000	17.500	1.5179e-03
 7.000	17.750	5.5621e-04
 7.000	18.000	2.3778e-04
 7.000	18.250	9.1111e-05
 7.000	18.500	2.2305e-05
 7.000	18.750	6.9959e-06
 7.000	19.000	1.9753e-06
 7.000	19.250	1.0000e-07
 7.000	19.500	1.0000e-07
 7.000	19.750	1.0000e-07
 7.000	20.000	1.0000e-07
 7.000	20.250	1.0000e-07
 7.000	20.500	1.0000e-07
 7.000	20.750	1.0000e-07
 7.000	21.000	1.0000e-07
 7.000	21.250	1.0000e-07
 7.000	21.500	1.0000e-07
 7.000	21.750	1.0000e-07
 7.000	22.000	1.0000e-07
 7.000	22.250	1.0000e-07
 7.000	22.500	1.0000e-07
 7.000	22.750	1.0000e-07
 7.000	23.000	1.0000e-07
 7.000	23.250	1.0000e-07
 7.000	23.500	1.0000e-07
 7.000	23.750	1.0000e-07
 7.000	24.000	1.0000e-07
 7.250	17.000	1.0871e-02
 7.250	17.250	9.2149e-03
 7.250	17.500	3.8963e-03
 7.250	17.750	1.5114e-03
 7.250	18.000	5.5424e-04
 7.250	18.250	2.3778e-04
 7.250	18.500	9.1276e-05
 7.250	18.750	2.2387e-05
 7.250	19.000	7.0782e-06
 7.250	19.250	1.9753e-06
 7.250	19.500	1.0000e-07
 7.250	19.750	1.0000e-07
 7.250	20.000	1.0000e-07
 7.250	20.250	1.0000e-07
 7.250	20.500	1.0000e-07
 7.250	20.750	1.0000e-07
 7.250	21.000	1.0000e-07
 7.250	21.250	1.0000e-07
 7.250	21.500	1.0000e-07
 7.250	21.750	1.0000e-07
 7.250	22.000	1.0000e-07
 7.250	22.250	1.0000e-07
 7.250	22.500	1.0000e-07
 7.250	22.750	1.0000e-07
 7.250	23.000	1.0000e-07
 7.250	23.250	1.0000e-07
 7.250	23.500	1.0000e-07
 7.250	23.750	1.0000e-07
 7.250	24.000	1.0000e-07
 7.500	17.000	1.0336e-02
 7.500	17.250	1.0813e-02
 7.500	17.500	9.1682e-03
 7.500	17.750	3.8802e-03
 7.500	18.000	1.5007e-03
 7.500	18.250	5.5202e-04
 7.500	18.500	2.3770e-04
 7.500	18.750	9.1523e-05
 7.500	19.000	2.2469e-05
 7.500	19.250	7.0782e-06
 7.500	19.500	2.0576e-06
 7.500	19.750	1.0000e-07
 7.500	20.000	1.0000e-07
 7.500	20.250	1.0000e-07
 7.500	20.500	1.0000e-07
 7.500	20.750	1.0000e-07
 7.500	21.000	1.0000e-07
 7.500	21.250	1.0000e-07
 7.500	21.500	1.0000e-07
 7.500	21.750	1.0000e-07
 7.500	22.000	1.0000e-07
 7.500	22.250	1.0000e-07
 7.500	22.500	1.0000e-07
 7.500	22.750	1.0000e-07
 7.500	23.000	1.0000e-07
 7.500	23.250	1.0000e-07
 7.500	23.500	1.0000e-07
 7.500	23.750	1.0000e-07
 7.500	24.000	1.0000e-07
 7.750	17.000	1.0038e-02
 7.750	17.250	1.0141e-02
 7.750	17.500	1.0730e-02
 7.750	17.750	9.1170e-03
 7.750	18.000	3.8626e-03
 7.750	18.250	1.4886e-03
 7.750	18.500	5.4840e-04
 7.750	18.750	2.3728e-04
 7.750	19.000	9.1687e-05
 7.750	19.250	2.2551e-05
 7.750	19.500	7.0782e-06
 7.750	19.750	2.0576e-06
 7.750	20.000	1.0000e-07
 7.750	20.250	1.0000e-07
 7.750	20.500	1.0000e-07
 7.750	20.750	1.0000e-07
 7.750	21.000	1.0000e-07
 7.750	21.250	1.0000e-07
 7.750	21.500	1.0000e-07
 7.750	21.750	1.0000e-07
 7.750	22.000	1.0000e-07
 7.750	22.250	1.0000e-07
 7.750	22.500	1.0000e-07
 7.750	22.750	1.0000e-07
 7.750	23.000	1.0000e-07
 7.750	23.250	1.0000e-07
 7.750	23.500	1.0000e-07
 7.750	23.750	1.0000e-07
 7.750	24.000	1.0000e-07
 8.000	17.000	9.5259e-03
 8.000	17.250	9.6849e-03
 8.000	17.500	9.7999e-03
 8.000	17.750	1.0507e-02
 8.000	18.000	9.0527e-03
 8.000	18.250	3.8405e-03
 8.000	18.500	1.4769e-03
 8.000	18.750	5.4379e-04
 8.000	19.000	2.3663e-04
 8.000	19.250	9.1770e-05
 8.000	19.500	2.2634e-05
 8.000	19.750	7.1605e-06
 8.000	20.000	2.0576e-06
 8.000	20.250	1.0000e-07
 8.000	20.500	1.0000e-07
 8.000	20.750	1.0000e-07
 8.000	21.000	1.0000e-07
 8.000	21.250	1.0000e-07
 8.000	21.500	1.0000e-07
 8.000	21.750	1.0000e-07
 8.000	22.000	1.0000e-07
 8.000	22.250	1.0000e-07
 8.000	22.500	1.0000e-07
 8.000	22.750	1.0000e-07
 8.000	23.000	1.0000e-07
 8.000	23.250	1.0000e-07
 8.000	23.500	1.0000e-07
 8.000	23.750	1.0000e-07
 8.000	24.000	1.0000e-07
 8.250	17.000	9.1335e-03
 8.250	17.250	9.2992e-03
 8.250	17.500	9.4474e-03
 8.250	17.750	9.5411e-03
 8.250	18.000	1.0312e-02
 8.250	18.250	8.9753e-03
 8.250	18.500	3.8128e-03
 8.250	18.750	1.4585e-03
 8.250	19.000	5.3819e-04
 8.250	19.250	2.3547e-04
 8.250	19.500	9.1852e-05
 8.250	19.750	2.2716e-05
 8.250	20.000	7.1605e-06
 8.250	20.250	2.0576e-06
 8.250	20.500	1.0000e-07
 8.250	20.750	1.0000e-07
 8.250	21.000	1.0000e-07
 8.250	21.250	1.0000e-07
 8.250	21.500	1.0000e-07
 8.250	21.750	1.0000e-07
 8.250	22.000	1.0000e-07
 8.250	22.250	1.0000e-07
 8.250	22.500	1.0000e-07
 8.250	22.750	1.0000e-07
 8.250	23.000	1.0000e-07
 8.250	23.250	1.0000e-07
 8.250	23.500	1.0000e-07
 8.250	23.750	1.0000e-07
 8.250	24.000	1.0000e-07
 8.500	17.000	8.7398e-03
 8.500	17.250	8.9063e-03
 8.500	17.500	9.0615e-03
 8.500	17.750	9.1893e-03
 8.500	18.000	9.2486e-03
 8.500	18.250	1.0021e-02
 8.500	18.500	8.8719e-03
 8.500	18.750	3.7791e-03
 8.500	19.000	1.4403e-03
 8.500	19.250	5.3086e-04
 8.500	19.500	2.3383e-04
 8.500	19.750	9.1687e-05
 8.500	20.000	2.2716e-05
 8.500	20.250	7.2428e-06
 8.500	20.500	2.0576e-06
 8.500	20.750	1.0000e-07
 8.500	21.000	1.0000e-07
 8.500	21.250	1.0000e-07
 8.500	21.500	1.0000e-07
 8.500	21.750	1.0000e-07
 8.500	22.000	1.0000e-07
 8.500	22.250	1.0000e-07
 8.500	22.500	1.0000e-07
 8.500	22.750	1.0000e-07
 8.500	23.000	1.0000e-07
 8.500	23.250	1.0000e-07
 8.500	23.500	1.0000e-07
 8.500	23.750	1.0000e-07
 8.500	24.000	1.0000e-07
 8.750	17.000	8.3418e-03
 8.750	17.250	8.5207e-03
 8.750	17.500	8.6822e-03
 8.750	17.750	8.8124e-03
 8.750	18.000	8.9119e-03
 8.750	18.250	8.9209e-03
 8.750	18.500	9.6082e-03
 8.750	18.750	8.7490e-03
 8.750	19.000	3.7385e-03
 8.750	19.250	1.4151e-03
 8.750	19.500	5.2255e-04
 8.750	19.750	2.3169e-04
 8.750	20.000	9.1440e-05
 8.750	20.250	2.2716e-05
 8.750	20.500	7.2428e-06
 8.750	20.750	2.0576e-06
 8.750	21.000	1.0000e-07
 8.750	21.250	1.0000e-07
 8.750	21.500	1.0000e-07
 8.750	21.750	1.0000e-07
 8.750	22.000	1.0000e-07
 8.750	22.250	1.0000e-07
 8.750	22.500	1.0000e-07
 8.750	22.750	1.0000e-07
 8.750	23.000	1.0000e-07
 8.750	23.250	1.0000e-07
 8.750	23.500	1.0000e-07
 8.750	23.750	1.0000e-07
 8.750	24.000	1.0000e-07
 9.000	17.000	7.9430e-03
 9.000	17.250	8.1384e-03
 9.000	17.500	8.3134e-03
 9.000	17.750	8.4570e-03
 9.000	18.000	8.5577e-03
 9.000	18.250	8.6091e-03
 9.000	18.500	8.5441e-03
 9.000	18.750	9.0571e-03
 9.000	19.000	8.6016e-03
 9.000	19.250	3.6928e-03
 9.000	19.500	1.3902e-03
 9.000	19.750	5.1300e-04
 9.000	20.000	2.2914e-04
 9.000	20.250	9.1029e-05
 9.000	20.500	2.2716e-05
 9.000	20.750	7.2428e-06
 9.000	21.000	2.0576e-06
 9.000	21.250	1.0000e-07
 9.000	21.500	1.0000e-07
 9.000	21.750	1.0000e-07
 9.000	22.000	1.0000e-07
 9.000	22.250	1.0000e-07
 9.000	22.500	1.0000e-07
 9.000	22.750	1.0000e-07
 9.000	23.000	1.0000e-07
 9.000	23.250	1.0000e-07
 9.000	23.500	1.0000e-07
 9.000	23.750	1.0000e-07
 9.000	24.000	1.0000e-07
 9.250	17.000	7.5139e-03
 9.250	17.250	7.7490e-03
 9.250	17.500	7.9529e-03
 9.250	17.750	8.1150e-03
 9.250	18.000	8.2291e-03
 9.250	18.250	8.2853e-03
 9.250	18.500	8.2601e-03
 9.250	18.750	8.0770e-03
 9.250	19.000	8.3808e-03
 9.250	19.250	8.3968e-03
 9.250	19.500	3.6437e-03
 9.250	19.750	1.3681e-03
 9.250	20.000	5.0288e-04
 9.250	20.250	2.2650e-04
 9.250	20.500	9.0617e-05
 9.250	20.750	2.2634e-05
 9.250	21.000	7.2428e-06
 9.250	21.250	2.0576e-06
 9.250	21.500	1.0000e-07
 9.250	21.750	1.0000e-07
 9.250	22.000	1.0000e-07
 9.250	22.250	1.0000e-07
 9.250	22.500	1.0000e-07
 9.250	22.750	1.0000e-07
 9.250	23.000	1.0000e-07
 9.250	23.250	1.0000e-07
 9.250	23.500	1.0000e-07
 9.250	23.750	1.0000e-07
 9.250	24.000	1.0000e-07
 9.500	17.000	6.9986e-03
 9.500	17.250	7.3252e-03
 9.500	17.500	7.5747e-03
 9.500	17.750	7.7757e-03
 9.500	18.000	7.9119e-03
 9.500	18.250	7.9741e-03
 9.500	18.500	7.9546e-03
 9.500	18.750	7.8258e-03
 9.500	19.000	7.8594e-03
 9.500	19.250	7.6127e-03
 9.500	19.500	8.0970e-03
 9.500	19.750	3.6002e-03
 9.500	20.000	1.3467e-03
 9.500	20.250	4.9333e-04
 9.500	20.500	2.2387e-04
 9.500	20.750	9.0123e-05
 9.500	21.000	2.2634e-05
 9.500	21.250	7.2428e-06
 9.500	21.500	2.0576e-06
 9.500	21.750	1.0000e-07
 9.500	22.000	1.0000e-07
 9.500	22.250	1.0000e-07
 9.500	22.500	1.0000e-07
 9.500	22.750	1.0000e-07
 9.500	23.000	1.0000e-07
 9.500	23.250	1.0000e-07
 9.500	23.500	1.0000e-07
 9.500	23.750	1.0000e-07
 9.500	24.000	1.0000e-07
 9.750	17.000	6.2980e-03
 9.750	17.250	6.8179e-03
 9.750	17.500	7.1682e-03
 9.750	17.750	7.4212e-03
 9.750	18.000	7.6004e-03
 9.750	18.250	7.6894e-03
 9.750	18.500	7.6701e-03
 9.750	18.750	7.5347e-03
 9.750	19.000	7.2695e-03
 9.750	19.250	7.1596e-03
 9.750	19.500	6.8092e-03
 9.750	19.750	7.6377e-03
 9.750	20.000	3.5407e-03
 9.750	20.250	1.3296e-03
 9.750	20.500	4.8379e-04
 9.750	20.750	2.2123e-04
 9.750	21.000	8.9877e-05
 9.750	21.250	2.2716e-05
 9.750	21.500	7.2428e-06
 9.750	21.750	2.0576e-06
 9.750	22.000	1.0000e-07
 9.750	22.250	1.0000e-07
 9.750	22.500	1.0000e-07
 9.750	22.750	1.0000e-07
 9.750	23.000	1.0000e-07
 9.750	23.250	1.0000e-07
 9.750	23.500	1.0000e-07
 9.750	23.750	1.0000e-07
 9.750	24.000	1.0000e-07
10.000	17.000	5.3558e-03
10.000	17.250	6.1455e-03
10.000	17.500	6.6966e-03
10.000	17.750	7.0618e-03
10.000	18.000	7.2927e-03
10.000	18.250	7.4255e-03
10.000	18.500	7.4278e-03
10.000	18.750	7.2832e-03
10.000	19.000	7.0007e-03
10.000	19.250	6.6320e-03
10.000	19.500	6.4311e-03
10.000	19.750	6.0821e-03
10.000	20.000	6.9598e-03
10.000	20.250	3.4783e-03
10.000	20.500	1.3128e-03
10.000	20.750	4.7449e-04
10.000	21.000	2.1893e-04
10.000	21.250	8.9877e-05
10.000	21.500	2.2963e-05
10.000	21.750	7.3251e-06
10.000	22.000	2.1399e-06
10.000	22.250	1.0000e-07
10.000	22.500	1.0000e-07
10.000	22.750	1.0000e-07
10.000	23.000	1.0000e-07
10.000	23.250	1.0000e-07
10.000	23.500	1.0000e-07
10.000	23.750	1.0000e-07
10.000	24.000	1.0000e-07
10.250	17.000	4.2814e-03
10.250	17.250	5.2497e-03
10.250	17.500	6.0841e-03
10.250	17.750	6.6577e-03
10.250	18.000	7.0061e-03
10.250	18.250	7.1975e-03
10.250	18.500	7.2285e-03
10.250	18.750	7.0933e-03
10.250	19.000	6.7876e-03
10.250	19.250	6.4020e-03
10.250	19.500	6.1510e-03
10.250	19.750	5.8592e-03
10.250	20.000	5.6516e-03
10.250	20.250	6.1973e-03
10.250	20.500	3.3705e-03
10.250	20.750	1.2973e-03
10.250	21.000	4.6543e-04
10.250	21.250	2.1679e-04
10.250	21.500	9.0206e-05
10.250	21.750	2.3374e-05
10.250	22.000	7.4897e-06
10.250	22.250	2.1399e-06
10.250	22.500	1.0000e-07
10.250	22.750	1.0000e-07
10.250	23.000	1.0000e-07
10.250	23.250	1.0000e-07
10.250	23.500	1.0000e-07
10.250	23.750	1.0000e-07
10.250	24.000	1.0000e-07
10.500	17.000	3.2392e-03
10.500	17.250	4.2145e-03
10.500	17.500	5.2703e-03
10.500	17.750	6.1583e-03
10.500	18.000	6.7143e-03
10.500	18.250	7.0036e-03
10.500	18.500	7.0839e-03
10.500	18.750	6.9695e-03
10.500	19.000	6.6586e-03
10.500	19.250	6.2260e-03
10.500	19.500	5.8481e-03
10.500	19.750	5.7279e-03
10.500	20.000	5.6537e-03
10.500	20.250	5.6570e-03
10.500	20.500	5.5578e-03
10.500	20.750	3.2128e-03
10.500	21.000	1.2816e-03
10.500	21.250	4.5712e-04
10.500	21.500	2.1465e-04
10.500	21.750	9.0617e-05
10.500	22.000	2.4033e-05
10.500	22.250	7.8189e-06
10.500	22.500	2.2222e-06
10.500	22.750	1.0000e-07
10.500	23.000	1.0000e-07
10.500	23.250	1.0000e-07
10.500	23.500	1.0000e-07
10.500	23.750	1.0000e-07
10.500	24.000	1.0000e-07
10.750	17.000	2.3705e-03
10.750	17.250	3.1784e-03
10.750	17.500	4.3073e-03
10.750	17.750	5.4705e-03
10.750	18.000	6.3226e-03
10.750	18.250	6.8240e-03
10.750	18.500	6.9832e-03
10.750	18.750	6.9091e-03
10.750	19.000	6.5994e-03
10.750	19.250	6.1482e-03
10.750	19.500	5.7289e-03
10.750	19.750	5.5269e-03
10.750	20.000	5.6837e-03
10.750	20.250	5.7842e-03
10.750	20.500	5.9240e-03
10.750	20.750	5.7484e-03
10.750	21.000	3.0494e-03
10.750	21.250	1.2574e-03
10.750	21.500	4.5136e-04
10.750	21.750	2.1210e-04
10.750	22.000	9.1111e-05
10.750	22.250	2.4856e-05
10.750	22.500	8.1481e-06
10.750	22.750	2.3045e-06
10.750	23.000	1.0000e-07
10.750	23.250	1.0000e-07
10.750	23.500	1.0000e-07
10.750	23.750	1.0000e-07
10.750	24.000	1.0000e-07
11.000	17.000	1.7051e-03
11.000	17.250	2.2832e-03
11.000	17.500	3.2408e-03
11.000	17.750	4.5790e-03
11.000	18.000	5.7648e-03
11.000	18.250	6.5398e-03
11.000	18.500	6.8945e-03
11.000	18.750	6.8998e-03
11.000	19.000	6.6033e-03
11.000	19.250	6.1340e-03
11.000	19.500	5.6733e-03
11.000	19.750	5.4566e-03
11.000	20.000	5.5615e-03
11.000	20.250	5.8788e-03
11.000	20.500	6.1532e-03
11.000	20.750	6.8016e-03
11.000	21.000	6.2947e-03
11.000	21.250	3.0085e-03
11.000	21.500	1.2284e-03
11.000	21.750	4.4642e-04
11.000	22.000	2.0872e-04
11.000	22.250	9.1276e-05
11.000	22.500	2.5761e-05
11.000	22.750	8.5597e-06
11.000	23.000	2.4691e-06
11.000	23.250	1.0000e-07
11.000	23.500	1.0000e-07
11.000	23.750	1.0000e-07
11.000	24.000	1.0000e-07
11.250	17.000	1.2092e-03
11.250	17.250	1.5895e-03
11.250	17.500	2.2675e-03
11.250	17.750	3.4645e-03
11.250	18.000	4.9026e-03
11.250	18.250	6.0577e-03
11.250	18.500	6.7121e-03
11.250	18.750	6.8987e-03
11.250	19.000	6.6641e-03
11.250	19.250	6.1841e-03
11.250	19.500	5.6685e-03
11.250	19.750	5.3987e-03
11.250	20.000	5.5267e-03
11.250	20.250	5.9114e-03
11.250	20.500	6.2768e-03
11.250	20.750	7.2208e-03
11.250	21.000	9.1495e-03
11.250	21.250	7.5679e-03
11.250	21.500	3.0551e-03
11.250	21.750	1.2064e-03
11.250	22.000	4.4436e-04
11.250	22.250	2.0576e-04
11.250	22.500	9.0617e-05
11.250	22.750	2.6584e-05
11.250	23.000	8.9712e-06
11.250	23.250	2.6337e-06
11.250	23.500	1.0000e-07
11.250	23.750	1.0000e-07
11.250	24.000	1.0000e-07
11.500	17.000	8.4486e-04
11.500	17.250	1.0854e-03
11.500	17.500	1.5072e-03
11.500	17.750	2.3446e-03
11.500	18.000	3.7296e-03
11.500	18.250	5.2500e-03
11.500	18.500	6.3483e-03
11.500	18.750	6.8323e-03
11.500	19.000	6.7496e-03
11.500	19.250	6.2704e-03
11.500	19.500	5.7253e-03
11.500	19.750	5.3723e-03
11.500	20.000	5.4658e-03
11.500	20.250	5.7999e-03
11.500	20.500	6.3984e-03
11.500	20.750	7.3837e-03
11.500	21.000	8.6387e-03
11.500	21.250	1.0481e-02
11.500	21.500	8.9958e-03
11.500	21.750	3.8741e-03
11.500	22.000	1.2408e-03
11.500	22.250	4.4757e-04
11.500	22.500	2.0436e-04
11.500	22.750	8.8971e-05
11.500	23.000	2.6996e-05
11.500	23.250	9.2181e-06
11.500	23.500	2.7160e-06
11.500	23.750	1.0000e-07
11.500	24.000	1.0000e-07
11.750	17.000	5.8288e-04
11.750	17.250	7.3177e-04
11.750	17.500	9.7992e-04
11.750	17.750	1.4853e-03
11.750	18.000	2.4984e-03
11.750	18.250	4.0809e-03
11.750	18.500	5.6760e-03
11.750	18.750	6.6114e-03
11.750	19.000	6.8171e-03
11.750	19.250	6.4470e-03
11.750	19.500	5.8113e-03
11.750	19.750	5.3990e-03
11.750	20.000	5.4081e-03
11.750	20.250	5.7849e-03
11.750	20.500	6.2549e-03
11.750	20.750	8.0593e-03
11.750	21.000	8.8911e-03
11.750	21.250	9.1638e-03
11.750	21.500	9.5925e-03
11.750	21.750	9.6192e-03
11.750	22.000	4.3091e-03
11.750	22.250	1.3953e-03
11.750	22.500	4.6387e-04
11.750	22.750	2.0642e-04
11.750	23.000	8.6667e-05
11.750	23.250	2.6831e-05
11.750	23.500	9.2181e-06
11.750	23.750	2.7160e-06
11.750	24.000	1.0000e-07
12.000	17.000	4.0354e-04
12.000	17.250	4.9391e-04
12.000	17.500	6.3531e-04
12.000	17.750	9.1942e-04
12.000	18.000	1.5374e-03
12.000	18.250	2.7856e-03
12.000	18.500	4.5868e-03
12.000	18.750	6.1500e-03
12.000	19.000	6.8078e-03
12.000	19.250	6.6808e-03
12.000	19.500	6.0676e-03
12.000	19.750	5.4010e-03
12.000	20.000	5.3984e-03
12.000	20.250	5.7745e-03
12.000	20.500	6.3296e-03
12.000	20.750	7.5515e-03
12.000	21.000	9.2968e-03
12.000	21.250	8.9685e-03
12.000	21.500	8.4699e-03
12.000	21.750	8.0344e-03
12.000	22.000	8.0844e-03
12.000	22.250	3.2555e-03
12.000	22.500	1.4826e-03
12.000	22.750	4.9901e-04
12.000	23.000	2.1605e-04
12.000	23.250	8.4774e-05
12.000	23.500	2.6173e-05
12.000	23.750	9.0535e-06
12.000	24.000	2.6337e-06
12.250	17.000	2.8025e-04
12.250	17.250	3.3778e-04
12.250	17.500	4.1934e-04
12.250	17.750	5.7531e-04
12.250	18.000	9.2033e-04
12.250	18.250	1.7254e-03
12.250	18.500	3.2915e-03
12.250	18.750	5.2356e-03
12.250	19.000	6.5545e-03
12.250	19.250	6.8821e-03
12.250	19.500	6.4504e-03
12.250	19.750	5.7368e-03
12.250	20.000	5.2495e-03
12.250	20.250	5.8066e-03
12.250	20.500	6.4407e-03
12.250	20.750	7.7361e-03
12.250	21.000	8.7419e-03
12.250	21.250	8.7816e-03
12.250	21.500	8.0326e-03
12.250	21.750	7.1330e-03
12.250	22.000	6.9960e-03
12.250	22.250	6.6927e-03
12.250	22.500	3.1206e-03
12.250	22.750	1.5625e-03
12.250	23.000	5.6551e-04
12.250	23.250	2.3786e-04
12.250	23.500	8.4774e-05
12.250	23.750	2.4938e-05
12.250	24.000	8.5597e-06
12.500	17.000	1.9556e-04
12.500	17.250	2.3416e-04
12.500	17.500	2.8453e-04
12.500	17.750	3.7062e-04
12.500	18.000	5.5630e-04
12.500	18.250	1.0134e-03
12.500	18.500	2.1044e-03
12.500	18.750	3.9699e-03
12.500	19.000	5.8792e-03
12.500	19.250	6.8557e-03
12.500	19.500	6.8116e-03
12.500	19.750	6.2598e-03
12.500	20.000	5.6481e-03
12.500	20.250	5.5037e-03
12.500	20.500	5.8755e-03
12.500	20.750	7.7100e-03
12.500	21.000	8.3604e-03
12.500	21.250	8.4634e-03
12.500	21.500	7.7993e-03
12.500	21.750	6.5467e-03
12.500	22.000	5.5248e-03
12.500	22.250	5.7542e-03
12.500	22.500	4.6790e-03
12.500	22.750	2.4361e-03
12.500	23.000	1.3965e-03
12.500	23.250	6.2724e-04
12.500	23.500	2.7407e-04
12.500	23.750	8.7572e-05
12.500	24.000	2.3210e-05
12.750	17.000	1.3712e-04
12.750	17.250	1.6469e-04
12.750	17.500	1.9745e-04
12.750	17.750	2.4872e-04
12.750	18.000	3.4897e-04
12.750	18.250	5.9144e-04
12.750	18.500	1.2232e-03
12.750	18.750	2.6350e-03
12.750	19.000	4.6200e-03
12.750	19.250	6.3541e-03
12.750	19.500	6.9826e-03
12.750	19.750	6.7251e-03
12.750	20.000	6.1029e-03
12.750	20.250	6.0297e-03
12.750	20.500	6.1851e-03
12.750	20.750	6.7556e-03
12.750	21.000	7.5594e-03
12.750	21.250	7.9347e-03
12.750	21.500	7.7878e-03
12.750	21.750	6.1439e-03
12.750	22.000	4.9918e-03
12.750	22.250	4.2261e-03
12.750	22.500	4.0735e-03
12.750	22.750	2.8179e-03
12.750	23.000	1.7175e-03
12.750	23.250	1.1211e-03
12.750	23.500	5.9852e-04
12.750	23.750	2.8354e-04
12.750	24.000	9.1276e-05
13.000	17.000	9.6461e-05
13.000	17.250	1.1671e-04
13.000	17.500	1.3942e-04
13.000	17.750	1.7210e-04
13.000	18.000	2.3037e-04
13.000	18.250	3.5860e-04
13.000	18.500	6.9243e-04
13.000	18.750	1.5099e-03
13.000	19.000	3.0867e-03
13.000	19.250	5.0618e-03
13.000	19.500	6.6370e-03
13.000	19.750	7.1488e-03
13.000	20.000	6.7865e-03
13.000	20.250	6.4216e-03
13.000	20.500	6.6243e-03
13.000	20.750	7.2939e-03
13.000	21.000	7.6864e-03
13.000	21.250	7.4672e-03
13.000	21.500	6.4881e-03
13.000	21.750	7.0469e-03
13.000	22.000	5.5063e-03
13.000	22.250	3.7649e-03
13.000	22.500	2.8740e-03
13.000	22.750	3.0819e-03
13.000	23.000	1.9868e-03
13.000	23.250	1.5593e-03
13.000	23.500	8.2123e-04
13.000	23.750	5.1926e-04
13.000	24.000	2.7506e-04
13.250	17.000	6.7654e-05
13.250	17.250	8.3128e-05
13.250	17.500	9.9671e-05
13.250	17.750	1.2189e-04
13.250	18.000	1.5860e-04
13.250	18.250	2.3086e-04
13.250	18.500	4.0016e-04
13.250	18.750	8.1457e-04
13.250	19.000	1.6946e-03
13.250	19.250	3.1793e-03
13.250	19.500	5.0542e-03
13.250	19.750	6.5233e-03
13.250	20.000	7.1687e-03
13.250	20.250	7.1279e-03
13.250	20.500	6.9851e-03
13.250	20.750	7.5928e-03
13.250	21.000	8.3273e-03
13.250	21.250	7.8498e-03
13.250	21.500	6.9388e-03
13.250	21.750	5.5206e-03
13.250	22.000	6.7864e-03
13.250	22.250	3.8606e-03
13.250	22.500	3.1360e-03
13.250	22.750	1.9632e-03
13.250	23.000	2.0807e-03
13.250	23.250	1.5458e-03
13.250	23.500	9.4412e-04
13.250	23.750	6.0469e-04
13.250	24.000	4.0840e-04
13.500	17.000	4.7243e-05
13.500	17.250	5.9177e-05
13.500	17.500	7.1687e-05
13.500	17.750	8.7490e-05
13.500	18.000	1.1185e-04
13.500	18.250	1.5613e-04
13.500	18.500	2.4444e-04
13.500	18.750	4.3737e-04
13.500	19.000	8.5021e-04
13.500	19.250	1.5998e-03
13.500	19.500	2.7830e-03
13.500	19.750	4.2756e-03
13.500	20.000	5.5360e-03
13.500	20.250	6.9821e-03
13.500	20.500	7.0029e-03
13.500	20.750	7.1059e-03
13.500	21.000	7.3885e-03
13.500	21.250	7.9939e-03
13.500	21.500	6.7615e-03
13.500	21.750	5.6599e-03
13.500	22.000	4.4661e-03
13.500	22.250	4.4093e-03
13.500	22.500	5.4058e-03
13.500	22.750	3.5054e-03
13.500	23.000	1.5615e-03
13.500	23.250	1.7317e-03
13.500	23.500	1.2422e-03
13.500	23.750	7.4551e-04
13.500	24.000	4.5942e-04
13.750	17.000	3.2757e-05
13.750	17.250	4.1975e-05
13.750	17.500	5.1687e-05
13.750	17.750	6.3210e-05
13.750	18.000	8.0000e-05
13.750	18.250	1.0790e-04
13.750	18.500	1.5753e-04
13.750	18.750	2.4716e-04
13.750	19.000	4.1218e-04
13.750	19.250	7.0807e-04
13.750	19.500	1.1929e-03
13.750	19.750	1.9150e-03
13.750	20.000	2.8867e-03
13.750	20.250	3.6923e-03
13.750	20.500	4.6281e-03
13.750	20.750	5.3087e-03
13.750	21.000	5.6556e-03
13.750	21.250	5.4923e-03
13.750	21.500	5.8151e-03
13.750	21.750	5.3604e-03
13.750	22.000	4.4395e-03
13.750	22.250	3.5873e-03
13.750	22.500	6.0427e-03
13.750	22.750	2.4998e-03
13.750	23.000	3.5310e-03
13.750	23.250	1.2075e-03
13.750	23.500	1.3022e-03
13.750	23.750	9.8321e-04
13.750	24.000	4.4313e-04
14.000	17.000	2.2469e-05
14.000	17.250	2.9547e-05
14.000	17.500	3.7119e-05
14.000	17.750	4.5844e-05
14.000	18.000	5.7531e-05
14.000	18.250	7.5226e-05
14.000	18.500	1.0296e-04
14.000	18.750	1.4510e-04
14.000	19.000	2.1070e-04
14.000	19.250	3.1070e-04
14.000	19.500	4.6790e-04
14.000	19.750	7.0412e-04
14.000	20.000	1.0384e-03
14.000	20.250	1.4748e-03
14.000	20.500	1.9374e-03
14.000	20.750	2.3087e-03
14.000	21.000	2.7218e-03
14.000	21.250	3.3123e-03
14.000	21.500	3.1607e-03
14.000	21.750	3.5384e-03
14.000	22.000	3.8317e-03
14.000	22.250	3.6757e-03
14.000	22.500	3.2482e-03
14.000	22.750	4.6909e-03
14.000	23.000	6.1590e-03
14.000	23.250	2.6489e-03
14.000	23.500	1.2987e-03
14.000	23.750	1.1216e-03
14.000	24.000	8.3852e-04
