nFnu 7500.00A  relative to Inci 1215.00A scaled to 1215A.
Hden   Phi(H)  Eq_Width (A)
 7.000	17.000	2.5509e-02
 7.000	17.250	1.4830e-02
 7.000	17.500	9.5272e-03
 7.000	17.750	6.9465e-03
 7.000	18.000	5.7464e-03
 7.000	18.250	5.1020e-03
 7.000	18.500	4.7447e-03
 7.000	18.750	4.5929e-03
 7.000	19.000	4.5156e-03
 7.000	19.250	4.4732e-03
 7.000	19.500	4.4565e-03
 7.000	19.750	4.4500e-03
 7.000	20.000	4.4472e-03
 7.000	20.250	4.4458e-03
 7.000	20.500	4.4453e-03
 7.000	20.750	4.4449e-03
 7.000	21.000	4.4448e-03
 7.000	21.250	4.4447e-03
 7.000	21.500	4.4446e-03
 7.000	21.750	4.4445e-03
 7.000	22.000	4.4445e-03
 7.000	22.250	4.4446e-03
 7.000	22.500	4.4445e-03
 7.000	22.750	4.4450e-03
 7.000	23.000	4.4450e-03
 7.000	23.250	4.4446e-03
 7.000	23.500	4.4449e-03
 7.000	23.750	4.4449e-03
 7.000	24.000	4.4452e-03
 7.250	17.000	4.4849e-02
 7.250	17.250	2.5467e-02
 7.250	17.500	1.4814e-02
 7.250	17.750	9.5187e-03
 7.250	18.000	6.9440e-03
 7.250	18.250	5.7458e-03
 7.250	18.500	5.1018e-03
 7.250	18.750	4.7447e-03
 7.250	19.000	4.5929e-03
 7.250	19.250	4.5156e-03
 7.250	19.500	4.4732e-03
 7.250	19.750	4.4565e-03
 7.250	20.000	4.4500e-03
 7.250	20.250	4.4472e-03
 7.250	20.500	4.4458e-03
 7.250	20.750	4.4452e-03
 7.250	21.000	4.4449e-03
 7.250	21.250	4.4447e-03
 7.250	21.500	4.4446e-03
 7.250	21.750	4.4447e-03
 7.250	22.000	4.4445e-03
 7.250	22.250	4.4445e-03
 7.250	22.500	4.4445e-03
 7.250	22.750	4.4445e-03
 7.250	23.000	4.4445e-03
 7.250	23.250	4.4445e-03
 7.250	23.500	4.4445e-03
 7.250	23.750	4.4445e-03
 7.250	24.000	4.4445e-03
 7.500	17.000	7.3663e-02
 7.500	17.250	4.4691e-02
 7.500	17.500	2.5435e-02
 7.500	17.750	1.4802e-02
 7.500	18.000	9.5095e-03
 7.500	18.250	6.9407e-03
 7.500	18.500	5.7450e-03
 7.500	18.750	5.1016e-03
 7.500	19.000	4.7446e-03
 7.500	19.250	4.5929e-03
 7.500	19.500	4.5156e-03
 7.500	19.750	4.4732e-03
 7.500	20.000	4.4565e-03
 7.500	20.250	4.4500e-03
 7.500	20.500	4.4472e-03
 7.500	20.750	4.4458e-03
 7.500	21.000	4.4452e-03
 7.500	21.250	4.4449e-03
 7.500	21.500	4.4447e-03
 7.500	21.750	4.4446e-03
 7.500	22.000	4.4445e-03
 7.500	22.250	4.4445e-03
 7.500	22.500	4.4445e-03
 7.500	22.750	4.4445e-03
 7.500	23.000	4.4445e-03
 7.500	23.250	4.4445e-03
 7.500	23.500	4.4450e-03
 7.500	23.750	4.4445e-03
 7.500	24.000	4.4445e-03
 7.750	17.000	8.4561e-02
 7.750	17.250	7.3640e-02
 7.750	17.500	4.4569e-02
 7.750	17.750	2.5415e-02
 7.750	18.000	1.4793e-02
 7.750	18.250	9.4996e-03
 7.750	18.500	6.9369e-03
 7.750	18.750	5.7440e-03
 7.750	19.000	5.1015e-03
 7.750	19.250	4.7446e-03
 7.750	19.500	4.5929e-03
 7.750	19.750	4.5156e-03
 7.750	20.000	4.4732e-03
 7.750	20.250	4.4565e-03
 7.750	20.500	4.4500e-03
 7.750	20.750	4.4472e-03
 7.750	21.000	4.4458e-03
 7.750	21.250	4.4452e-03
 7.750	21.500	4.4449e-03
 7.750	21.750	4.4447e-03
 7.750	22.000	4.4446e-03
 7.750	22.250	4.4445e-03
 7.750	22.500	4.4445e-03
 7.750	22.750	4.4445e-03
 7.750	23.000	4.4445e-03
 7.750	23.250	4.4445e-03
 7.750	23.500	4.4445e-03
 7.750	23.750	4.4445e-03
 7.750	24.000	4.4445e-03
 8.000	17.000	9.1646e-02
 8.000	17.250	8.3893e-02
 8.000	17.500	7.2895e-02
 8.000	17.750	4.4462e-02
 8.000	18.000	2.5401e-02
 8.000	18.250	1.4785e-02
 8.000	18.500	9.4888e-03
 8.000	18.750	6.9324e-03
 8.000	19.000	5.7429e-03
 8.000	19.250	5.1013e-03
 8.000	19.500	4.7445e-03
 8.000	19.750	4.5929e-03
 8.000	20.000	4.5156e-03
 8.000	20.250	4.4732e-03
 8.000	20.500	4.4565e-03
 8.000	20.750	4.4500e-03
 8.000	21.000	4.4472e-03
 8.000	21.250	4.4458e-03
 8.000	21.500	4.4452e-03
 8.000	21.750	4.4449e-03
 8.000	22.000	4.4447e-03
 8.000	22.250	4.4445e-03
 8.000	22.500	4.4445e-03
 8.000	22.750	4.4445e-03
 8.000	23.000	4.4444e-03
 8.000	23.250	4.4444e-03
 8.000	23.500	4.4444e-03
 8.000	23.750	4.4444e-03
 8.000	24.000	4.4445e-03
 8.250	17.000	9.7848e-02
 8.250	17.250	9.2557e-02
 8.250	17.500	8.4331e-02
 8.250	17.750	7.2880e-02
 8.250	18.000	4.4402e-02
 8.250	18.250	2.5398e-02
 8.250	18.500	1.4778e-02
 8.250	18.750	9.4772e-03
 8.250	19.000	6.9274e-03
 8.250	19.250	5.7415e-03
 8.250	19.500	5.1012e-03
 8.250	19.750	4.7444e-03
 8.250	20.000	4.5929e-03
 8.250	20.250	4.5156e-03
 8.250	20.500	4.4732e-03
 8.250	20.750	4.4565e-03
 8.250	21.000	4.4500e-03
 8.250	21.250	4.4472e-03
 8.250	21.500	4.4458e-03
 8.250	21.750	4.4452e-03
 8.250	22.000	4.4449e-03
 8.250	22.250	4.4447e-03
 8.250	22.500	4.4445e-03
 8.250	22.750	4.4447e-03
 8.250	23.000	4.4444e-03
 8.250	23.250	4.4445e-03
 8.250	23.500	4.4447e-03
 8.250	23.750	4.4444e-03
 8.250	24.000	4.4445e-03
 8.500	17.000	1.0316e-01
 8.500	17.250	9.9170e-02
 8.500	17.500	9.3768e-02
 8.500	17.750	8.4981e-02
 8.500	18.000	7.2967e-02
 8.500	18.250	4.4362e-02
 8.500	18.500	2.5402e-02
 8.500	18.750	1.4772e-02
 8.500	19.000	9.4640e-03
 8.500	19.250	6.9218e-03
 8.500	19.500	5.7400e-03
 8.500	19.750	5.1008e-03
 8.500	20.000	4.7444e-03
 8.500	20.250	4.5928e-03
 8.500	20.500	4.5156e-03
 8.500	20.750	4.4732e-03
 8.500	21.000	4.4565e-03
 8.500	21.250	4.4500e-03
 8.500	21.500	4.4472e-03
 8.500	21.750	4.4458e-03
 8.500	22.000	4.4452e-03
 8.500	22.250	4.4449e-03
 8.500	22.500	4.4447e-03
 8.500	22.750	4.4445e-03
 8.500	23.000	4.4445e-03
 8.500	23.250	4.4444e-03
 8.500	23.500	4.4444e-03
 8.500	23.750	4.4444e-03
 8.500	24.000	4.4444e-03
 8.750	17.000	1.0769e-01
 8.750	17.250	1.0488e-01
 8.750	17.500	1.0118e-01
 8.750	17.750	9.5856e-02
 8.750	18.000	8.6436e-02
 8.750	18.250	7.3429e-02
 8.750	18.500	4.4337e-02
 8.750	18.750	2.5414e-02
 8.750	19.000	1.4767e-02
 8.750	19.250	9.4501e-03
 8.750	19.500	6.9156e-03
 8.750	19.750	5.7384e-03
 8.750	20.000	5.1006e-03
 8.750	20.250	4.7444e-03
 8.750	20.500	4.5928e-03
 8.750	20.750	4.5156e-03
 8.750	21.000	4.4732e-03
 8.750	21.250	4.4565e-03
 8.750	21.500	4.4500e-03
 8.750	21.750	4.4472e-03
 8.750	22.000	4.4458e-03
 8.750	22.250	4.4452e-03
 8.750	22.500	4.4449e-03
 8.750	22.750	4.4447e-03
 8.750	23.000	4.4445e-03
 8.750	23.250	4.4445e-03
 8.750	23.500	4.4445e-03
 8.750	23.750	4.4444e-03
 8.750	24.000	4.4444e-03
 9.000	17.000	1.1140e-01
 9.000	17.250	1.0984e-01
 9.000	17.500	1.0783e-01
 9.000	17.750	1.0501e-01
 9.000	18.000	9.9787e-02
 9.000	18.250	8.9537e-02
 9.000	18.500	7.4418e-02
 9.000	18.750	4.4315e-02
 9.000	19.000	2.5431e-02
 9.000	19.250	1.4764e-02
 9.000	19.500	9.4362e-03
 9.000	19.750	6.9091e-03
 9.000	20.000	5.7368e-03
 9.000	20.250	5.1003e-03
 9.000	20.500	4.7443e-03
 9.000	20.750	4.5928e-03
 9.000	21.000	4.5156e-03
 9.000	21.250	4.4732e-03
 9.000	21.500	4.4565e-03
 9.000	21.750	4.4500e-03
 9.000	22.000	4.4471e-03
 9.000	22.250	4.4458e-03
 9.000	22.500	4.4452e-03
 9.000	22.750	4.4449e-03
 9.000	23.000	4.4447e-03
 9.000	23.250	4.4445e-03
 9.000	23.500	4.4445e-03
 9.000	23.750	4.4444e-03
 9.000	24.000	4.4444e-03
 9.250	17.000	1.1427e-01
 9.250	17.250	1.1395e-01
 9.250	17.500	1.1395e-01
 9.250	17.750	1.1406e-01
 9.250	18.000	1.1296e-01
 9.250	18.250	1.0807e-01
 9.250	18.500	9.5989e-02
 9.250	18.750	7.6868e-02
 9.250	19.000	4.4289e-02
 9.250	19.250	2.5454e-02
 9.250	19.500	1.4765e-02
 9.250	19.750	9.4240e-03
 9.250	20.000	6.9030e-03
 9.250	20.250	5.7352e-03
 9.250	20.500	5.1000e-03
 9.250	20.750	4.7442e-03
 9.250	21.000	4.5928e-03
 9.250	21.250	4.5156e-03
 9.250	21.500	4.4728e-03
 9.250	21.750	4.4561e-03
 9.250	22.000	4.4494e-03
 9.250	22.250	4.4467e-03
 9.250	22.500	4.4456e-03
 9.250	22.750	4.4450e-03
 9.250	23.000	4.4448e-03
 9.250	23.250	4.4446e-03
 9.250	23.500	4.4445e-03
 9.250	23.750	4.4445e-03
 9.250	24.000	4.4444e-03
 9.500	17.000	1.1674e-01
 9.500	17.250	1.1770e-01
 9.500	17.500	1.1967e-01
 9.500	17.750	1.2312e-01
 9.500	18.000	1.2709e-01
 9.500	18.250	1.2927e-01
 9.500	18.500	1.2418e-01
 9.500	18.750	1.0838e-01
 9.500	19.000	7.7038e-02
 9.500	19.250	4.4249e-02
 9.500	19.500	2.5477e-02
 9.500	19.750	1.4771e-02
 9.500	20.000	9.4148e-03
 9.500	20.250	6.8976e-03
 9.500	20.500	5.7340e-03
 9.500	20.750	5.0997e-03
 9.500	21.000	4.7436e-03
 9.500	21.250	4.5924e-03
 9.500	21.500	4.5151e-03
 9.500	21.750	4.4724e-03
 9.500	22.000	4.4558e-03
 9.500	22.250	4.4491e-03
 9.500	22.500	4.4463e-03
 9.500	22.750	4.4450e-03
 9.500	23.000	4.4444e-03
 9.500	23.250	4.4440e-03
 9.500	23.500	4.4439e-03
 9.500	23.750	4.4438e-03
 9.500	24.000	4.4437e-03
 9.750	17.000	1.1856e-01
 9.750	17.250	1.2079e-01
 9.750	17.500	1.2498e-01
 9.750	17.750	1.3244e-01
 9.750	18.000	1.4362e-01
 9.750	18.250	1.5396e-01
 9.750	18.500	1.5719e-01
 9.750	18.750	1.4728e-01
 9.750	19.000	1.2522e-01
 9.750	19.250	7.7505e-02
 9.750	19.500	4.4216e-02
 9.750	19.750	2.5500e-02
 9.750	20.000	1.4781e-02
 9.750	20.250	9.4098e-03
 9.750	20.500	6.8934e-03
 9.750	20.750	5.7330e-03
 9.750	21.000	5.0995e-03
 9.750	21.250	4.7435e-03
 9.750	21.500	4.5924e-03
 9.750	21.750	4.5151e-03
 9.750	22.000	4.4725e-03
 9.750	22.250	4.4558e-03
 9.750	22.500	4.4492e-03
 9.750	22.750	4.4463e-03
 9.750	23.000	4.4451e-03
 9.750	23.250	4.4444e-03
 9.750	23.500	4.4441e-03
 9.750	23.750	4.4439e-03
 9.750	24.000	4.4438e-03
10.000	17.000	1.1961e-01
10.000	17.250	1.2379e-01
10.000	17.500	1.3065e-01
10.000	17.750	1.4304e-01
10.000	18.000	1.6291e-01
10.000	18.250	1.8227e-01
10.000	18.500	1.9417e-01
10.000	18.750	1.9229e-01
10.000	19.000	1.7552e-01
10.000	19.250	1.3386e-01
10.000	19.500	7.7764e-02
10.000	19.750	4.4082e-02
10.000	20.000	2.5510e-02
10.000	20.250	1.4792e-02
10.000	20.500	9.4075e-03
10.000	20.750	6.8902e-03
10.000	21.000	5.7324e-03
10.000	21.250	5.0994e-03
10.000	21.500	4.7435e-03
10.000	21.750	4.5924e-03
10.000	22.000	4.5151e-03
10.000	22.250	4.4726e-03
10.000	22.500	4.4558e-03
10.000	22.750	4.4492e-03
10.000	23.000	4.4463e-03
10.000	23.250	4.4450e-03
10.000	23.500	4.4444e-03
10.000	23.750	4.4441e-03
10.000	24.000	4.4439e-03
10.250	17.000	1.2128e-01
10.250	17.250	1.2688e-01
10.250	17.500	1.3771e-01
10.250	17.750	1.5680e-01
10.250	18.000	1.8564e-01
10.250	18.250	2.1390e-01
10.250	18.500	2.3362e-01
10.250	18.750	2.4119e-01
10.250	19.000	2.3278e-01
10.250	19.250	2.0657e-01
10.250	19.500	1.3988e-01
10.250	19.750	7.7659e-02
10.250	20.000	4.3957e-02
10.250	20.250	2.5496e-02
10.250	20.500	1.4802e-02
10.250	20.750	9.4085e-03
10.250	21.000	6.8883e-03
10.250	21.250	5.7323e-03
10.250	21.500	5.0993e-03
10.250	21.750	4.7437e-03
10.250	22.000	4.5925e-03
10.250	22.250	4.5151e-03
10.250	22.500	4.4727e-03
10.250	22.750	4.4559e-03
10.250	23.000	4.4491e-03
10.250	23.250	4.4464e-03
10.250	23.500	4.4451e-03
10.250	23.750	4.4444e-03
10.250	24.000	4.4441e-03
10.500	17.000	1.2423e-01
10.500	17.250	1.3192e-01
10.500	17.500	1.4748e-01
10.500	17.750	1.7544e-01
10.500	18.000	2.1304e-01
10.500	18.250	2.4973e-01
10.500	18.500	2.7447e-01
10.500	18.750	2.8827e-01
10.500	19.000	2.8774e-01
10.500	19.250	2.7004e-01
10.500	19.500	2.2946e-01
10.500	19.750	1.3961e-01
10.500	20.000	7.6931e-02
10.500	20.250	4.3629e-02
10.500	20.500	2.5423e-02
10.500	20.750	1.4804e-02
10.500	21.000	9.4117e-03
10.500	21.250	6.8876e-03
10.500	21.500	5.7328e-03
10.500	21.750	5.0993e-03
10.500	22.000	4.7436e-03
10.500	22.250	4.5927e-03
10.500	22.500	4.5152e-03
10.500	22.750	4.4727e-03
10.500	23.000	4.4560e-03
10.500	23.250	4.4492e-03
10.500	23.500	4.4463e-03
10.500	23.750	4.4451e-03
10.500	24.000	4.4444e-03
10.750	17.000	1.2866e-01
10.750	17.250	1.3911e-01
10.750	17.500	1.6190e-01
10.750	17.750	1.9930e-01
10.750	18.000	2.4462e-01
10.750	18.250	2.8568e-01
10.750	18.500	3.1559e-01
10.750	18.750	3.3490e-01
10.750	19.000	3.3953e-01
10.750	19.250	3.3072e-01
10.750	19.500	3.0507e-01
10.750	19.750	2.5235e-01
10.750	20.000	1.3945e-01
10.750	20.250	7.5127e-02
10.750	20.500	4.2938e-02
10.750	20.750	2.5266e-02
10.750	21.000	1.4789e-02
10.750	21.250	9.4156e-03
10.750	21.500	6.8881e-03
10.750	21.750	5.7335e-03
10.750	22.000	5.0993e-03
10.750	22.250	4.7435e-03
10.750	22.500	4.5928e-03
10.750	22.750	4.5153e-03
10.750	23.000	4.4728e-03
10.750	23.250	4.4560e-03
10.750	23.500	4.4494e-03
10.750	23.750	4.4464e-03
10.750	24.000	4.4451e-03
11.000	17.000	1.3481e-01
11.000	17.250	1.4833e-01
11.000	17.500	1.7948e-01
11.000	17.750	2.2673e-01
11.000	18.000	2.7743e-01
11.000	18.250	3.2204e-01
11.000	18.500	3.5707e-01
11.000	18.750	3.8024e-01
11.000	19.000	3.9041e-01
11.000	19.250	3.8848e-01
11.000	19.500	3.7368e-01
11.000	19.750	3.4381e-01
11.000	20.000	2.7273e-01
11.000	20.250	1.3694e-01
11.000	20.500	7.4437e-02
11.000	20.750	4.2261e-02
11.000	21.000	2.5007e-02
11.000	21.250	1.4740e-02
11.000	21.500	9.4184e-03
11.000	21.750	6.8897e-03
11.000	22.000	5.7347e-03
11.000	22.250	5.0995e-03
11.000	22.500	4.7434e-03
11.000	22.750	4.5928e-03
11.000	23.000	4.5155e-03
11.000	23.250	4.4728e-03
11.000	23.500	4.4561e-03
11.000	23.750	4.4494e-03
11.000	24.000	4.4465e-03
11.250	17.000	1.4308e-01
11.250	17.250	1.5885e-01
11.250	17.500	1.9761e-01
11.250	17.750	2.5370e-01
11.250	18.000	3.0999e-01
11.250	18.250	3.5754e-01
11.250	18.500	3.9451e-01
11.250	18.750	4.2339e-01
11.250	19.000	4.3863e-01
11.250	19.250	4.4401e-01
11.250	19.500	4.3720e-01
11.250	19.750	4.1825e-01
11.250	20.000	3.8444e-01
11.250	20.250	2.7573e-01
11.250	20.500	1.3585e-01
11.250	20.750	7.2666e-02
11.250	21.000	4.1448e-02
11.250	21.250	2.4646e-02
11.250	21.500	1.4650e-02
11.250	21.750	9.4154e-03
11.250	22.000	6.8919e-03
11.250	22.250	5.7360e-03
11.250	22.500	5.0997e-03
11.250	22.750	4.7432e-03
11.250	23.000	4.5928e-03
11.250	23.250	4.5156e-03
11.250	23.500	4.4728e-03
11.250	23.750	4.4561e-03
11.250	24.000	4.4495e-03
11.500	17.000	1.5459e-01
11.500	17.250	1.7139e-01
11.500	17.500	2.1481e-01
11.500	17.750	2.7733e-01
11.500	18.000	3.3920e-01
11.500	18.250	3.8976e-01
11.500	18.500	4.3045e-01
11.500	18.750	4.6316e-01
11.500	19.000	4.8468e-01
11.500	19.250	4.9468e-01
11.500	19.500	4.9286e-01
11.500	19.750	4.8272e-01
11.500	20.000	4.6143e-01
11.500	20.250	4.2544e-01
11.500	20.500	2.7780e-01
11.500	20.750	1.3380e-01
11.500	21.000	7.1172e-02
11.500	21.250	4.0794e-02
11.500	21.500	2.4218e-02
11.500	21.750	1.4510e-02
11.500	22.000	9.4026e-03
11.500	22.250	6.8943e-03
11.500	22.500	5.7373e-03
11.500	22.750	5.0998e-03
11.500	23.000	4.7429e-03
11.500	23.250	4.5926e-03
11.500	23.500	4.5156e-03
11.500	23.750	4.4730e-03
11.500	24.000	4.4561e-03
11.750	17.000	1.7038e-01
11.750	17.250	1.8623e-01
11.750	17.500	2.3095e-01
11.750	17.750	2.9653e-01
11.750	18.000	3.6215e-01
11.750	18.250	4.1745e-01
11.750	18.500	4.6303e-01
11.750	18.750	4.9831e-01
11.750	19.000	5.2552e-01
11.750	19.250	5.4012e-01
11.750	19.500	5.4474e-01
11.750	19.750	5.3806e-01
11.750	20.000	5.2456e-01
11.750	20.250	5.0084e-01
11.750	20.500	4.6198e-01
11.750	20.750	2.7871e-01
11.750	21.000	1.3153e-01
11.750	21.250	6.9746e-02
11.750	21.500	4.0652e-02
11.750	21.750	2.3773e-02
11.750	22.000	1.4324e-02
11.750	22.250	9.3759e-03
11.750	22.500	6.8963e-03
11.750	22.750	5.7384e-03
11.750	23.000	5.0998e-03
11.750	23.250	4.7424e-03
11.750	23.500	4.5924e-03
11.750	23.750	4.5156e-03
11.750	24.000	4.4731e-03
12.000	17.000	1.9203e-01
12.000	17.250	2.0425e-01
12.000	17.500	2.4601e-01
12.000	17.750	3.1003e-01
12.000	18.000	3.7764e-01
12.000	18.250	4.3887e-01
12.000	18.500	4.9044e-01
12.000	18.750	5.3187e-01
12.000	19.000	5.6274e-01
12.000	19.250	5.8112e-01
12.000	19.500	5.8912e-01
12.000	19.750	5.8644e-01
12.000	20.000	5.7603e-01
12.000	20.250	5.5873e-01
12.000	20.500	5.3252e-01
12.000	20.750	4.8660e-01
12.000	21.000	2.7601e-01
12.000	21.250	1.2999e-01
12.000	21.500	6.9160e-02
12.000	21.750	4.0795e-02
12.000	22.000	2.3316e-02
12.000	22.250	1.4182e-02
12.000	22.500	9.3336e-03
12.000	22.750	6.8974e-03
12.000	23.000	5.7388e-03
12.000	23.250	5.0997e-03
12.000	23.500	4.7417e-03
12.000	23.750	4.5922e-03
12.000	24.000	4.5155e-03
12.250	17.000	2.2064e-01
12.250	17.250	2.2612e-01
12.250	17.500	2.6024e-01
12.250	17.750	3.1823e-01
12.250	18.000	3.8608e-01
12.250	18.250	4.5309e-01
12.250	18.500	5.1268e-01
12.250	18.750	5.6095e-01
12.250	19.000	5.9541e-01
12.250	19.250	6.1589e-01
12.250	19.500	6.2566e-01
12.250	19.750	6.2623e-01
12.250	20.000	6.1738e-01
12.250	20.250	6.0329e-01
12.250	20.500	5.8416e-01
12.250	20.750	5.5683e-01
12.250	21.000	4.9793e-01
12.250	21.250	2.7015e-01
12.250	21.500	1.2922e-01
12.250	21.750	6.8687e-02
12.250	22.000	4.0309e-02
12.250	22.250	2.2890e-02
12.250	22.500	1.3983e-02
12.250	22.750	9.2781e-03
12.250	23.000	6.8960e-03
12.250	23.250	5.7386e-03
12.250	23.500	5.0990e-03
12.250	23.750	4.7408e-03
12.250	24.000	4.5918e-03
12.500	17.000	2.5280e-01
12.500	17.250	2.5021e-01
12.500	17.500	2.7387e-01
12.500	17.750	3.2330e-01
12.500	18.000	3.9016e-01
12.500	18.250	4.6086e-01
12.500	18.500	5.2744e-01
12.500	18.750	5.8223e-01
12.500	19.000	6.2239e-01
12.500	19.250	6.4511e-01
12.500	19.500	6.5529e-01
12.500	19.750	6.5702e-01
12.500	20.000	6.5088e-01
12.500	20.250	6.3797e-01
12.500	20.500	6.2134e-01
12.500	20.750	6.0097e-01
12.500	21.000	5.7250e-01
12.500	21.250	5.1554e-01
12.500	21.500	2.6449e-01
12.500	21.750	1.2649e-01
12.500	22.000	6.8799e-02
12.500	22.250	3.9249e-02
12.500	22.500	2.2470e-02
12.500	22.750	1.3726e-02
12.500	23.000	9.2102e-03
12.500	23.250	6.8911e-03
12.500	23.500	5.7371e-03
12.500	23.750	5.0978e-03
12.500	24.000	4.7396e-03
12.750	17.000	2.7056e-01
12.750	17.250	2.6571e-01
12.750	17.500	2.8393e-01
12.750	17.750	3.3015e-01
12.750	18.000	3.9364e-01
12.750	18.250	4.6499e-01
12.750	18.500	5.3420e-01
12.750	18.750	5.9523e-01
12.750	19.000	6.4038e-01
12.750	19.250	6.6764e-01
12.750	19.500	6.7774e-01
12.750	19.750	6.7939e-01
12.750	20.000	6.7442e-01
12.750	20.250	6.6535e-01
12.750	20.500	6.4758e-01
12.750	20.750	6.3171e-01
12.750	21.000	6.1133e-01
12.750	21.250	5.8384e-01
12.750	21.500	4.9502e-01
12.750	21.750	2.5366e-01
12.750	22.000	1.2398e-01
12.750	22.250	6.8771e-02
12.750	22.500	3.8257e-02
12.750	22.750	2.2024e-02
12.750	23.000	1.3508e-02
12.750	23.250	9.1346e-03
12.750	23.500	6.8803e-03
12.750	23.750	5.7332e-03
12.750	24.000	5.0953e-03
13.000	17.000	1.8640e-01
13.000	17.250	2.2616e-01
13.000	17.500	2.9822e-01
13.000	17.750	3.4158e-01
13.000	18.000	4.0002e-01
13.000	18.250	4.6848e-01
13.000	18.500	5.3806e-01
13.000	18.750	6.0041e-01
13.000	19.000	6.4931e-01
13.000	19.250	6.8109e-01
13.000	19.500	6.9515e-01
13.000	19.750	6.9635e-01
13.000	20.000	6.9051e-01
13.000	20.250	6.8180e-01
13.000	20.500	6.7007e-01
13.000	20.750	6.5511e-01
13.000	21.000	6.3839e-01
13.000	21.250	6.2057e-01
13.000	21.500	5.8190e-01
13.000	21.750	4.6777e-01
13.000	22.000	2.4123e-01
13.000	22.250	1.2078e-01
13.000	22.500	6.7825e-02
13.000	22.750	3.7212e-02
13.000	23.000	2.1405e-02
13.000	23.250	1.3366e-02
13.000	23.500	9.0475e-03
13.000	23.750	6.8610e-03
13.000	24.000	5.7244e-03
13.250	17.000	1.8308e-01
13.250	17.250	2.1796e-01
13.250	17.500	2.8788e-01
13.250	17.750	3.5326e-01
13.250	18.000	4.1006e-01
13.250	18.250	4.7442e-01
13.250	18.500	5.4166e-01
13.250	18.750	6.0325e-01
13.250	19.000	6.5333e-01
13.250	19.250	6.8677e-01
13.250	19.500	7.0450e-01
13.250	19.750	7.0858e-01
13.250	20.000	7.0390e-01
13.250	20.250	6.9519e-01
13.250	20.500	6.8389e-01
13.250	20.750	6.7087e-01
13.250	21.000	6.5889e-01
13.250	21.250	6.4185e-01
13.250	21.500	6.1503e-01
13.250	21.750	5.7248e-01
13.250	22.000	4.3403e-01
13.250	22.250	2.2693e-01
13.250	22.500	1.1793e-01
13.250	22.750	6.5645e-02
13.250	23.000	3.6123e-02
13.250	23.250	2.0929e-02
13.250	23.500	1.3141e-02
13.250	23.750	8.9574e-03
13.250	24.000	6.8317e-03
13.500	17.000	1.7949e-01
13.500	17.250	2.1394e-01
13.500	17.500	2.7505e-01
13.500	17.750	3.4906e-01
13.500	18.000	4.2498e-01
13.500	18.250	4.8383e-01
13.500	18.500	5.4595e-01
13.500	18.750	6.0584e-01
13.500	19.000	6.5606e-01
13.500	19.250	6.9284e-01
13.500	19.500	7.1205e-01
13.500	19.750	7.1792e-01
13.500	20.000	7.1537e-01
13.500	20.250	7.0882e-01
13.500	20.500	6.9563e-01
13.500	20.750	6.8163e-01
13.500	21.000	6.6747e-01
13.500	21.250	6.5434e-01
13.500	21.500	6.2891e-01
13.500	21.750	6.0578e-01
13.500	22.000	5.5267e-01
13.500	22.250	3.9628e-01
13.500	22.500	2.1028e-01
13.500	22.750	1.1239e-01
13.500	23.000	6.2835e-02
13.500	23.250	3.5091e-02
13.500	23.500	2.0462e-02
13.500	23.750	1.2822e-02
13.500	24.000	8.8549e-03
13.750	17.000	1.7706e-01
13.750	17.250	2.0982e-01
13.750	17.500	2.6723e-01
13.750	17.750	3.4059e-01
13.750	18.000	4.2892e-01
13.750	18.250	4.9528e-01
13.750	18.500	5.5734e-01
13.750	18.750	6.1178e-01
13.750	19.000	6.6004e-01
13.750	19.250	6.9742e-01
13.750	19.500	7.2089e-01
13.750	19.750	7.3002e-01
13.750	20.000	7.2907e-01
13.750	20.250	7.2201e-01
13.750	20.500	7.1134e-01
13.750	20.750	6.9620e-01
13.750	21.000	6.8034e-01
13.750	21.250	6.6412e-01
13.750	21.500	6.4240e-01
13.750	21.750	6.2549e-01
13.750	22.000	5.9820e-01
13.750	22.250	5.2802e-01
13.750	22.500	3.5556e-01
13.750	22.750	1.9170e-01
13.750	23.000	1.0504e-01
13.750	23.250	6.0024e-02
13.750	23.500	3.3882e-02
13.750	23.750	1.9941e-02
13.750	24.000	1.2548e-02
14.000	17.000	1.7492e-01
14.000	17.250	2.0479e-01
14.000	17.500	2.6069e-01
14.000	17.750	3.2859e-01
14.000	18.000	4.2364e-01
14.000	18.250	5.1221e-01
14.000	18.500	5.7553e-01
14.000	18.750	6.2433e-01
14.000	19.000	6.6829e-01
14.000	19.250	7.0540e-01
14.000	19.500	7.3105e-01
14.000	19.750	7.4501e-01
14.000	20.000	7.4677e-01
14.000	20.250	7.4030e-01
14.000	20.500	7.3021e-01
14.000	20.750	7.1617e-01
14.000	21.000	6.9984e-01
14.000	21.250	6.8372e-01
14.000	21.500	6.6062e-01
14.000	21.750	6.4777e-01
14.000	22.000	6.3325e-01
14.000	22.250	5.9634e-01
14.000	22.500	4.9528e-01
14.000	22.750	3.1559e-01
14.000	23.000	1.7538e-01
14.000	23.250	9.8300e-02
14.000	23.500	5.7355e-02
14.000	23.750	3.2606e-02
14.000	24.000	1.9302e-02
