nFnu 1000.00A  relative to Inci 1215.00A scaled to 1215A.
Hden   Phi(H)  Eq_Width (A)
 7.000	17.000	3.2546e-02
 7.000	17.250	2.9544e-02
 7.000	17.500	2.5890e-02
 7.000	17.750	2.2003e-02
 7.000	18.000	1.8802e-02
 7.000	18.250	1.6802e-02
 7.000	18.500	1.5514e-02
 7.000	18.750	1.4862e-02
 7.000	19.000	1.4515e-02
 7.000	19.250	1.4319e-02
 7.000	19.500	1.4235e-02
 7.000	19.750	1.4199e-02
 7.000	20.000	1.4183e-02
 7.000	20.250	1.4176e-02
 7.000	20.500	1.4172e-02
 7.000	20.750	1.4171e-02
 7.000	21.000	1.4170e-02
 7.000	21.250	1.4169e-02
 7.000	21.500	1.4169e-02
 7.000	21.750	1.4168e-02
 7.000	22.000	1.4168e-02
 7.000	22.250	1.4169e-02
 7.000	22.500	1.4168e-02
 7.000	22.750	1.4170e-02
 7.000	23.000	1.4170e-02
 7.000	23.250	1.4168e-02
 7.000	23.500	1.4170e-02
 7.000	23.750	1.4170e-02
 7.000	24.000	1.4170e-02
 7.250	17.000	3.4242e-02
 7.250	17.250	3.2042e-02
 7.250	17.500	2.9292e-02
 7.250	17.750	2.5776e-02
 7.250	18.000	2.1941e-02
 7.250	18.250	1.8768e-02
 7.250	18.500	1.6785e-02
 7.250	18.750	1.5508e-02
 7.250	19.000	1.4859e-02
 7.250	19.250	1.4514e-02
 7.250	19.500	1.4319e-02
 7.250	19.750	1.4235e-02
 7.250	20.000	1.4199e-02
 7.250	20.250	1.4183e-02
 7.250	20.500	1.4176e-02
 7.250	20.750	1.4172e-02
 7.250	21.000	1.4170e-02
 7.250	21.250	1.4169e-02
 7.250	21.500	1.4169e-02
 7.250	21.750	1.4169e-02
 7.250	22.000	1.4168e-02
 7.250	22.250	1.4168e-02
 7.250	22.500	1.4168e-02
 7.250	22.750	1.4168e-02
 7.250	23.000	1.4168e-02
 7.250	23.250	1.4168e-02
 7.250	23.500	1.4168e-02
 7.250	23.750	1.4168e-02
 7.250	24.000	1.4168e-02
 7.500	17.000	3.7225e-02
 7.500	17.250	3.2547e-02
 7.500	17.500	3.1755e-02
 7.500	17.750	2.9150e-02
 7.500	18.000	2.5723e-02
 7.500	18.250	2.1907e-02
 7.500	18.500	1.8747e-02
 7.500	18.750	1.6774e-02
 7.500	19.000	1.5504e-02
 7.500	19.250	1.4858e-02
 7.500	19.500	1.4514e-02
 7.500	19.750	1.4318e-02
 7.500	20.000	1.4235e-02
 7.500	20.250	1.4199e-02
 7.500	20.500	1.4183e-02
 7.500	20.750	1.4176e-02
 7.500	21.000	1.4172e-02
 7.500	21.250	1.4170e-02
 7.500	21.500	1.4169e-02
 7.500	21.750	1.4169e-02
 7.500	22.000	1.4168e-02
 7.500	22.250	1.4168e-02
 7.500	22.500	1.4168e-02
 7.500	22.750	1.4168e-02
 7.500	23.000	1.4168e-02
 7.500	23.250	1.4168e-02
 7.500	23.500	1.4170e-02
 7.500	23.750	1.4168e-02
 7.500	24.000	1.4168e-02
 7.750	17.000	2.8902e-02
 7.750	17.250	3.3521e-02
 7.750	17.500	3.1203e-02
 7.750	17.750	3.1589e-02
 7.750	18.000	2.9076e-02
 7.750	18.250	2.5708e-02
 7.750	18.500	2.1893e-02
 7.750	18.750	1.8735e-02
 7.750	19.000	1.6768e-02
 7.750	19.250	1.5502e-02
 7.750	19.500	1.4857e-02
 7.750	19.750	1.4514e-02
 7.750	20.000	1.4318e-02
 7.750	20.250	1.4235e-02
 7.750	20.500	1.4199e-02
 7.750	20.750	1.4183e-02
 7.750	21.000	1.4176e-02
 7.750	21.250	1.4172e-02
 7.750	21.500	1.4170e-02
 7.750	21.750	1.4169e-02
 7.750	22.000	1.4169e-02
 7.750	22.250	1.4168e-02
 7.750	22.500	1.4168e-02
 7.750	22.750	1.4168e-02
 7.750	23.000	1.4168e-02
 7.750	23.250	1.4168e-02
 7.750	23.500	1.4168e-02
 7.750	23.750	1.4168e-02
 7.750	24.000	1.4168e-02
 8.000	17.000	2.0916e-02
 8.000	17.250	2.5245e-02
 8.000	17.500	3.0318e-02
 8.000	17.750	3.0074e-02
 8.000	18.000	3.1497e-02
 8.000	18.250	2.9041e-02
 8.000	18.500	2.5719e-02
 8.000	18.750	2.1891e-02
 8.000	19.000	1.8729e-02
 8.000	19.250	1.6764e-02
 8.000	19.500	1.5500e-02
 8.000	19.750	1.4856e-02
 8.000	20.000	1.4513e-02
 8.000	20.250	1.4318e-02
 8.000	20.500	1.4235e-02
 8.000	20.750	1.4199e-02
 8.000	21.000	1.4183e-02
 8.000	21.250	1.4176e-02
 8.000	21.500	1.4172e-02
 8.000	21.750	1.4170e-02
 8.000	22.000	1.4169e-02
 8.000	22.250	1.4169e-02
 8.000	22.500	1.4168e-02
 8.000	22.750	1.4168e-02
 8.000	23.000	1.4168e-02
 8.000	23.250	1.4168e-02
 8.000	23.500	1.4168e-02
 8.000	23.750	1.4168e-02
 8.000	24.000	1.4168e-02
 8.250	17.000	1.5532e-02
 8.250	17.250	1.8188e-02
 8.250	17.500	2.2783e-02
 8.250	17.750	2.8271e-02
 8.250	18.000	2.9327e-02
 8.250	18.250	3.1428e-02
 8.250	18.500	2.9029e-02
 8.250	18.750	2.5747e-02
 8.250	19.000	2.1897e-02
 8.250	19.250	1.8726e-02
 8.250	19.500	1.6762e-02
 8.250	19.750	1.5499e-02
 8.250	20.000	1.4856e-02
 8.250	20.250	1.4513e-02
 8.250	20.500	1.4318e-02
 8.250	20.750	1.4235e-02
 8.250	21.000	1.4199e-02
 8.250	21.250	1.4183e-02
 8.250	21.500	1.4176e-02
 8.250	21.750	1.4172e-02
 8.250	22.000	1.4170e-02
 8.250	22.250	1.4169e-02
 8.250	22.500	1.4169e-02
 8.250	22.750	1.4169e-02
 8.250	23.000	1.4168e-02
 8.250	23.250	1.4168e-02
 8.250	23.500	1.4169e-02
 8.250	23.750	1.4168e-02
 8.250	24.000	1.4168e-02
 8.500	17.000	1.2042e-02
 8.500	17.250	1.3487e-02
 8.500	17.500	1.6395e-02
 8.500	17.750	2.1251e-02
 8.500	18.000	2.6947e-02
 8.500	18.250	2.8771e-02
 8.500	18.500	3.1372e-02
 8.500	18.750	2.9031e-02
 8.500	19.000	2.5787e-02
 8.500	19.250	2.1908e-02
 8.500	19.500	1.8725e-02
 8.500	19.750	1.6760e-02
 8.500	20.000	1.5498e-02
 8.500	20.250	1.4856e-02
 8.500	20.500	1.4513e-02
 8.500	20.750	1.4318e-02
 8.500	21.000	1.4235e-02
 8.500	21.250	1.4199e-02
 8.500	21.500	1.4183e-02
 8.500	21.750	1.4176e-02
 8.500	22.000	1.4172e-02
 8.500	22.250	1.4170e-02
 8.500	22.500	1.4169e-02
 8.500	22.750	1.4169e-02
 8.500	23.000	1.4168e-02
 8.500	23.250	1.4168e-02
 8.500	23.500	1.4168e-02
 8.500	23.750	1.4168e-02
 8.500	24.000	1.4168e-02
 8.750	17.000	9.8230e-03
 8.750	17.250	1.0584e-02
 8.750	17.500	1.2228e-02
 8.750	17.750	1.5273e-02
 8.750	18.000	2.0352e-02
 8.750	18.250	2.6153e-02
 8.750	18.500	2.8455e-02
 8.750	18.750	3.1313e-02
 8.750	19.000	2.9039e-02
 8.750	19.250	2.5835e-02
 8.750	19.500	2.1922e-02
 8.750	19.750	1.8725e-02
 8.750	20.000	1.6759e-02
 8.750	20.250	1.5498e-02
 8.750	20.500	1.4856e-02
 8.750	20.750	1.4513e-02
 8.750	21.000	1.4318e-02
 8.750	21.250	1.4235e-02
 8.750	21.500	1.4199e-02
 8.750	21.750	1.4183e-02
 8.750	22.000	1.4176e-02
 8.750	22.250	1.4172e-02
 8.750	22.500	1.4170e-02
 8.750	22.750	1.4169e-02
 8.750	23.000	1.4169e-02
 8.750	23.250	1.4168e-02
 8.750	23.500	1.4168e-02
 8.750	23.750	1.4168e-02
 8.750	24.000	1.4168e-02
 9.000	17.000	8.3823e-03
 9.000	17.250	8.7978e-03
 9.000	17.500	9.7238e-03
 9.000	17.750	1.1501e-02
 9.000	18.000	1.4736e-02
 9.000	18.250	1.9992e-02
 9.000	18.500	2.5730e-02
 9.000	18.750	2.8239e-02
 9.000	19.000	3.1250e-02
 9.000	19.250	2.9042e-02
 9.000	19.500	2.5885e-02
 9.000	19.750	2.1938e-02
 9.000	20.000	1.8726e-02
 9.000	20.250	1.6759e-02
 9.000	20.500	1.5498e-02
 9.000	20.750	1.4855e-02
 9.000	21.000	1.4513e-02
 9.000	21.250	1.4318e-02
 9.000	21.500	1.4235e-02
 9.000	21.750	1.4199e-02
 9.000	22.000	1.4183e-02
 9.000	22.250	1.4176e-02
 9.000	22.500	1.4172e-02
 9.000	22.750	1.4170e-02
 9.000	23.000	1.4169e-02
 9.000	23.250	1.4169e-02
 9.000	23.500	1.4168e-02
 9.000	23.750	1.4168e-02
 9.000	24.000	1.4168e-02
 9.250	17.000	7.4184e-03
 9.250	17.250	7.6529e-03
 9.250	17.500	8.2240e-03
 9.250	17.750	9.2947e-03
 9.250	18.000	1.1275e-02
 9.250	18.250	1.4744e-02
 9.250	18.500	2.0220e-02
 9.250	18.750	2.5555e-02
 9.250	19.000	2.8071e-02
 9.250	19.250	3.1172e-02
 9.250	19.500	2.9033e-02
 9.250	19.750	2.5930e-02
 9.250	20.000	2.1953e-02
 9.250	20.250	1.8727e-02
 9.250	20.500	1.6758e-02
 9.250	20.750	1.5497e-02
 9.250	21.000	1.4855e-02
 9.250	21.250	1.4513e-02
 9.250	21.500	1.4317e-02
 9.250	21.750	1.4233e-02
 9.250	22.000	1.4197e-02
 9.250	22.250	1.4182e-02
 9.250	22.500	1.4175e-02
 9.250	22.750	1.4172e-02
 9.250	23.000	1.4170e-02
 9.250	23.250	1.4169e-02
 9.250	23.500	1.4169e-02
 9.250	23.750	1.4168e-02
 9.250	24.000	1.4168e-02
 9.500	17.000	6.7756e-03
 9.500	17.250	6.8766e-03
 9.500	17.500	7.2805e-03
 9.500	17.750	8.0284e-03
 9.500	18.000	9.3020e-03
 9.500	18.250	1.1539e-02
 9.500	18.500	1.5414e-02
 9.500	18.750	2.1102e-02
 9.500	19.000	2.5308e-02
 9.500	19.250	2.7926e-02
 9.500	19.500	3.1092e-02
 9.500	19.750	2.9009e-02
 9.500	20.000	2.5963e-02
 9.500	20.250	2.1967e-02
 9.500	20.500	1.8729e-02
 9.500	20.750	1.6757e-02
 9.500	21.000	1.5496e-02
 9.500	21.250	1.4854e-02
 9.500	21.500	1.4511e-02
 9.500	21.750	1.4316e-02
 9.500	22.000	1.4232e-02
 9.500	22.250	1.4197e-02
 9.500	22.500	1.4181e-02
 9.500	22.750	1.4173e-02
 9.500	23.000	1.4170e-02
 9.500	23.250	1.4168e-02
 9.500	23.500	1.4167e-02
 9.500	23.750	1.4166e-02
 9.500	24.000	1.4166e-02
 9.750	17.000	6.4290e-03
 9.750	17.250	6.3392e-03
 9.750	17.500	6.6171e-03
 9.750	17.750	7.2198e-03
 9.750	18.000	8.2080e-03
 9.750	18.250	9.7859e-03
 9.750	18.500	1.2427e-02
 9.750	18.750	1.6724e-02
 9.750	19.000	2.2263e-02
 9.750	19.250	2.5053e-02
 9.750	19.500	2.7770e-02
 9.750	19.750	3.1007e-02
 9.750	20.000	2.8969e-02
 9.750	20.250	2.5981e-02
 9.750	20.500	2.1978e-02
 9.750	20.750	1.8729e-02
 9.750	21.000	1.6757e-02
 9.750	21.250	1.5495e-02
 9.750	21.500	1.4854e-02
 9.750	21.750	1.4512e-02
 9.750	22.000	1.4316e-02
 9.750	22.250	1.4232e-02
 9.750	22.500	1.4197e-02
 9.750	22.750	1.4181e-02
 9.750	23.000	1.4174e-02
 9.750	23.250	1.4170e-02
 9.750	23.500	1.4168e-02
 9.750	23.750	1.4167e-02
 9.750	24.000	1.4166e-02
10.000	17.000	6.3856e-03
10.000	17.250	6.0381e-03
10.000	17.500	6.1209e-03
10.000	17.750	6.6255e-03
10.000	18.000	7.5434e-03
10.000	18.250	8.8337e-03
10.000	18.500	1.0752e-02
10.000	18.750	1.3765e-02
10.000	19.000	1.8367e-02
10.000	19.250	2.2775e-02
10.000	19.500	2.4900e-02
10.000	19.750	2.7652e-02
10.000	20.000	3.0954e-02
10.000	20.250	2.8922e-02
10.000	20.500	2.5988e-02
10.000	20.750	2.1986e-02
10.000	21.000	1.8730e-02
10.000	21.250	1.6757e-02
10.000	21.500	1.5495e-02
10.000	21.750	1.4854e-02
10.000	22.000	1.4512e-02
10.000	22.250	1.4316e-02
10.000	22.500	1.4232e-02
10.000	22.750	1.4197e-02
10.000	23.000	1.4181e-02
10.000	23.250	1.4173e-02
10.000	23.500	1.4170e-02
10.000	23.750	1.4168e-02
10.000	24.000	1.4167e-02
10.250	17.000	6.6877e-03
10.250	17.250	6.0314e-03
10.250	17.500	5.8632e-03
10.250	17.750	6.2109e-03
10.250	18.000	7.0692e-03
10.250	18.250	8.2553e-03
10.250	18.500	9.8226e-03
10.250	18.750	1.2080e-02
10.250	19.000	1.5505e-02
10.250	19.250	1.9927e-02
10.250	19.500	2.3134e-02
10.250	19.750	2.4872e-02
10.250	20.000	2.7575e-02
10.250	20.250	3.0931e-02
10.250	20.500	2.8873e-02
10.250	20.750	2.5982e-02
10.250	21.000	2.1990e-02
10.250	21.250	1.8731e-02
10.250	21.500	1.6757e-02
10.250	21.750	1.5496e-02
10.250	22.000	1.4854e-02
10.250	22.250	1.4512e-02
10.250	22.500	1.4317e-02
10.250	22.750	1.4232e-02
10.250	23.000	1.4197e-02
10.250	23.250	1.4181e-02
10.250	23.500	1.4174e-02
10.250	23.750	1.4170e-02
10.250	24.000	1.4168e-02
10.500	17.000	7.2912e-03
10.500	17.250	6.3721e-03
10.500	17.500	5.9186e-03
10.500	17.750	6.0573e-03
10.500	18.000	6.7630e-03
10.500	18.250	7.8636e-03
10.500	18.500	9.2050e-03
10.500	18.750	1.0912e-02
10.500	19.000	1.3234e-02
10.500	19.250	1.6677e-02
10.500	19.500	2.0701e-02
10.500	19.750	2.3278e-02
10.500	20.000	2.5090e-02
10.500	20.250	2.7714e-02
10.500	20.500	3.1079e-02
10.500	20.750	2.8842e-02
10.500	21.000	2.5967e-02
10.500	21.250	2.1992e-02
10.500	21.500	1.8730e-02
10.500	21.750	1.6757e-02
10.500	22.000	1.5496e-02
10.500	22.250	1.4855e-02
10.500	22.500	1.4512e-02
10.500	22.750	1.4317e-02
10.500	23.000	1.4233e-02
10.500	23.250	1.4197e-02
10.500	23.500	1.4181e-02
10.500	23.750	1.4174e-02
10.500	24.000	1.4170e-02
10.750	17.000	8.1386e-03
10.750	17.250	7.0232e-03
10.750	17.500	6.3505e-03
10.750	17.750	6.2609e-03
10.750	18.000	6.7129e-03
10.750	18.250	7.5412e-03
10.750	18.500	8.6175e-03
10.750	18.750	9.9005e-03
10.750	19.000	1.1538e-02
10.750	19.250	1.4031e-02
10.750	19.500	1.7673e-02
10.750	19.750	2.1527e-02
10.750	20.000	2.3630e-02
10.750	20.250	2.5778e-02
10.750	20.500	2.8229e-02
10.750	20.750	3.1455e-02
10.750	21.000	2.8864e-02
10.750	21.250	2.5947e-02
10.750	21.500	2.1991e-02
10.750	21.750	1.8730e-02
10.750	22.000	1.6757e-02
10.750	22.250	1.5496e-02
10.750	22.500	1.4855e-02
10.750	22.750	1.4513e-02
10.750	23.000	1.4317e-02
10.750	23.250	1.4233e-02
10.750	23.500	1.4197e-02
10.750	23.750	1.4181e-02
10.750	24.000	1.4174e-02
11.000	17.000	9.1857e-03
11.000	17.250	7.9288e-03
11.000	17.500	7.1144e-03
11.000	17.750	6.8455e-03
11.000	18.000	7.0013e-03
11.000	18.250	7.4330e-03
11.000	18.500	8.1337e-03
11.000	18.750	9.0665e-03
11.000	19.000	1.0269e-02
11.000	19.250	1.2037e-02
11.000	19.500	1.4765e-02
11.000	19.750	1.8694e-02
11.000	20.000	2.2097e-02
11.000	20.250	2.4539e-02
11.000	20.500	2.6548e-02
11.000	20.750	2.9179e-02
11.000	21.000	3.2143e-02
11.000	21.250	2.9007e-02
11.000	21.500	2.5928e-02
11.000	21.750	2.1986e-02
11.000	22.000	1.8728e-02
11.000	22.250	1.6758e-02
11.000	22.500	1.5496e-02
11.000	22.750	1.4855e-02
11.000	23.000	1.4513e-02
11.000	23.250	1.4317e-02
11.000	23.500	1.4233e-02
11.000	23.750	1.4197e-02
11.000	24.000	1.4181e-02
11.250	17.000	1.0383e-02
11.250	17.250	9.0198e-03
11.250	17.500	8.1211e-03
11.250	17.750	7.7333e-03
11.250	18.000	7.6456e-03
11.250	18.250	7.6617e-03
11.250	18.500	7.8473e-03
11.250	18.750	8.4529e-03
11.250	19.000	9.3044e-03
11.250	19.250	1.0577e-02
11.250	19.500	1.2520e-02
11.250	19.750	1.5558e-02
11.250	20.000	1.9779e-02
11.250	20.250	2.2966e-02
11.250	20.500	2.5620e-02
11.250	20.750	2.8043e-02
11.250	21.000	3.0827e-02
11.250	21.250	3.3224e-02
11.250	21.500	2.9313e-02
11.250	21.750	2.5926e-02
11.250	22.000	2.1978e-02
11.250	22.250	1.8726e-02
11.250	22.500	1.6758e-02
11.250	22.750	1.5495e-02
11.250	23.000	1.4855e-02
11.250	23.250	1.4513e-02
11.250	23.500	1.4317e-02
11.250	23.750	1.4233e-02
11.250	24.000	1.4198e-02
11.500	17.000	1.1653e-02
11.500	17.250	1.0258e-02
11.500	17.500	9.3018e-03
11.500	17.750	8.8262e-03
11.500	18.000	8.5479e-03
11.500	18.250	8.2255e-03
11.500	18.500	8.0119e-03
11.500	18.750	8.1510e-03
11.500	19.000	8.6626e-03
11.500	19.250	9.5053e-03
11.500	19.500	1.0853e-02
11.500	19.750	1.3038e-02
11.500	20.000	1.6449e-02
11.500	20.250	2.1014e-02
11.500	20.500	2.4117e-02
11.500	20.750	2.7265e-02
11.500	21.000	3.0199e-02
11.500	21.250	3.3518e-02
11.500	21.500	3.4585e-02
11.500	21.750	2.9812e-02
11.500	22.000	2.5960e-02
11.500	22.250	2.1967e-02
11.500	22.500	1.8724e-02
11.500	22.750	1.6758e-02
11.500	23.000	1.5495e-02
11.500	23.250	1.4855e-02
11.500	23.500	1.4514e-02
11.500	23.750	1.4318e-02
11.500	24.000	1.4233e-02
11.750	17.000	1.2790e-02
11.750	17.250	1.1509e-02
11.750	17.500	1.0566e-02
11.750	17.750	1.0028e-02
11.750	18.000	9.5895e-03
11.750	18.250	9.0870e-03
11.750	18.500	8.5859e-03
11.750	18.750	8.2451e-03
11.750	19.000	8.3210e-03
11.750	19.250	8.7828e-03
11.750	19.500	9.6714e-03
11.750	19.750	1.1159e-02
11.750	20.000	1.3622e-02
11.750	20.250	1.7463e-02
11.750	20.500	2.2431e-02
11.750	20.750	2.5667e-02
11.750	21.000	2.9663e-02
11.750	21.250	3.3623e-02
11.750	21.500	3.7513e-02
11.750	21.750	3.6067e-02
11.750	22.000	3.0498e-02
11.750	22.250	2.6043e-02
11.750	22.500	2.1955e-02
11.750	22.750	1.8721e-02
11.750	23.000	1.6759e-02
11.750	23.250	1.5494e-02
11.750	23.500	1.4855e-02
11.750	23.750	1.4514e-02
11.750	24.000	1.4318e-02
12.000	17.000	1.3361e-02
12.000	17.250	1.2486e-02
12.000	17.500	1.1697e-02
12.000	17.750	1.1170e-02
12.000	18.000	1.0670e-02
12.000	18.250	1.0102e-02
12.000	18.500	9.4230e-03
12.000	18.750	8.7975e-03
12.000	19.000	8.4318e-03
12.000	19.250	8.3918e-03
12.000	19.500	8.8789e-03
12.000	19.750	9.8272e-03
12.000	20.000	1.1503e-02
12.000	20.250	1.4312e-02
12.000	20.500	1.8665e-02
12.000	20.750	2.4035e-02
12.000	21.000	2.8038e-02
12.000	21.250	3.3278e-02
12.000	21.500	3.8429e-02
12.000	21.750	4.2599e-02
12.000	22.000	3.7648e-02
12.000	22.250	3.1050e-02
12.000	22.500	2.6181e-02
12.000	22.750	2.1944e-02
12.000	23.000	1.8718e-02
12.000	23.250	1.6759e-02
12.000	23.500	1.5494e-02
12.000	23.750	1.4855e-02
12.000	24.000	1.4514e-02
12.250	17.000	1.2296e-02
12.250	17.250	1.2613e-02
12.250	17.500	1.2305e-02
12.250	17.750	1.1992e-02
12.250	18.000	1.1612e-02
12.250	18.250	1.1079e-02
12.250	18.500	1.0389e-02
12.250	18.750	9.6285e-03
12.250	19.000	8.9492e-03
12.250	19.250	8.4502e-03
12.250	19.500	8.4334e-03
12.250	19.750	8.9552e-03
12.250	20.000	1.0007e-02
12.250	20.250	1.1928e-02
12.250	20.500	1.5134e-02
12.250	20.750	2.0160e-02
12.250	21.000	2.6485e-02
12.250	21.250	3.1855e-02
12.250	21.500	3.8294e-02
12.250	21.750	4.4644e-02
12.250	22.000	4.6915e-02
12.250	22.250	3.9151e-02
12.250	22.500	3.1826e-02
12.250	22.750	2.6359e-02
12.250	23.000	2.1936e-02
12.250	23.250	1.8715e-02
12.250	23.500	1.6760e-02
12.250	23.750	1.5493e-02
12.250	24.000	1.4855e-02
12.500	17.000	6.8308e-03
12.500	17.250	1.0795e-02
12.500	17.500	1.1897e-02
12.500	17.750	1.2168e-02
12.500	18.000	1.2141e-02
12.500	18.250	1.1817e-02
12.500	18.500	1.1260e-02
12.500	18.750	1.0497e-02
12.500	19.000	9.6931e-03
12.500	19.250	8.9545e-03
12.500	19.500	8.4509e-03
12.500	19.750	8.4552e-03
12.500	20.000	9.0310e-03
12.500	20.250	1.0234e-02
12.500	20.500	1.2455e-02
12.500	20.750	1.6243e-02
12.500	21.000	2.2480e-02
12.500	21.250	3.0628e-02
12.500	21.500	3.7056e-02
12.500	21.750	4.4777e-02
12.500	22.000	5.1733e-02
12.500	22.250	5.0244e-02
12.500	22.500	4.0638e-02
12.500	22.750	3.2827e-02
12.500	23.000	2.6567e-02
12.500	23.250	2.1932e-02
12.500	23.500	1.8711e-02
12.500	23.750	1.6760e-02
12.500	24.000	1.5492e-02
12.750	17.000	6.0406e-03
12.750	17.250	6.4881e-03
12.750	17.500	9.7119e-03
12.750	17.750	1.1256e-02
12.750	18.000	1.1843e-02
12.750	18.250	1.1975e-02
12.750	18.500	1.1748e-02
12.750	18.750	1.1239e-02
12.750	19.000	1.0480e-02
12.750	19.250	9.6730e-03
12.750	19.500	8.8769e-03
12.750	19.750	8.3655e-03
12.750	20.000	8.4178e-03
12.750	20.250	9.1377e-03
12.750	20.500	1.0527e-02
12.750	20.750	1.3199e-02
12.750	21.000	1.7852e-02
12.750	21.250	2.5901e-02
12.750	21.500	3.5449e-02
12.750	21.750	4.3430e-02
12.750	22.000	5.2622e-02
12.750	22.250	5.8868e-02
12.750	22.500	5.3437e-02
12.750	22.750	4.2245e-02
12.750	23.000	3.3652e-02
12.750	23.250	2.6777e-02
12.750	23.500	2.1937e-02
12.750	23.750	1.8708e-02
12.750	24.000	1.6761e-02
13.000	17.000	9.6066e-03
13.000	17.250	8.8492e-03
13.000	17.500	6.2480e-03
13.000	17.750	7.0082e-03
13.000	18.000	9.6043e-03
13.000	18.250	1.0827e-02
13.000	18.500	1.1372e-02
13.000	18.750	1.1410e-02
13.000	19.000	1.1023e-02
13.000	19.250	1.0325e-02
13.000	19.500	9.5290e-03
13.000	19.750	8.7629e-03
13.000	20.000	8.2770e-03
13.000	20.250	8.3851e-03
13.000	20.500	9.2320e-03
13.000	20.750	1.0955e-02
13.000	21.000	1.4305e-02
13.000	21.250	2.0199e-02
13.000	21.500	2.9718e-02
13.000	21.750	4.1568e-02
13.000	22.000	5.1852e-02
13.000	22.250	6.0889e-02
13.000	22.500	6.5337e-02
13.000	22.750	5.6739e-02
13.000	23.000	4.4464e-02
13.000	23.250	3.4125e-02
13.000	23.500	2.7002e-02
13.000	23.750	2.1953e-02
13.000	24.000	1.8706e-02
13.250	17.000	9.0388e-03
13.250	17.250	8.4729e-03
13.250	17.500	5.6997e-03
13.250	17.750	6.0540e-03
13.250	18.000	6.4266e-03
13.250	18.250	6.7676e-03
13.250	18.500	8.6591e-03
13.250	18.750	1.0217e-02
13.250	19.000	1.0773e-02
13.250	19.250	1.0617e-02
13.250	19.500	1.0062e-02
13.250	19.750	9.3256e-03
13.250	20.000	8.6272e-03
13.250	20.250	8.2123e-03
13.250	20.500	8.3469e-03
13.250	20.750	9.3192e-03
13.250	21.000	1.1543e-02
13.250	21.250	1.5361e-02
13.250	21.500	2.1951e-02
13.250	21.750	3.2688e-02
13.250	22.000	4.7999e-02
13.250	22.250	5.7543e-02
13.250	22.500	6.8161e-02
13.250	22.750	7.1324e-02
13.250	23.000	6.0090e-02
13.250	23.250	4.6119e-02
13.250	23.500	3.4818e-02
13.250	23.750	2.7210e-02
13.250	24.000	2.1975e-02
13.500	17.000	8.5413e-03
13.500	17.250	7.9259e-03
13.500	17.500	5.2593e-03
13.500	17.750	5.5593e-03
13.500	18.000	5.9251e-03
13.500	18.250	6.2977e-03
13.500	18.500	6.6026e-03
13.500	18.750	6.7844e-03
13.500	19.000	8.3152e-03
13.500	19.250	9.7826e-03
13.500	19.500	1.0081e-02
13.500	19.750	9.7083e-03
13.500	20.000	9.0787e-03
13.500	20.250	8.4737e-03
13.500	20.500	8.1104e-03
13.500	20.750	8.2759e-03
13.500	21.000	9.2732e-03
13.500	21.250	1.1651e-02
13.500	21.500	1.5364e-02
13.500	21.750	2.2529e-02
13.500	22.000	3.4968e-02
13.500	22.250	5.1444e-02
13.500	22.500	6.3809e-02
13.500	22.750	7.5427e-02
13.500	23.000	7.7362e-02
13.500	23.250	6.3068e-02
13.500	23.500	4.7560e-02
13.500	23.750	3.5771e-02
13.500	24.000	2.7406e-02
13.750	17.000	7.9950e-03
13.750	17.250	7.6185e-03
13.750	17.500	5.0319e-03
13.750	17.750	5.1229e-03
13.750	18.000	5.4691e-03
13.750	18.250	5.8481e-03
13.750	18.500	6.1853e-03
13.750	18.750	6.4250e-03
13.750	19.000	6.5607e-03
13.750	19.250	6.5937e-03
13.750	19.500	8.5299e-03
13.750	19.750	9.3888e-03
13.750	20.000	9.2754e-03
13.750	20.250	8.8089e-03
13.750	20.500	8.3338e-03
13.750	20.750	8.0678e-03
13.750	21.000	8.3176e-03
13.750	21.250	9.3402e-03
13.750	21.500	1.1565e-02
13.750	21.750	1.5643e-02
13.750	22.000	2.3289e-02
13.750	22.250	3.8341e-02
13.750	22.500	5.7230e-02
13.750	22.750	7.1147e-02
13.750	23.000	8.3044e-02
13.750	23.250	8.3811e-02
13.750	23.500	6.6370e-02
13.750	23.750	4.8953e-02
13.750	24.000	3.6369e-02
14.000	17.000	7.2969e-03
14.000	17.250	7.4497e-03
14.000	17.500	5.2010e-03
14.000	17.750	4.7185e-03
14.000	18.000	5.0463e-03
14.000	18.250	5.4170e-03
14.000	18.500	5.7650e-03
14.000	18.750	6.0384e-03
14.000	19.000	6.2232e-03
14.000	19.250	6.3287e-03
14.000	19.500	6.3588e-03
14.000	19.750	6.8105e-03
14.000	20.000	8.5714e-03
14.000	20.250	8.8196e-03
14.000	20.500	8.5800e-03
14.000	20.750	8.2792e-03
14.000	21.000	8.2026e-03
14.000	21.250	8.6400e-03
14.000	21.500	9.7596e-03
14.000	21.750	1.2243e-02
14.000	22.000	1.6915e-02
14.000	22.250	2.6302e-02
14.000	22.500	4.5690e-02
14.000	22.750	6.6564e-02
14.000	23.000	8.2996e-02
14.000	23.250	9.2824e-02
14.000	23.500	9.1039e-02
14.000	23.750	6.9405e-02
14.000	24.000	5.0449e-02
