InwT 1000.00A  relative to Inci 1215.00A scaled to 1215A.
Hden   Phi(H)  Eq_Width (A)
 7.000	17.000	2.3373e-02
 7.000	17.250	2.1869e-02
 7.000	17.500	2.0038e-02
 7.000	17.750	1.8090e-02
 7.000	18.000	1.6486e-02
 7.000	18.250	1.5485e-02
 7.000	18.500	1.4841e-02
 7.000	18.750	1.4514e-02
 7.000	19.000	1.4341e-02
 7.000	19.250	1.4243e-02
 7.000	19.500	1.4201e-02
 7.000	19.750	1.4183e-02
 7.000	20.000	1.4176e-02
 7.000	20.250	1.4172e-02
 7.000	20.500	1.4170e-02
 7.000	20.750	1.4169e-02
 7.000	21.000	1.4169e-02
 7.000	21.250	1.4169e-02
 7.000	21.500	1.4168e-02
 7.000	21.750	1.4168e-02
 7.000	22.000	1.4168e-02
 7.000	22.250	1.4169e-02
 7.000	22.500	1.4168e-02
 7.000	22.750	1.4170e-02
 7.000	23.000	1.4170e-02
 7.000	23.250	1.4168e-02
 7.000	23.500	1.4170e-02
 7.000	23.750	1.4170e-02
 7.000	24.000	1.4170e-02
 7.250	17.000	2.3953e-02
 7.250	17.250	2.3120e-02
 7.250	17.500	2.1742e-02
 7.250	17.750	1.9980e-02
 7.250	18.000	1.8058e-02
 7.250	18.250	1.6469e-02
 7.250	18.500	1.5477e-02
 7.250	18.750	1.4838e-02
 7.250	19.000	1.4513e-02
 7.250	19.250	1.4341e-02
 7.250	19.500	1.4243e-02
 7.250	19.750	1.4201e-02
 7.250	20.000	1.4183e-02
 7.250	20.250	1.4176e-02
 7.250	20.500	1.4172e-02
 7.250	20.750	1.4170e-02
 7.250	21.000	1.4169e-02
 7.250	21.250	1.4169e-02
 7.250	21.500	1.4169e-02
 7.250	21.750	1.4169e-02
 7.250	22.000	1.4168e-02
 7.250	22.250	1.4168e-02
 7.250	22.500	1.4168e-02
 7.250	22.750	1.4168e-02
 7.250	23.000	1.4168e-02
 7.250	23.250	1.4168e-02
 7.250	23.500	1.4168e-02
 7.250	23.750	1.4168e-02
 7.250	24.000	1.4168e-02
 7.500	17.000	2.5443e-02
 7.500	17.250	2.3106e-02
 7.500	17.500	2.2976e-02
 7.500	17.750	2.1671e-02
 7.500	18.000	1.9954e-02
 7.500	18.250	1.8042e-02
 7.500	18.500	1.6459e-02
 7.500	18.750	1.5471e-02
 7.500	19.000	1.4836e-02
 7.500	19.250	1.4512e-02
 7.500	19.500	1.4341e-02
 7.500	19.750	1.4243e-02
 7.500	20.000	1.4201e-02
 7.500	20.250	1.4183e-02
 7.500	20.500	1.4176e-02
 7.500	20.750	1.4172e-02
 7.500	21.000	1.4170e-02
 7.500	21.250	1.4169e-02
 7.500	21.500	1.4169e-02
 7.500	21.750	1.4168e-02
 7.500	22.000	1.4168e-02
 7.500	22.250	1.4168e-02
 7.500	22.500	1.4168e-02
 7.500	22.750	1.4168e-02
 7.500	23.000	1.4168e-02
 7.500	23.250	1.4168e-02
 7.500	23.500	1.4170e-02
 7.500	23.750	1.4168e-02
 7.500	24.000	1.4168e-02
 7.750	17.000	2.1270e-02
 7.750	17.250	2.3559e-02
 7.750	17.500	2.2436e-02
 7.750	17.750	2.2893e-02
 7.750	18.000	2.1634e-02
 7.750	18.250	1.9946e-02
 7.750	18.500	1.8034e-02
 7.750	18.750	1.6453e-02
 7.750	19.000	1.5468e-02
 7.750	19.250	1.4834e-02
 7.750	19.500	1.4512e-02
 7.750	19.750	1.4340e-02
 7.750	20.000	1.4243e-02
 7.750	20.250	1.4201e-02
 7.750	20.500	1.4183e-02
 7.750	20.750	1.4176e-02
 7.750	21.000	1.4172e-02
 7.750	21.250	1.4170e-02
 7.750	21.500	1.4169e-02
 7.750	21.750	1.4169e-02
 7.750	22.000	1.4168e-02
 7.750	22.250	1.4168e-02
 7.750	22.500	1.4168e-02
 7.750	22.750	1.4168e-02
 7.750	23.000	1.4168e-02
 7.750	23.250	1.4168e-02
 7.750	23.500	1.4168e-02
 7.750	23.750	1.4168e-02
 7.750	24.000	1.4168e-02
 8.000	17.000	1.6305e-02
 8.000	17.250	1.9164e-02
 8.000	17.500	2.1949e-02
 8.000	17.750	2.1869e-02
 8.000	18.000	2.2846e-02
 8.000	18.250	2.1616e-02
 8.000	18.500	1.9952e-02
 8.000	18.750	1.8033e-02
 8.000	19.000	1.6449e-02
 8.000	19.250	1.5466e-02
 8.000	19.500	1.4834e-02
 8.000	19.750	1.4512e-02
 8.000	20.000	1.4340e-02
 8.000	20.250	1.4243e-02
 8.000	20.500	1.4201e-02
 8.000	20.750	1.4183e-02
 8.000	21.000	1.4176e-02
 8.000	21.250	1.4172e-02
 8.000	21.500	1.4170e-02
 8.000	21.750	1.4169e-02
 8.000	22.000	1.4169e-02
 8.000	22.250	1.4168e-02
 8.000	22.500	1.4168e-02
 8.000	22.750	1.4168e-02
 8.000	23.000	1.4168e-02
 8.000	23.250	1.4168e-02
 8.000	23.500	1.4168e-02
 8.000	23.750	1.4168e-02
 8.000	24.000	1.4168e-02
 8.250	17.000	1.2577e-02
 8.250	17.250	1.4565e-02
 8.250	17.500	1.7747e-02
 8.250	17.750	2.0907e-02
 8.250	18.000	2.1497e-02
 8.250	18.250	2.2812e-02
 8.250	18.500	2.1611e-02
 8.250	18.750	1.9966e-02
 8.250	19.000	1.8036e-02
 8.250	19.250	1.6448e-02
 8.250	19.500	1.5465e-02
 8.250	19.750	1.4833e-02
 8.250	20.000	1.4511e-02
 8.250	20.250	1.4340e-02
 8.250	20.500	1.4243e-02
 8.250	20.750	1.4201e-02
 8.250	21.000	1.4183e-02
 8.250	21.250	1.4176e-02
 8.250	21.500	1.4172e-02
 8.250	21.750	1.4170e-02
 8.250	22.000	1.4169e-02
 8.250	22.250	1.4169e-02
 8.250	22.500	1.4168e-02
 8.250	22.750	1.4169e-02
 8.250	23.000	1.4168e-02
 8.250	23.250	1.4168e-02
 8.250	23.500	1.4169e-02
 8.250	23.750	1.4168e-02
 8.250	24.000	1.4168e-02
 8.500	17.000	9.9848e-03
 8.500	17.250	1.1177e-02
 8.500	17.500	1.3410e-02
 8.500	17.750	1.6862e-02
 8.500	18.000	2.0231e-02
 8.500	18.250	2.1220e-02
 8.500	18.500	2.2784e-02
 8.500	18.750	2.1612e-02
 8.500	19.000	1.9986e-02
 8.500	19.250	1.8042e-02
 8.500	19.500	1.6448e-02
 8.500	19.750	1.5464e-02
 8.500	20.000	1.4833e-02
 8.500	20.250	1.4511e-02
 8.500	20.500	1.4340e-02
 8.500	20.750	1.4243e-02
 8.500	21.000	1.4201e-02
 8.500	21.250	1.4183e-02
 8.500	21.500	1.4176e-02
 8.500	21.750	1.4172e-02
 8.500	22.000	1.4170e-02
 8.500	22.250	1.4169e-02
 8.500	22.500	1.4169e-02
 8.500	22.750	1.4168e-02
 8.500	23.000	1.4168e-02
 8.500	23.250	1.4168e-02
 8.500	23.500	1.4168e-02
 8.500	23.750	1.4168e-02
 8.500	24.000	1.4168e-02
 8.750	17.000	8.2582e-03
 8.750	17.250	8.9434e-03
 8.750	17.500	1.0306e-02
 8.750	17.750	1.2683e-02
 8.750	18.000	1.6342e-02
 8.750	18.250	1.9816e-02
 8.750	18.500	2.1062e-02
 8.750	18.750	2.2754e-02
 8.750	19.000	2.1616e-02
 8.750	19.250	2.0010e-02
 8.750	19.500	1.8049e-02
 8.750	19.750	1.6448e-02
 8.750	20.000	1.5464e-02
 8.750	20.250	1.4833e-02
 8.750	20.500	1.4511e-02
 8.750	20.750	1.4340e-02
 8.750	21.000	1.4243e-02
 8.750	21.250	1.4201e-02
 8.750	21.500	1.4183e-02
 8.750	21.750	1.4176e-02
 8.750	22.000	1.4172e-02
 8.750	22.250	1.4170e-02
 8.750	22.500	1.4169e-02
 8.750	22.750	1.4169e-02
 8.750	23.000	1.4168e-02
 8.750	23.250	1.4168e-02
 8.750	23.500	1.4168e-02
 8.750	23.750	1.4168e-02
 8.750	24.000	1.4168e-02
 9.000	17.000	7.0947e-03
 9.000	17.250	7.5072e-03
 9.000	17.500	8.3240e-03
 9.000	17.750	9.8018e-03
 9.000	18.000	1.2334e-02
 9.000	18.250	1.6148e-02
 9.000	18.500	1.9578e-02
 9.000	18.750	2.0954e-02
 9.000	19.000	2.2722e-02
 9.000	19.250	2.1617e-02
 9.000	19.500	2.0035e-02
 9.000	19.750	1.8057e-02
 9.000	20.000	1.6448e-02
 9.000	20.250	1.5464e-02
 9.000	20.500	1.4832e-02
 9.000	20.750	1.4511e-02
 9.000	21.000	1.4340e-02
 9.000	21.250	1.4243e-02
 9.000	21.500	1.4201e-02
 9.000	21.750	1.4183e-02
 9.000	22.000	1.4176e-02
 9.000	22.250	1.4172e-02
 9.000	22.500	1.4170e-02
 9.000	22.750	1.4169e-02
 9.000	23.000	1.4169e-02
 9.000	23.250	1.4168e-02
 9.000	23.500	1.4168e-02
 9.000	23.750	1.4168e-02
 9.000	24.000	1.4168e-02
 9.250	17.000	6.2757e-03
 9.250	17.250	6.5505e-03
 9.250	17.500	7.0854e-03
 9.250	17.750	8.0222e-03
 9.250	18.000	9.6655e-03
 9.250	18.250	1.2383e-02
 9.250	18.500	1.6348e-02
 9.250	18.750	1.9419e-02
 9.250	19.000	2.0868e-02
 9.250	19.250	2.2683e-02
 9.250	19.500	2.1613e-02
 9.250	19.750	2.0058e-02
 9.250	20.000	1.8065e-02
 9.250	20.250	1.6449e-02
 9.250	20.500	1.5463e-02
 9.250	20.750	1.4832e-02
 9.250	21.000	1.4511e-02
 9.250	21.250	1.4340e-02
 9.250	21.500	1.4242e-02
 9.250	21.750	1.4200e-02
 9.250	22.000	1.4182e-02
 9.250	22.250	1.4174e-02
 9.250	22.500	1.4171e-02
 9.250	22.750	1.4170e-02
 9.250	23.000	1.4169e-02
 9.250	23.250	1.4168e-02
 9.250	23.500	1.4168e-02
 9.250	23.750	1.4168e-02
 9.250	24.000	1.4168e-02
 9.500	17.000	5.6821e-03
 9.500	17.250	5.8664e-03
 9.500	17.500	6.2746e-03
 9.500	17.750	6.9562e-03
 9.500	18.000	8.0534e-03
 9.500	18.250	9.8944e-03
 9.500	18.500	1.2915e-02
 9.500	18.750	1.6986e-02
 9.500	19.000	1.9286e-02
 9.500	19.250	2.0793e-02
 9.500	19.500	2.2642e-02
 9.500	19.750	2.1600e-02
 9.500	20.000	2.0074e-02
 9.500	20.250	1.8072e-02
 9.500	20.500	1.6450e-02
 9.500	20.750	1.5462e-02
 9.500	21.000	1.4831e-02
 9.500	21.250	1.4510e-02
 9.500	21.500	1.4339e-02
 9.500	21.750	1.4241e-02
 9.500	22.000	1.4199e-02
 9.500	22.250	1.4181e-02
 9.500	22.500	1.4173e-02
 9.500	22.750	1.4169e-02
 9.500	23.000	1.4168e-02
 9.500	23.250	1.4167e-02
 9.500	23.500	1.4166e-02
 9.500	23.750	1.4166e-02
 9.500	24.000	1.4166e-02
 9.750	17.000	5.2924e-03
 9.750	17.250	5.3481e-03
 9.750	17.500	5.6727e-03
 9.750	17.750	6.2421e-03
 9.750	18.000	7.1127e-03
 9.750	18.250	8.4501e-03
 9.750	18.500	1.0604e-02
 9.750	18.750	1.3928e-02
 9.750	19.000	1.7731e-02
 9.750	19.250	1.9157e-02
 9.750	19.500	2.0712e-02
 9.750	19.750	2.2599e-02
 9.750	20.000	2.1580e-02
 9.750	20.250	2.0083e-02
 9.750	20.500	1.8077e-02
 9.750	20.750	1.6450e-02
 9.750	21.000	1.5463e-02
 9.750	21.250	1.4831e-02
 9.750	21.500	1.4510e-02
 9.750	21.750	1.4339e-02
 9.750	22.000	1.4241e-02
 9.750	22.250	1.4199e-02
 9.750	22.500	1.4181e-02
 9.750	22.750	1.4173e-02
 9.750	23.000	1.4170e-02
 9.750	23.250	1.4168e-02
 9.750	23.500	1.4167e-02
 9.750	23.750	1.4166e-02
 9.750	24.000	1.4166e-02
10.000	17.000	5.1184e-03
10.000	17.250	4.9895e-03
10.000	17.500	5.1777e-03
10.000	17.750	5.6844e-03
10.000	18.000	6.5068e-03
10.000	18.250	7.6179e-03
10.000	18.500	9.2188e-03
10.000	18.750	1.1656e-02
10.000	19.000	1.5179e-02
10.000	19.250	1.7986e-02
10.000	19.500	1.9080e-02
10.000	19.750	2.0648e-02
10.000	20.000	2.2571e-02
10.000	20.250	2.1556e-02
10.000	20.500	2.0087e-02
10.000	20.750	1.8081e-02
10.000	21.000	1.6450e-02
10.000	21.250	1.5463e-02
10.000	21.500	1.4831e-02
10.000	21.750	1.4510e-02
10.000	22.000	1.4339e-02
10.000	22.250	1.4241e-02
10.000	22.500	1.4199e-02
10.000	22.750	1.4181e-02
10.000	23.000	1.4173e-02
10.000	23.250	1.4169e-02
10.000	23.500	1.4168e-02
10.000	23.750	1.4167e-02
10.000	24.000	1.4166e-02
10.250	17.000	5.1932e-03
10.250	17.250	4.8411e-03
10.250	17.500	4.8486e-03
10.250	17.750	5.2500e-03
10.250	18.000	6.0400e-03
10.250	18.250	7.0716e-03
10.250	18.500	8.3932e-03
10.250	18.750	1.0264e-02
10.250	19.000	1.3010e-02
10.250	19.250	1.6283e-02
10.250	19.500	1.8083e-02
10.250	19.750	1.9066e-02
10.250	20.000	2.0605e-02
10.250	20.250	2.2558e-02
10.250	20.500	2.1531e-02
10.250	20.750	2.0084e-02
10.250	21.000	1.8083e-02
10.250	21.250	1.6451e-02
10.250	21.500	1.5463e-02
10.250	21.750	1.4831e-02
10.250	22.000	1.4510e-02
10.250	22.250	1.4339e-02
10.250	22.500	1.4241e-02
10.250	22.750	1.4199e-02
10.250	23.000	1.4181e-02
10.250	23.250	1.4173e-02
10.250	23.500	1.4170e-02
10.250	23.750	1.4168e-02
10.250	24.000	1.4167e-02
10.500	17.000	5.4737e-03
10.500	17.250	4.9416e-03
10.500	17.500	4.7435e-03
10.500	17.750	4.9967e-03
10.500	18.000	5.6797e-03
10.500	18.250	6.6443e-03
10.500	18.500	7.7948e-03
10.500	18.750	9.2194e-03
10.500	19.000	1.1139e-02
10.500	19.250	1.3899e-02
10.500	19.500	1.6820e-02
10.500	19.750	1.8161e-02
10.500	20.000	1.9175e-02
10.500	20.250	2.0671e-02
10.500	20.500	2.2631e-02
10.500	20.750	2.1515e-02
10.500	21.000	2.0076e-02
10.500	21.250	1.8084e-02
10.500	21.500	1.6450e-02
10.500	21.750	1.5463e-02
10.500	22.000	1.4832e-02
10.500	22.250	1.4511e-02
10.500	22.500	1.4339e-02
10.500	22.750	1.4242e-02
10.500	23.000	1.4199e-02
10.500	23.250	1.4181e-02
10.500	23.500	1.4173e-02
10.500	23.750	1.4170e-02
10.500	24.000	1.4168e-02
10.750	17.000	5.9002e-03
10.750	17.250	5.2528e-03
10.750	17.500	4.9079e-03
10.750	17.750	4.9959e-03
10.750	18.000	5.4826e-03
10.750	18.250	6.2370e-03
10.750	18.500	7.1778e-03
10.750	18.750	8.2631e-03
10.750	19.000	9.6784e-03
10.750	19.250	1.1762e-02
10.750	19.500	1.4684e-02
10.750	19.750	1.7239e-02
10.750	20.000	1.8341e-02
10.750	20.250	1.9521e-02
10.750	20.500	2.0929e-02
10.750	20.750	2.2818e-02
10.750	21.000	2.1525e-02
10.750	21.250	2.0066e-02
10.750	21.500	1.8084e-02
10.750	21.750	1.6450e-02
10.750	22.000	1.5463e-02
10.750	22.250	1.4832e-02
10.750	22.500	1.4511e-02
10.750	22.750	1.4340e-02
10.750	23.000	1.4242e-02
10.750	23.250	1.4200e-02
10.750	23.500	1.4182e-02
10.750	23.750	1.4173e-02
10.750	24.000	1.4170e-02
11.000	17.000	6.4222e-03
11.000	17.250	5.7147e-03
11.000	17.500	5.2921e-03
11.000	17.750	5.2557e-03
11.000	18.000	5.5082e-03
11.000	18.250	5.9472e-03
11.000	18.500	6.5923e-03
11.000	18.750	7.4367e-03
11.000	19.000	8.5286e-03
11.000	19.250	1.0071e-02
11.000	19.500	1.2355e-02
11.000	19.750	1.5411e-02
11.000	20.000	1.7457e-02
11.000	20.250	1.8800e-02
11.000	20.500	1.9911e-02
11.000	20.750	2.1410e-02
11.000	21.000	2.3162e-02
11.000	21.250	2.1596e-02
11.000	21.500	2.0056e-02
11.000	21.750	1.8081e-02
11.000	22.000	1.6449e-02
11.000	22.250	1.5463e-02
11.000	22.500	1.4831e-02
11.000	22.750	1.4511e-02
11.000	23.000	1.4340e-02
11.000	23.250	1.4242e-02
11.000	23.500	1.4200e-02
11.000	23.750	1.4182e-02
11.000	24.000	1.4174e-02
11.250	17.000	6.9826e-03
11.250	17.250	6.2579e-03
11.250	17.500	5.8097e-03
11.250	17.750	5.6998e-03
11.250	18.000	5.7611e-03
11.250	18.250	5.8793e-03
11.250	18.500	6.1599e-03
11.250	18.750	6.7599e-03
11.250	19.000	7.5970e-03
11.250	19.250	8.7588e-03
11.250	19.500	1.0448e-02
11.250	19.750	1.2941e-02
11.250	20.000	1.6112e-02
11.250	20.250	1.7919e-02
11.250	20.500	1.9347e-02
11.250	20.750	2.0667e-02
11.250	21.000	2.2251e-02
11.250	21.250	2.3703e-02
11.250	21.500	2.1749e-02
11.250	21.750	2.0055e-02
11.250	22.000	1.8077e-02
11.250	22.250	1.6448e-02
11.250	22.500	1.5463e-02
11.250	22.750	1.4831e-02
11.250	23.000	1.4511e-02
11.250	23.250	1.4340e-02
11.250	23.500	1.4242e-02
11.250	23.750	1.4200e-02
11.250	24.000	1.4182e-02
11.500	17.000	7.5109e-03
11.500	17.250	6.8296e-03
11.500	17.500	6.3866e-03
11.500	17.750	6.2313e-03
11.500	18.000	6.1586e-03
11.500	18.250	6.0424e-03
11.500	18.500	6.0275e-03
11.500	18.750	6.2859e-03
11.500	19.000	6.8721e-03
11.500	19.250	7.7277e-03
11.500	19.500	8.9724e-03
11.500	19.750	1.0835e-02
11.500	20.000	1.3564e-02
11.500	20.250	1.6829e-02
11.500	20.500	1.8519e-02
11.500	20.750	2.0178e-02
11.500	21.000	2.1763e-02
11.500	21.250	2.3635e-02
11.500	21.500	2.4384e-02
11.500	21.750	2.1998e-02
11.500	22.000	2.0071e-02
11.500	22.250	1.8072e-02
11.500	22.500	1.6447e-02
11.500	22.750	1.5463e-02
11.500	23.000	1.4831e-02
11.500	23.250	1.4511e-02
11.500	23.500	1.4340e-02
11.500	23.750	1.4243e-02
11.500	24.000	1.4200e-02
11.750	17.000	7.8818e-03
11.750	17.250	7.3343e-03
11.750	17.500	6.9455e-03
11.750	17.750	6.7716e-03
11.750	18.000	6.6173e-03
11.750	18.250	6.3957e-03
11.750	18.500	6.1830e-03
11.750	18.750	6.1154e-03
11.750	19.000	6.3523e-03
11.750	19.250	6.9411e-03
11.750	19.500	7.8375e-03
11.750	19.750	9.1905e-03
11.750	20.000	1.1251e-02
11.750	20.250	1.4238e-02
11.750	20.500	1.7596e-02
11.750	20.750	1.9299e-02
11.750	21.000	2.1392e-02
11.750	21.250	2.3512e-02
11.750	21.500	2.5705e-02
11.750	21.750	2.5125e-02
11.750	22.000	2.2341e-02
11.750	22.250	2.0112e-02
11.750	22.500	1.8065e-02
11.750	22.750	1.6446e-02
11.750	23.000	1.5464e-02
11.750	23.250	1.4831e-02
11.750	23.500	1.4511e-02
11.750	23.750	1.4340e-02
11.750	24.000	1.4243e-02
12.000	17.000	7.9223e-03
12.000	17.250	7.6218e-03
12.000	17.500	7.3695e-03
12.000	17.750	7.2380e-03
12.000	18.000	7.0761e-03
12.000	18.250	6.8283e-03
12.000	18.500	6.5125e-03
12.000	18.750	6.2363e-03
12.000	19.000	6.1423e-03
12.000	19.250	6.3694e-03
12.000	19.500	6.9850e-03
12.000	19.750	7.9407e-03
12.000	20.000	9.4310e-03
12.000	20.250	1.1724e-02
12.000	20.500	1.4994e-02
12.000	20.750	1.8448e-02
12.000	21.000	2.0497e-02
12.000	21.250	2.3232e-02
12.000	21.500	2.5977e-02
12.000	21.750	2.8343e-02
12.000	22.000	2.5916e-02
12.000	22.250	2.2617e-02
12.000	22.500	2.0181e-02
12.000	22.750	1.8059e-02
12.000	23.000	1.6444e-02
12.000	23.250	1.5464e-02
12.000	23.500	1.4831e-02
12.000	23.750	1.4511e-02
12.000	24.000	1.4340e-02
12.250	17.000	7.5036e-03
12.250	17.250	7.5347e-03
12.250	17.500	7.5226e-03
12.250	17.750	7.5298e-03
12.250	18.000	7.4410e-03
12.250	18.250	7.2123e-03
12.250	18.500	6.8801e-03
12.250	18.750	6.5180e-03
12.250	19.000	6.2180e-03
12.250	19.250	6.1130e-03
12.250	19.500	6.3652e-03
12.250	19.750	7.0215e-03
12.250	20.000	8.0619e-03
12.250	20.250	9.7272e-03
12.250	20.500	1.2273e-02
12.250	20.750	1.5915e-02
12.250	21.000	1.9700e-02
12.250	21.250	2.2434e-02
12.250	21.500	2.5788e-02
12.250	21.750	2.9161e-02
12.250	22.000	3.0546e-02
12.250	22.250	2.6668e-02
12.250	22.500	2.3004e-02
12.250	22.750	2.0270e-02
12.250	23.000	1.8055e-02
12.250	23.250	1.6442e-02
12.250	23.500	1.5464e-02
12.250	23.750	1.4830e-02
12.250	24.000	1.4511e-02
12.500	17.000	6.7796e-03
12.500	17.250	7.1012e-03
12.500	17.500	7.3626e-03
12.500	17.750	7.5396e-03
12.500	18.000	7.5722e-03
12.500	18.250	7.4384e-03
12.500	18.500	7.1716e-03
12.500	18.750	6.8253e-03
12.500	19.000	6.4591e-03
12.500	19.250	6.1575e-03
12.500	19.500	6.0708e-03
12.500	19.750	6.3589e-03
12.500	20.000	7.0667e-03
12.500	20.250	8.2215e-03
12.500	20.500	1.0094e-02
12.500	20.750	1.3008e-02
12.500	21.000	1.7306e-02
12.500	21.250	2.1617e-02
12.500	21.500	2.5076e-02
12.500	21.750	2.9084e-02
12.500	22.000	3.2794e-02
12.500	22.250	3.2213e-02
12.500	22.500	2.7411e-02
12.500	22.750	2.3505e-02
12.500	23.000	2.0373e-02
12.500	23.250	1.8053e-02
12.500	23.500	1.6440e-02
12.500	23.750	1.5464e-02
12.500	24.000	1.4829e-02
12.750	17.000	6.0367e-03
12.750	17.250	6.4837e-03
12.750	17.500	6.8956e-03
12.750	17.750	7.2069e-03
12.750	18.000	7.3998e-03
12.750	18.250	7.4387e-03
12.750	18.500	7.3133e-03
12.750	18.750	7.0646e-03
12.750	19.000	6.7316e-03
12.750	19.250	6.3727e-03
12.750	19.500	6.0785e-03
12.750	19.750	6.0155e-03
12.750	20.000	6.3388e-03
12.750	20.250	7.1435e-03
12.750	20.500	8.4302e-03
12.750	20.750	1.0621e-02
12.750	21.000	1.4089e-02
12.750	21.250	1.9351e-02
12.750	21.500	2.4095e-02
12.750	21.750	2.8312e-02
12.750	22.000	3.3075e-02
12.750	22.250	3.6438e-02
12.750	22.500	3.3812e-02
12.750	22.750	2.8216e-02
12.750	23.000	2.3917e-02
12.750	23.250	2.0477e-02
12.750	23.500	1.8055e-02
12.750	23.750	1.6438e-02
12.750	24.000	1.5464e-02
13.000	17.000	5.3302e-03
13.000	17.250	5.8246e-03
13.000	17.500	6.2456e-03
13.000	17.750	6.6281e-03
13.000	18.000	6.9656e-03
13.000	18.250	7.1959e-03
13.000	18.500	7.2603e-03
13.000	18.750	7.1569e-03
13.000	19.000	6.9263e-03
13.000	19.250	6.6099e-03
13.000	19.500	6.2636e-03
13.000	19.750	5.9883e-03
13.000	20.000	5.9450e-03
13.000	20.250	6.3156e-03
13.000	20.500	7.2309e-03
13.000	20.750	8.7584e-03
13.000	21.000	1.1429e-02
13.000	21.250	1.5665e-02
13.000	21.500	2.1618e-02
13.000	21.750	2.7237e-02
13.000	22.000	3.2589e-02
13.000	22.250	3.7270e-02
13.000	22.500	3.9717e-02
13.000	22.750	3.5465e-02
13.000	23.000	2.9326e-02
13.000	23.250	2.4154e-02
13.000	23.500	2.0589e-02
13.000	23.750	1.8062e-02
13.000	24.000	1.6437e-02
13.250	17.000	4.8742e-03
13.250	17.250	5.3078e-03
13.250	17.500	5.6965e-03
13.250	17.750	6.0518e-03
13.250	18.000	6.4244e-03
13.250	18.250	6.7648e-03
13.250	18.500	6.9951e-03
13.250	18.750	7.0626e-03
13.250	19.000	6.9739e-03
13.250	19.250	6.7604e-03
13.250	19.500	6.4676e-03
13.250	19.750	6.1484e-03
13.250	20.000	5.9023e-03
13.250	20.250	5.8793e-03
13.250	20.500	6.2849e-03
13.250	20.750	7.3067e-03
13.250	21.000	9.2205e-03
13.250	21.250	1.2221e-02
13.250	21.500	1.6886e-02
13.250	21.750	2.3369e-02
13.250	22.000	3.0529e-02
13.250	22.250	3.5457e-02
13.250	22.500	4.0946e-02
13.250	22.750	4.2721e-02
13.250	23.000	3.7141e-02
13.250	23.250	3.0154e-02
13.250	23.500	2.4500e-02
13.250	23.750	2.0693e-02
13.250	24.000	1.8072e-02
13.500	17.000	4.4406e-03
13.500	17.250	4.8689e-03
13.500	17.500	5.2300e-03
13.500	17.750	5.5565e-03
13.500	18.000	5.9231e-03
13.500	18.250	6.2956e-03
13.500	18.500	6.6005e-03
13.500	18.750	6.7824e-03
13.500	19.000	6.8354e-03
13.500	19.250	6.7571e-03
13.500	19.500	6.5644e-03
13.500	19.750	6.2993e-03
13.500	20.000	6.0202e-03
13.500	20.250	5.8244e-03
13.500	20.500	5.8253e-03
13.500	20.750	6.2470e-03
13.500	21.000	7.2849e-03
13.500	21.250	9.3422e-03
13.500	21.500	1.2273e-02
13.500	21.750	1.7331e-02
13.500	22.000	2.4658e-02
13.500	22.250	3.2267e-02
13.500	22.500	3.8599e-02
13.500	22.750	4.4588e-02
13.500	23.000	4.5734e-02
13.500	23.250	3.8630e-02
13.500	23.500	3.0874e-02
13.500	23.750	2.4977e-02
13.500	24.000	2.0790e-02
13.750	17.000	4.0010e-03
13.750	17.250	4.4506e-03
13.750	17.500	4.8102e-03
13.750	17.750	5.1179e-03
13.750	18.000	5.4666e-03
13.750	18.250	5.8460e-03
13.750	18.500	6.1833e-03
13.750	18.750	6.4229e-03
13.750	19.000	6.5584e-03
13.750	19.250	6.5910e-03
13.750	19.500	6.5258e-03
13.750	19.750	6.3657e-03
13.750	20.000	6.1472e-03
13.750	20.250	5.9269e-03
13.750	20.500	5.7910e-03
13.750	20.750	5.8575e-03
13.750	21.000	6.3194e-03
13.750	21.250	7.3719e-03
13.750	21.500	9.3205e-03
13.750	21.750	1.2537e-02
13.750	22.000	1.7878e-02
13.750	22.250	2.6425e-02
13.750	22.500	3.5161e-02
13.750	22.750	4.2257e-02
13.750	23.000	4.8380e-02
13.750	23.250	4.8955e-02
13.750	23.500	4.0278e-02
13.750	23.750	3.1570e-02
13.750	24.000	2.5274e-02
14.000	17.000	3.5216e-03
14.000	17.250	4.0201e-03
14.000	17.500	4.4113e-03
14.000	17.750	4.7095e-03
14.000	18.000	5.0419e-03
14.000	18.250	5.4147e-03
14.000	18.500	5.7630e-03
14.000	18.750	6.0360e-03
14.000	19.000	6.2207e-03
14.000	19.250	6.3263e-03
14.000	19.500	6.3560e-03
14.000	19.750	6.3119e-03
14.000	20.000	6.1976e-03
14.000	20.250	6.0417e-03
14.000	20.500	5.9068e-03
14.000	20.750	5.8714e-03
14.000	21.000	6.0565e-03
14.000	21.250	6.6563e-03
14.000	21.500	7.7844e-03
14.000	21.750	9.9282e-03
14.000	22.000	1.3560e-02
14.000	22.250	1.9863e-02
14.000	22.500	3.0126e-02
14.000	22.750	3.9821e-02
14.000	23.000	4.8197e-02
14.000	23.250	5.3265e-02
14.000	23.500	5.2573e-02
14.000	23.750	4.1789e-02
14.000	24.000	3.2314e-02
