nFnu 1064.34A  relative to Inci 1215.00A scaled to 1215A.
Hden   Phi(H)  Eq_Width (A)
 7.000	17.000	3.5685e-02
 7.000	17.250	3.1233e-02
 7.000	17.500	2.6522e-02
 7.000	17.750	2.2118e-02
 7.000	18.000	1.8799e-02
 7.000	18.250	1.6768e-02
 7.000	18.500	1.5491e-02
 7.000	18.750	1.4860e-02
 7.000	19.000	1.4527e-02
 7.000	19.250	1.4338e-02
 7.000	19.500	1.4258e-02
 7.000	19.750	1.4224e-02
 7.000	20.000	1.4209e-02
 7.000	20.250	1.4202e-02
 7.000	20.500	1.4198e-02
 7.000	20.750	1.4197e-02
 7.000	21.000	1.4196e-02
 7.000	21.250	1.4195e-02
 7.000	21.500	1.4195e-02
 7.000	21.750	1.4195e-02
 7.000	22.000	1.4195e-02
 7.000	22.250	1.4195e-02
 7.000	22.500	1.4194e-02
 7.000	22.750	1.4196e-02
 7.000	23.000	1.4196e-02
 7.000	23.250	1.4195e-02
 7.000	23.500	1.4196e-02
 7.000	23.750	1.4196e-02
 7.000	24.000	1.4196e-02
 7.250	17.000	3.7018e-02
 7.250	17.250	3.5261e-02
 7.250	17.500	3.1016e-02
 7.250	17.750	2.6422e-02
 7.250	18.000	2.2063e-02
 7.250	18.250	1.8769e-02
 7.250	18.500	1.6753e-02
 7.250	18.750	1.5485e-02
 7.250	19.000	1.4858e-02
 7.250	19.250	1.4526e-02
 7.250	19.500	1.4338e-02
 7.250	19.750	1.4258e-02
 7.250	20.000	1.4224e-02
 7.250	20.250	1.4209e-02
 7.250	20.500	1.4202e-02
 7.250	20.750	1.4198e-02
 7.250	21.000	1.4197e-02
 7.250	21.250	1.4196e-02
 7.250	21.500	1.4195e-02
 7.250	21.750	1.4195e-02
 7.250	22.000	1.4195e-02
 7.250	22.250	1.4195e-02
 7.250	22.500	1.4194e-02
 7.250	22.750	1.4194e-02
 7.250	23.000	1.4194e-02
 7.250	23.250	1.4194e-02
 7.250	23.500	1.4194e-02
 7.250	23.750	1.4194e-02
 7.250	24.000	1.4194e-02
 7.500	17.000	3.9655e-02
 7.500	17.250	3.5543e-02
 7.500	17.500	3.5023e-02
 7.500	17.750	3.0894e-02
 7.500	18.000	2.6374e-02
 7.500	18.250	2.2032e-02
 7.500	18.500	1.8750e-02
 7.500	18.750	1.6744e-02
 7.500	19.000	1.5482e-02
 7.500	19.250	1.4856e-02
 7.500	19.500	1.4525e-02
 7.500	19.750	1.4338e-02
 7.500	20.000	1.4258e-02
 7.500	20.250	1.4224e-02
 7.500	20.500	1.4209e-02
 7.500	20.750	1.4202e-02
 7.500	21.000	1.4198e-02
 7.500	21.250	1.4196e-02
 7.500	21.500	1.4195e-02
 7.500	21.750	1.4195e-02
 7.500	22.000	1.4195e-02
 7.500	22.250	1.4195e-02
 7.500	22.500	1.4195e-02
 7.500	22.750	1.4194e-02
 7.500	23.000	1.4194e-02
 7.500	23.250	1.4194e-02
 7.500	23.500	1.4196e-02
 7.500	23.750	1.4194e-02
 7.500	24.000	1.4194e-02
 7.750	17.000	3.2023e-02
 7.750	17.250	3.6372e-02
 7.750	17.500	3.4372e-02
 7.750	17.750	3.4886e-02
 7.750	18.000	3.0832e-02
 7.750	18.250	2.6360e-02
 7.750	18.500	2.2018e-02
 7.750	18.750	1.8739e-02
 7.750	19.000	1.6738e-02
 7.750	19.250	1.5480e-02
 7.750	19.500	1.4856e-02
 7.750	19.750	1.4525e-02
 7.750	20.000	1.4338e-02
 7.750	20.250	1.4258e-02
 7.750	20.500	1.4224e-02
 7.750	20.750	1.4209e-02
 7.750	21.000	1.4202e-02
 7.750	21.250	1.4198e-02
 7.750	21.500	1.4196e-02
 7.750	21.750	1.4195e-02
 7.750	22.000	1.4195e-02
 7.750	22.250	1.4195e-02
 7.750	22.500	1.4194e-02
 7.750	22.750	1.4195e-02
 7.750	23.000	1.4194e-02
 7.750	23.250	1.4194e-02
 7.750	23.500	1.4195e-02
 7.750	23.750	1.4195e-02
 7.750	24.000	1.4194e-02
 8.000	17.000	2.4088e-02
 8.000	17.250	2.8700e-02
 8.000	17.500	3.3511e-02
 8.000	17.750	3.3359e-02
 8.000	18.000	3.4811e-02
 8.000	18.250	3.0802e-02
 8.000	18.500	2.6369e-02
 8.000	18.750	2.2014e-02
 8.000	19.000	1.8733e-02
 8.000	19.250	1.6734e-02
 8.000	19.500	1.5478e-02
 8.000	19.750	1.4855e-02
 8.000	20.000	1.4525e-02
 8.000	20.250	1.4338e-02
 8.000	20.500	1.4258e-02
 8.000	20.750	1.4224e-02
 8.000	21.000	1.4209e-02
 8.000	21.250	1.4202e-02
 8.000	21.500	1.4198e-02
 8.000	21.750	1.4196e-02
 8.000	22.000	1.4195e-02
 8.000	22.250	1.4195e-02
 8.000	22.500	1.4195e-02
 8.000	22.750	1.4194e-02
 8.000	23.000	1.4194e-02
 8.000	23.250	1.4194e-02
 8.000	23.500	1.4194e-02
 8.000	23.750	1.4194e-02
 8.000	24.000	1.4194e-02
 8.250	17.000	1.8735e-02
 8.250	17.250	2.1596e-02
 8.250	17.500	2.6481e-02
 8.250	17.750	3.1694e-02
 8.250	18.000	3.2705e-02
 8.250	18.250	3.4752e-02
 8.250	18.500	3.0793e-02
 8.250	18.750	2.6391e-02
 8.250	19.000	2.2017e-02
 8.250	19.250	1.8730e-02
 8.250	19.500	1.6732e-02
 8.250	19.750	1.5477e-02
 8.250	20.000	1.4855e-02
 8.250	20.250	1.4525e-02
 8.250	20.500	1.4338e-02
 8.250	20.750	1.4258e-02
 8.250	21.000	1.4224e-02
 8.250	21.250	1.4209e-02
 8.250	21.500	1.4202e-02
 8.250	21.750	1.4198e-02
 8.250	22.000	1.4196e-02
 8.250	22.250	1.4195e-02
 8.250	22.500	1.4195e-02
 8.250	22.750	1.4195e-02
 8.250	23.000	1.4194e-02
 8.250	23.250	1.4194e-02
 8.250	23.500	1.4195e-02
 8.250	23.750	1.4194e-02
 8.250	24.000	1.4194e-02
 8.500	17.000	1.5396e-02
 8.500	17.250	1.6837e-02
 8.500	17.500	1.9945e-02
 8.500	17.750	2.5093e-02
 8.500	18.000	3.0515e-02
 8.500	18.250	3.2215e-02
 8.500	18.500	3.4701e-02
 8.500	18.750	3.0795e-02
 8.500	19.000	2.6424e-02
 8.500	19.250	2.2024e-02
 8.500	19.500	1.8728e-02
 8.500	19.750	1.6731e-02
 8.500	20.000	1.5477e-02
 8.500	20.250	1.4855e-02
 8.500	20.500	1.4525e-02
 8.500	20.750	1.4338e-02
 8.500	21.000	1.4258e-02
 8.500	21.250	1.4224e-02
 8.500	21.500	1.4209e-02
 8.500	21.750	1.4202e-02
 8.500	22.000	1.4198e-02
 8.500	22.250	1.4196e-02
 8.500	22.500	1.4195e-02
 8.500	22.750	1.4195e-02
 8.500	23.000	1.4195e-02
 8.500	23.250	1.4194e-02
 8.500	23.500	1.4194e-02
 8.500	23.750	1.4194e-02
 8.500	24.000	1.4194e-02
 8.750	17.000	1.3480e-02
 8.750	17.250	1.4018e-02
 8.750	17.500	1.5658e-02
 8.750	17.750	1.8898e-02
 8.750	18.000	2.4262e-02
 8.750	18.250	2.9794e-02
 8.750	18.500	3.1935e-02
 8.750	18.750	3.4645e-02
 8.750	19.000	3.0803e-02
 8.750	19.250	2.6464e-02
 8.750	19.500	2.2034e-02
 8.750	19.750	1.8728e-02
 8.750	20.000	1.6730e-02
 8.750	20.250	1.5476e-02
 8.750	20.500	1.4854e-02
 8.750	20.750	1.4525e-02
 8.750	21.000	1.4338e-02
 8.750	21.250	1.4258e-02
 8.750	21.500	1.4224e-02
 8.750	21.750	1.4209e-02
 8.750	22.000	1.4202e-02
 8.750	22.250	1.4198e-02
 8.750	22.500	1.4196e-02
 8.750	22.750	1.4195e-02
 8.750	23.000	1.4195e-02
 8.750	23.250	1.4195e-02
 8.750	23.500	1.4195e-02
 8.750	23.750	1.4194e-02
 8.750	24.000	1.4194e-02
 9.000	17.000	1.2512e-02
 9.000	17.250	1.2485e-02
 9.000	17.500	1.3197e-02
 9.000	17.750	1.4968e-02
 9.000	18.000	1.8395e-02
 9.000	18.250	2.3923e-02
 9.000	18.500	2.9385e-02
 9.000	18.750	3.1737e-02
 9.000	19.000	3.4583e-02
 9.000	19.250	3.0805e-02
 9.000	19.500	2.6505e-02
 9.000	19.750	2.2045e-02
 9.000	20.000	1.8728e-02
 9.000	20.250	1.6729e-02
 9.000	20.500	1.5476e-02
 9.000	20.750	1.4854e-02
 9.000	21.000	1.4525e-02
 9.000	21.250	1.4338e-02
 9.000	21.500	1.4258e-02
 9.000	21.750	1.4224e-02
 9.000	22.000	1.4209e-02
 9.000	22.250	1.4202e-02
 9.000	22.500	1.4198e-02
 9.000	22.750	1.4196e-02
 9.000	23.000	1.4195e-02
 9.000	23.250	1.4195e-02
 9.000	23.500	1.4195e-02
 9.000	23.750	1.4194e-02
 9.000	24.000	1.4194e-02
 9.250	17.000	1.2211e-02
 9.250	17.250	1.1780e-02
 9.250	17.500	1.1930e-02
 9.250	17.750	1.2801e-02
 9.250	18.000	1.4797e-02
 9.250	18.250	1.8456e-02
 9.250	18.500	2.4162e-02
 9.250	18.750	2.9130e-02
 9.250	19.000	3.1574e-02
 9.250	19.250	3.4505e-02
 9.250	19.500	3.0797e-02
 9.250	19.750	2.6542e-02
 9.250	20.000	2.2056e-02
 9.250	20.250	1.8728e-02
 9.250	20.500	1.6729e-02
 9.250	20.750	1.5476e-02
 9.250	21.000	1.4854e-02
 9.250	21.250	1.4525e-02
 9.250	21.500	1.4336e-02
 9.250	21.750	1.4256e-02
 9.250	22.000	1.4222e-02
 9.250	22.250	1.4207e-02
 9.250	22.500	1.4201e-02
 9.250	22.750	1.4198e-02
 9.250	23.000	1.4196e-02
 9.250	23.250	1.4195e-02
 9.250	23.500	1.4195e-02
 9.250	23.750	1.4195e-02
 9.250	24.000	1.4194e-02
 9.500	17.000	1.2426e-02
 9.500	17.250	1.1642e-02
 9.500	17.500	1.1418e-02
 9.500	17.750	1.1791e-02
 9.500	18.000	1.2904e-02
 9.500	18.250	1.5174e-02
 9.500	18.500	1.9230e-02
 9.500	18.750	2.5010e-02
 9.500	19.000	2.8868e-02
 9.500	19.250	3.1424e-02
 9.500	19.500	3.4423e-02
 9.500	19.750	3.0775e-02
 9.500	20.000	2.6569e-02
 9.500	20.250	2.2065e-02
 9.500	20.500	1.8728e-02
 9.500	20.750	1.6728e-02
 9.500	21.000	1.5474e-02
 9.500	21.250	1.4853e-02
 9.500	21.500	1.4523e-02
 9.500	21.750	1.4335e-02
 9.500	22.000	1.4255e-02
 9.500	22.250	1.4221e-02
 9.500	22.500	1.4206e-02
 9.500	22.750	1.4199e-02
 9.500	23.000	1.4196e-02
 9.500	23.250	1.4194e-02
 9.500	23.500	1.4193e-02
 9.500	23.750	1.4192e-02
 9.500	24.000	1.4192e-02
 9.750	17.000	1.3123e-02
 9.750	17.250	1.1936e-02
 9.750	17.500	1.1388e-02
 9.750	17.750	1.1445e-02
 9.750	18.000	1.2142e-02
 9.750	18.250	1.3610e-02
 9.750	18.500	1.6298e-02
 9.750	18.750	2.0702e-02
 9.750	19.000	2.6045e-02
 9.750	19.250	2.8548e-02
 9.750	19.500	3.1250e-02
 9.750	19.750	3.4336e-02
 9.750	20.000	3.0737e-02
 9.750	20.250	2.6584e-02
 9.750	20.500	2.2072e-02
 9.750	20.750	1.8729e-02
 9.750	21.000	1.6728e-02
 9.750	21.250	1.5474e-02
 9.750	21.500	1.4853e-02
 9.750	21.750	1.4523e-02
 9.750	22.000	1.4335e-02
 9.750	22.250	1.4255e-02
 9.750	22.500	1.4221e-02
 9.750	22.750	1.4206e-02
 9.750	23.000	1.4199e-02
 9.750	23.250	1.4196e-02
 9.750	23.500	1.4194e-02
 9.750	23.750	1.4193e-02
 9.750	24.000	1.4192e-02
10.000	17.000	1.4328e-02
10.000	17.250	1.2659e-02
10.000	17.500	1.1718e-02
10.000	17.750	1.1528e-02
10.000	18.000	1.2062e-02
10.000	18.250	1.3132e-02
10.000	18.500	1.4970e-02
10.000	18.750	1.7971e-02
10.000	19.000	2.2501e-02
10.000	19.250	2.6436e-02
10.000	19.500	2.8345e-02
10.000	19.750	3.1115e-02
10.000	20.000	3.4281e-02
10.000	20.250	3.0693e-02
10.000	20.500	2.6589e-02
10.000	20.750	2.2078e-02
10.000	21.000	1.8729e-02
10.000	21.250	1.6728e-02
10.000	21.500	1.5474e-02
10.000	21.750	1.4853e-02
10.000	22.000	1.4523e-02
10.000	22.250	1.4336e-02
10.000	22.500	1.4255e-02
10.000	22.750	1.4221e-02
10.000	23.000	1.4206e-02
10.000	23.250	1.4199e-02
10.000	23.500	1.4196e-02
10.000	23.750	1.4194e-02
10.000	24.000	1.4193e-02
10.250	17.000	1.6153e-02
10.250	17.250	1.3894e-02
10.250	17.500	1.2510e-02
10.250	17.750	1.2043e-02
10.250	18.000	1.2458e-02
10.250	18.250	1.3341e-02
10.250	18.500	1.4712e-02
10.250	18.750	1.6854e-02
10.250	19.000	2.0171e-02
10.250	19.250	2.4131e-02
10.250	19.500	2.6708e-02
10.250	19.750	2.8300e-02
10.250	20.000	3.1017e-02
10.250	20.250	3.4256e-02
10.250	20.500	3.0647e-02
10.250	20.750	2.6584e-02
10.250	21.000	2.2081e-02
10.250	21.250	1.8729e-02
10.250	21.500	1.6728e-02
10.250	21.750	1.5474e-02
10.250	22.000	1.4853e-02
10.250	22.250	1.4523e-02
10.250	22.500	1.4336e-02
10.250	22.750	1.4255e-02
10.250	23.000	1.4221e-02
10.250	23.250	1.4206e-02
10.250	23.500	1.4199e-02
10.250	23.750	1.4196e-02
10.250	24.000	1.4194e-02
10.500	17.000	1.8615e-02
10.500	17.250	1.5779e-02
10.500	17.500	1.3880e-02
10.500	17.750	1.3115e-02
10.500	18.000	1.3348e-02
10.500	18.250	1.4125e-02
10.500	18.500	1.5098e-02
10.500	18.750	1.6489e-02
10.500	19.000	1.8462e-02
10.500	19.250	2.1501e-02
10.500	19.500	2.4662e-02
10.500	19.750	2.6881e-02
10.500	20.000	2.8572e-02
10.500	20.250	3.1176e-02
10.500	20.500	3.4407e-02
10.500	20.750	3.0618e-02
10.500	21.000	2.6572e-02
10.500	21.250	2.2082e-02
10.500	21.500	1.8729e-02
10.500	21.750	1.6728e-02
10.500	22.000	1.5474e-02
10.500	22.250	1.4854e-02
10.500	22.500	1.4523e-02
10.500	22.750	1.4336e-02
10.500	23.000	1.4256e-02
10.500	23.250	1.4221e-02
10.500	23.500	1.4206e-02
10.500	23.750	1.4199e-02
10.500	24.000	1.4196e-02
10.750	17.000	2.1704e-02
10.750	17.250	1.8327e-02
10.750	17.500	1.5986e-02
10.750	17.750	1.4905e-02
10.750	18.000	1.4841e-02
10.750	18.250	1.5230e-02
10.750	18.500	1.5759e-02
10.750	18.750	1.6438e-02
10.750	19.000	1.7447e-02
10.750	19.250	1.9437e-02
10.750	19.500	2.2501e-02
10.750	19.750	2.5311e-02
10.750	20.000	2.7286e-02
10.750	20.250	2.9457e-02
10.750	20.500	3.1780e-02
10.750	20.750	3.4787e-02
10.750	21.000	3.0638e-02
10.750	21.250	2.6555e-02
10.750	21.500	2.2082e-02
10.750	21.750	1.8729e-02
10.750	22.000	1.6728e-02
10.750	22.250	1.5474e-02
10.750	22.500	1.4854e-02
10.750	22.750	1.4524e-02
10.750	23.000	1.4336e-02
10.750	23.250	1.4256e-02
10.750	23.500	1.4222e-02
10.750	23.750	1.4207e-02
10.750	24.000	1.4199e-02
11.000	17.000	2.5438e-02
11.000	17.250	2.1537e-02
11.000	17.500	1.8840e-02
11.000	17.750	1.7492e-02
11.000	18.000	1.7020e-02
11.000	18.250	1.6821e-02
11.000	18.500	1.6751e-02
11.000	18.750	1.6793e-02
11.000	19.000	1.7092e-02
11.000	19.250	1.8133e-02
11.000	19.500	2.0270e-02
11.000	19.750	2.3534e-02
11.000	20.000	2.5667e-02
11.000	20.250	2.8446e-02
11.000	20.500	3.0362e-02
11.000	20.750	3.2869e-02
11.000	21.000	3.5481e-02
11.000	21.250	3.0771e-02
11.000	21.500	2.6539e-02
11.000	21.750	2.2078e-02
11.000	22.000	1.8729e-02
11.000	22.250	1.6728e-02
11.000	22.500	1.5474e-02
11.000	22.750	1.4854e-02
11.000	23.000	1.4525e-02
11.000	23.250	1.4336e-02
11.000	23.500	1.4256e-02
11.000	23.750	1.4222e-02
11.000	24.000	1.4207e-02
11.250	17.000	2.9821e-02
11.250	17.250	2.5353e-02
11.250	17.500	2.2362e-02
11.250	17.750	2.0805e-02
11.250	18.000	1.9948e-02
11.250	18.250	1.9038e-02
11.250	18.500	1.8056e-02
11.250	18.750	1.7609e-02
11.250	19.000	1.7310e-02
11.250	19.250	1.7606e-02
11.250	19.500	1.8770e-02
11.250	19.750	2.1188e-02
11.250	20.000	2.4643e-02
11.250	20.250	2.6657e-02
11.250	20.500	2.9745e-02
11.250	20.750	3.2168e-02
11.250	21.000	3.4753e-02
11.250	21.250	3.6561e-02
11.250	21.500	3.1054e-02
11.250	21.750	2.6537e-02
11.250	22.000	2.2073e-02
11.250	22.250	1.8728e-02
11.250	22.500	1.6729e-02
11.250	22.750	1.5474e-02
11.250	23.000	1.4854e-02
11.250	23.250	1.4525e-02
11.250	23.500	1.4336e-02
11.250	23.750	1.4256e-02
11.250	24.000	1.4222e-02
11.500	17.000	3.4793e-02
11.500	17.250	2.9825e-02
11.500	17.500	2.6510e-02
11.500	17.750	2.4738e-02
11.500	18.000	2.3489e-02
11.500	18.250	2.1879e-02
11.500	18.500	2.0207e-02
11.500	18.750	1.8999e-02
11.500	19.000	1.8176e-02
11.500	19.250	1.7741e-02
11.500	19.500	1.8022e-02
11.500	19.750	1.9431e-02
11.500	20.000	2.2220e-02
11.500	20.250	2.5949e-02
11.500	20.500	2.8011e-02
11.500	20.750	3.1746e-02
11.500	21.000	3.4730e-02
11.500	21.250	3.7820e-02
11.500	21.500	3.7904e-02
11.500	21.750	3.1512e-02
11.500	22.000	2.6565e-02
11.500	22.250	2.2066e-02
11.500	22.500	1.8727e-02
11.500	22.750	1.6729e-02
11.500	23.000	1.5473e-02
11.500	23.250	1.4854e-02
11.500	23.500	1.4525e-02
11.500	23.750	1.4337e-02
11.500	24.000	1.4256e-02
11.750	17.000	3.9921e-02
11.750	17.250	3.4699e-02
11.750	17.500	3.1150e-02
11.750	17.750	2.9133e-02
11.750	18.000	2.7418e-02
11.750	18.250	2.5372e-02
11.750	18.500	2.3135e-02
11.750	18.750	2.1014e-02
11.750	19.000	1.9546e-02
11.750	19.250	1.8492e-02
11.750	19.500	1.8060e-02
11.750	19.750	1.8469e-02
11.750	20.000	2.0162e-02
11.750	20.250	2.3394e-02
11.750	20.500	2.7458e-02
11.750	20.750	2.9868e-02
11.750	21.000	3.4659e-02
11.750	21.250	3.8806e-02
11.750	21.500	4.2353e-02
11.750	21.750	3.9343e-02
11.750	22.000	3.2136e-02
11.750	22.250	2.6634e-02
11.750	22.500	2.2057e-02
11.750	22.750	1.8726e-02
11.750	23.000	1.6730e-02
11.750	23.250	1.5473e-02
11.750	23.500	1.4854e-02
11.750	23.750	1.4525e-02
11.750	24.000	1.4337e-02
12.000	17.000	4.3916e-02
12.000	17.250	3.9232e-02
12.000	17.500	3.5728e-02
12.000	17.750	3.3538e-02
12.000	18.000	3.1524e-02
12.000	18.250	2.9278e-02
12.000	18.500	2.6602e-02
12.000	18.750	2.3929e-02
12.000	19.000	2.1685e-02
12.000	19.250	1.9787e-02
12.000	19.500	1.8717e-02
12.000	19.750	1.8302e-02
12.000	20.000	1.8920e-02
12.000	20.250	2.0997e-02
12.000	20.500	2.4786e-02
12.000	20.750	2.9158e-02
12.000	21.000	3.2773e-02
12.000	21.250	3.9036e-02
12.000	21.500	4.4467e-02
12.000	21.750	4.8052e-02
12.000	22.000	4.0858e-02
12.000	22.250	3.2624e-02
12.000	22.500	2.6748e-02
12.000	22.750	2.2049e-02
12.000	23.000	1.8725e-02
12.000	23.250	1.6731e-02
12.000	23.500	1.5472e-02
12.000	23.750	1.4854e-02
12.000	24.000	1.4525e-02
12.250	17.000	4.2488e-02
12.250	17.250	4.1521e-02
12.250	17.500	3.9061e-02
12.250	17.750	3.7215e-02
12.250	18.000	3.5386e-02
12.250	18.250	3.3142e-02
12.250	18.500	3.0407e-02
12.250	18.750	2.7413e-02
12.250	19.000	2.4518e-02
12.250	19.250	2.1797e-02
12.250	19.500	1.9897e-02
12.250	19.750	1.8829e-02
12.250	20.000	1.8521e-02
12.250	20.250	1.9436e-02
12.250	20.500	2.1963e-02
12.250	20.750	2.6508e-02
12.250	21.000	3.1955e-02
12.250	21.250	3.7501e-02
12.250	21.500	4.5073e-02
12.250	21.750	5.1701e-02
12.250	22.000	5.2643e-02
12.250	22.250	4.2271e-02
12.250	22.500	3.3313e-02
12.250	22.750	2.6893e-02
12.250	23.000	2.2043e-02
12.250	23.250	1.8723e-02
12.250	23.500	1.6732e-02
12.250	23.750	1.5471e-02
12.250	24.000	1.4854e-02
12.500	17.000	2.1496e-02
12.500	17.250	3.6866e-02
12.500	17.500	3.9458e-02
12.500	17.750	3.9257e-02
12.500	18.000	3.8250e-02
12.500	18.250	3.6403e-02
12.500	18.500	3.3941e-02
12.500	18.750	3.0883e-02
12.500	19.000	2.7697e-02
12.500	19.250	2.4573e-02
12.500	19.500	2.1791e-02
12.500	19.750	1.9885e-02
12.500	20.000	1.8866e-02
12.500	20.250	1.8753e-02
12.500	20.500	2.0036e-02
12.500	20.750	2.3268e-02
12.500	21.000	2.9269e-02
12.500	21.250	3.6894e-02
12.500	21.500	4.3908e-02
12.500	21.750	5.2845e-02
12.500	22.000	5.9814e-02
12.500	22.250	5.5946e-02
12.500	22.500	4.3646e-02
12.500	22.750	3.4200e-02
12.500	23.000	2.7060e-02
12.500	23.250	2.2041e-02
12.500	23.500	1.8721e-02
12.500	23.750	1.6733e-02
12.500	24.000	1.5470e-02
12.750	17.000	2.0611e-02
12.750	17.250	2.0874e-02
12.750	17.500	3.3820e-02
12.750	17.750	3.8157e-02
12.750	18.000	3.8636e-02
12.750	18.250	3.7872e-02
12.750	18.500	3.6217e-02
12.750	18.750	3.3875e-02
12.750	19.000	3.0817e-02
12.750	19.250	2.7610e-02
12.750	19.500	2.4292e-02
12.750	19.750	2.1470e-02
12.750	20.000	1.9655e-02
12.750	20.250	1.8892e-02
12.750	20.500	1.9041e-02
12.750	20.750	2.0896e-02
12.750	21.000	2.5193e-02
12.750	21.250	3.3422e-02
12.750	21.500	4.2731e-02
12.750	21.750	5.1709e-02
12.750	22.000	6.2162e-02
12.750	22.250	6.7778e-02
12.750	22.500	5.9044e-02
12.750	22.750	4.5113e-02
12.750	23.000	3.4911e-02
12.750	23.250	2.7225e-02
12.750	23.500	2.2044e-02
12.750	23.750	1.8719e-02
12.750	24.000	1.6734e-02
13.000	17.000	3.9707e-02
13.000	17.250	3.4518e-02
13.000	17.500	1.9957e-02
13.000	17.750	2.2014e-02
13.000	18.000	3.1542e-02
13.000	18.250	3.4635e-02
13.000	18.500	3.5464e-02
13.000	18.750	3.4852e-02
13.000	19.000	3.2993e-02
13.000	19.250	3.0187e-02
13.000	19.500	2.7047e-02
13.000	19.750	2.3843e-02
13.000	20.000	2.1105e-02
13.000	20.250	1.9410e-02
13.000	20.500	1.8832e-02
13.000	20.750	1.9485e-02
13.000	21.000	2.2241e-02
13.000	21.250	2.8123e-02
13.000	21.500	3.8061e-02
13.000	21.750	5.0222e-02
13.000	22.000	6.2063e-02
13.000	22.250	7.1828e-02
13.000	22.500	7.4693e-02
13.000	22.750	6.2207e-02
13.000	23.000	4.7150e-02
13.000	23.250	3.5290e-02
13.000	23.500	2.7401e-02
13.000	23.750	2.2054e-02
13.000	24.000	1.8718e-02
13.250	17.000	3.8056e-02
13.250	17.250	3.3899e-02
13.250	17.500	1.8768e-02
13.250	17.750	1.8971e-02
13.250	18.000	1.9230e-02
13.250	18.250	1.9422e-02
13.250	18.500	2.5871e-02
13.250	18.750	3.0840e-02
13.250	19.000	3.2283e-02
13.250	19.250	3.1348e-02
13.250	19.500	2.9110e-02
13.250	19.750	2.6212e-02
13.250	20.000	2.3252e-02
13.250	20.250	2.0760e-02
13.250	20.500	1.9134e-02
13.250	20.750	1.8776e-02
13.250	21.000	2.0167e-02
13.250	21.250	2.3559e-02
13.250	21.500	3.0293e-02
13.250	21.750	4.1561e-02
13.250	22.000	5.8064e-02
13.250	22.250	6.8624e-02
13.250	22.500	7.9913e-02
13.250	22.750	8.0769e-02
13.250	23.000	6.5372e-02
13.250	23.250	4.8620e-02
13.250	23.500	3.5868e-02
13.250	23.750	2.7561e-02
13.250	24.000	2.2068e-02
13.500	17.000	3.6438e-02
13.500	17.250	3.2251e-02
13.500	17.500	1.7731e-02
13.500	17.750	1.7739e-02
13.500	18.000	1.7995e-02
13.500	18.250	1.8281e-02
13.500	18.500	1.8445e-02
13.500	18.750	1.8391e-02
13.500	19.000	2.3483e-02
13.500	19.250	2.8412e-02
13.500	19.500	2.9209e-02
13.500	19.750	2.7671e-02
13.500	20.000	2.5174e-02
13.500	20.250	2.2537e-02
13.500	20.500	2.0241e-02
13.500	20.750	1.8758e-02
13.500	21.000	1.8515e-02
13.500	21.250	2.0161e-02
13.500	21.500	2.3386e-02
13.500	21.750	3.0818e-02
13.500	22.000	4.4134e-02
13.500	22.250	6.2042e-02
13.500	22.500	7.5661e-02
13.500	22.750	8.7652e-02
13.500	23.000	8.6679e-02
13.500	23.250	6.8124e-02
13.500	23.500	4.9877e-02
13.500	23.750	3.6679e-02
13.500	24.000	2.7710e-02
13.750	17.000	3.4391e-02
13.750	17.250	3.1524e-02
13.750	17.500	1.7532e-02
13.750	17.750	1.6561e-02
13.750	18.000	1.6779e-02
13.750	18.250	1.7106e-02
13.750	18.500	1.7374e-02
13.750	18.750	1.7466e-02
13.750	19.000	1.7371e-02
13.750	19.250	1.7086e-02
13.750	19.500	2.3610e-02
13.750	19.750	2.6456e-02
13.750	20.000	2.5871e-02
13.750	20.250	2.3951e-02
13.750	20.500	2.1738e-02
13.750	20.750	1.9746e-02
13.750	21.000	1.8542e-02
13.750	21.250	1.8429e-02
13.750	21.500	1.9891e-02
13.750	21.750	2.3679e-02
13.750	22.000	3.1728e-02
13.750	22.250	4.8256e-02
13.750	22.500	6.9019e-02
13.750	22.750	8.3889e-02
13.750	23.000	9.5446e-02
13.750	23.250	9.2926e-02
13.750	23.500	7.1155e-02
13.750	23.750	5.1070e-02
13.750	24.000	3.7157e-02
14.000	17.000	3.1403e-02
14.000	17.250	3.1221e-02
14.000	17.500	1.9155e-02
14.000	17.750	1.5435e-02
14.000	18.000	1.5601e-02
14.000	18.250	1.5928e-02
14.000	18.500	1.6246e-02
14.000	18.750	1.6437e-02
14.000	19.000	1.6463e-02
14.000	19.250	1.6340e-02
14.000	19.500	1.6073e-02
14.000	19.750	1.7299e-02
14.000	20.000	2.3188e-02
14.000	20.250	2.3871e-02
14.000	20.500	2.2693e-02
14.000	20.750	2.1000e-02
14.000	21.000	1.9510e-02
14.000	21.250	1.8747e-02
14.000	21.500	1.8861e-02
14.000	21.750	2.0801e-02
14.000	22.000	2.5473e-02
14.000	22.250	3.5824e-02
14.000	22.500	5.7748e-02
14.000	22.750	8.0712e-02
14.000	23.000	9.7642e-02
14.000	23.250	1.0569e-01
14.000	23.500	9.9980e-02
14.000	23.750	7.3876e-02
14.000	24.000	5.2338e-02
