nFnu 1458.33A  relative to Inci 1215.00A scaled to 1215A.
Hden   Phi(H)  Eq_Width (A)
 7.000	17.000	5.4547e-02
 7.000	17.250	3.8744e-02
 7.000	17.500	2.8335e-02
 7.000	17.750	2.1872e-02
 7.000	18.000	1.8286e-02
 7.000	18.250	1.6266e-02
 7.000	18.500	1.5106e-02
 7.000	18.750	1.4585e-02
 7.000	19.000	1.4316e-02
 7.000	19.250	1.4165e-02
 7.000	19.500	1.4102e-02
 7.000	19.750	1.4076e-02
 7.000	20.000	1.4064e-02
 7.000	20.250	1.4059e-02
 7.000	20.500	1.4056e-02
 7.000	20.750	1.4055e-02
 7.000	21.000	1.4054e-02
 7.000	21.250	1.4054e-02
 7.000	21.500	1.4054e-02
 7.000	21.750	1.4053e-02
 7.000	22.000	1.4053e-02
 7.000	22.250	1.4054e-02
 7.000	22.500	1.4053e-02
 7.000	22.750	1.4055e-02
 7.000	23.000	1.4055e-02
 7.000	23.250	1.4054e-02
 7.000	23.500	1.4055e-02
 7.000	23.750	1.4055e-02
 7.000	24.000	1.4055e-02
 7.250	17.000	6.0528e-02
 7.250	17.250	5.4349e-02
 7.250	17.500	3.8628e-02
 7.250	17.750	2.8274e-02
 7.250	18.000	2.1840e-02
 7.250	18.250	1.8270e-02
 7.250	18.500	1.6259e-02
 7.250	18.750	1.5103e-02
 7.250	19.000	1.4584e-02
 7.250	19.250	1.4315e-02
 7.250	19.500	1.4165e-02
 7.250	19.750	1.4102e-02
 7.250	20.000	1.4076e-02
 7.250	20.250	1.4064e-02
 7.250	20.500	1.4059e-02
 7.250	20.750	1.4056e-02
 7.250	21.000	1.4055e-02
 7.250	21.250	1.4054e-02
 7.250	21.500	1.4054e-02
 7.250	21.750	1.4054e-02
 7.250	22.000	1.4053e-02
 7.250	22.250	1.4053e-02
 7.250	22.500	1.4053e-02
 7.250	22.750	1.4053e-02
 7.250	23.000	1.4053e-02
 7.250	23.250	1.4053e-02
 7.250	23.500	1.4053e-02
 7.250	23.750	1.4053e-02
 7.250	24.000	1.4053e-02
 7.500	17.000	6.8230e-02
 7.500	17.250	5.9960e-02
 7.500	17.500	5.4239e-02
 7.500	17.750	3.8561e-02
 7.500	18.000	2.8236e-02
 7.500	18.250	2.1819e-02
 7.500	18.500	1.8259e-02
 7.500	18.750	1.6254e-02
 7.500	19.000	1.5101e-02
 7.500	19.250	1.4584e-02
 7.500	19.500	1.4315e-02
 7.500	19.750	1.4165e-02
 7.500	20.000	1.4102e-02
 7.500	20.250	1.4076e-02
 7.500	20.500	1.4064e-02
 7.500	20.750	1.4059e-02
 7.500	21.000	1.4056e-02
 7.500	21.250	1.4055e-02
 7.500	21.500	1.4054e-02
 7.500	21.750	1.4054e-02
 7.500	22.000	1.4053e-02
 7.500	22.250	1.4053e-02
 7.500	22.500	1.4053e-02
 7.500	22.750	1.4053e-02
 7.500	23.000	1.4053e-02
 7.500	23.250	1.4053e-02
 7.500	23.500	1.4055e-02
 7.500	23.750	1.4053e-02
 7.500	24.000	1.4053e-02
 7.750	17.000	6.5808e-02
 7.750	17.250	6.6889e-02
 7.750	17.500	5.9513e-02
 7.750	17.750	5.4177e-02
 7.750	18.000	3.8523e-02
 7.750	18.250	2.8213e-02
 7.750	18.500	2.1804e-02
 7.750	18.750	1.8252e-02
 7.750	19.000	1.6251e-02
 7.750	19.250	1.5100e-02
 7.750	19.500	1.4583e-02
 7.750	19.750	1.4315e-02
 7.750	20.000	1.4165e-02
 7.750	20.250	1.4102e-02
 7.750	20.500	1.4076e-02
 7.750	20.750	1.4064e-02
 7.750	21.000	1.4059e-02
 7.750	21.250	1.4056e-02
 7.750	21.500	1.4055e-02
 7.750	21.750	1.4054e-02
 7.750	22.000	1.4054e-02
 7.750	22.250	1.4053e-02
 7.750	22.500	1.4053e-02
 7.750	22.750	1.4053e-02
 7.750	23.000	1.4053e-02
 7.750	23.250	1.4053e-02
 7.750	23.500	1.4053e-02
 7.750	23.750	1.4053e-02
 7.750	24.000	1.4053e-02
 8.000	17.000	6.2589e-02
 8.000	17.250	6.3735e-02
 8.000	17.500	6.5228e-02
 8.000	17.750	5.8942e-02
 8.000	18.000	5.4143e-02
 8.000	18.250	3.8503e-02
 8.000	18.500	2.8199e-02
 8.000	18.750	2.1792e-02
 8.000	19.000	1.8247e-02
 8.000	19.250	1.6249e-02
 8.000	19.500	1.5099e-02
 8.000	19.750	1.4583e-02
 8.000	20.000	1.4315e-02
 8.000	20.250	1.4165e-02
 8.000	20.500	1.4102e-02
 8.000	20.750	1.4076e-02
 8.000	21.000	1.4064e-02
 8.000	21.250	1.4059e-02
 8.000	21.500	1.4056e-02
 8.000	21.750	1.4055e-02
 8.000	22.000	1.4054e-02
 8.000	22.250	1.4054e-02
 8.000	22.500	1.4053e-02
 8.000	22.750	1.4053e-02
 8.000	23.000	1.4053e-02
 8.000	23.250	1.4053e-02
 8.000	23.500	1.4053e-02
 8.000	23.750	1.4053e-02
 8.000	24.000	1.4053e-02
 8.250	17.000	6.0008e-02
 8.250	17.250	6.1354e-02
 8.250	17.500	6.2699e-02
 8.250	17.750	6.4477e-02
 8.250	18.000	5.8703e-02
 8.250	18.250	5.4116e-02
 8.250	18.500	3.8493e-02
 8.250	18.750	2.8190e-02
 8.250	19.000	2.1782e-02
 8.250	19.250	1.8242e-02
 8.250	19.500	1.6248e-02
 8.250	19.750	1.5099e-02
 8.250	20.000	1.4583e-02
 8.250	20.250	1.4315e-02
 8.250	20.500	1.4165e-02
 8.250	20.750	1.4102e-02
 8.250	21.000	1.4076e-02
 8.250	21.250	1.4064e-02
 8.250	21.500	1.4059e-02
 8.250	21.750	1.4056e-02
 8.250	22.000	1.4055e-02
 8.250	22.250	1.4054e-02
 8.250	22.500	1.4054e-02
 8.250	22.750	1.4054e-02
 8.250	23.000	1.4053e-02
 8.250	23.250	1.4053e-02
 8.250	23.500	1.4054e-02
 8.250	23.750	1.4053e-02
 8.250	24.000	1.4053e-02
 8.500	17.000	5.7717e-02
 8.500	17.250	5.9073e-02
 8.500	17.500	6.0582e-02
 8.500	17.750	6.2091e-02
 8.500	18.000	6.4012e-02
 8.500	18.250	5.8529e-02
 8.500	18.500	5.4091e-02
 8.500	18.750	3.8489e-02
 8.500	19.000	2.8185e-02
 8.500	19.250	2.1773e-02
 8.500	19.500	1.8238e-02
 8.500	19.750	1.6247e-02
 8.500	20.000	1.5099e-02
 8.500	20.250	1.4583e-02
 8.500	20.500	1.4315e-02
 8.500	20.750	1.4165e-02
 8.500	21.000	1.4102e-02
 8.500	21.250	1.4076e-02
 8.500	21.500	1.4064e-02
 8.500	21.750	1.4059e-02
 8.500	22.000	1.4056e-02
 8.500	22.250	1.4055e-02
 8.500	22.500	1.4054e-02
 8.500	22.750	1.4054e-02
 8.500	23.000	1.4053e-02
 8.500	23.250	1.4053e-02
 8.500	23.500	1.4053e-02
 8.500	23.750	1.4053e-02
 8.500	24.000	1.4053e-02
 8.750	17.000	5.5737e-02
 8.750	17.250	5.7114e-02
 8.750	17.500	5.8586e-02
 8.750	17.750	6.0139e-02
 8.750	18.000	6.1777e-02
 8.750	18.250	6.3806e-02
 8.750	18.500	5.8434e-02
 8.750	18.750	5.4061e-02
 8.750	19.000	3.8487e-02
 8.750	19.250	2.8180e-02
 8.750	19.500	2.1764e-02
 8.750	19.750	1.8234e-02
 8.750	20.000	1.6246e-02
 8.750	20.250	1.5098e-02
 8.750	20.500	1.4583e-02
 8.750	20.750	1.4315e-02
 8.750	21.000	1.4165e-02
 8.750	21.250	1.4102e-02
 8.750	21.500	1.4076e-02
 8.750	21.750	1.4064e-02
 8.750	22.000	1.4059e-02
 8.750	22.250	1.4056e-02
 8.750	22.500	1.4055e-02
 8.750	22.750	1.4054e-02
 8.750	23.000	1.4054e-02
 8.750	23.250	1.4053e-02
 8.750	23.500	1.4053e-02
 8.750	23.750	1.4053e-02
 8.750	24.000	1.4053e-02
 9.000	17.000	5.3868e-02
 9.000	17.250	5.5441e-02
 9.000	17.500	5.6931e-02
 9.000	17.750	5.8481e-02
 9.000	18.000	6.0080e-02
 9.000	18.250	6.1774e-02
 9.000	18.500	6.3803e-02
 9.000	18.750	5.8354e-02
 9.000	19.000	5.4028e-02
 9.000	19.250	3.8485e-02
 9.000	19.500	2.8176e-02
 9.000	19.750	2.1755e-02
 9.000	20.000	1.8231e-02
 9.000	20.250	1.6245e-02
 9.000	20.500	1.5098e-02
 9.000	20.750	1.4583e-02
 9.000	21.000	1.4315e-02
 9.000	21.250	1.4165e-02
 9.000	21.500	1.4102e-02
 9.000	21.750	1.4076e-02
 9.000	22.000	1.4064e-02
 9.000	22.250	1.4059e-02
 9.000	22.500	1.4056e-02
 9.000	22.750	1.4055e-02
 9.000	23.000	1.4054e-02
 9.000	23.250	1.4054e-02
 9.000	23.500	1.4053e-02
 9.000	23.750	1.4053e-02
 9.000	24.000	1.4053e-02
 9.250	17.000	5.1832e-02
 9.250	17.250	5.3762e-02
 9.250	17.500	5.5535e-02
 9.250	17.750	5.7160e-02
 9.250	18.000	5.8734e-02
 9.250	18.250	6.0365e-02
 9.250	18.500	6.2290e-02
 9.250	18.750	6.4062e-02
 9.250	19.000	5.8251e-02
 9.250	19.250	5.3984e-02
 9.250	19.500	3.8481e-02
 9.250	19.750	2.8172e-02
 9.250	20.000	2.1746e-02
 9.250	20.250	1.8228e-02
 9.250	20.500	1.6244e-02
 9.250	20.750	1.5098e-02
 9.250	21.000	1.4583e-02
 9.250	21.250	1.4315e-02
 9.250	21.500	1.4163e-02
 9.250	21.750	1.4100e-02
 9.250	22.000	1.4074e-02
 9.250	22.250	1.4063e-02
 9.250	22.500	1.4058e-02
 9.250	22.750	1.4056e-02
 9.250	23.000	1.4055e-02
 9.250	23.250	1.4054e-02
 9.250	23.500	1.4053e-02
 9.250	23.750	1.4053e-02
 9.250	24.000	1.4053e-02
 9.500	17.000	4.9407e-02
 9.500	17.250	5.1799e-02
 9.500	17.500	5.4057e-02
 9.500	17.750	5.6096e-02
 9.500	18.000	5.7794e-02
 9.500	18.250	5.9403e-02
 9.500	18.500	6.1291e-02
 9.500	18.750	6.3740e-02
 9.500	19.000	6.3466e-02
 9.500	19.250	5.8102e-02
 9.500	19.500	5.3937e-02
 9.500	19.750	3.8473e-02
 9.500	20.000	2.8169e-02
 9.500	20.250	2.1739e-02
 9.500	20.500	1.8225e-02
 9.500	20.750	1.6243e-02
 9.500	21.000	1.5096e-02
 9.500	21.250	1.4581e-02
 9.500	21.500	1.4313e-02
 9.500	21.750	1.4162e-02
 9.500	22.000	1.4100e-02
 9.500	22.250	1.4073e-02
 9.500	22.500	1.4062e-02
 9.500	22.750	1.4056e-02
 9.500	23.000	1.4054e-02
 9.500	23.250	1.4052e-02
 9.500	23.500	1.4052e-02
 9.500	23.750	1.4051e-02
 9.500	24.000	1.4051e-02
 9.750	17.000	4.6486e-02
 9.750	17.250	4.9243e-02
 9.750	17.500	5.2087e-02
 9.750	17.750	5.4769e-02
 9.750	18.000	5.7034e-02
 9.750	18.250	5.9012e-02
 9.750	18.500	6.0892e-02
 9.750	18.750	6.3052e-02
 9.750	19.000	6.6013e-02
 9.750	19.250	6.2546e-02
 9.750	19.500	5.7841e-02
 9.750	19.750	5.3885e-02
 9.750	20.000	3.8460e-02
 9.750	20.250	2.8168e-02
 9.750	20.500	2.1733e-02
 9.750	20.750	1.8223e-02
 9.750	21.000	1.6243e-02
 9.750	21.250	1.5096e-02
 9.750	21.500	1.4581e-02
 9.750	21.750	1.4313e-02
 9.750	22.000	1.4163e-02
 9.750	22.250	1.4100e-02
 9.750	22.500	1.4073e-02
 9.750	22.750	1.4062e-02
 9.750	23.000	1.4057e-02
 9.750	23.250	1.4054e-02
 9.750	23.500	1.4052e-02
 9.750	23.750	1.4052e-02
 9.750	24.000	1.4051e-02
10.000	17.000	4.3079e-02
10.000	17.250	4.6031e-02
10.000	17.500	4.9343e-02
10.000	17.750	5.2849e-02
10.000	18.000	5.6072e-02
10.000	18.250	5.8822e-02
10.000	18.500	6.0884e-02
10.000	18.750	6.2831e-02
10.000	19.000	6.5462e-02
10.000	19.250	6.8288e-02
10.000	19.500	6.1892e-02
10.000	19.750	5.7631e-02
10.000	20.000	5.3849e-02
10.000	20.250	3.8446e-02
10.000	20.500	2.8166e-02
10.000	20.750	2.1728e-02
10.000	21.000	1.8222e-02
10.000	21.250	1.6242e-02
10.000	21.500	1.5096e-02
10.000	21.750	1.4581e-02
10.000	22.000	1.4313e-02
10.000	22.250	1.4163e-02
10.000	22.500	1.4100e-02
10.000	22.750	1.4073e-02
10.000	23.000	1.4062e-02
10.000	23.250	1.4056e-02
10.000	23.500	1.4054e-02
10.000	23.750	1.4052e-02
10.000	24.000	1.4052e-02
10.250	17.000	4.0134e-02
10.250	17.250	4.2387e-02
10.250	17.500	4.5960e-02
10.250	17.750	5.0087e-02
10.250	18.000	5.4406e-02
10.250	18.250	5.8105e-02
10.250	18.500	6.0708e-02
10.250	18.750	6.2674e-02
10.250	19.000	6.4709e-02
10.250	19.250	6.7839e-02
10.250	19.500	7.0122e-02
10.250	19.750	6.1594e-02
10.250	20.000	5.7358e-02
10.250	20.250	5.3824e-02
10.250	20.500	3.8430e-02
10.250	20.750	2.8165e-02
10.250	21.000	2.1726e-02
10.250	21.250	1.8222e-02
10.250	21.500	1.6242e-02
10.250	21.750	1.5096e-02
10.250	22.000	1.4582e-02
10.250	22.250	1.4313e-02
10.250	22.500	1.4163e-02
10.250	22.750	1.4100e-02
10.250	23.000	1.4073e-02
10.250	23.250	1.4062e-02
10.250	23.500	1.4057e-02
10.250	23.750	1.4054e-02
10.250	24.000	1.4052e-02
10.500	17.000	3.7974e-02
10.500	17.250	3.9324e-02
10.500	17.500	4.2247e-02
10.500	17.750	4.6764e-02
10.500	18.000	5.1711e-02
10.500	18.250	5.6078e-02
10.500	18.500	5.9335e-02
10.500	18.750	6.1534e-02
10.500	19.000	6.3433e-02
10.500	19.250	6.6078e-02
10.500	19.500	7.0288e-02
10.500	19.750	7.0191e-02
10.500	20.000	6.2088e-02
10.500	20.250	5.7513e-02
10.500	20.500	5.3898e-02
10.500	20.750	3.8418e-02
10.500	21.000	2.8164e-02
10.500	21.250	2.1725e-02
10.500	21.500	1.8223e-02
10.500	21.750	1.6242e-02
10.500	22.000	1.5096e-02
10.500	22.250	1.4582e-02
10.500	22.500	1.4314e-02
10.500	22.750	1.4163e-02
10.500	23.000	1.4100e-02
10.500	23.250	1.4073e-02
10.500	23.500	1.4062e-02
10.500	23.750	1.4057e-02
10.500	24.000	1.4054e-02
10.750	17.000	3.6798e-02
10.750	17.250	3.7284e-02
10.750	17.500	3.9299e-02
10.750	17.750	4.3221e-02
10.750	18.000	4.7959e-02
10.750	18.250	5.2358e-02
10.750	18.500	5.5934e-02
10.750	18.750	5.8693e-02
10.750	19.000	6.1150e-02
10.750	19.250	6.3808e-02
10.750	19.500	6.7275e-02
10.750	19.750	7.2081e-02
10.750	20.000	7.0389e-02
10.750	20.250	6.4180e-02
10.750	20.500	5.8419e-02
10.750	20.750	5.4092e-02
10.750	21.000	3.8420e-02
10.750	21.250	2.8164e-02
10.750	21.500	2.1726e-02
10.750	21.750	1.8225e-02
10.750	22.000	1.6243e-02
10.750	22.250	1.5096e-02
10.750	22.500	1.4583e-02
10.750	22.750	1.4314e-02
10.750	23.000	1.4163e-02
10.750	23.250	1.4100e-02
10.750	23.500	1.4074e-02
10.750	23.750	1.4062e-02
10.750	24.000	1.4057e-02
11.000	17.000	3.6489e-02
11.000	17.250	3.6410e-02
11.000	17.500	3.7500e-02
11.000	17.750	3.9974e-02
11.000	18.000	4.3475e-02
11.000	18.250	4.7183e-02
11.000	18.500	5.0837e-02
11.000	18.750	5.4306e-02
11.000	19.000	5.7611e-02
11.000	19.250	6.0751e-02
11.000	19.500	6.4040e-02
11.000	19.750	6.7936e-02
11.000	20.000	7.2261e-02
11.000	20.250	7.3055e-02
11.000	20.500	6.5369e-02
11.000	20.750	5.9877e-02
11.000	21.000	5.4441e-02
11.000	21.250	3.8454e-02
11.000	21.500	2.8163e-02
11.000	21.750	2.1728e-02
11.000	22.000	1.8228e-02
11.000	22.250	1.6243e-02
11.000	22.500	1.5096e-02
11.000	22.750	1.4583e-02
11.000	23.000	1.4315e-02
11.000	23.250	1.4163e-02
11.000	23.500	1.4100e-02
11.000	23.750	1.4074e-02
11.000	24.000	1.4062e-02
11.250	17.000	3.6974e-02
11.250	17.250	3.6507e-02
11.250	17.500	3.6642e-02
11.250	17.750	3.7479e-02
11.250	18.000	3.9144e-02
11.250	18.250	4.1521e-02
11.250	18.500	4.4854e-02
11.250	18.750	4.8870e-02
11.250	19.000	5.2945e-02
11.250	19.250	5.6703e-02
11.250	19.500	6.0282e-02
11.250	19.750	6.4068e-02
11.250	20.000	6.8431e-02
11.250	20.250	7.4050e-02
11.250	20.500	7.5029e-02
11.250	20.750	6.8561e-02
11.250	21.000	6.2473e-02
11.250	21.250	5.4953e-02
11.250	21.500	3.8526e-02
11.250	21.750	2.8162e-02
11.250	22.000	2.1733e-02
11.250	22.250	1.8232e-02
11.250	22.500	1.6244e-02
11.250	22.750	1.5096e-02
11.250	23.000	1.4583e-02
11.250	23.250	1.4315e-02
11.250	23.500	1.4164e-02
11.250	23.750	1.4101e-02
11.250	24.000	1.4074e-02
11.500	17.000	3.8293e-02
11.500	17.250	3.7301e-02
11.500	17.500	3.6474e-02
11.500	17.750	3.5891e-02
11.500	18.000	3.5716e-02
11.500	18.250	3.6507e-02
11.500	18.500	3.8936e-02
11.500	18.750	4.2868e-02
11.500	19.000	4.7581e-02
11.500	19.250	5.1941e-02
11.500	19.500	5.5976e-02
11.500	19.750	6.0077e-02
11.500	20.000	6.4520e-02
11.500	20.250	6.9516e-02
11.500	20.500	7.6154e-02
11.500	20.750	7.8660e-02
11.500	21.000	7.2830e-02
11.500	21.250	6.6846e-02
11.500	21.500	5.5539e-02
11.500	21.750	3.8634e-02
11.500	22.000	2.8160e-02
11.500	22.250	2.1738e-02
11.500	22.500	1.8236e-02
11.500	22.750	1.6246e-02
11.500	23.000	1.5095e-02
11.500	23.250	1.4583e-02
11.500	23.500	1.4315e-02
11.500	23.750	1.4164e-02
11.500	24.000	1.4101e-02
11.750	17.000	4.0499e-02
11.750	17.250	3.8561e-02
11.750	17.500	3.6780e-02
11.750	17.750	3.5043e-02
11.750	18.000	3.3494e-02
11.750	18.250	3.2992e-02
11.750	18.500	3.4160e-02
11.750	18.750	3.7280e-02
11.750	19.000	4.1865e-02
11.750	19.250	4.6857e-02
11.750	19.500	5.1382e-02
11.750	19.750	5.5835e-02
11.750	20.000	6.0621e-02
11.750	20.250	6.5813e-02
11.750	20.500	7.1689e-02
11.750	20.750	7.8615e-02
11.750	21.000	8.4157e-02
11.750	21.250	8.0023e-02
11.750	21.500	7.3456e-02
11.750	21.750	5.6092e-02
11.750	22.000	3.8766e-02
11.750	22.250	2.8154e-02
11.750	22.500	2.1744e-02
11.750	22.750	1.8241e-02
11.750	23.000	1.6248e-02
11.750	23.250	1.5095e-02
11.750	23.500	1.4583e-02
11.750	23.750	1.4315e-02
11.750	24.000	1.4165e-02
12.000	17.000	4.3485e-02
12.000	17.250	4.0255e-02
12.000	17.500	3.7343e-02
12.000	17.750	3.4608e-02
12.000	18.000	3.2343e-02
12.000	18.250	3.1015e-02
12.000	18.500	3.1171e-02
12.000	18.750	3.3036e-02
12.000	19.000	3.6668e-02
12.000	19.250	4.1618e-02
12.000	19.500	4.6807e-02
12.000	19.750	5.1613e-02
12.000	20.000	5.6654e-02
12.000	20.250	6.2265e-02
12.000	20.500	6.8339e-02
12.000	20.750	7.5258e-02
12.000	21.000	8.4259e-02
12.000	21.250	9.2510e-02
12.000	21.500	8.9833e-02
12.000	21.750	8.1505e-02
12.000	22.000	5.6618e-02
12.000	22.250	3.8828e-02
12.000	22.500	2.8142e-02
12.000	22.750	2.1749e-02
12.000	23.000	1.8246e-02
12.000	23.250	1.6251e-02
12.000	23.500	1.5094e-02
12.000	23.750	1.4582e-02
12.000	24.000	1.4315e-02
12.250	17.000	4.7209e-02
12.250	17.250	4.2249e-02
12.250	17.500	3.7990e-02
12.250	17.750	3.4437e-02
12.250	18.000	3.1804e-02
12.250	18.250	3.0284e-02
12.250	18.500	2.9962e-02
12.250	18.750	3.0773e-02
12.250	19.000	3.2987e-02
12.250	19.250	3.6935e-02
12.250	19.500	4.2163e-02
12.250	19.750	4.7615e-02
12.250	20.000	5.2854e-02
12.250	20.250	5.8651e-02
12.250	20.500	6.5194e-02
12.250	20.750	7.2715e-02
12.250	21.000	8.2258e-02
12.250	21.250	9.4851e-02
12.250	21.500	1.0398e-01
12.250	21.750	1.0198e-01
12.250	22.000	8.6075e-02
12.250	22.250	5.7020e-02
12.250	22.500	3.8922e-02
12.250	22.750	2.8120e-02
12.250	23.000	2.1752e-02
12.250	23.250	1.8251e-02
12.250	23.500	1.6253e-02
12.250	23.750	1.5093e-02
12.250	24.000	1.4582e-02
12.500	17.000	5.0813e-02
12.500	17.250	4.4026e-02
12.500	17.500	3.8491e-02
12.500	17.750	3.4399e-02
12.500	18.000	3.1748e-02
12.500	18.250	3.0361e-02
12.500	18.500	2.9952e-02
12.500	18.750	3.0285e-02
12.500	19.000	3.1453e-02
12.500	19.250	3.3899e-02
12.500	19.500	3.8127e-02
12.500	19.750	4.3662e-02
12.500	20.000	4.9469e-02
12.500	20.250	5.5301e-02
12.500	20.500	6.2033e-02
12.500	20.750	7.0391e-02
12.500	21.000	8.1600e-02
12.500	21.250	9.4932e-02
12.500	21.500	1.0909e-01
12.500	21.750	1.1912e-01
12.500	22.000	1.1491e-01
12.500	22.250	8.7547e-02
12.500	22.500	5.7341e-02
12.500	22.750	3.9039e-02
12.500	23.000	2.8087e-02
12.500	23.250	2.1751e-02
12.500	23.500	1.8255e-02
12.500	23.750	1.6255e-02
12.500	24.000	1.5092e-02
12.750	17.000	5.1441e-02
12.750	17.250	4.4683e-02
12.750	17.500	3.8833e-02
12.750	17.750	3.4836e-02
12.750	18.000	3.2346e-02
12.750	18.250	3.1029e-02
12.750	18.500	3.0578e-02
12.750	18.750	3.0820e-02
12.750	19.000	3.1545e-02
12.750	19.250	3.2985e-02
12.750	19.500	3.5701e-02
12.750	19.750	4.0239e-02
12.750	20.000	4.6033e-02
12.750	20.250	5.2661e-02
12.750	20.500	5.9197e-02
12.750	20.750	6.7838e-02
12.750	21.000	7.9383e-02
12.750	21.250	9.6542e-02
12.750	21.500	1.1154e-01
12.750	21.750	1.2679e-01
12.750	22.000	1.3702e-01
12.750	22.250	1.2620e-01
12.750	22.500	8.8686e-02
12.750	22.750	5.7635e-02
12.750	23.000	3.9074e-02
12.750	23.250	2.8044e-02
12.750	23.500	2.1745e-02
12.750	23.750	1.8258e-02
12.750	24.000	1.6257e-02
13.000	17.000	2.4142e-02
13.000	17.250	2.8662e-02
13.000	17.500	3.9815e-02
13.000	17.750	3.6344e-02
13.000	18.000	3.3741e-02
13.000	18.250	3.2266e-02
13.000	18.500	3.1693e-02
13.000	18.750	3.1806e-02
13.000	19.000	3.2453e-02
13.000	19.250	3.3562e-02
13.000	19.500	3.5353e-02
13.000	19.750	3.8440e-02
13.000	20.000	4.3199e-02
13.000	20.250	4.9550e-02
13.000	20.500	5.7265e-02
13.000	20.750	6.5743e-02
13.000	21.000	7.7883e-02
13.000	21.250	9.4336e-02
13.000	21.500	1.1337e-01
13.000	21.750	1.3337e-01
13.000	22.000	1.5158e-01
13.000	22.250	1.5481e-01
13.000	22.500	1.3344e-01
13.000	22.750	8.9735e-02
13.000	23.000	5.8086e-02
13.000	23.250	3.9004e-02
13.000	23.500	2.7992e-02
13.000	23.750	2.1733e-02
13.000	24.000	1.8257e-02
13.250	17.000	2.1085e-02
13.250	17.250	2.4111e-02
13.250	17.500	3.2665e-02
13.250	17.750	3.7263e-02
13.250	18.000	3.5755e-02
13.250	18.250	3.4098e-02
13.250	18.500	3.3275e-02
13.250	18.750	3.3154e-02
13.250	19.000	3.3657e-02
13.250	19.250	3.4651e-02
13.250	19.500	3.6214e-02
13.250	19.750	3.8523e-02
13.250	20.000	4.2101e-02
13.250	20.250	4.7267e-02
13.250	20.500	5.4390e-02
13.250	20.750	6.3545e-02
13.250	21.000	7.5645e-02
13.250	21.250	9.0222e-02
13.250	21.500	1.0829e-01
13.250	21.750	1.2850e-01
13.250	22.000	1.5718e-01
13.250	22.250	1.6423e-01
13.250	22.500	1.6600e-01
13.250	22.750	1.3698e-01
13.250	23.000	9.0647e-02
13.250	23.250	5.8272e-02
13.250	23.500	3.8969e-02
13.250	23.750	2.7936e-02
13.250	24.000	2.1716e-02
13.500	17.000	1.9238e-02
13.500	17.250	2.2044e-02
13.500	17.500	2.7768e-02
13.500	17.750	3.3855e-02
13.500	18.000	3.8151e-02
13.500	18.250	3.6307e-02
13.500	18.500	3.5108e-02
13.500	18.750	3.4773e-02
13.500	19.000	3.5095e-02
13.500	19.250	3.6027e-02
13.500	19.500	3.7444e-02
13.500	19.750	3.9563e-02
13.500	20.000	4.2667e-02
13.500	20.250	4.7286e-02
13.500	20.500	5.3055e-02
13.500	20.750	6.0678e-02
13.500	21.000	7.0296e-02
13.500	21.250	8.3947e-02
13.500	21.500	9.5819e-02
13.500	21.750	1.1603e-01
13.500	22.000	1.4105e-01
13.500	22.250	1.7029e-01
13.500	22.500	1.7515e-01
13.500	22.750	1.7318e-01
13.500	23.000	1.3893e-01
13.500	23.250	9.1254e-02
13.500	23.500	5.8358e-02
13.500	23.750	3.8965e-02
13.500	24.000	2.7876e-02
13.750	17.000	1.8218e-02
13.750	17.250	2.0836e-02
13.750	17.500	2.5628e-02
13.750	17.750	3.0908e-02
13.750	18.000	3.7056e-02
13.750	18.250	3.7965e-02
13.750	18.500	3.7549e-02
13.750	18.750	3.6676e-02
13.750	19.000	3.6680e-02
13.750	19.250	3.7449e-02
13.750	19.500	3.8858e-02
13.750	19.750	4.0935e-02
13.750	20.000	4.3970e-02
13.750	20.250	4.8214e-02
13.750	20.500	5.3896e-02
13.750	20.750	6.0912e-02
13.750	21.000	6.9320e-02
13.750	21.250	7.9226e-02
13.750	21.500	9.0717e-02
13.750	21.750	1.0585e-01
13.750	22.000	1.2751e-01
13.750	22.250	1.6001e-01
13.750	22.500	1.8924e-01
13.750	22.750	1.8714e-01
13.750	23.000	1.7683e-01
13.750	23.250	1.4116e-01
13.750	23.500	9.1867e-02
13.750	23.750	5.8370e-02
13.750	24.000	3.8859e-02
14.000	17.000	1.7574e-02
14.000	17.250	1.9896e-02
14.000	17.500	2.4577e-02
14.000	17.750	2.8792e-02
14.000	18.000	3.5266e-02
14.000	18.250	4.0130e-02
14.000	18.500	4.0581e-02
14.000	18.750	3.9110e-02
14.000	19.000	3.8576e-02
14.000	19.250	3.9054e-02
14.000	19.500	4.0369e-02
14.000	19.750	4.2520e-02
14.000	20.000	4.5512e-02
14.000	20.250	4.9699e-02
14.000	20.500	5.5410e-02
14.000	20.750	6.2572e-02
14.000	21.000	7.1157e-02
14.000	21.250	8.1318e-02
14.000	21.500	9.1244e-02
14.000	21.750	1.0509e-01
14.000	22.000	1.2370e-01
14.000	22.250	1.5190e-01
14.000	22.500	1.9577e-01
14.000	22.750	2.1984e-01
14.000	23.000	2.1005e-01
14.000	23.250	1.8496e-01
14.000	23.500	1.4469e-01
14.000	23.750	9.2207e-02
14.000	24.000	5.8329e-02
