nFnu 1410.00A  relative to Inci 1215.00A scaled to 1215A.
Hden   Phi(H)  Eq_Width (A)
 7.000	17.000	5.2099e-02
 7.000	17.250	3.7912e-02
 7.000	17.500	2.8199e-02
 7.000	17.750	2.1947e-02
 7.000	18.000	1.8375e-02
 7.000	18.250	1.6348e-02
 7.000	18.500	1.5172e-02
 7.000	18.750	1.4640e-02
 7.000	19.000	1.4364e-02
 7.000	19.250	1.4209e-02
 7.000	19.500	1.4144e-02
 7.000	19.750	1.4117e-02
 7.000	20.000	1.4106e-02
 7.000	20.250	1.4100e-02
 7.000	20.500	1.4097e-02
 7.000	20.750	1.4096e-02
 7.000	21.000	1.4095e-02
 7.000	21.250	1.4095e-02
 7.000	21.500	1.4095e-02
 7.000	21.750	1.4094e-02
 7.000	22.000	1.4094e-02
 7.000	22.250	1.4095e-02
 7.000	22.500	1.4094e-02
 7.000	22.750	1.4096e-02
 7.000	23.000	1.4096e-02
 7.000	23.250	1.4095e-02
 7.000	23.500	1.4096e-02
 7.000	23.750	1.4096e-02
 7.000	24.000	1.4096e-02
 7.250	17.000	5.6892e-02
 7.250	17.250	5.1890e-02
 7.250	17.500	3.7791e-02
 7.250	17.750	2.8135e-02
 7.250	18.000	2.1913e-02
 7.250	18.250	1.8358e-02
 7.250	18.500	1.6340e-02
 7.250	18.750	1.5169e-02
 7.250	19.000	1.4639e-02
 7.250	19.250	1.4363e-02
 7.250	19.500	1.4209e-02
 7.250	19.750	1.4144e-02
 7.250	20.000	1.4117e-02
 7.250	20.250	1.4106e-02
 7.250	20.500	1.4100e-02
 7.250	20.750	1.4097e-02
 7.250	21.000	1.4096e-02
 7.250	21.250	1.4095e-02
 7.250	21.500	1.4095e-02
 7.250	21.750	1.4095e-02
 7.250	22.000	1.4094e-02
 7.250	22.250	1.4094e-02
 7.250	22.500	1.4094e-02
 7.250	22.750	1.4094e-02
 7.250	23.000	1.4094e-02
 7.250	23.250	1.4094e-02
 7.250	23.500	1.4094e-02
 7.250	23.750	1.4094e-02
 7.250	24.000	1.4094e-02
 7.500	17.000	6.3738e-02
 7.500	17.250	5.6248e-02
 7.500	17.500	5.1776e-02
 7.500	17.750	3.7721e-02
 7.500	18.000	2.8098e-02
 7.500	18.250	2.1891e-02
 7.500	18.500	1.8347e-02
 7.500	18.750	1.6335e-02
 7.500	19.000	1.5167e-02
 7.500	19.250	1.4638e-02
 7.500	19.500	1.4363e-02
 7.500	19.750	1.4209e-02
 7.500	20.000	1.4144e-02
 7.500	20.250	1.4117e-02
 7.500	20.500	1.4106e-02
 7.500	20.750	1.4100e-02
 7.500	21.000	1.4097e-02
 7.500	21.250	1.4096e-02
 7.500	21.500	1.4095e-02
 7.500	21.750	1.4095e-02
 7.500	22.000	1.4094e-02
 7.500	22.250	1.4094e-02
 7.500	22.500	1.4094e-02
 7.500	22.750	1.4094e-02
 7.500	23.000	1.4094e-02
 7.500	23.250	1.4094e-02
 7.500	23.500	1.4096e-02
 7.500	23.750	1.4094e-02
 7.500	24.000	1.4094e-02
 7.750	17.000	6.3612e-02
 7.750	17.250	6.2186e-02
 7.750	17.500	5.5740e-02
 7.750	17.750	5.1712e-02
 7.750	18.000	3.7683e-02
 7.750	18.250	2.8077e-02
 7.750	18.500	2.1876e-02
 7.750	18.750	1.8340e-02
 7.750	19.000	1.6332e-02
 7.750	19.250	1.5166e-02
 7.750	19.500	1.4638e-02
 7.750	19.750	1.4363e-02
 7.750	20.000	1.4209e-02
 7.750	20.250	1.4144e-02
 7.750	20.500	1.4117e-02
 7.750	20.750	1.4106e-02
 7.750	21.000	1.4100e-02
 7.750	21.250	1.4097e-02
 7.750	21.500	1.4096e-02
 7.750	21.750	1.4095e-02
 7.750	22.000	1.4095e-02
 7.750	22.250	1.4094e-02
 7.750	22.500	1.4094e-02
 7.750	22.750	1.4094e-02
 7.750	23.000	1.4094e-02
 7.750	23.250	1.4094e-02
 7.750	23.500	1.4094e-02
 7.750	23.750	1.4094e-02
 7.750	24.000	1.4094e-02
 8.000	17.000	6.2434e-02
 8.000	17.250	6.1456e-02
 8.000	17.500	6.0494e-02
 8.000	17.750	5.5137e-02
 8.000	18.000	5.1677e-02
 8.000	18.250	3.7663e-02
 8.000	18.500	2.8066e-02
 8.000	18.750	2.1865e-02
 8.000	19.000	1.8334e-02
 8.000	19.250	1.6329e-02
 8.000	19.500	1.5165e-02
 8.000	19.750	1.4637e-02
 8.000	20.000	1.4363e-02
 8.000	20.250	1.4209e-02
 8.000	20.500	1.4144e-02
 8.000	20.750	1.4117e-02
 8.000	21.000	1.4106e-02
 8.000	21.250	1.4100e-02
 8.000	21.500	1.4097e-02
 8.000	21.750	1.4096e-02
 8.000	22.000	1.4095e-02
 8.000	22.250	1.4095e-02
 8.000	22.500	1.4094e-02
 8.000	22.750	1.4094e-02
 8.000	23.000	1.4094e-02
 8.000	23.250	1.4094e-02
 8.000	23.500	1.4094e-02
 8.000	23.750	1.4094e-02
 8.000	24.000	1.4094e-02
 8.250	17.000	6.1350e-02
 8.250	17.250	6.0979e-02
 8.250	17.500	6.0239e-02
 8.250	17.750	5.9627e-02
 8.250	18.000	5.4860e-02
 8.250	18.250	5.1648e-02
 8.250	18.500	3.7655e-02
 8.250	18.750	2.8061e-02
 8.250	19.000	2.1857e-02
 8.250	19.250	1.8330e-02
 8.250	19.500	1.6328e-02
 8.250	19.750	1.5165e-02
 8.250	20.000	1.4637e-02
 8.250	20.250	1.4363e-02
 8.250	20.500	1.4209e-02
 8.250	20.750	1.4144e-02
 8.250	21.000	1.4117e-02
 8.250	21.250	1.4106e-02
 8.250	21.500	1.4100e-02
 8.250	21.750	1.4097e-02
 8.250	22.000	1.4096e-02
 8.250	22.250	1.4095e-02
 8.250	22.500	1.4095e-02
 8.250	22.750	1.4095e-02
 8.250	23.000	1.4094e-02
 8.250	23.250	1.4094e-02
 8.250	23.500	1.4095e-02
 8.250	23.750	1.4094e-02
 8.250	24.000	1.4094e-02
 8.500	17.000	6.0193e-02
 8.500	17.250	6.0223e-02
 8.500	17.500	6.0017e-02
 8.500	17.750	5.9480e-02
 8.500	18.000	5.9071e-02
 8.500	18.250	5.4655e-02
 8.500	18.500	5.1620e-02
 8.500	18.750	3.7652e-02
 8.500	19.000	2.8060e-02
 8.500	19.250	2.1849e-02
 8.500	19.500	1.8326e-02
 8.500	19.750	1.6327e-02
 8.500	20.000	1.5164e-02
 8.500	20.250	1.4637e-02
 8.500	20.500	1.4363e-02
 8.500	20.750	1.4209e-02
 8.500	21.000	1.4144e-02
 8.500	21.250	1.4117e-02
 8.500	21.500	1.4106e-02
 8.500	21.750	1.4100e-02
 8.500	22.000	1.4097e-02
 8.500	22.250	1.4096e-02
 8.500	22.500	1.4095e-02
 8.500	22.750	1.4095e-02
 8.500	23.000	1.4094e-02
 8.500	23.250	1.4094e-02
 8.500	23.500	1.4094e-02
 8.500	23.750	1.4094e-02
 8.500	24.000	1.4094e-02
 8.750	17.000	5.9086e-02
 8.750	17.250	5.9426e-02
 8.750	17.500	5.9551e-02
 8.750	17.750	5.9365e-02
 8.750	18.000	5.8979e-02
 8.750	18.250	5.8749e-02
 8.750	18.500	5.4541e-02
 8.750	18.750	5.1586e-02
 8.750	19.000	3.7653e-02
 8.750	19.250	2.8061e-02
 8.750	19.500	2.1842e-02
 8.750	19.750	1.8323e-02
 8.750	20.000	1.6326e-02
 8.750	20.250	1.5164e-02
 8.750	20.500	1.4637e-02
 8.750	20.750	1.4363e-02
 8.750	21.000	1.4209e-02
 8.750	21.250	1.4144e-02
 8.750	21.500	1.4117e-02
 8.750	21.750	1.4106e-02
 8.750	22.000	1.4100e-02
 8.750	22.250	1.4097e-02
 8.750	22.500	1.4096e-02
 8.750	22.750	1.4095e-02
 8.750	23.000	1.4095e-02
 8.750	23.250	1.4094e-02
 8.750	23.500	1.4094e-02
 8.750	23.750	1.4094e-02
 8.750	24.000	1.4094e-02
 9.000	17.000	5.7919e-02
 9.000	17.250	5.8643e-02
 9.000	17.500	5.9059e-02
 9.000	17.750	5.9201e-02
 9.000	18.000	5.9016e-02
 9.000	18.250	5.8671e-02
 9.000	18.500	5.8578e-02
 9.000	18.750	5.4446e-02
 9.000	19.000	5.1547e-02
 9.000	19.250	3.7651e-02
 9.000	19.500	2.8062e-02
 9.000	19.750	2.1835e-02
 9.000	20.000	1.8320e-02
 9.000	20.250	1.6325e-02
 9.000	20.500	1.5164e-02
 9.000	20.750	1.4637e-02
 9.000	21.000	1.4363e-02
 9.000	21.250	1.4209e-02
 9.000	21.500	1.4144e-02
 9.000	21.750	1.4117e-02
 9.000	22.000	1.4106e-02
 9.000	22.250	1.4100e-02
 9.000	22.500	1.4097e-02
 9.000	22.750	1.4096e-02
 9.000	23.000	1.4095e-02
 9.000	23.250	1.4095e-02
 9.000	23.500	1.4094e-02
 9.000	23.750	1.4094e-02
 9.000	24.000	1.4094e-02
 9.250	17.000	5.6488e-02
 9.250	17.250	5.7679e-02
 9.250	17.500	5.8547e-02
 9.250	17.750	5.9002e-02
 9.250	18.000	5.9047e-02
 9.250	18.250	5.8778e-02
 9.250	18.500	5.8612e-02
 9.250	18.750	5.8478e-02
 9.250	19.000	5.4334e-02
 9.250	19.250	5.1495e-02
 9.250	19.500	3.7646e-02
 9.250	19.750	2.8064e-02
 9.250	20.000	2.1828e-02
 9.250	20.250	1.8317e-02
 9.250	20.500	1.6324e-02
 9.250	20.750	1.5163e-02
 9.250	21.000	1.4637e-02
 9.250	21.250	1.4363e-02
 9.250	21.500	1.4207e-02
 9.250	21.750	1.4143e-02
 9.250	22.000	1.4116e-02
 9.250	22.250	1.4104e-02
 9.250	22.500	1.4099e-02
 9.250	22.750	1.4097e-02
 9.250	23.000	1.4096e-02
 9.250	23.250	1.4095e-02
 9.250	23.500	1.4094e-02
 9.250	23.750	1.4094e-02
 9.250	24.000	1.4094e-02
 9.500	17.000	5.4627e-02
 9.500	17.250	5.6324e-02
 9.500	17.500	5.7770e-02
 9.500	17.750	5.8782e-02
 9.500	18.000	5.9144e-02
 9.500	18.250	5.9005e-02
 9.500	18.500	5.8792e-02
 9.500	18.750	5.9018e-02
 9.500	19.000	5.7873e-02
 9.500	19.250	5.4183e-02
 9.500	19.500	5.1441e-02
 9.500	19.750	3.7636e-02
 9.500	20.000	2.8064e-02
 9.500	20.250	2.1823e-02
 9.500	20.500	1.8315e-02
 9.500	20.750	1.6323e-02
 9.500	21.000	1.5162e-02
 9.500	21.250	1.4636e-02
 9.500	21.500	1.4361e-02
 9.500	21.750	1.4206e-02
 9.500	22.000	1.4142e-02
 9.500	22.250	1.4115e-02
 9.500	22.500	1.4103e-02
 9.500	22.750	1.4098e-02
 9.500	23.000	1.4095e-02
 9.500	23.250	1.4093e-02
 9.500	23.500	1.4093e-02
 9.500	23.750	1.4092e-02
 9.500	24.000	1.4092e-02
 9.750	17.000	5.2281e-02
 9.750	17.250	5.4344e-02
 9.750	17.500	5.6399e-02
 9.750	17.750	5.8118e-02
 9.750	18.000	5.9139e-02
 9.750	18.250	5.9504e-02
 9.750	18.500	5.9397e-02
 9.750	18.750	5.9336e-02
 9.750	19.000	5.9927e-02
 9.750	19.250	5.7020e-02
 9.750	19.500	5.3931e-02
 9.750	19.750	5.1380e-02
 9.750	20.000	3.7619e-02
 9.750	20.250	2.8065e-02
 9.750	20.500	2.1818e-02
 9.750	20.750	1.8313e-02
 9.750	21.000	1.6323e-02
 9.750	21.250	1.5162e-02
 9.750	21.500	1.4636e-02
 9.750	21.750	1.4361e-02
 9.750	22.000	1.4207e-02
 9.750	22.250	1.4142e-02
 9.750	22.500	1.4115e-02
 9.750	22.750	1.4103e-02
 9.750	23.000	1.4098e-02
 9.750	23.250	1.4095e-02
 9.750	23.500	1.4093e-02
 9.750	23.750	1.4093e-02
 9.750	24.000	1.4092e-02
10.000	17.000	4.9492e-02
10.000	17.250	5.1723e-02
10.000	17.500	5.4224e-02
10.000	17.750	5.6757e-02
10.000	18.000	5.8748e-02
10.000	18.250	5.9975e-02
10.000	18.500	6.0222e-02
10.000	18.750	6.0084e-02
10.000	19.000	6.0346e-02
10.000	19.250	6.1282e-02
10.000	19.500	5.6423e-02
10.000	19.750	5.3730e-02
10.000	20.000	5.1340e-02
10.000	20.250	3.7601e-02
10.000	20.500	2.8064e-02
10.000	20.750	2.1814e-02
10.000	21.000	1.8312e-02
10.000	21.250	1.6323e-02
10.000	21.500	1.5162e-02
10.000	21.750	1.4636e-02
10.000	22.000	1.4361e-02
10.000	22.250	1.4207e-02
10.000	22.500	1.4142e-02
10.000	22.750	1.4115e-02
10.000	23.000	1.4103e-02
10.000	23.250	1.4098e-02
10.000	23.500	1.4095e-02
10.000	23.750	1.4093e-02
10.000	24.000	1.4093e-02
10.250	17.000	4.7076e-02
10.250	17.250	4.8706e-02
10.250	17.500	5.1419e-02
10.250	17.750	5.4519e-02
10.250	18.000	5.7566e-02
10.250	18.250	5.9792e-02
10.250	18.500	6.0745e-02
10.250	18.750	6.0820e-02
10.250	19.000	6.0712e-02
10.250	19.250	6.1317e-02
10.250	19.500	6.2413e-02
10.250	19.750	5.6166e-02
10.250	20.000	5.3484e-02
10.250	20.250	5.1316e-02
10.250	20.500	3.7580e-02
10.250	20.750	2.8062e-02
10.250	21.000	2.1812e-02
10.250	21.250	1.8312e-02
10.250	21.500	1.6322e-02
10.250	21.750	1.5162e-02
10.250	22.000	1.4636e-02
10.250	22.250	1.4361e-02
10.250	22.500	1.4207e-02
10.250	22.750	1.4142e-02
10.250	23.000	1.4115e-02
10.250	23.250	1.4103e-02
10.250	23.500	1.4098e-02
10.250	23.750	1.4095e-02
10.250	24.000	1.4093e-02
10.500	17.000	4.5276e-02
10.500	17.250	4.6171e-02
10.500	17.500	4.8313e-02
10.500	17.750	5.1719e-02
10.500	18.000	5.5353e-02
10.500	18.250	5.8273e-02
10.500	18.500	6.0022e-02
10.500	18.750	6.0575e-02
10.500	19.000	6.0588e-02
10.500	19.250	6.0985e-02
10.500	19.500	6.2592e-02
10.500	19.750	6.2512e-02
10.500	20.000	5.6657e-02
10.500	20.250	5.3659e-02
10.500	20.500	5.1409e-02
10.500	20.750	3.7566e-02
10.500	21.000	2.8060e-02
10.500	21.250	2.1812e-02
10.500	21.500	1.8313e-02
10.500	21.750	1.6322e-02
10.500	22.000	1.5162e-02
10.500	22.250	1.4637e-02
10.500	22.500	1.4362e-02
10.500	22.750	1.4207e-02
10.500	23.000	1.4143e-02
10.500	23.250	1.4115e-02
10.500	23.500	1.4103e-02
10.500	23.750	1.4098e-02
10.500	24.000	1.4095e-02
10.750	17.000	4.4235e-02
10.750	17.250	4.4481e-02
10.750	17.500	4.5865e-02
10.750	17.750	4.8723e-02
10.750	18.000	5.2138e-02
10.750	18.250	5.5152e-02
10.750	18.500	5.7350e-02
10.750	18.750	5.8650e-02
10.750	19.000	5.9487e-02
10.750	19.250	6.0213e-02
10.750	19.500	6.1355e-02
10.750	19.750	6.3483e-02
10.750	20.000	6.2794e-02
10.750	20.250	5.8639e-02
10.750	20.500	5.4567e-02
10.750	20.750	5.1648e-02
10.750	21.000	3.7571e-02
10.750	21.250	2.8058e-02
10.750	21.500	2.1812e-02
10.750	21.750	1.8314e-02
10.750	22.000	1.6323e-02
10.750	22.250	1.5162e-02
10.750	22.500	1.4637e-02
10.750	22.750	1.4362e-02
10.750	23.000	1.4207e-02
10.750	23.250	1.4143e-02
10.750	23.500	1.4115e-02
10.750	23.750	1.4103e-02
10.750	24.000	1.4098e-02
11.000	17.000	4.3838e-02
11.000	17.250	4.3722e-02
11.000	17.500	4.4387e-02
11.000	17.750	4.5974e-02
11.000	18.000	4.8273e-02
11.000	18.250	5.0696e-02
11.000	18.500	5.3063e-02
11.000	18.750	5.5227e-02
11.000	19.000	5.7117e-02
11.000	19.250	5.8618e-02
11.000	19.500	5.9939e-02
11.000	19.750	6.1423e-02
11.000	20.000	6.3368e-02
11.000	20.250	6.5322e-02
11.000	20.500	5.9861e-02
11.000	20.750	5.6041e-02
11.000	21.000	5.2075e-02
11.000	21.250	3.7621e-02
11.000	21.500	2.8055e-02
11.000	21.750	2.1815e-02
11.000	22.000	1.8317e-02
11.000	22.250	1.6323e-02
11.000	22.500	1.5162e-02
11.000	22.750	1.4637e-02
11.000	23.000	1.4363e-02
11.000	23.250	1.4207e-02
11.000	23.500	1.4143e-02
11.000	23.750	1.4116e-02
11.000	24.000	1.4104e-02
11.250	17.000	4.4015e-02
11.250	17.250	4.3700e-02
11.250	17.500	4.3615e-02
11.250	17.750	4.3823e-02
11.250	18.000	4.4526e-02
11.250	18.250	4.5796e-02
11.250	18.500	4.7971e-02
11.250	18.750	5.0766e-02
11.250	19.000	5.3588e-02
11.250	19.250	5.5941e-02
11.250	19.500	5.7877e-02
11.250	19.750	5.9652e-02
11.250	20.000	6.1545e-02
11.250	20.250	6.5112e-02
11.250	20.500	6.7303e-02
11.250	20.750	6.2972e-02
11.250	21.000	5.8637e-02
11.250	21.250	5.2709e-02
11.250	21.500	3.7726e-02
11.250	21.750	2.8054e-02
11.250	22.000	2.1818e-02
11.250	22.250	1.8320e-02
11.250	22.500	1.6325e-02
11.250	22.750	1.5161e-02
11.250	23.000	1.4637e-02
11.250	23.250	1.4363e-02
11.250	23.500	1.4208e-02
11.250	23.750	1.4143e-02
11.250	24.000	1.4116e-02
11.500	17.000	4.4762e-02
11.500	17.250	4.4134e-02
11.500	17.500	4.3278e-02
11.500	17.750	4.2308e-02
11.500	18.000	4.1477e-02
11.500	18.250	4.1448e-02
11.500	18.500	4.2900e-02
11.500	18.750	4.5717e-02
11.500	19.000	4.9263e-02
11.500	19.250	5.2419e-02
11.500	19.500	5.5095e-02
11.500	19.750	5.7520e-02
11.500	20.000	5.9870e-02
11.500	20.250	6.2280e-02
11.500	20.500	6.7259e-02
11.500	20.750	7.0831e-02
11.500	21.000	6.7143e-02
11.500	21.250	6.2958e-02
11.500	21.500	5.3445e-02
11.500	21.750	3.7887e-02
11.500	22.000	2.8056e-02
11.500	22.250	2.1822e-02
11.500	22.500	1.8324e-02
11.500	22.750	1.6326e-02
11.500	23.000	1.5161e-02
11.500	23.250	1.4637e-02
11.500	23.500	1.4363e-02
11.500	23.750	1.4208e-02
11.500	24.000	1.4143e-02
11.750	17.000	4.6056e-02
11.750	17.250	4.4762e-02
11.750	17.500	4.3147e-02
11.750	17.750	4.1212e-02
11.750	18.000	3.9302e-02
11.750	18.250	3.8311e-02
11.750	18.500	3.8781e-02
11.750	18.750	4.0992e-02
11.750	19.000	4.4503e-02
11.750	19.250	4.8393e-02
11.750	19.500	5.1751e-02
11.750	19.750	5.4833e-02
11.750	20.000	5.7884e-02
11.750	20.250	6.0884e-02
11.750	20.500	6.4032e-02
11.750	20.750	6.9841e-02
11.750	21.000	7.6118e-02
11.750	21.250	7.4081e-02
11.750	21.500	6.9433e-02
11.750	21.750	5.4160e-02
11.750	22.000	3.8092e-02
11.750	22.250	2.8059e-02
11.750	22.500	2.1827e-02
11.750	22.750	1.8328e-02
11.750	23.000	1.6328e-02
11.750	23.250	1.5160e-02
11.750	23.500	1.4637e-02
11.750	23.750	1.4363e-02
11.750	24.000	1.4209e-02
12.000	17.000	4.7652e-02
12.000	17.250	4.5469e-02
12.000	17.500	4.2972e-02
12.000	17.750	4.0236e-02
12.000	18.000	3.7854e-02
12.000	18.250	3.6323e-02
12.000	18.500	3.6112e-02
12.000	18.750	3.7350e-02
12.000	19.000	4.0095e-02
12.000	19.250	4.4034e-02
12.000	19.500	4.8158e-02
12.000	19.750	5.1812e-02
12.000	20.000	5.5437e-02
12.000	20.250	5.9240e-02
12.000	20.500	6.3016e-02
12.000	20.750	6.7107e-02
12.000	21.000	7.5268e-02
12.000	21.250	8.4110e-02
12.000	21.500	8.3523e-02
12.000	21.750	7.7324e-02
12.000	22.000	5.4855e-02
12.000	22.250	3.8212e-02
12.000	22.500	2.8061e-02
12.000	22.750	2.1830e-02
12.000	23.000	1.8333e-02
12.000	23.250	1.6330e-02
12.000	23.500	1.5160e-02
12.000	23.750	1.4637e-02
12.000	24.000	1.4363e-02
12.250	17.000	4.9291e-02
12.250	17.250	4.5980e-02
12.250	17.500	4.2508e-02
12.250	17.750	3.9237e-02
12.250	18.000	3.6726e-02
12.250	18.250	3.5219e-02
12.250	18.500	3.4770e-02
12.250	18.750	3.5269e-02
12.250	19.000	3.6913e-02
12.250	19.250	4.0038e-02
12.250	19.500	4.4282e-02
12.250	19.750	4.8685e-02
12.250	20.000	5.2759e-02
12.250	20.250	5.7084e-02
12.250	20.500	6.1716e-02
12.250	20.750	6.6751e-02
12.250	21.000	7.3305e-02
12.250	21.250	8.5186e-02
12.250	21.500	9.5063e-02
12.250	21.750	9.5232e-02
12.250	22.000	8.2041e-02
12.250	22.250	5.5419e-02
12.250	22.500	3.8387e-02
12.250	22.750	2.8059e-02
12.250	23.000	2.1832e-02
12.250	23.250	1.8337e-02
12.250	23.500	1.6333e-02
12.250	23.750	1.5159e-02
12.250	24.000	1.4636e-02
12.500	17.000	5.0001e-02
12.500	17.250	4.5622e-02
12.500	17.500	4.1442e-02
12.500	17.750	3.8065e-02
12.500	18.000	3.5802e-02
12.500	18.250	3.4618e-02
12.500	18.500	3.4250e-02
12.500	18.750	3.4509e-02
12.500	19.000	3.5415e-02
12.500	19.250	3.7350e-02
12.500	19.500	4.0783e-02
12.500	19.750	4.5345e-02
12.500	20.000	5.0101e-02
12.500	20.250	5.4728e-02
12.500	20.500	5.9906e-02
12.500	20.750	6.6149e-02
12.500	21.000	7.4449e-02
12.500	21.250	8.4429e-02
12.500	21.500	9.8512e-02
12.500	21.750	1.0944e-01
12.500	22.000	1.0774e-01
12.500	22.250	8.3869e-02
12.500	22.500	5.5897e-02
12.500	22.750	3.8607e-02
12.500	23.000	2.8049e-02
12.500	23.250	2.1832e-02
12.500	23.500	1.8341e-02
12.500	23.750	1.6335e-02
12.500	24.000	1.5157e-02
12.750	17.000	4.7312e-02
12.750	17.250	4.3473e-02
12.750	17.500	3.9683e-02
12.750	17.750	3.6969e-02
12.750	18.000	3.5209e-02
12.750	18.250	3.4308e-02
12.750	18.500	3.4096e-02
12.750	18.750	3.4409e-02
12.750	19.000	3.5100e-02
12.750	19.250	3.6319e-02
12.750	19.500	3.8559e-02
12.750	19.750	4.2308e-02
12.750	20.000	4.7136e-02
12.750	20.250	5.2623e-02
12.750	20.500	5.7913e-02
12.750	20.750	6.4772e-02
12.750	21.000	7.3833e-02
12.750	21.250	8.7381e-02
12.750	21.500	9.9435e-02
12.750	21.750	1.1497e-01
12.750	22.000	1.2643e-01
12.750	22.250	1.1879e-01
12.750	22.500	8.5351e-02
12.750	22.750	5.6358e-02
12.750	23.000	3.8726e-02
12.750	23.250	2.8029e-02
12.750	23.500	2.1827e-02
12.750	23.750	1.8343e-02
12.750	24.000	1.6337e-02
13.000	17.000	1.8484e-02
13.000	17.250	2.4076e-02
13.000	17.500	3.8254e-02
13.000	17.750	3.6421e-02
13.000	18.000	3.4979e-02
13.000	18.250	3.4244e-02
13.000	18.500	3.4132e-02
13.000	18.750	3.4518e-02
13.000	19.000	3.5290e-02
13.000	19.250	3.6379e-02
13.000	19.500	3.7957e-02
13.000	19.750	4.0548e-02
13.000	20.000	4.4526e-02
13.000	20.250	4.9845e-02
13.000	20.500	5.6289e-02
13.000	20.750	6.3258e-02
13.000	21.000	7.3207e-02
13.000	21.250	8.6587e-02
13.000	21.500	1.0209e-01
13.000	21.750	1.1910e-01
13.000	22.000	1.3788e-01
13.000	22.250	1.4335e-01
13.000	22.500	1.2620e-01
13.000	22.750	8.6751e-02
13.000	23.000	5.7038e-02
13.000	23.250	3.8704e-02
13.000	23.500	2.8002e-02
13.000	23.750	2.1817e-02
13.000	24.000	1.8342e-02
13.250	17.000	1.4561e-02
13.250	17.250	1.8022e-02
13.250	17.500	2.7709e-02
13.250	17.750	3.4897e-02
13.250	18.000	3.5039e-02
13.250	18.250	3.4411e-02
13.250	18.500	3.4322e-02
13.250	18.750	3.4726e-02
13.250	19.000	3.5553e-02
13.250	19.250	3.6714e-02
13.250	19.500	3.8243e-02
13.250	19.750	4.0293e-02
13.250	20.000	4.3316e-02
13.250	20.250	4.7631e-02
13.250	20.500	5.3596e-02
13.250	20.750	6.1263e-02
13.250	21.000	7.1367e-02
13.250	21.250	8.3416e-02
13.250	21.500	9.8396e-02
13.250	21.750	1.1482e-01
13.250	22.000	1.4040e-01
13.250	22.250	1.4973e-01
13.250	22.500	1.5436e-01
13.250	22.750	1.3030e-01
13.250	23.000	8.8015e-02
13.250	23.250	5.7392e-02
13.250	23.500	3.8742e-02
13.250	23.750	2.7970e-02
13.250	24.000	2.1803e-02
13.500	17.000	1.2182e-02
13.500	17.250	1.4885e-02
13.500	17.500	2.0736e-02
13.500	17.750	2.8372e-02
13.500	18.000	3.5006e-02
13.500	18.250	3.4624e-02
13.500	18.500	3.4534e-02
13.500	18.750	3.4968e-02
13.500	19.000	3.5830e-02
13.500	19.250	3.7082e-02
13.500	19.500	3.8668e-02
13.500	19.750	4.0720e-02
13.500	20.000	4.3464e-02
13.500	20.250	4.7347e-02
13.500	20.500	5.2171e-02
13.500	20.750	5.8532e-02
13.500	21.000	6.6541e-02
13.500	21.250	7.7935e-02
13.500	21.500	8.7735e-02
13.500	21.750	1.0438e-01
13.500	22.000	1.2507e-01
13.500	22.250	1.5190e-01
13.500	22.500	1.6036e-01
13.500	22.750	1.6197e-01
13.500	23.000	1.3298e-01
13.500	23.250	8.8932e-02
13.500	23.500	5.7624e-02
13.500	23.750	3.8837e-02
13.500	24.000	2.7932e-02
13.750	17.000	1.0813e-02
13.750	17.250	1.2967e-02
13.750	17.500	1.7248e-02
13.750	17.750	2.3066e-02
13.750	18.000	3.0663e-02
13.750	18.250	3.3591e-02
13.750	18.500	3.4849e-02
13.750	18.750	3.5173e-02
13.750	19.000	3.6037e-02
13.750	19.250	3.7367e-02
13.750	19.500	3.9088e-02
13.750	19.750	4.1261e-02
13.750	20.000	4.4100e-02
13.750	20.250	4.7816e-02
13.750	20.500	5.2617e-02
13.750	20.750	5.8482e-02
13.750	21.000	6.5480e-02
13.750	21.250	7.3686e-02
13.750	21.500	8.3258e-02
13.750	21.750	9.5607e-02
13.750	22.000	1.1334e-01
13.750	22.250	1.4088e-01
13.750	22.500	1.6920e-01
13.750	22.750	1.7222e-01
13.750	23.000	1.6663e-01
13.750	23.250	1.3590e-01
13.750	23.500	8.9886e-02
13.750	23.750	5.7777e-02
13.750	24.000	3.8795e-02
14.000	17.000	9.9977e-03
14.000	17.250	1.1680e-02
14.000	17.500	1.5260e-02
14.000	17.750	1.9439e-02
14.000	18.000	2.6235e-02
14.000	18.250	3.2749e-02
14.000	18.500	3.5332e-02
14.000	18.750	3.5480e-02
14.000	19.000	3.6196e-02
14.000	19.250	3.7548e-02
14.000	19.500	3.9428e-02
14.000	19.750	4.1808e-02
14.000	20.000	4.4767e-02
14.000	20.250	4.8594e-02
14.000	20.500	5.3562e-02
14.000	20.750	5.9651e-02
14.000	21.000	6.6866e-02
14.000	21.250	7.5350e-02
14.000	21.500	8.3649e-02
14.000	21.750	9.5019e-02
14.000	22.000	1.1020e-01
14.000	22.250	1.3359e-01
14.000	22.500	1.7194e-01
14.000	22.750	1.9755e-01
14.000	23.000	1.9450e-01
14.000	23.250	1.7546e-01
14.000	23.500	1.4003e-01
14.000	23.750	9.0540e-02
14.000	24.000	5.7890e-02
