nFnu 10000.0A  relative to Inci 1215.00A scaled to 1215A.
Hden   Phi(H)  Eq_Width (A)
 7.000	17.000	1.7119e-02
 7.000	17.250	1.0024e-02
 7.000	17.500	6.3150e-03
 7.000	17.750	4.4198e-03
 7.000	18.000	3.5005e-03
 7.000	18.250	2.9993e-03
 7.000	18.500	2.7172e-03
 7.000	18.750	2.5963e-03
 7.000	19.000	2.5347e-03
 7.000	19.250	2.5010e-03
 7.000	19.500	2.4879e-03
 7.000	19.750	2.4826e-03
 7.000	20.000	2.4805e-03
 7.000	20.250	2.4794e-03
 7.000	20.500	2.4790e-03
 7.000	20.750	2.4788e-03
 7.000	21.000	2.4786e-03
 7.000	21.250	2.4785e-03
 7.000	21.500	2.4784e-03
 7.000	21.750	2.4784e-03
 7.000	22.000	2.4784e-03
 7.000	22.250	2.4784e-03
 7.000	22.500	2.4784e-03
 7.000	22.750	2.4787e-03
 7.000	23.000	2.4787e-03
 7.000	23.250	2.4784e-03
 7.000	23.500	2.4787e-03
 7.000	23.750	2.4787e-03
 7.000	24.000	2.4788e-03
 7.250	17.000	2.7619e-02
 7.250	17.250	1.7101e-02
 7.250	17.500	1.0016e-02
 7.250	17.750	6.3102e-03
 7.250	18.000	4.4181e-03
 7.250	18.250	3.5001e-03
 7.250	18.500	2.9993e-03
 7.250	18.750	2.7172e-03
 7.250	19.000	2.5963e-03
 7.250	19.250	2.5347e-03
 7.250	19.500	2.5010e-03
 7.250	19.750	2.4879e-03
 7.250	20.000	2.4826e-03
 7.250	20.250	2.4805e-03
 7.250	20.500	2.4794e-03
 7.250	20.750	2.4789e-03
 7.250	21.000	2.4787e-03
 7.250	21.250	2.4786e-03
 7.250	21.500	2.4785e-03
 7.250	21.750	2.4785e-03
 7.250	22.000	2.4784e-03
 7.250	22.250	2.4784e-03
 7.250	22.500	2.4784e-03
 7.250	22.750	2.4784e-03
 7.250	23.000	2.4784e-03
 7.250	23.250	2.4784e-03
 7.250	23.500	2.4784e-03
 7.250	23.750	2.4784e-03
 7.250	24.000	2.4784e-03
 7.500	17.000	4.2879e-02
 7.500	17.250	2.7583e-02
 7.500	17.500	1.7087e-02
 7.500	17.750	1.0010e-02
 7.500	18.000	6.3049e-03
 7.500	18.250	4.4161e-03
 7.500	18.500	3.4995e-03
 7.500	18.750	2.9992e-03
 7.500	19.000	2.7171e-03
 7.500	19.250	2.5963e-03
 7.500	19.500	2.5347e-03
 7.500	19.750	2.5010e-03
 7.500	20.000	2.4879e-03
 7.500	20.250	2.4826e-03
 7.500	20.500	2.4805e-03
 7.500	20.750	2.4794e-03
 7.500	21.000	2.4789e-03
 7.500	21.250	2.4787e-03
 7.500	21.500	2.4785e-03
 7.500	21.750	2.4785e-03
 7.500	22.000	2.4784e-03
 7.500	22.250	2.4784e-03
 7.500	22.500	2.4784e-03
 7.500	22.750	2.4784e-03
 7.500	23.000	2.4784e-03
 7.500	23.250	2.4784e-03
 7.500	23.500	2.4787e-03
 7.500	23.750	2.4784e-03
 7.500	24.000	2.4784e-03
 7.750	17.000	4.6987e-02
 7.750	17.250	4.2967e-02
 7.750	17.500	2.7556e-02
 7.750	17.750	1.7078e-02
 7.750	18.000	1.0005e-02
 7.750	18.250	6.2993e-03
 7.750	18.500	4.4137e-03
 7.750	18.750	3.4988e-03
 7.750	19.000	2.9990e-03
 7.750	19.250	2.7171e-03
 7.750	19.500	2.5963e-03
 7.750	19.750	2.5347e-03
 7.750	20.000	2.5010e-03
 7.750	20.250	2.4879e-03
 7.750	20.500	2.4826e-03
 7.750	20.750	2.4805e-03
 7.750	21.000	2.4794e-03
 7.750	21.250	2.4789e-03
 7.750	21.500	2.4787e-03
 7.750	21.750	2.4785e-03
 7.750	22.000	2.4784e-03
 7.750	22.250	2.4784e-03
 7.750	22.500	2.4784e-03
 7.750	22.750	2.4784e-03
 7.750	23.000	2.4784e-03
 7.750	23.250	2.4784e-03
 7.750	23.500	2.4784e-03
 7.750	23.750	2.4784e-03
 7.750	24.000	2.4784e-03
 8.000	17.000	4.9243e-02
 8.000	17.250	4.6625e-02
 8.000	17.500	4.2564e-02
 8.000	17.750	2.7509e-02
 8.000	18.000	1.7072e-02
 8.000	18.250	1.0001e-02
 8.000	18.500	6.2931e-03
 8.000	18.750	4.4109e-03
 8.000	19.000	3.4981e-03
 8.000	19.250	2.9989e-03
 8.000	19.500	2.7170e-03
 8.000	19.750	2.5963e-03
 8.000	20.000	2.5347e-03
 8.000	20.250	2.5010e-03
 8.000	20.500	2.4879e-03
 8.000	20.750	2.4826e-03
 8.000	21.000	2.4805e-03
 8.000	21.250	2.4794e-03
 8.000	21.500	2.4789e-03
 8.000	21.750	2.4787e-03
 8.000	22.000	2.4785e-03
 8.000	22.250	2.4784e-03
 8.000	22.500	2.4784e-03
 8.000	22.750	2.4784e-03
 8.000	23.000	2.4784e-03
 8.000	23.250	2.4784e-03
 8.000	23.500	2.4784e-03
 8.000	23.750	2.4784e-03
 8.000	24.000	2.4784e-03
 8.250	17.000	5.1271e-02
 8.250	17.250	4.9704e-02
 8.250	17.500	4.6876e-02
 8.250	17.750	4.2607e-02
 8.250	18.000	2.7500e-02
 8.250	18.250	1.7070e-02
 8.250	18.500	9.9974e-03
 8.250	18.750	6.2863e-03
 8.250	19.000	4.4077e-03
 8.250	19.250	3.4971e-03
 8.250	19.500	2.9988e-03
 8.250	19.750	2.7170e-03
 8.250	20.000	2.5963e-03
 8.250	20.250	2.5347e-03
 8.250	20.500	2.5010e-03
 8.250	20.750	2.4879e-03
 8.250	21.000	2.4826e-03
 8.250	21.250	2.4805e-03
 8.250	21.500	2.4794e-03
 8.250	21.750	2.4789e-03
 8.250	22.000	2.4787e-03
 8.250	22.250	2.4785e-03
 8.250	22.500	2.4784e-03
 8.250	22.750	2.4785e-03
 8.250	23.000	2.4784e-03
 8.250	23.250	2.4784e-03
 8.250	23.500	2.4785e-03
 8.250	23.750	2.4784e-03
 8.250	24.000	2.4784e-03
 8.500	17.000	5.2943e-02
 8.500	17.250	5.1898e-02
 8.500	17.500	5.0287e-02
 8.500	17.750	4.7218e-02
 8.500	18.000	4.2692e-02
 8.500	18.250	2.7497e-02
 8.500	18.500	1.7072e-02
 8.500	18.750	9.9942e-03
 8.500	19.000	6.2787e-03
 8.500	19.250	4.4040e-03
 8.500	19.500	3.4960e-03
 8.500	19.750	2.9986e-03
 8.500	20.000	2.7170e-03
 8.500	20.250	2.5963e-03
 8.500	20.500	2.5347e-03
 8.500	20.750	2.5010e-03
 8.500	21.000	2.4879e-03
 8.500	21.250	2.4826e-03
 8.500	21.500	2.4805e-03
 8.500	21.750	2.4794e-03
 8.500	22.000	2.4789e-03
 8.500	22.250	2.4787e-03
 8.500	22.500	2.4785e-03
 8.500	22.750	2.4784e-03
 8.500	23.000	2.4784e-03
 8.500	23.250	2.4784e-03
 8.500	23.500	2.4784e-03
 8.500	23.750	2.4784e-03
 8.500	24.000	2.4784e-03
 8.750	17.000	5.4316e-02
 8.750	17.250	5.3740e-02
 8.750	17.500	5.2827e-02
 8.750	17.750	5.1265e-02
 8.750	18.000	4.7938e-02
 8.750	18.250	4.2979e-02
 8.750	18.500	2.7496e-02
 8.750	18.750	1.7078e-02
 8.750	19.000	9.9914e-03
 8.750	19.250	6.2706e-03
 8.750	19.500	4.4001e-03
 8.750	19.750	3.4950e-03
 8.750	20.000	2.9984e-03
 8.750	20.250	2.7169e-03
 8.750	20.500	2.5963e-03
 8.750	20.750	2.5347e-03
 8.750	21.000	2.5010e-03
 8.750	21.250	2.4879e-03
 8.750	21.500	2.4826e-03
 8.750	21.750	2.4805e-03
 8.750	22.000	2.4794e-03
 8.750	22.250	2.4789e-03
 8.750	22.500	2.4787e-03
 8.750	22.750	2.4785e-03
 8.750	23.000	2.4784e-03
 8.750	23.250	2.4784e-03
 8.750	23.500	2.4784e-03
 8.750	23.750	2.4784e-03
 8.750	24.000	2.4784e-03
 9.000	17.000	5.5379e-02
 9.000	17.250	5.5315e-02
 9.000	17.500	5.5093e-02
 9.000	17.750	5.4590e-02
 9.000	18.000	5.3117e-02
 9.000	18.250	4.9494e-02
 9.000	18.500	4.3570e-02
 9.000	18.750	2.7493e-02
 9.000	19.000	1.7085e-02
 9.000	19.250	9.9900e-03
 9.000	19.500	6.2624e-03
 9.000	19.750	4.3959e-03
 9.000	20.000	3.4938e-03
 9.000	20.250	2.9982e-03
 9.000	20.500	2.7168e-03
 9.000	20.750	2.5963e-03
 9.000	21.000	2.5347e-03
 9.000	21.250	2.5010e-03
 9.000	21.500	2.4879e-03
 9.000	21.750	2.4826e-03
 9.000	22.000	2.4805e-03
 9.000	22.250	2.4794e-03
 9.000	22.500	2.4789e-03
 9.000	22.750	2.4787e-03
 9.000	23.000	2.4785e-03
 9.000	23.250	2.4784e-03
 9.000	23.500	2.4784e-03
 9.000	23.750	2.4784e-03
 9.000	24.000	2.4784e-03
 9.250	17.000	5.6132e-02
 9.250	17.250	5.6572e-02
 9.250	17.500	5.7204e-02
 9.250	17.750	5.7941e-02
 9.250	18.000	5.8237e-02
 9.250	18.250	5.7041e-02
 9.250	18.500	5.2819e-02
 9.250	18.750	4.5040e-02
 9.250	19.000	2.7485e-02
 9.250	19.250	1.7095e-02
 9.250	19.500	9.9905e-03
 9.250	19.750	6.2552e-03
 9.250	20.000	4.3919e-03
 9.250	20.250	3.4928e-03
 9.250	20.500	2.9979e-03
 9.250	20.750	2.7168e-03
 9.250	21.000	2.5963e-03
 9.250	21.250	2.5347e-03
 9.250	21.500	2.5007e-03
 9.250	21.750	2.4876e-03
 9.250	22.000	2.4823e-03
 9.250	22.250	2.4802e-03
 9.250	22.500	2.4793e-03
 9.250	22.750	2.4788e-03
 9.250	23.000	2.4786e-03
 9.250	23.250	2.4785e-03
 9.250	23.500	2.4784e-03
 9.250	23.750	2.4784e-03
 9.250	24.000	2.4784e-03
 9.500	17.000	5.6759e-02
 9.500	17.250	5.7724e-02
 9.500	17.500	5.9206e-02
 9.500	17.750	6.1382e-02
 9.500	18.000	6.3831e-02
 9.500	18.250	6.5686e-02
 9.500	18.500	6.4698e-02
 9.500	18.750	5.9288e-02
 9.500	19.000	4.5141e-02
 9.500	19.250	2.7467e-02
 9.500	19.500	1.7106e-02
 9.500	19.750	9.9934e-03
 9.500	20.000	6.2498e-03
 9.500	20.250	4.3884e-03
 9.500	20.500	3.4919e-03
 9.500	20.750	2.9978e-03
 9.500	21.000	2.7165e-03
 9.500	21.250	2.5960e-03
 9.500	21.500	2.5344e-03
 9.500	21.750	2.5005e-03
 9.500	22.000	2.4875e-03
 9.500	22.250	2.4822e-03
 9.500	22.500	2.4800e-03
 9.500	22.750	2.4790e-03
 9.500	23.000	2.4785e-03
 9.500	23.250	2.4783e-03
 9.500	23.500	2.4781e-03
 9.500	23.750	2.4780e-03
 9.500	24.000	2.4779e-03
 9.750	17.000	5.7179e-02
 9.750	17.250	5.8637e-02
 9.750	17.500	6.1079e-02
 9.750	17.750	6.4984e-02
 9.750	18.000	7.0473e-02
 9.750	18.250	7.5771e-02
 9.750	18.500	7.8354e-02
 9.750	18.750	7.5757e-02
 9.750	19.000	6.8270e-02
 9.750	19.250	4.5240e-02
 9.750	19.500	2.7443e-02
 9.750	19.750	1.7118e-02
 9.750	20.000	9.9985e-03
 9.750	20.250	6.2468e-03
 9.750	20.500	4.3857e-03
 9.750	20.750	3.4912e-03
 9.750	21.000	2.9976e-03
 9.750	21.250	2.7164e-03
 9.750	21.500	2.5960e-03
 9.750	21.750	2.5344e-03
 9.750	22.000	2.5006e-03
 9.750	22.250	2.4874e-03
 9.750	22.500	2.4822e-03
 9.750	22.750	2.4800e-03
 9.750	23.000	2.4790e-03
 9.750	23.250	2.4785e-03
 9.750	23.500	2.4783e-03
 9.750	23.750	2.4781e-03
 9.750	24.000	2.4780e-03
10.000	17.000	5.7355e-02
10.000	17.250	5.9565e-02
10.000	17.500	6.3131e-02
10.000	17.750	6.9134e-02
10.000	18.000	7.8266e-02
10.000	18.250	8.7288e-02
10.000	18.500	9.3362e-02
10.000	18.750	9.4150e-02
10.000	19.000	8.9300e-02
10.000	19.250	7.3678e-02
10.000	19.500	4.5270e-02
10.000	19.750	2.7385e-02
10.000	20.000	1.7123e-02
10.000	20.250	1.0004e-02
10.000	20.500	6.2454e-03
10.000	20.750	4.3835e-03
10.000	21.000	3.4908e-03
10.000	21.250	2.9975e-03
10.000	21.500	2.7164e-03
10.000	21.750	2.5960e-03
10.000	22.000	2.5344e-03
10.000	22.250	2.5007e-03
10.000	22.500	2.4874e-03
10.000	22.750	2.4822e-03
10.000	23.000	2.4800e-03
10.000	23.250	2.4790e-03
10.000	23.500	2.4785e-03
10.000	23.750	2.4783e-03
10.000	24.000	2.4781e-03
10.250	17.000	5.8148e-02
10.250	17.250	6.0603e-02
10.250	17.500	6.5796e-02
10.250	17.750	7.4573e-02
10.250	18.000	8.7367e-02
10.250	18.250	9.9952e-02
10.250	18.500	1.0905e-01
10.250	18.750	1.1343e-01
10.250	19.000	1.1171e-01
10.250	19.250	1.0401e-01
10.250	19.500	7.7554e-02
10.250	19.750	4.5214e-02
10.250	20.000	2.7329e-02
10.250	20.250	1.7121e-02
10.250	20.500	1.0010e-02
10.250	20.750	6.2460e-03
10.250	21.000	4.3823e-03
10.250	21.250	3.4908e-03
10.250	21.500	2.9974e-03
10.250	21.750	2.7164e-03
10.250	22.000	2.5960e-03
10.250	22.250	2.5345e-03
10.250	22.500	2.5007e-03
10.250	22.750	2.4875e-03
10.250	23.000	2.4822e-03
10.250	23.250	2.4801e-03
10.250	23.500	2.4790e-03
10.250	23.750	2.4785e-03
10.250	24.000	2.4783e-03
10.500	17.000	6.0006e-02
10.500	17.250	6.2797e-02
10.500	17.500	6.9602e-02
10.500	17.750	8.1962e-02
10.500	18.000	9.8160e-02
10.500	18.250	1.1387e-01
10.500	18.500	1.2490e-01
10.500	18.750	1.3162e-01
10.500	19.000	1.3316e-01
10.500	19.250	1.2861e-01
10.500	19.500	1.1640e-01
10.500	19.750	7.7431e-02
10.500	20.000	4.5002e-02
10.500	20.250	2.7206e-02
10.500	20.500	1.7091e-02
10.500	20.750	1.0013e-02
10.500	21.000	6.2480e-03
10.500	21.250	4.3818e-03
10.500	21.500	3.4910e-03
10.500	21.750	2.9974e-03
10.500	22.000	2.7164e-03
10.500	22.250	2.5961e-03
10.500	22.500	2.5345e-03
10.500	22.750	2.5007e-03
10.500	23.000	2.4876e-03
10.500	23.250	2.4823e-03
10.500	23.500	2.4800e-03
10.500	23.750	2.4790e-03
10.500	24.000	2.4785e-03
10.750	17.000	6.3198e-02
10.750	17.250	6.6380e-02
10.750	17.500	7.5574e-02
10.750	17.750	9.1371e-02
10.750	18.000	1.1046e-01
10.750	18.250	1.2770e-01
10.750	18.500	1.4053e-01
10.750	18.750	1.4940e-01
10.750	19.000	1.5299e-01
10.750	19.250	1.5161e-01
10.750	19.500	1.4439e-01
10.750	19.750	1.2793e-01
10.750	20.000	7.7310e-02
10.750	20.250	4.4520e-02
10.750	20.500	2.7004e-02
10.750	20.750	1.7025e-02
10.750	21.000	1.0008e-02
10.750	21.250	6.2505e-03
10.750	21.500	4.3823e-03
10.750	21.750	3.4916e-03
10.750	22.000	2.9975e-03
10.750	22.250	2.7163e-03
10.750	22.500	2.5962e-03
10.750	22.750	2.5346e-03
10.750	23.000	2.5007e-03
10.750	23.250	2.4876e-03
10.750	23.500	2.4823e-03
10.750	23.750	2.4801e-03
10.750	24.000	2.4790e-03
11.000	17.000	6.7935e-02
11.000	17.250	7.1487e-02
11.000	17.500	8.3227e-02
11.000	17.750	1.0230e-01
11.000	18.000	1.2311e-01
11.000	18.250	1.4140e-01
11.000	18.500	1.5596e-01
11.000	18.750	1.6617e-01
11.000	19.000	1.7172e-01
11.000	19.250	1.7285e-01
11.000	19.500	1.6929e-01
11.000	19.750	1.6035e-01
11.000	20.000	1.3662e-01
11.000	20.250	7.6686e-02
11.000	20.500	4.4311e-02
11.000	20.750	2.6813e-02
11.000	21.000	1.6913e-02
11.000	21.250	9.9847e-03
11.000	21.500	6.2531e-03
11.000	21.750	4.3835e-03
11.000	22.000	3.4926e-03
11.000	22.250	2.9976e-03
11.000	22.500	2.7162e-03
11.000	22.750	2.5962e-03
11.000	23.000	2.5347e-03
11.000	23.250	2.5007e-03
11.000	23.500	2.4877e-03
11.000	23.750	2.4824e-03
11.000	24.000	2.4802e-03
11.250	17.000	7.4572e-02
11.250	17.250	7.7957e-02
11.250	17.500	9.1747e-02
11.250	17.750	1.1339e-01
11.250	18.000	1.3572e-01
11.250	18.250	1.5466e-01
11.250	18.500	1.6964e-01
11.250	18.750	1.8167e-01
11.250	19.000	1.8879e-01
11.250	19.250	1.9244e-01
11.250	19.500	1.9158e-01
11.250	19.750	1.8625e-01
11.250	20.000	1.7568e-01
11.250	20.250	1.3800e-01
11.250	20.500	7.6341e-02
11.250	20.750	4.3861e-02
11.250	21.000	2.6655e-02
11.250	21.250	1.6747e-02
11.250	21.500	9.9397e-03
11.250	21.750	6.2525e-03
11.250	22.000	4.3853e-03
11.250	22.250	3.4937e-03
11.250	22.500	2.9979e-03
11.250	22.750	2.7160e-03
11.250	23.000	2.5962e-03
11.250	23.250	2.5347e-03
11.250	23.500	2.5007e-03
11.250	23.750	2.4877e-03
11.250	24.000	2.4824e-03
11.500	17.000	8.3951e-02
11.500	17.250	8.6367e-02
11.500	17.500	1.0088e-01
11.500	17.750	1.2398e-01
11.500	18.000	1.4748e-01
11.500	18.250	1.6687e-01
11.500	18.500	1.8272e-01
11.500	18.750	1.9578e-01
11.500	19.000	2.0487e-01
11.500	19.250	2.0984e-01
11.500	19.500	2.1059e-01
11.500	19.750	2.0830e-01
11.500	20.000	2.0204e-01
11.500	20.250	1.9066e-01
11.500	20.500	1.3854e-01
11.500	20.750	7.5811e-02
11.500	21.000	4.3574e-02
11.500	21.250	2.6677e-02
11.500	21.500	1.6552e-02
11.500	21.750	9.8655e-03
11.500	22.000	6.2461e-03
11.500	22.250	4.3874e-03
11.500	22.500	3.4948e-03
11.500	22.750	2.9980e-03
11.500	23.000	2.7158e-03
11.500	23.250	2.5961e-03
11.500	23.500	2.5347e-03
11.500	23.750	2.5008e-03
11.500	24.000	2.4877e-03
11.750	17.000	9.7130e-02
11.750	17.250	9.7257e-02
11.750	17.500	1.1096e-01
11.750	17.750	1.3412e-01
11.750	18.000	1.5782e-01
11.750	18.250	1.7804e-01
11.750	18.500	1.9503e-01
11.750	18.750	2.0857e-01
11.750	19.000	2.1934e-01
11.750	19.250	2.2564e-01
11.750	19.500	2.2836e-01
11.750	19.750	2.2715e-01
11.750	20.000	2.2365e-01
11.750	20.250	2.1665e-01
11.750	20.500	2.0458e-01
11.750	20.750	1.3821e-01
11.750	21.000	7.5349e-02
11.750	21.250	4.3547e-02
11.750	21.500	2.7102e-02
11.750	21.750	1.6336e-02
11.750	22.000	9.7668e-03
11.750	22.250	6.2312e-03
11.750	22.500	4.3894e-03
11.750	22.750	3.4959e-03
11.750	23.000	2.9983e-03
11.750	23.250	2.7156e-03
11.750	23.500	2.5960e-03
11.750	23.750	2.5347e-03
11.750	24.000	2.5009e-03
12.000	17.000	1.1577e-01
12.000	17.250	1.1167e-01
12.000	17.500	1.2240e-01
12.000	17.750	1.4356e-01
12.000	18.000	1.6674e-01
12.000	18.250	1.8812e-01
12.000	18.500	2.0642e-01
12.000	18.750	2.2161e-01
12.000	19.000	2.3334e-01
12.000	19.250	2.4068e-01
12.000	19.500	2.4433e-01
12.000	19.750	2.4424e-01
12.000	20.000	2.4169e-01
12.000	20.250	2.3701e-01
12.000	20.500	2.2939e-01
12.000	20.750	2.1553e-01
12.000	21.000	1.3744e-01
12.000	21.250	7.5338e-02
12.000	21.500	4.4087e-02
12.000	21.750	2.7732e-02
12.000	22.000	1.6104e-02
12.000	22.250	9.6877e-03
12.000	22.500	6.2060e-03
12.000	22.750	4.3904e-03
12.000	23.000	3.4967e-03
12.000	23.250	2.9984e-03
12.000	23.500	2.7151e-03
12.000	23.750	2.5958e-03
12.000	24.000	2.5347e-03
12.250	17.000	1.4166e-01
12.250	17.250	1.3075e-01
12.250	17.500	1.3577e-01
12.250	17.750	1.5265e-01
12.250	18.000	1.7457e-01
12.250	18.250	1.9717e-01
12.250	18.500	2.1767e-01
12.250	18.750	2.3454e-01
12.250	19.000	2.4692e-01
12.250	19.250	2.5463e-01
12.250	19.500	2.5864e-01
12.250	19.750	2.5949e-01
12.250	20.000	2.5718e-01
12.250	20.250	2.5350e-01
12.250	20.500	2.4853e-01
12.250	20.750	2.4114e-01
12.250	21.000	2.2340e-01
12.250	21.250	1.3650e-01
12.250	21.500	7.5904e-02
12.250	21.750	4.4809e-02
12.250	22.000	2.7742e-02
12.250	22.250	1.5876e-02
12.250	22.500	9.5766e-03
12.250	22.750	6.1714e-03
12.250	23.000	4.3895e-03
12.250	23.250	3.4966e-03
12.250	23.500	2.9981e-03
12.250	23.750	2.7144e-03
12.250	24.000	2.5956e-03
12.500	17.000	1.7395e-01
12.500	17.250	1.5460e-01
12.500	17.500	1.5152e-01
12.500	17.750	1.6248e-01
12.500	18.000	1.8265e-01
12.500	18.250	2.0566e-01
12.500	18.500	2.2810e-01
12.500	18.750	2.4656e-01
12.500	19.000	2.6025e-01
12.500	19.250	2.6809e-01
12.500	19.500	2.7187e-01
12.500	19.750	2.7287e-01
12.500	20.000	2.7130e-01
12.500	20.250	2.6771e-01
12.500	20.500	2.6347e-01
12.500	20.750	2.5872e-01
12.500	21.000	2.5204e-01
12.500	21.250	2.3490e-01
12.500	21.500	1.3613e-01
12.500	21.750	7.6095e-02
12.500	22.000	4.5778e-02
12.500	22.250	2.7212e-02
12.500	22.500	1.5638e-02
12.500	22.750	9.4305e-03
12.500	23.000	6.1272e-03
12.500	23.250	4.3853e-03
12.500	23.500	3.4952e-03
12.500	23.750	2.9971e-03
12.500	24.000	2.7134e-03
12.750	17.000	2.0066e-01
12.750	17.250	1.7822e-01
12.750	17.500	1.6908e-01
12.750	17.750	1.7595e-01
12.750	18.000	1.9288e-01
12.750	18.250	2.1494e-01
12.750	18.500	2.3733e-01
12.750	18.750	2.5748e-01
12.750	19.000	2.7212e-01
12.750	19.250	2.8085e-01
12.750	19.500	2.8393e-01
12.750	19.750	2.8459e-01
12.750	20.000	2.8319e-01
12.750	20.250	2.8078e-01
12.750	20.500	2.7563e-01
12.750	20.750	2.7241e-01
12.750	21.000	2.6875e-01
12.750	21.250	2.6398e-01
12.750	21.500	2.3370e-01
12.750	21.750	1.3449e-01
12.750	22.000	7.6517e-02
12.750	22.250	4.6450e-02
12.750	22.500	2.6677e-02
12.750	22.750	1.5374e-02
12.750	23.000	9.2979e-03
12.750	23.250	6.0754e-03
12.750	23.500	4.3760e-03
12.750	23.750	3.4914e-03
12.750	24.000	2.9948e-03
13.000	17.000	1.2845e-01
13.000	17.250	1.4979e-01
13.000	17.500	1.9118e-01
13.000	17.750	1.9535e-01
13.000	18.000	2.0763e-01
13.000	18.250	2.2651e-01
13.000	18.500	2.4767e-01
13.000	18.750	2.6717e-01
13.000	19.000	2.8234e-01
13.000	19.250	2.9188e-01
13.000	19.500	2.9564e-01
13.000	19.750	2.9548e-01
13.000	20.000	2.9337e-01
13.000	20.250	2.9085e-01
13.000	20.500	2.8797e-01
13.000	20.750	2.8459e-01
13.000	21.000	2.8209e-01
13.000	21.250	2.8067e-01
13.000	21.500	2.7157e-01
13.000	21.750	2.2963e-01
13.000	22.000	1.3280e-01
13.000	22.250	7.6505e-02
13.000	22.500	4.6250e-02
13.000	22.750	2.6079e-02
13.000	23.000	1.5017e-02
13.000	23.250	9.1952e-03
13.000	23.500	6.0133e-03
13.000	23.750	4.3591e-03
13.000	24.000	3.4829e-03
13.250	17.000	1.2826e-01
13.250	17.250	1.4678e-01
13.250	17.500	1.8864e-01
13.250	17.750	2.1508e-01
13.250	18.000	2.2665e-01
13.250	18.250	2.4199e-01
13.250	18.500	2.6042e-01
13.250	18.750	2.7798e-01
13.250	19.000	2.9233e-01
13.250	19.250	3.0128e-01
13.250	19.500	3.0544e-01
13.250	19.750	3.0556e-01
13.250	20.000	3.0343e-01
13.250	20.250	3.0057e-01
13.250	20.500	2.9756e-01
13.250	20.750	2.9478e-01
13.250	21.000	2.9364e-01
13.250	21.250	2.9177e-01
13.250	21.500	2.8699e-01
13.250	21.750	2.7651e-01
13.250	22.000	2.2249e-01
13.250	22.250	1.2855e-01
13.250	22.500	7.5575e-02
13.250	22.750	4.5059e-02
13.250	23.000	2.5412e-02
13.250	23.250	1.4709e-02
13.250	23.500	9.0394e-03
13.250	23.750	5.9449e-03
13.250	24.000	4.3327e-03
13.500	17.000	1.2763e-01
13.500	17.250	1.4742e-01
13.500	17.500	1.8335e-01
13.500	17.750	2.2063e-01
13.500	18.000	2.5101e-01
13.500	18.250	2.6171e-01
13.500	18.500	2.7550e-01
13.500	18.750	2.9071e-01
13.500	19.000	3.0358e-01
13.500	19.250	3.1264e-01
13.500	19.500	3.1588e-01
13.500	19.750	3.1546e-01
13.500	20.000	3.1332e-01
13.500	20.250	3.1110e-01
13.500	20.500	3.0688e-01
13.500	20.750	3.0321e-01
13.500	21.000	3.0037e-01
13.500	21.250	2.9937e-01
13.500	21.500	2.9363e-01
13.500	21.750	2.9098e-01
13.500	22.000	2.7582e-01
13.500	22.250	2.1027e-01
13.500	22.500	1.2210e-01
13.500	22.750	7.2808e-02
13.500	23.000	4.3336e-02
13.500	23.250	2.4712e-02
13.500	23.500	1.4378e-02
13.500	23.750	8.8209e-03
13.500	24.000	5.8624e-03
13.750	17.000	1.2748e-01
13.750	17.250	1.4754e-01
13.750	17.500	1.8239e-01
13.750	17.750	2.2160e-01
13.750	18.000	2.6569e-01
13.750	18.250	2.8429e-01
13.750	18.500	2.9768e-01
13.750	18.750	3.0750e-01
13.750	19.000	3.1725e-01
13.750	19.250	3.2471e-01
13.750	19.500	3.2835e-01
13.750	19.750	3.2783e-01
13.750	20.000	3.2508e-01
13.750	20.250	3.2160e-01
13.750	20.500	3.1811e-01
13.750	20.750	3.1371e-01
13.750	21.000	3.0966e-01
13.750	21.250	3.0622e-01
13.750	21.500	3.0152e-01
13.750	21.750	3.0021e-01
13.750	22.000	2.9579e-01
13.750	22.250	2.7198e-01
13.750	22.500	1.9465e-01
13.750	22.750	1.1399e-01
13.750	23.000	6.8551e-02
13.750	23.250	4.1493e-02
13.750	23.500	2.3860e-02
13.750	23.750	1.3982e-02
13.750	24.000	8.6055e-03
14.000	17.000	1.2700e-01
14.000	17.250	1.4591e-01
14.000	17.500	1.8215e-01
14.000	17.750	2.1902e-01
14.000	18.000	2.7167e-01
14.000	18.250	3.1224e-01
14.000	18.500	3.2686e-01
14.000	18.750	3.3085e-01
14.000	19.000	3.3563e-01
14.000	19.250	3.4051e-01
14.000	19.500	3.4302e-01
14.000	19.750	3.4303e-01
14.000	20.000	3.3991e-01
14.000	20.250	3.3529e-01
14.000	20.500	3.3105e-01
14.000	20.750	3.2652e-01
14.000	21.000	3.2199e-01
14.000	21.250	3.1829e-01
14.000	21.500	3.1231e-01
14.000	21.750	3.1202e-01
14.000	22.000	3.1262e-01
14.000	22.250	3.0407e-01
14.000	22.500	2.6292e-01
14.000	22.750	1.7766e-01
14.000	23.000	1.0640e-01
14.000	23.250	6.4508e-02
14.000	23.500	3.9615e-02
14.000	23.750	2.2872e-02
14.000	24.000	1.3476e-02
