InwT 1113.22A  relative to Inci 1215.00A scaled to 1215A.
Hden   Phi(H)  Eq_Width (A)
 7.000	17.000	2.6258e-02
 7.000	17.250	2.3378e-02
 7.000	17.500	2.0591e-02
 7.000	17.750	1.8193e-02
 7.000	18.000	1.6492e-02
 7.000	18.250	1.5467e-02
 7.000	18.500	1.4833e-02
 7.000	18.750	1.4525e-02
 7.000	19.000	1.4364e-02
 7.000	19.250	1.4273e-02
 7.000	19.500	1.4234e-02
 7.000	19.750	1.4218e-02
 7.000	20.000	1.4211e-02
 7.000	20.250	1.4207e-02
 7.000	20.500	1.4206e-02
 7.000	20.750	1.4205e-02
 7.000	21.000	1.4204e-02
 7.000	21.250	1.4204e-02
 7.000	21.500	1.4204e-02
 7.000	21.750	1.4204e-02
 7.000	22.000	1.4204e-02
 7.000	22.250	1.4204e-02
 7.000	22.500	1.4204e-02
 7.000	22.750	1.4205e-02
 7.000	23.000	1.4205e-02
 7.000	23.250	1.4204e-02
 7.000	23.500	1.4205e-02
 7.000	23.750	1.4205e-02
 7.000	24.000	1.4206e-02
 7.250	17.000	2.6622e-02
 7.250	17.250	2.6071e-02
 7.250	17.500	2.3280e-02
 7.250	17.750	2.0545e-02
 7.250	18.000	1.8168e-02
 7.250	18.250	1.6478e-02
 7.250	18.500	1.5460e-02
 7.250	18.750	1.4831e-02
 7.250	19.000	1.4525e-02
 7.250	19.250	1.4364e-02
 7.250	19.500	1.4273e-02
 7.250	19.750	1.4234e-02
 7.250	20.000	1.4218e-02
 7.250	20.250	1.4211e-02
 7.250	20.500	1.4207e-02
 7.250	20.750	1.4206e-02
 7.250	21.000	1.4205e-02
 7.250	21.250	1.4204e-02
 7.250	21.500	1.4204e-02
 7.250	21.750	1.4204e-02
 7.250	22.000	1.4204e-02
 7.250	22.250	1.4204e-02
 7.250	22.500	1.4204e-02
 7.250	22.750	1.4204e-02
 7.250	23.000	1.4204e-02
 7.250	23.250	1.4204e-02
 7.250	23.500	1.4204e-02
 7.250	23.750	1.4204e-02
 7.250	24.000	1.4204e-02
 7.500	17.000	2.9363e-02
 7.500	17.250	2.5965e-02
 7.500	17.500	2.5967e-02
 7.500	17.750	2.3225e-02
 7.500	18.000	2.0523e-02
 7.500	18.250	1.8153e-02
 7.500	18.500	1.6469e-02
 7.500	18.750	1.5456e-02
 7.500	19.000	1.4829e-02
 7.500	19.250	1.4524e-02
 7.500	19.500	1.4363e-02
 7.500	19.750	1.4273e-02
 7.500	20.000	1.4234e-02
 7.500	20.250	1.4218e-02
 7.500	20.500	1.4211e-02
 7.500	20.750	1.4207e-02
 7.500	21.000	1.4206e-02
 7.500	21.250	1.4205e-02
 7.500	21.500	1.4204e-02
 7.500	21.750	1.4204e-02
 7.500	22.000	1.4204e-02
 7.500	22.250	1.4204e-02
 7.500	22.500	1.4204e-02
 7.500	22.750	1.4204e-02
 7.500	23.000	1.4204e-02
 7.500	23.250	1.4204e-02
 7.500	23.500	1.4205e-02
 7.500	23.750	1.4204e-02
 7.500	24.000	1.4204e-02
 7.750	17.000	3.8307e-02
 7.750	17.250	2.7744e-02
 7.750	17.500	2.5443e-02
 7.750	17.750	2.5907e-02
 7.750	18.000	2.3197e-02
 7.750	18.250	2.0516e-02
 7.750	18.500	1.8146e-02
 7.750	18.750	1.6464e-02
 7.750	19.000	1.5453e-02
 7.750	19.250	1.4828e-02
 7.750	19.500	1.4524e-02
 7.750	19.750	1.4363e-02
 7.750	20.000	1.4273e-02
 7.750	20.250	1.4234e-02
 7.750	20.500	1.4218e-02
 7.750	20.750	1.4211e-02
 7.750	21.000	1.4207e-02
 7.750	21.250	1.4206e-02
 7.750	21.500	1.4205e-02
 7.750	21.750	1.4204e-02
 7.750	22.000	1.4204e-02
 7.750	22.250	1.4204e-02
 7.750	22.500	1.4204e-02
 7.750	22.750	1.4204e-02
 7.750	23.000	1.4204e-02
 7.750	23.250	1.4204e-02
 7.750	23.500	1.4204e-02
 7.750	23.750	1.4204e-02
 7.750	24.000	1.4204e-02
 8.000	17.000	4.5331e-02
 8.000	17.250	3.6727e-02
 8.000	17.500	2.6627e-02
 8.000	17.750	2.4975e-02
 8.000	18.000	2.5875e-02
 8.000	18.250	2.3184e-02
 8.000	18.500	2.0518e-02
 8.000	18.750	1.8144e-02
 8.000	19.000	1.6461e-02
 8.000	19.250	1.5452e-02
 8.000	19.500	1.4827e-02
 8.000	19.750	1.4523e-02
 8.000	20.000	1.4363e-02
 8.000	20.250	1.4273e-02
 8.000	20.500	1.4234e-02
 8.000	20.750	1.4218e-02
 8.000	21.000	1.4211e-02
 8.000	21.250	1.4207e-02
 8.000	21.500	1.4206e-02
 8.000	21.750	1.4205e-02
 8.000	22.000	1.4204e-02
 8.000	22.250	1.4204e-02
 8.000	22.500	1.4204e-02
 8.000	22.750	1.4204e-02
 8.000	23.000	1.4204e-02
 8.000	23.250	1.4204e-02
 8.000	23.500	1.4204e-02
 8.000	23.750	1.4204e-02
 8.000	24.000	1.4204e-02
 8.250	17.000	5.0247e-02
 8.250	17.250	4.3695e-02
 8.250	17.500	3.5382e-02
 8.250	17.750	2.5731e-02
 8.250	18.000	2.4683e-02
 8.250	18.250	2.5848e-02
 8.250	18.500	2.3180e-02
 8.250	18.750	2.0527e-02
 8.250	19.000	1.8144e-02
 8.250	19.250	1.6460e-02
 8.250	19.500	1.5451e-02
 8.250	19.750	1.4827e-02
 8.250	20.000	1.4523e-02
 8.250	20.250	1.4363e-02
 8.250	20.500	1.4273e-02
 8.250	20.750	1.4234e-02
 8.250	21.000	1.4218e-02
 8.250	21.250	1.4211e-02
 8.250	21.500	1.4207e-02
 8.250	21.750	1.4206e-02
 8.250	22.000	1.4205e-02
 8.250	22.250	1.4204e-02
 8.250	22.500	1.4204e-02
 8.250	22.750	1.4204e-02
 8.250	23.000	1.4204e-02
 8.250	23.250	1.4204e-02
 8.250	23.500	1.4204e-02
 8.250	23.750	1.4204e-02
 8.250	24.000	1.4204e-02
 8.500	17.000	5.3579e-02
 8.500	17.250	4.8889e-02
 8.500	17.500	4.2459e-02
 8.500	17.750	3.4420e-02
 8.500	18.000	2.5108e-02
 8.500	18.250	2.4464e-02
 8.500	18.500	2.5825e-02
 8.500	18.750	2.3181e-02
 8.500	19.000	2.0541e-02
 8.500	19.250	1.8146e-02
 8.500	19.500	1.6459e-02
 8.500	19.750	1.5450e-02
 8.500	20.000	1.4827e-02
 8.500	20.250	1.4523e-02
 8.500	20.500	1.4363e-02
 8.500	20.750	1.4273e-02
 8.500	21.000	1.4234e-02
 8.500	21.250	1.4218e-02
 8.500	21.500	1.4211e-02
 8.500	21.750	1.4207e-02
 8.500	22.000	1.4206e-02
 8.500	22.250	1.4205e-02
 8.500	22.500	1.4204e-02
 8.500	22.750	1.4204e-02
 8.500	23.000	1.4204e-02
 8.500	23.250	1.4204e-02
 8.500	23.500	1.4204e-02
 8.500	23.750	1.4204e-02
 8.500	24.000	1.4204e-02
 8.750	17.000	5.5820e-02
 8.750	17.250	5.2531e-02
 8.750	17.500	4.7840e-02
 8.750	17.750	4.1361e-02
 8.750	18.000	3.3499e-02
 8.750	18.250	2.4558e-02
 8.750	18.500	2.4337e-02
 8.750	18.750	2.5797e-02
 8.750	19.000	2.3185e-02
 8.750	19.250	2.0558e-02
 8.750	19.500	1.8150e-02
 8.750	19.750	1.6458e-02
 8.750	20.000	1.5450e-02
 8.750	20.250	1.4827e-02
 8.750	20.500	1.4523e-02
 8.750	20.750	1.4363e-02
 8.750	21.000	1.4273e-02
 8.750	21.250	1.4234e-02
 8.750	21.500	1.4218e-02
 8.750	21.750	1.4211e-02
 8.750	22.000	1.4207e-02
 8.750	22.250	1.4206e-02
 8.750	22.500	1.4205e-02
 8.750	22.750	1.4204e-02
 8.750	23.000	1.4204e-02
 8.750	23.250	1.4204e-02
 8.750	23.500	1.4204e-02
 8.750	23.750	1.4204e-02
 8.750	24.000	1.4204e-02
 9.000	17.000	5.7287e-02
 9.000	17.250	5.5036e-02
 9.000	17.500	5.1680e-02
 9.000	17.750	4.6810e-02
 9.000	18.000	4.0215e-02
 9.000	18.250	3.2365e-02
 9.000	18.500	2.3963e-02
 9.000	18.750	2.4245e-02
 9.000	19.000	2.5767e-02
 9.000	19.250	2.3185e-02
 9.000	19.500	2.0575e-02
 9.000	19.750	1.8153e-02
 9.000	20.000	1.6458e-02
 9.000	20.250	1.5449e-02
 9.000	20.500	1.4826e-02
 9.000	20.750	1.4523e-02
 9.000	21.000	1.4363e-02
 9.000	21.250	1.4273e-02
 9.000	21.500	1.4234e-02
 9.000	21.750	1.4218e-02
 9.000	22.000	1.4211e-02
 9.000	22.250	1.4207e-02
 9.000	22.500	1.4205e-02
 9.000	22.750	1.4205e-02
 9.000	23.000	1.4204e-02
 9.000	23.250	1.4204e-02
 9.000	23.500	1.4204e-02
 9.000	23.750	1.4204e-02
 9.000	24.000	1.4204e-02
 9.250	17.000	5.8192e-02
 9.250	17.250	5.6704e-02
 9.250	17.500	5.4363e-02
 9.250	17.750	5.0742e-02
 9.250	18.000	4.5465e-02
 9.250	18.250	3.8506e-02
 9.250	18.500	3.0640e-02
 9.250	18.750	2.2918e-02
 9.250	19.000	2.4164e-02
 9.250	19.250	2.5728e-02
 9.250	19.500	2.3181e-02
 9.250	19.750	2.0590e-02
 9.250	20.000	1.8157e-02
 9.250	20.250	1.6458e-02
 9.250	20.500	1.5449e-02
 9.250	20.750	1.4826e-02
 9.250	21.000	1.4523e-02
 9.250	21.250	1.4363e-02
 9.250	21.500	1.4271e-02
 9.250	21.750	1.4232e-02
 9.250	22.000	1.4216e-02
 9.250	22.250	1.4209e-02
 9.250	22.500	1.4207e-02
 9.250	22.750	1.4205e-02
 9.250	23.000	1.4204e-02
 9.250	23.250	1.4204e-02
 9.250	23.500	1.4204e-02
 9.250	23.750	1.4204e-02
 9.250	24.000	1.4204e-02
 9.500	17.000	5.8670e-02
 9.500	17.250	5.7733e-02
 9.500	17.500	5.6176e-02
 9.500	17.750	5.3571e-02
 9.500	18.000	4.9432e-02
 9.500	18.250	4.3455e-02
 9.500	18.500	3.5930e-02
 9.500	18.750	2.7849e-02
 9.500	19.000	2.2721e-02
 9.500	19.250	2.4085e-02
 9.500	19.500	2.5687e-02
 9.500	19.750	2.3171e-02
 9.500	20.000	2.0602e-02
 9.500	20.250	1.8160e-02
 9.500	20.500	1.6458e-02
 9.500	20.750	1.5448e-02
 9.500	21.000	1.4825e-02
 9.500	21.250	1.4521e-02
 9.500	21.500	1.4361e-02
 9.500	21.750	1.4270e-02
 9.500	22.000	1.4232e-02
 9.500	22.250	1.4215e-02
 9.500	22.500	1.4208e-02
 9.500	22.750	1.4205e-02
 9.500	23.000	1.4203e-02
 9.500	23.250	1.4202e-02
 9.500	23.500	1.4202e-02
 9.500	23.750	1.4201e-02
 9.500	24.000	1.4201e-02
 9.750	17.000	5.8880e-02
 9.750	17.250	5.8283e-02
 9.750	17.500	5.7297e-02
 9.750	17.750	5.5507e-02
 9.750	18.000	5.2335e-02
 9.750	18.250	4.7414e-02
 9.750	18.500	4.0732e-02
 9.750	18.750	3.2916e-02
 9.750	19.000	2.4554e-02
 9.750	19.250	2.2527e-02
 9.750	19.500	2.3986e-02
 9.750	19.750	2.5642e-02
 9.750	20.000	2.3153e-02
 9.750	20.250	2.0608e-02
 9.750	20.500	1.8163e-02
 9.750	20.750	1.6457e-02
 9.750	21.000	1.5448e-02
 9.750	21.250	1.4825e-02
 9.750	21.500	1.4522e-02
 9.750	21.750	1.4361e-02
 9.750	22.000	1.4270e-02
 9.750	22.250	1.4232e-02
 9.750	22.500	1.4215e-02
 9.750	22.750	1.4208e-02
 9.750	23.000	1.4205e-02
 9.750	23.250	1.4203e-02
 9.750	23.500	1.4202e-02
 9.750	23.750	1.4202e-02
 9.750	24.000	1.4201e-02
10.000	17.000	5.8940e-02
10.000	17.250	5.8526e-02
10.000	17.500	5.7903e-02
10.000	17.750	5.6701e-02
10.000	18.000	5.4373e-02
10.000	18.250	5.0516e-02
10.000	18.500	4.4933e-02
10.000	18.750	3.7899e-02
10.000	19.000	2.9697e-02
10.000	19.250	2.2798e-02
10.000	19.500	2.2401e-02
10.000	19.750	2.3907e-02
10.000	20.000	2.5613e-02
10.000	20.250	2.3132e-02
10.000	20.500	2.0610e-02
10.000	20.750	1.8165e-02
10.000	21.000	1.6458e-02
10.000	21.250	1.5448e-02
10.000	21.500	1.4825e-02
10.000	21.750	1.4522e-02
10.000	22.000	1.4362e-02
10.000	22.250	1.4271e-02
10.000	22.500	1.4232e-02
10.000	22.750	1.4215e-02
10.000	23.000	1.4208e-02
10.000	23.250	1.4205e-02
10.000	23.500	1.4203e-02
10.000	23.750	1.4202e-02
10.000	24.000	1.4202e-02
10.250	17.000	5.9005e-02
10.250	17.250	5.8610e-02
10.250	17.500	5.8165e-02
10.250	17.750	5.7337e-02
10.250	18.000	5.5657e-02
10.250	18.250	5.2786e-02
10.250	18.500	4.8423e-02
10.250	18.750	4.2470e-02
10.250	19.000	3.5140e-02
10.250	19.250	2.6540e-02
10.250	19.500	2.1605e-02
10.250	19.750	2.2369e-02
10.250	20.000	2.3843e-02
10.250	20.250	2.5597e-02
10.250	20.500	2.3110e-02
10.250	20.750	2.0607e-02
10.250	21.000	1.8166e-02
10.250	21.250	1.6458e-02
10.250	21.500	1.5448e-02
10.250	21.750	1.4825e-02
10.250	22.000	1.4522e-02
10.250	22.250	1.4362e-02
10.250	22.500	1.4271e-02
10.250	22.750	1.4232e-02
10.250	23.000	1.4215e-02
10.250	23.250	1.4208e-02
10.250	23.500	1.4205e-02
10.250	23.750	1.4203e-02
10.250	24.000	1.4202e-02
10.500	17.000	5.9101e-02
10.500	17.250	5.8693e-02
10.500	17.500	5.8256e-02
10.500	17.750	5.7609e-02
10.500	18.000	5.6358e-02
10.500	18.250	5.4218e-02
10.500	18.500	5.1053e-02
10.500	18.750	4.6501e-02
10.500	19.000	4.0460e-02
10.500	19.250	3.2827e-02
10.500	19.500	2.4229e-02
10.500	19.750	2.1704e-02
10.500	20.000	2.2526e-02
10.500	20.250	2.3925e-02
10.500	20.500	2.5669e-02
10.500	20.750	2.3095e-02
10.500	21.000	2.0602e-02
10.500	21.250	1.8166e-02
10.500	21.500	1.6458e-02
10.500	21.750	1.5448e-02
10.500	22.000	1.4825e-02
10.500	22.250	1.4522e-02
10.500	22.500	1.4362e-02
10.500	22.750	1.4271e-02
10.500	23.000	1.4232e-02
10.500	23.250	1.4215e-02
10.500	23.500	1.4208e-02
10.500	23.750	1.4205e-02
10.500	24.000	1.4203e-02
10.750	17.000	5.9208e-02
10.750	17.250	5.8805e-02
10.750	17.500	5.8342e-02
10.750	17.750	5.7700e-02
10.750	18.000	5.6682e-02
10.750	18.250	5.5131e-02
10.750	18.500	5.2892e-02
10.750	18.750	4.9627e-02
10.750	19.000	4.5062e-02
10.750	19.250	3.8838e-02
10.750	19.500	3.0995e-02
10.750	19.750	2.2167e-02
10.750	20.000	2.1926e-02
10.750	20.250	2.3051e-02
10.750	20.500	2.4258e-02
10.750	20.750	2.5855e-02
10.750	21.000	2.3103e-02
10.750	21.250	2.0594e-02
10.750	21.500	1.8166e-02
10.750	21.750	1.6458e-02
10.750	22.000	1.5448e-02
10.750	22.250	1.4825e-02
10.750	22.500	1.4523e-02
10.750	22.750	1.4362e-02
10.750	23.000	1.4271e-02
10.750	23.250	1.4232e-02
10.750	23.500	1.4216e-02
10.750	23.750	1.4208e-02
10.750	24.000	1.4205e-02
11.000	17.000	5.9298e-02
11.000	17.250	5.8919e-02
11.000	17.500	5.8438e-02
11.000	17.750	5.7764e-02
11.000	18.000	5.6835e-02
11.000	18.250	5.5614e-02
11.000	18.500	5.4039e-02
11.000	18.750	5.1829e-02
11.000	19.000	4.8572e-02
11.000	19.250	4.3887e-02
11.000	19.500	3.7496e-02
11.000	19.750	2.9202e-02
11.000	20.000	2.0877e-02
11.000	20.250	2.2614e-02
11.000	20.500	2.3555e-02
11.000	20.750	2.4856e-02
11.000	21.000	2.6195e-02
11.000	21.250	2.3163e-02
11.000	21.500	2.0587e-02
11.000	21.750	1.8165e-02
11.000	22.000	1.6458e-02
11.000	22.250	1.5449e-02
11.000	22.500	1.4825e-02
11.000	22.750	1.4523e-02
11.000	23.000	1.4363e-02
11.000	23.250	1.4271e-02
11.000	23.500	1.4233e-02
11.000	23.750	1.4216e-02
11.000	24.000	1.4209e-02
11.250	17.000	5.9338e-02
11.250	17.250	5.8990e-02
11.250	17.500	5.8503e-02
11.250	17.750	5.7813e-02
11.250	18.000	5.6906e-02
11.250	18.250	5.5851e-02
11.250	18.500	5.4703e-02
11.250	18.750	5.3204e-02
11.250	19.000	5.1008e-02
11.250	19.250	4.7661e-02
11.250	19.500	4.2856e-02
11.250	19.750	3.6256e-02
11.250	20.000	2.7671e-02
11.250	20.250	2.1461e-02
11.250	20.500	2.3351e-02
11.250	20.750	2.4586e-02
11.250	21.000	2.5896e-02
11.250	21.250	2.6722e-02
11.250	21.500	2.3293e-02
11.250	21.750	2.0586e-02
11.250	22.000	1.8163e-02
11.250	22.250	1.6458e-02
11.250	22.500	1.5449e-02
11.250	22.750	1.4825e-02
11.250	23.000	1.4523e-02
11.250	23.250	1.4363e-02
11.250	23.500	1.4271e-02
11.250	23.750	1.4233e-02
11.250	24.000	1.4216e-02
11.500	17.000	5.9307e-02
11.500	17.250	5.8975e-02
11.500	17.500	5.8490e-02
11.500	17.750	5.7787e-02
11.500	18.000	5.6897e-02
11.500	18.250	5.5956e-02
11.500	18.500	5.4991e-02
11.500	18.750	5.3907e-02
11.500	19.000	5.2465e-02
11.500	19.250	5.0240e-02
11.500	19.500	4.6916e-02
11.500	19.750	4.2054e-02
11.500	20.000	3.5285e-02
11.500	20.250	2.6349e-02
11.500	20.500	2.2304e-02
11.500	20.750	2.4499e-02
11.500	21.000	2.6037e-02
11.500	21.250	2.7602e-02
11.500	21.500	2.7371e-02
11.500	21.750	2.3501e-02
11.500	22.000	2.0597e-02
11.500	22.250	1.8160e-02
11.500	22.500	1.6458e-02
11.500	22.750	1.5449e-02
11.500	23.000	1.4825e-02
11.500	23.250	1.4523e-02
11.500	23.500	1.4363e-02
11.500	23.750	1.4272e-02
11.500	24.000	1.4233e-02
11.750	17.000	5.9203e-02
11.750	17.250	5.8833e-02
11.750	17.500	5.8328e-02
11.750	17.750	5.7589e-02
11.750	18.000	5.6723e-02
11.750	18.250	5.5891e-02
11.750	18.500	5.5060e-02
11.750	18.750	5.4189e-02
11.750	19.000	5.3164e-02
11.750	19.250	5.1778e-02
11.750	19.500	4.9576e-02
11.750	19.750	4.6293e-02
11.750	20.000	4.1440e-02
11.750	20.250	3.4551e-02
11.750	20.500	2.5354e-02
11.750	20.750	2.3363e-02
11.750	21.000	2.6173e-02
11.750	21.250	2.8364e-02
11.750	21.500	3.0136e-02
11.750	21.750	2.8059e-02
11.750	22.000	2.3784e-02
11.750	22.250	2.0626e-02
11.750	22.500	1.8157e-02
11.750	22.750	1.6458e-02
11.750	23.000	1.5450e-02
11.750	23.250	1.4825e-02
11.750	23.500	1.4523e-02
11.750	23.750	1.4363e-02
11.750	24.000	1.4272e-02
12.000	17.000	5.9078e-02
12.000	17.250	5.8526e-02
12.000	17.500	5.7916e-02
12.000	17.750	5.7113e-02
12.000	18.000	5.6325e-02
12.000	18.250	5.5615e-02
12.000	18.500	5.4940e-02
12.000	18.750	5.4198e-02
12.000	19.000	5.3377e-02
12.000	19.250	5.2456e-02
12.000	19.500	5.1163e-02
12.000	19.750	4.9068e-02
12.000	20.000	4.5850e-02
12.000	20.250	4.1082e-02
12.000	20.500	3.4144e-02
12.000	20.750	2.5001e-02
12.000	21.000	2.5049e-02
12.000	21.250	2.8697e-02
12.000	21.500	3.1586e-02
12.000	21.750	3.3299e-02
12.000	22.000	2.8775e-02
12.000	22.250	2.3999e-02
12.000	22.500	2.0672e-02
12.000	22.750	1.8154e-02
12.000	23.000	1.6458e-02
12.000	23.250	1.5450e-02
12.000	23.500	1.4824e-02
12.000	23.750	1.4523e-02
12.000	24.000	1.4363e-02
12.250	17.000	5.9024e-02
12.250	17.250	5.8019e-02
12.250	17.500	5.7140e-02
12.250	17.750	5.6299e-02
12.250	18.000	5.5649e-02
12.250	18.250	5.5131e-02
12.250	18.500	5.4617e-02
12.250	18.750	5.4040e-02
12.250	19.000	5.3377e-02
12.250	19.250	5.2678e-02
12.250	19.500	5.1887e-02
12.250	19.750	5.0720e-02
12.250	20.000	4.8739e-02
12.250	20.250	4.5669e-02
12.250	20.500	4.0954e-02
12.250	20.750	3.4032e-02
12.250	21.000	2.5647e-02
12.250	21.250	2.7825e-02
12.250	21.500	3.2171e-02
12.250	21.750	3.5669e-02
12.250	22.000	3.5715e-02
12.250	22.250	2.9432e-02
12.250	22.500	2.4304e-02
12.250	22.750	2.0730e-02
12.250	23.000	1.8151e-02
12.250	23.250	1.6457e-02
12.250	23.500	1.5451e-02
12.250	23.750	1.4824e-02
12.250	24.000	1.4523e-02
12.500	17.000	5.9047e-02
12.500	17.250	5.7331e-02
12.500	17.500	5.6016e-02
12.500	17.750	5.5184e-02
12.500	18.000	5.4746e-02
12.500	18.250	5.4423e-02
12.500	18.500	5.4094e-02
12.500	18.750	5.3724e-02
12.500	19.000	5.3261e-02
12.500	19.250	5.2720e-02
12.500	19.500	5.2146e-02
12.500	19.750	5.1477e-02
12.500	20.000	5.0421e-02
12.500	20.250	4.8574e-02
12.500	20.500	4.5673e-02
12.500	20.750	4.1209e-02
12.500	21.000	3.4714e-02
12.500	21.250	2.6700e-02
12.500	21.500	3.1575e-02
12.500	21.750	3.6629e-02
12.500	22.000	4.0198e-02
12.500	22.250	3.7323e-02
12.500	22.500	3.0063e-02
12.500	22.750	2.4697e-02
12.500	23.000	2.0797e-02
12.500	23.250	1.8149e-02
12.500	23.500	1.6457e-02
12.500	23.750	1.5452e-02
12.500	24.000	1.4823e-02
12.750	17.000	5.6619e-02
12.750	17.250	5.6163e-02
12.750	17.500	5.4787e-02
12.750	17.750	5.4064e-02
12.750	18.000	5.3675e-02
12.750	18.250	5.3479e-02
12.750	18.500	5.3357e-02
12.750	18.750	5.3200e-02
12.750	19.000	5.2972e-02
12.750	19.250	5.2642e-02
12.750	19.500	5.2219e-02
12.750	19.750	5.1745e-02
12.750	20.000	5.1164e-02
12.750	20.250	5.0257e-02
12.750	20.500	4.8617e-02
12.750	20.750	4.5968e-02
12.750	21.000	4.1921e-02
12.750	21.250	3.6157e-02
12.750	21.500	3.0334e-02
12.750	21.750	3.6128e-02
12.750	22.000	4.1943e-02
12.750	22.250	4.4553e-02
12.750	22.500	3.8804e-02
12.750	22.750	3.0731e-02
12.750	23.000	2.5004e-02
12.750	23.250	2.0862e-02
12.750	23.500	1.8149e-02
12.750	23.750	1.6456e-02
12.750	24.000	1.5452e-02
13.000	17.000	1.7729e-02
13.000	17.250	2.8264e-02
13.000	17.500	5.3586e-02
13.000	17.750	5.3182e-02
13.000	18.000	5.2561e-02
13.000	18.250	5.2323e-02
13.000	18.500	5.2328e-02
13.000	18.750	5.2398e-02
13.000	19.000	5.2427e-02
13.000	19.250	5.2354e-02
13.000	19.500	5.2145e-02
13.000	19.750	5.1811e-02
13.000	20.000	5.1410e-02
13.000	20.250	5.0929e-02
13.000	20.500	5.0189e-02
13.000	20.750	4.8769e-02
13.000	21.000	4.6668e-02
13.000	21.250	4.3251e-02
13.000	21.500	3.8365e-02
13.000	21.750	3.4983e-02
13.000	22.000	4.2195e-02
13.000	22.250	4.7387e-02
13.000	22.500	4.8184e-02
13.000	22.750	4.0303e-02
13.000	23.000	3.1663e-02
13.000	23.250	2.5157e-02
13.000	23.500	2.0930e-02
13.000	23.750	1.8152e-02
13.000	24.000	1.6455e-02
13.250	17.000	1.3398e-02
13.250	17.250	1.9783e-02
13.250	17.500	3.6814e-02
13.250	17.750	4.9787e-02
13.250	18.000	5.1317e-02
13.250	18.250	5.0984e-02
13.250	18.500	5.0975e-02
13.250	18.750	5.1235e-02
13.250	19.000	5.1533e-02
13.250	19.250	5.1746e-02
13.250	19.500	5.1816e-02
13.250	19.750	5.1717e-02
13.250	20.000	5.1471e-02
13.250	20.250	5.1115e-02
13.250	20.500	5.0699e-02
13.250	20.750	5.0111e-02
13.250	21.000	4.9137e-02
13.250	21.250	4.7260e-02
13.250	21.500	4.4422e-02
13.250	21.750	3.9392e-02
13.250	22.000	3.9845e-02
13.250	22.250	4.5845e-02
13.250	22.500	5.1759e-02
13.250	22.750	5.1208e-02
13.250	23.000	4.1785e-02
13.250	23.250	3.2317e-02
13.250	23.500	2.5401e-02
13.250	23.750	2.0992e-02
13.250	24.000	1.8155e-02
13.500	17.000	1.0717e-02
13.500	17.250	1.5268e-02
13.500	17.500	2.5287e-02
13.500	17.750	3.8062e-02
13.500	18.000	4.8597e-02
13.500	18.250	4.8831e-02
13.500	18.500	4.9075e-02
13.500	18.750	4.9582e-02
13.500	19.000	5.0178e-02
13.500	19.250	5.0725e-02
13.500	19.500	5.1110e-02
13.500	19.750	5.1316e-02
13.500	20.000	5.1334e-02
13.500	20.250	5.1198e-02
13.500	20.500	5.0893e-02
13.500	20.750	5.0469e-02
13.500	21.000	4.9803e-02
13.500	21.250	4.8888e-02
13.500	21.500	4.6794e-02
13.500	21.750	4.3694e-02
13.500	22.000	3.9568e-02
13.500	22.250	4.2245e-02
13.500	22.500	4.9665e-02
13.500	22.750	5.5764e-02
13.500	23.000	5.4040e-02
13.500	23.250	4.3048e-02
13.500	23.500	3.2867e-02
13.500	23.750	2.5747e-02
13.500	24.000	2.1047e-02
13.750	17.000	9.1040e-03
13.750	17.250	1.2375e-02
13.750	17.500	1.9175e-02
13.750	17.750	2.8442e-02
13.750	18.000	3.9238e-02
13.750	18.250	4.3916e-02
13.750	18.500	4.6270e-02
13.750	18.750	4.7082e-02
13.750	19.000	4.8122e-02
13.750	19.250	4.9124e-02
13.750	19.500	4.9917e-02
13.750	19.750	5.0488e-02
13.750	20.000	5.0854e-02
13.750	20.250	5.1025e-02
13.750	20.500	5.1010e-02
13.750	20.750	5.0798e-02
13.750	21.000	5.0356e-02
13.750	21.250	4.9535e-02
13.750	21.500	4.8346e-02
13.750	21.750	4.5954e-02
13.750	22.000	4.2503e-02
13.750	22.250	4.0169e-02
13.750	22.500	4.6347e-02
13.750	22.750	5.4090e-02
13.750	23.000	5.9624e-02
13.750	23.250	5.7018e-02
13.750	23.500	4.4431e-02
13.750	23.750	3.3380e-02
13.750	24.000	2.5938e-02
14.000	17.000	8.0653e-03
14.000	17.250	1.0374e-02
14.000	17.500	1.5442e-02
14.000	17.750	2.1791e-02
14.000	18.000	3.0657e-02
14.000	18.250	3.8806e-02
14.000	18.500	4.2838e-02
14.000	18.750	4.3897e-02
14.000	19.000	4.5198e-02
14.000	19.250	4.6685e-02
14.000	19.500	4.8067e-02
14.000	19.750	4.9118e-02
14.000	20.000	4.9894e-02
14.000	20.250	5.0449e-02
14.000	20.500	5.0811e-02
14.000	20.750	5.0966e-02
14.000	21.000	5.0883e-02
14.000	21.250	5.0520e-02
14.000	21.500	4.9699e-02
14.000	21.750	4.8105e-02
14.000	22.000	4.5413e-02
14.000	22.250	4.2392e-02
14.000	22.500	4.3710e-02
14.000	22.750	5.3217e-02
14.000	23.000	6.1708e-02
14.000	23.250	6.4826e-02
14.000	23.500	6.0419e-02
14.000	23.750	4.5641e-02
14.000	24.000	3.3916e-02
