InwT 1103.23A  relative to Inci 1215.00A scaled to 1215A.
Hden   Phi(H)  Eq_Width (A)
 7.000	17.000	2.5962e-02
 7.000	17.250	2.3234e-02
 7.000	17.500	2.0544e-02
 7.000	17.750	1.8187e-02
 7.000	18.000	1.6494e-02
 7.000	18.250	1.5471e-02
 7.000	18.500	1.4836e-02
 7.000	18.750	1.4527e-02
 7.000	19.000	1.4364e-02
 7.000	19.250	1.4272e-02
 7.000	19.500	1.4233e-02
 7.000	19.750	1.4217e-02
 7.000	20.000	1.4209e-02
 7.000	20.250	1.4206e-02
 7.000	20.500	1.4204e-02
 7.000	20.750	1.4204e-02
 7.000	21.000	1.4203e-02
 7.000	21.250	1.4203e-02
 7.000	21.500	1.4203e-02
 7.000	21.750	1.4203e-02
 7.000	22.000	1.4203e-02
 7.000	22.250	1.4203e-02
 7.000	22.500	1.4203e-02
 7.000	22.750	1.4204e-02
 7.000	23.000	1.4204e-02
 7.000	23.250	1.4203e-02
 7.000	23.500	1.4204e-02
 7.000	23.750	1.4204e-02
 7.000	24.000	1.4205e-02
 7.250	17.000	2.6326e-02
 7.250	17.250	2.5770e-02
 7.250	17.500	2.3133e-02
 7.250	17.750	2.0497e-02
 7.250	18.000	1.8161e-02
 7.250	18.250	1.6480e-02
 7.250	18.500	1.5464e-02
 7.250	18.750	1.4833e-02
 7.250	19.000	1.4526e-02
 7.250	19.250	1.4363e-02
 7.250	19.500	1.4272e-02
 7.250	19.750	1.4233e-02
 7.250	20.000	1.4217e-02
 7.250	20.250	1.4209e-02
 7.250	20.500	1.4206e-02
 7.250	20.750	1.4204e-02
 7.250	21.000	1.4204e-02
 7.250	21.250	1.4203e-02
 7.250	21.500	1.4203e-02
 7.250	21.750	1.4203e-02
 7.250	22.000	1.4203e-02
 7.250	22.250	1.4203e-02
 7.250	22.500	1.4203e-02
 7.250	22.750	1.4203e-02
 7.250	23.000	1.4203e-02
 7.250	23.250	1.4203e-02
 7.250	23.500	1.4203e-02
 7.250	23.750	1.4203e-02
 7.250	24.000	1.4203e-02
 7.500	17.000	2.8655e-02
 7.500	17.250	2.5651e-02
 7.500	17.500	2.5663e-02
 7.500	17.750	2.3078e-02
 7.500	18.000	2.0474e-02
 7.500	18.250	1.8147e-02
 7.500	18.500	1.6471e-02
 7.500	18.750	1.5460e-02
 7.500	19.000	1.4832e-02
 7.500	19.250	1.4525e-02
 7.500	19.500	1.4363e-02
 7.500	19.750	1.4272e-02
 7.500	20.000	1.4233e-02
 7.500	20.250	1.4217e-02
 7.500	20.500	1.4209e-02
 7.500	20.750	1.4206e-02
 7.500	21.000	1.4204e-02
 7.500	21.250	1.4203e-02
 7.500	21.500	1.4203e-02
 7.500	21.750	1.4203e-02
 7.500	22.000	1.4203e-02
 7.500	22.250	1.4203e-02
 7.500	22.500	1.4203e-02
 7.500	22.750	1.4203e-02
 7.500	23.000	1.4203e-02
 7.500	23.250	1.4203e-02
 7.500	23.500	1.4204e-02
 7.500	23.750	1.4203e-02
 7.500	24.000	1.4203e-02
 7.750	17.000	3.4823e-02
 7.750	17.250	2.7031e-02
 7.750	17.500	2.5116e-02
 7.750	17.750	2.5601e-02
 7.750	18.000	2.3049e-02
 7.750	18.250	2.0467e-02
 7.750	18.500	1.8140e-02
 7.750	18.750	1.6466e-02
 7.750	19.000	1.5457e-02
 7.750	19.250	1.4831e-02
 7.750	19.500	1.4525e-02
 7.750	19.750	1.4363e-02
 7.750	20.000	1.4272e-02
 7.750	20.250	1.4233e-02
 7.750	20.500	1.4217e-02
 7.750	20.750	1.4209e-02
 7.750	21.000	1.4206e-02
 7.750	21.250	1.4204e-02
 7.750	21.500	1.4203e-02
 7.750	21.750	1.4203e-02
 7.750	22.000	1.4203e-02
 7.750	22.250	1.4203e-02
 7.750	22.500	1.4202e-02
 7.750	22.750	1.4203e-02
 7.750	23.000	1.4202e-02
 7.750	23.250	1.4202e-02
 7.750	23.500	1.4203e-02
 7.750	23.750	1.4203e-02
 7.750	24.000	1.4202e-02
 8.000	17.000	3.9527e-02
 8.000	17.250	3.3190e-02
 8.000	17.500	2.5837e-02
 8.000	17.750	2.4639e-02
 8.000	18.000	2.5568e-02
 8.000	18.250	2.3035e-02
 8.000	18.500	2.0470e-02
 8.000	18.750	1.8137e-02
 8.000	19.000	1.6463e-02
 8.000	19.250	1.5455e-02
 8.000	19.500	1.4830e-02
 8.000	19.750	1.4524e-02
 8.000	20.000	1.4363e-02
 8.000	20.250	1.4272e-02
 8.000	20.500	1.4233e-02
 8.000	20.750	1.4217e-02
 8.000	21.000	1.4209e-02
 8.000	21.250	1.4206e-02
 8.000	21.500	1.4204e-02
 8.000	21.750	1.4203e-02
 8.000	22.000	1.4203e-02
 8.000	22.250	1.4203e-02
 8.000	22.500	1.4202e-02
 8.000	22.750	1.4202e-02
 8.000	23.000	1.4202e-02
 8.000	23.250	1.4202e-02
 8.000	23.500	1.4202e-02
 8.000	23.750	1.4202e-02
 8.000	24.000	1.4203e-02
 8.250	17.000	4.2696e-02
 8.250	17.250	3.7936e-02
 8.250	17.500	3.1878e-02
 8.250	17.750	2.4939e-02
 8.250	18.000	2.4340e-02
 8.250	18.250	2.5541e-02
 8.250	18.500	2.3031e-02
 8.250	18.750	2.0479e-02
 8.250	19.000	1.8138e-02
 8.250	19.250	1.6461e-02
 8.250	19.500	1.5454e-02
 8.250	19.750	1.4830e-02
 8.250	20.000	1.4524e-02
 8.250	20.250	1.4363e-02
 8.250	20.500	1.4272e-02
 8.250	20.750	1.4233e-02
 8.250	21.000	1.4217e-02
 8.250	21.250	1.4209e-02
 8.250	21.500	1.4206e-02
 8.250	21.750	1.4204e-02
 8.250	22.000	1.4203e-02
 8.250	22.250	1.4203e-02
 8.250	22.500	1.4203e-02
 8.250	22.750	1.4203e-02
 8.250	23.000	1.4202e-02
 8.250	23.250	1.4203e-02
 8.250	23.500	1.4203e-02
 8.250	23.750	1.4202e-02
 8.250	24.000	1.4203e-02
 8.500	17.000	4.4747e-02
 8.500	17.250	4.1387e-02
 8.500	17.500	3.6771e-02
 8.500	17.750	3.0968e-02
 8.500	18.000	2.4325e-02
 8.500	18.250	2.4115e-02
 8.500	18.500	2.5517e-02
 8.500	18.750	2.3032e-02
 8.500	19.000	2.0494e-02
 8.500	19.250	1.8141e-02
 8.500	19.500	1.6461e-02
 8.500	19.750	1.5454e-02
 8.500	20.000	1.4829e-02
 8.500	20.250	1.4524e-02
 8.500	20.500	1.4363e-02
 8.500	20.750	1.4272e-02
 8.500	21.000	1.4233e-02
 8.500	21.250	1.4217e-02
 8.500	21.500	1.4209e-02
 8.500	21.750	1.4206e-02
 8.500	22.000	1.4204e-02
 8.500	22.250	1.4203e-02
 8.500	22.500	1.4203e-02
 8.500	22.750	1.4203e-02
 8.500	23.000	1.4202e-02
 8.500	23.250	1.4202e-02
 8.500	23.500	1.4202e-02
 8.500	23.750	1.4202e-02
 8.500	24.000	1.4202e-02
 8.750	17.000	4.6080e-02
 8.750	17.250	4.3746e-02
 8.750	17.500	4.0425e-02
 8.750	17.750	3.5801e-02
 8.750	18.000	3.0167e-02
 8.750	18.250	2.3823e-02
 8.750	18.500	2.3985e-02
 8.750	18.750	2.5489e-02
 8.750	19.000	2.3036e-02
 8.750	19.250	2.0511e-02
 8.750	19.500	1.8144e-02
 8.750	19.750	1.6460e-02
 8.750	20.000	1.5453e-02
 8.750	20.250	1.4829e-02
 8.750	20.500	1.4524e-02
 8.750	20.750	1.4363e-02
 8.750	21.000	1.4272e-02
 8.750	21.250	1.4233e-02
 8.750	21.500	1.4217e-02
 8.750	21.750	1.4209e-02
 8.750	22.000	1.4206e-02
 8.750	22.250	1.4204e-02
 8.750	22.500	1.4203e-02
 8.750	22.750	1.4203e-02
 8.750	23.000	1.4203e-02
 8.750	23.250	1.4202e-02
 8.750	23.500	1.4203e-02
 8.750	23.750	1.4202e-02
 8.750	24.000	1.4202e-02
 9.000	17.000	4.6926e-02
 9.000	17.250	4.5336e-02
 9.000	17.500	4.2987e-02
 9.000	17.750	3.9558e-02
 9.000	18.000	3.4872e-02
 9.000	18.250	2.9260e-02
 9.000	18.500	2.3326e-02
 9.000	18.750	2.3892e-02
 9.000	19.000	2.5458e-02
 9.000	19.250	2.3037e-02
 9.000	19.500	2.0529e-02
 9.000	19.750	1.8148e-02
 9.000	20.000	1.6460e-02
 9.000	20.250	1.5453e-02
 9.000	20.500	1.4829e-02
 9.000	20.750	1.4524e-02
 9.000	21.000	1.4363e-02
 9.000	21.250	1.4272e-02
 9.000	21.500	1.4233e-02
 9.000	21.750	1.4217e-02
 9.000	22.000	1.4209e-02
 9.000	22.250	1.4206e-02
 9.000	22.500	1.4204e-02
 9.000	22.750	1.4203e-02
 9.000	23.000	1.4203e-02
 9.000	23.250	1.4203e-02
 9.000	23.500	1.4202e-02
 9.000	23.750	1.4202e-02
 9.000	24.000	1.4202e-02
 9.250	17.000	4.7438e-02
 9.250	17.250	4.6371e-02
 9.250	17.500	4.4751e-02
 9.250	17.750	4.2233e-02
 9.250	18.000	3.8527e-02
 9.250	18.250	3.3577e-02
 9.250	18.500	2.7947e-02
 9.250	18.750	2.2515e-02
 9.250	19.000	2.3811e-02
 9.250	19.250	2.5419e-02
 9.250	19.500	2.3033e-02
 9.250	19.750	2.0545e-02
 9.250	20.000	1.8152e-02
 9.250	20.250	1.6460e-02
 9.250	20.500	1.5453e-02
 9.250	20.750	1.4829e-02
 9.250	21.000	1.4524e-02
 9.250	21.250	1.4363e-02
 9.250	21.500	1.4271e-02
 9.250	21.750	1.4232e-02
 9.250	22.000	1.4215e-02
 9.250	22.250	1.4208e-02
 9.250	22.500	1.4205e-02
 9.250	22.750	1.4204e-02
 9.250	23.000	1.4203e-02
 9.250	23.250	1.4203e-02
 9.250	23.500	1.4202e-02
 9.250	23.750	1.4202e-02
 9.250	24.000	1.4202e-02
 9.500	17.000	4.7723e-02
 9.500	17.250	4.6990e-02
 9.500	17.500	4.5919e-02
 9.500	17.750	4.4149e-02
 9.500	18.000	4.1283e-02
 9.500	18.250	3.7070e-02
 9.500	18.500	3.1689e-02
 9.500	18.750	2.5866e-02
 9.500	19.000	2.2334e-02
 9.500	19.250	2.3731e-02
 9.500	19.500	2.5378e-02
 9.500	19.750	2.3022e-02
 9.500	20.000	2.0557e-02
 9.500	20.250	1.8156e-02
 9.500	20.500	1.6460e-02
 9.500	20.750	1.5452e-02
 9.500	21.000	1.4827e-02
 9.500	21.250	1.4522e-02
 9.500	21.500	1.4361e-02
 9.500	21.750	1.4269e-02
 9.500	22.000	1.4231e-02
 9.500	22.250	1.4214e-02
 9.500	22.500	1.4207e-02
 9.500	22.750	1.4203e-02
 9.500	23.000	1.4202e-02
 9.500	23.250	1.4201e-02
 9.500	23.500	1.4200e-02
 9.500	23.750	1.4200e-02
 9.500	24.000	1.4200e-02
 9.750	17.000	4.7940e-02
 9.750	17.250	4.7323e-02
 9.750	17.500	4.6613e-02
 9.750	17.750	4.5434e-02
 9.750	18.000	4.3299e-02
 9.750	18.250	3.9891e-02
 9.750	18.500	3.5157e-02
 9.750	18.750	2.9503e-02
 9.750	19.000	2.3405e-02
 9.750	19.250	2.2148e-02
 9.750	19.500	2.3635e-02
 9.750	19.750	2.5333e-02
 9.750	20.000	2.3004e-02
 9.750	20.250	2.0563e-02
 9.750	20.500	1.8159e-02
 9.750	20.750	1.6460e-02
 9.750	21.000	1.5452e-02
 9.750	21.250	1.4827e-02
 9.750	21.500	1.4523e-02
 9.750	21.750	1.4361e-02
 9.750	22.000	1.4270e-02
 9.750	22.250	1.4231e-02
 9.750	22.500	1.4214e-02
 9.750	22.750	1.4207e-02
 9.750	23.000	1.4204e-02
 9.750	23.250	1.4202e-02
 9.750	23.500	1.4201e-02
 9.750	23.750	1.4200e-02
 9.750	24.000	1.4200e-02
10.000	17.000	4.8230e-02
10.000	17.250	4.7540e-02
10.000	17.500	4.6968e-02
10.000	17.750	4.6181e-02
10.000	18.000	4.4701e-02
10.000	18.250	4.2130e-02
10.000	18.500	3.8260e-02
10.000	18.750	3.3208e-02
10.000	19.000	2.7175e-02
10.000	19.250	2.2079e-02
10.000	19.500	2.2028e-02
10.000	19.750	2.3557e-02
10.000	20.000	2.5304e-02
10.000	20.250	2.2983e-02
10.000	20.500	2.0566e-02
10.000	20.750	1.8161e-02
10.000	21.000	1.6460e-02
10.000	21.250	1.5452e-02
10.000	21.500	1.4827e-02
10.000	21.750	1.4523e-02
10.000	22.000	1.4362e-02
10.000	22.250	1.4270e-02
10.000	22.500	1.4231e-02
10.000	22.750	1.4214e-02
10.000	23.000	1.4207e-02
10.000	23.250	1.4203e-02
10.000	23.500	1.4202e-02
10.000	23.750	1.4201e-02
10.000	24.000	1.4200e-02
10.250	17.000	4.8768e-02
10.250	17.250	4.7810e-02
10.250	17.500	4.7174e-02
10.250	17.750	4.6559e-02
10.250	18.000	4.5569e-02
10.250	18.250	4.3801e-02
10.250	18.500	4.0908e-02
10.250	18.750	3.6722e-02
10.250	19.000	3.1353e-02
10.250	19.250	2.4893e-02
10.250	19.500	2.1193e-02
10.250	19.750	2.1998e-02
10.250	20.000	2.3495e-02
10.250	20.250	2.5289e-02
10.250	20.500	2.2960e-02
10.250	20.750	2.0563e-02
10.250	21.000	1.8162e-02
10.250	21.250	1.6460e-02
10.250	21.500	1.5452e-02
10.250	21.750	1.4828e-02
10.250	22.000	1.4523e-02
10.250	22.250	1.4362e-02
10.250	22.500	1.4270e-02
10.250	22.750	1.4231e-02
10.250	23.000	1.4214e-02
10.250	23.250	1.4207e-02
10.250	23.500	1.4204e-02
10.250	23.750	1.4202e-02
10.250	24.000	1.4201e-02
10.500	17.000	4.9589e-02
10.500	17.250	4.8318e-02
10.500	17.500	4.7425e-02
10.500	17.750	4.6788e-02
10.500	18.000	4.6082e-02
10.500	18.250	4.4943e-02
10.500	18.500	4.2983e-02
10.500	18.750	3.9878e-02
10.500	19.000	3.5490e-02
10.500	19.250	2.9763e-02
10.500	19.500	2.3128e-02
10.500	19.750	2.1291e-02
10.500	20.000	2.2150e-02
10.500	20.250	2.3576e-02
10.500	20.500	2.5361e-02
10.500	20.750	2.2945e-02
10.500	21.000	2.0557e-02
10.500	21.250	1.8162e-02
10.500	21.500	1.6460e-02
10.500	21.750	1.5452e-02
10.500	22.000	1.4828e-02
10.500	22.250	1.4523e-02
10.500	22.500	1.4362e-02
10.500	22.750	1.4270e-02
10.500	23.000	1.4231e-02
10.500	23.250	1.4214e-02
10.500	23.500	1.4207e-02
10.500	23.750	1.4204e-02
10.500	24.000	1.4202e-02
10.750	17.000	5.0671e-02
10.750	17.250	4.9091e-02
10.750	17.500	4.7915e-02
10.750	17.750	4.7105e-02
10.750	18.000	4.6489e-02
10.750	18.250	4.5746e-02
10.750	18.500	4.4484e-02
10.750	18.750	4.2339e-02
10.750	19.000	3.9046e-02
10.750	19.250	3.4437e-02
10.750	19.500	2.8462e-02
10.750	19.750	2.1610e-02
10.750	20.000	2.1510e-02
10.750	20.250	2.2657e-02
10.750	20.500	2.3902e-02
10.750	20.750	2.5548e-02
10.750	21.000	2.2953e-02
10.750	21.250	2.0550e-02
10.750	21.500	1.8162e-02
10.750	21.750	1.6460e-02
10.750	22.000	1.5452e-02
10.750	22.250	1.4828e-02
10.750	22.500	1.4524e-02
10.750	22.750	1.4362e-02
10.750	23.000	1.4270e-02
10.750	23.250	1.4231e-02
10.750	23.500	1.4215e-02
10.750	23.750	1.4207e-02
10.750	24.000	1.4204e-02
11.000	17.000	5.1957e-02
11.000	17.250	5.0086e-02
11.000	17.500	4.8650e-02
11.000	17.750	4.7670e-02
11.000	18.000	4.6998e-02
11.000	18.250	4.6341e-02
11.000	18.500	4.5474e-02
11.000	18.750	4.4067e-02
11.000	19.000	4.1747e-02
11.000	19.250	3.8323e-02
11.000	19.500	3.3546e-02
11.000	19.750	2.7235e-02
11.000	20.000	2.0644e-02
11.000	20.250	2.2174e-02
11.000	20.500	2.3151e-02
11.000	20.750	2.4490e-02
11.000	21.000	2.5890e-02
11.000	21.250	2.3015e-02
11.000	21.500	2.0542e-02
11.000	21.750	1.8161e-02
11.000	22.000	1.6460e-02
11.000	22.250	1.5452e-02
11.000	22.500	1.4828e-02
11.000	22.750	1.4524e-02
11.000	23.000	1.4363e-02
11.000	23.250	1.4271e-02
11.000	23.500	1.4232e-02
11.000	23.750	1.4215e-02
11.000	24.000	1.4207e-02
11.250	17.000	5.3223e-02
11.250	17.250	5.1150e-02
11.250	17.500	4.9515e-02
11.250	17.750	4.8413e-02
11.250	18.000	4.7665e-02
11.250	18.250	4.6900e-02
11.250	18.500	4.6042e-02
11.250	18.750	4.5142e-02
11.250	19.000	4.3593e-02
11.250	19.250	4.1203e-02
11.250	19.500	3.7690e-02
11.250	19.750	3.2780e-02
11.250	20.000	2.6246e-02
11.250	20.250	2.1141e-02
11.250	20.500	2.2894e-02
11.250	20.750	2.4155e-02
11.250	21.000	2.5513e-02
11.250	21.250	2.6421e-02
11.250	21.500	2.3147e-02
11.250	21.750	2.0541e-02
11.250	22.000	1.8159e-02
11.250	22.250	1.6460e-02
11.250	22.500	1.5453e-02
11.250	22.750	1.4828e-02
11.250	23.000	1.4524e-02
11.250	23.250	1.4363e-02
11.250	23.500	1.4271e-02
11.250	23.750	1.4232e-02
11.250	24.000	1.4215e-02
11.500	17.000	5.4106e-02
11.500	17.250	5.2038e-02
11.500	17.500	5.0331e-02
11.500	17.750	4.9160e-02
11.500	18.000	4.8355e-02
11.500	18.250	4.7482e-02
11.500	18.500	4.6555e-02
11.500	18.750	4.5739e-02
11.500	19.000	4.4731e-02
11.500	19.250	4.3114e-02
11.500	19.500	4.0703e-02
11.500	19.750	3.7206e-02
11.500	20.000	3.2228e-02
11.500	20.250	2.5477e-02
11.500	20.500	2.1893e-02
11.500	20.750	2.4010e-02
11.500	21.000	2.5573e-02
11.500	21.250	2.7190e-02
11.500	21.500	2.7076e-02
11.500	21.750	2.3361e-02
11.500	22.000	2.0553e-02
11.500	22.250	1.8156e-02
11.500	22.500	1.6460e-02
11.500	22.750	1.5453e-02
11.500	23.000	1.4828e-02
11.500	23.250	1.4524e-02
11.500	23.500	1.4363e-02
11.500	23.750	1.4271e-02
11.500	24.000	1.4232e-02
11.750	17.000	5.4108e-02
11.750	17.250	5.2258e-02
11.750	17.500	5.0733e-02
11.750	17.750	4.9650e-02
11.750	18.000	4.8853e-02
11.750	18.250	4.8034e-02
11.750	18.500	4.7067e-02
11.750	18.750	4.6066e-02
11.750	19.000	4.5224e-02
11.750	19.250	4.4176e-02
11.750	19.500	4.2604e-02
11.750	19.750	4.0273e-02
11.750	20.000	3.6855e-02
11.750	20.250	3.1875e-02
11.750	20.500	2.4975e-02
11.750	20.750	2.2915e-02
11.750	21.000	2.5640e-02
11.750	21.250	2.7843e-02
11.750	21.500	2.9681e-02
11.750	21.750	2.7772e-02
11.750	22.000	2.3650e-02
11.750	22.250	2.0583e-02
11.750	22.500	1.8152e-02
11.750	22.750	1.6460e-02
11.750	23.000	1.5453e-02
11.750	23.250	1.4827e-02
11.750	23.500	1.4524e-02
11.750	23.750	1.4363e-02
11.750	24.000	1.4272e-02
12.000	17.000	5.2714e-02
12.000	17.250	5.1283e-02
12.000	17.500	5.0232e-02
12.000	17.750	4.9585e-02
12.000	18.000	4.9038e-02
12.000	18.250	4.8347e-02
12.000	18.500	4.7400e-02
12.000	18.750	4.6352e-02
12.000	19.000	4.5422e-02
12.000	19.250	4.4494e-02
12.000	19.500	4.3552e-02
12.000	19.750	4.2089e-02
12.000	20.000	3.9916e-02
12.000	20.250	3.6674e-02
12.000	20.500	3.1775e-02
12.000	20.750	2.4931e-02
12.000	21.000	2.4549e-02
12.000	21.250	2.8095e-02
12.000	21.500	3.0992e-02
12.000	21.750	3.2796e-02
12.000	22.000	2.8499e-02
12.000	22.250	2.3872e-02
12.000	22.500	2.0631e-02
12.000	22.750	1.8149e-02
12.000	23.000	1.6459e-02
12.000	23.250	1.5454e-02
12.000	23.500	1.4827e-02
12.000	23.750	1.4524e-02
12.000	24.000	1.4363e-02
12.250	17.000	4.9447e-02
12.250	17.250	4.8892e-02
12.250	17.500	4.8640e-02
12.250	17.750	4.8798e-02
12.250	18.000	4.8695e-02
12.250	18.250	4.8150e-02
12.250	18.500	4.7340e-02
12.250	18.750	4.6395e-02
12.250	19.000	4.5408e-02
12.250	19.250	4.4422e-02
12.250	19.500	4.3662e-02
12.250	19.750	4.2878e-02
12.250	20.000	4.1599e-02
12.250	20.250	3.9686e-02
12.250	20.500	3.6653e-02
12.250	20.750	3.1935e-02
12.250	21.000	2.5718e-02
12.250	21.250	2.7235e-02
12.250	21.500	3.1478e-02
12.250	21.750	3.4988e-02
12.250	22.000	3.5197e-02
12.250	22.250	2.9168e-02
12.250	22.500	2.4186e-02
12.250	22.750	2.0693e-02
12.250	23.000	1.8146e-02
12.250	23.250	1.6459e-02
12.250	23.500	1.5455e-02
12.250	23.750	1.4827e-02
12.250	24.000	1.4524e-02
12.500	17.000	4.5516e-02
12.500	17.250	4.6171e-02
12.500	17.500	4.6877e-02
12.500	17.750	4.7467e-02
12.500	18.000	4.7586e-02
12.500	18.250	4.7197e-02
12.500	18.500	4.6588e-02
12.500	18.750	4.5852e-02
12.500	19.000	4.5049e-02
12.500	19.250	4.4156e-02
12.500	19.500	4.3334e-02
12.500	19.750	4.2763e-02
12.500	20.000	4.2173e-02
12.500	20.250	4.1153e-02
12.500	20.500	3.9560e-02
12.500	20.750	3.6944e-02
12.500	21.000	3.2801e-02
12.500	21.250	2.7113e-02
12.500	21.500	3.0870e-02
12.500	21.750	3.5819e-02
12.500	22.000	3.9432e-02
12.500	22.250	3.6818e-02
12.500	22.500	2.9812e-02
12.500	22.750	2.4590e-02
12.500	23.000	2.0763e-02
12.500	23.250	1.8144e-02
12.500	23.500	1.6458e-02
12.500	23.750	1.5455e-02
12.500	24.000	1.4826e-02
12.750	17.000	4.4624e-02
12.750	17.250	4.4920e-02
12.750	17.500	4.5350e-02
12.750	17.750	4.5484e-02
12.750	18.000	4.5479e-02
12.750	18.250	4.5300e-02
12.750	18.500	4.4954e-02
12.750	18.750	4.4582e-02
12.750	19.000	4.4074e-02
12.750	19.250	4.3461e-02
12.750	19.500	4.2687e-02
12.750	19.750	4.2069e-02
12.750	20.000	4.1721e-02
12.750	20.250	4.1475e-02
12.750	20.500	4.0779e-02
12.750	20.750	3.9666e-02
12.750	21.000	3.7673e-02
12.750	21.250	3.4439e-02
12.750	21.500	3.0380e-02
12.750	21.750	3.5284e-02
12.750	22.000	4.1001e-02
12.750	22.250	4.3721e-02
12.750	22.500	3.8317e-02
12.750	22.750	3.0495e-02
12.750	23.000	2.4908e-02
12.750	23.250	2.0831e-02
12.750	23.500	1.8145e-02
12.750	23.750	1.6457e-02
12.750	24.000	1.5455e-02
13.000	17.000	4.1233e-02
13.000	17.250	4.1996e-02
13.000	17.500	4.1846e-02
13.000	17.750	4.1981e-02
13.000	18.000	4.2206e-02
13.000	18.250	4.2345e-02
13.000	18.500	4.2393e-02
13.000	18.750	4.2360e-02
13.000	19.000	4.2265e-02
13.000	19.250	4.2033e-02
13.000	19.500	4.1618e-02
13.000	19.750	4.1088e-02
13.000	20.000	4.0687e-02
13.000	20.250	4.0628e-02
13.000	20.500	4.0720e-02
13.000	20.750	4.0530e-02
13.000	21.000	4.0160e-02
13.000	21.250	3.9063e-02
13.000	21.500	3.6690e-02
13.000	21.750	3.4634e-02
13.000	22.000	4.1160e-02
13.000	22.250	4.6320e-02
13.000	22.500	4.7326e-02
13.000	22.750	3.9836e-02
13.000	23.000	3.1447e-02
13.000	23.250	2.5069e-02
13.000	23.500	2.0904e-02
13.000	23.750	1.8148e-02
13.000	24.000	1.6456e-02
13.250	17.000	3.8773e-02
13.250	17.250	3.9238e-02
13.250	17.500	3.8809e-02
13.250	17.750	3.8399e-02
13.250	18.000	3.8359e-02
13.250	18.250	3.8556e-02
13.250	18.500	3.8916e-02
13.250	18.750	3.9274e-02
13.250	19.000	3.9560e-02
13.250	19.250	3.9712e-02
13.250	19.500	3.9737e-02
13.250	19.750	3.9564e-02
13.250	20.000	3.9334e-02
13.250	20.250	3.9245e-02
13.250	20.500	3.9464e-02
13.250	20.750	3.9921e-02
13.250	21.000	4.0485e-02
13.250	21.250	4.0581e-02
13.250	21.500	4.0169e-02
13.250	21.750	3.7900e-02
13.250	22.000	3.9091e-02
13.250	22.250	4.4730e-02
13.250	22.500	5.0628e-02
13.250	22.750	5.0359e-02
13.250	23.000	4.1342e-02
13.250	23.250	3.2121e-02
13.250	23.500	2.5323e-02
13.250	23.750	2.0969e-02
13.250	24.000	1.8152e-02
13.500	17.000	3.6201e-02
13.500	17.250	3.6804e-02
13.500	17.500	3.6177e-02
13.500	17.750	3.5445e-02
13.500	18.000	3.5162e-02
13.500	18.250	3.5203e-02
13.500	18.500	3.5399e-02
13.500	18.750	3.5678e-02
13.500	19.000	3.6122e-02
13.500	19.250	3.6628e-02
13.500	19.500	3.7003e-02
13.500	19.750	3.7227e-02
13.500	20.000	3.7311e-02
13.500	20.250	3.7462e-02
13.500	20.500	3.7641e-02
13.500	20.750	3.8142e-02
13.500	21.000	3.8832e-02
13.500	21.250	3.9741e-02
13.500	21.500	3.9877e-02
13.500	21.750	3.9644e-02
13.500	22.000	3.8332e-02
13.500	22.250	4.1269e-02
13.500	22.500	4.8483e-02
13.500	22.750	5.4608e-02
13.500	23.000	5.3222e-02
13.500	23.250	4.2632e-02
13.500	23.500	3.2688e-02
13.500	23.750	2.5682e-02
13.500	24.000	2.1029e-02
13.750	17.000	3.3353e-02
13.750	17.250	3.4392e-02
13.750	17.500	3.3794e-02
13.750	17.750	3.2858e-02
13.750	18.000	3.2417e-02
13.750	18.250	3.2365e-02
13.750	18.500	3.2476e-02
13.750	18.750	3.2607e-02
13.750	19.000	3.2794e-02
13.750	19.250	3.3107e-02
13.750	19.500	3.3635e-02
13.750	19.750	3.4165e-02
13.750	20.000	3.4620e-02
13.750	20.250	3.5016e-02
13.750	20.500	3.5480e-02
13.750	20.750	3.6049e-02
13.750	21.000	3.6830e-02
13.750	21.250	3.7699e-02
13.750	21.500	3.8644e-02
13.750	21.750	3.9023e-02
13.750	22.000	3.8880e-02
13.750	22.250	3.9273e-02
13.750	22.500	4.5151e-02
13.750	22.750	5.2834e-02
13.750	23.000	5.8478e-02
13.750	23.250	5.6235e-02
13.750	23.500	4.4045e-02
13.750	23.750	3.3219e-02
13.750	24.000	2.5884e-02
14.000	17.000	2.9863e-02
14.000	17.250	3.1758e-02
14.000	17.500	3.1560e-02
14.000	17.750	3.0531e-02
14.000	18.000	2.9952e-02
14.000	18.250	2.9832e-02
14.000	18.500	2.9891e-02
14.000	18.750	2.9966e-02
14.000	19.000	3.0015e-02
14.000	19.250	3.0111e-02
14.000	19.500	3.0332e-02
14.000	19.750	3.0780e-02
14.000	20.000	3.1426e-02
14.000	20.250	3.2099e-02
14.000	20.500	3.2827e-02
14.000	20.750	3.3636e-02
14.000	21.000	3.4594e-02
14.000	21.250	3.5797e-02
14.000	21.500	3.7000e-02
14.000	21.750	3.8064e-02
14.000	22.000	3.8793e-02
14.000	22.250	3.9583e-02
14.000	22.500	4.3034e-02
14.000	22.750	5.1755e-02
14.000	23.000	6.0287e-02
14.000	23.250	6.3666e-02
14.000	23.500	5.9668e-02
14.000	23.750	4.5288e-02
14.000	24.000	3.3777e-02
