nFnu 1585.12A  relative to Inci 1215.00A scaled to 1215A.
Hden   Phi(H)  Eq_Width (A)
 7.000	17.000	6.0561e-02
 7.000	17.250	4.0610e-02
 7.000	17.500	2.8552e-02
 7.000	17.750	2.1632e-02
 7.000	18.000	1.8029e-02
 7.000	18.250	1.6039e-02
 7.000	18.500	1.4918e-02
 7.000	18.750	1.4425e-02
 7.000	19.000	1.4171e-02
 7.000	19.250	1.4029e-02
 7.000	19.500	1.3970e-02
 7.000	19.750	1.3946e-02
 7.000	20.000	1.3935e-02
 7.000	20.250	1.3930e-02
 7.000	20.500	1.3928e-02
 7.000	20.750	1.3926e-02
 7.000	21.000	1.3926e-02
 7.000	21.250	1.3925e-02
 7.000	21.500	1.3925e-02
 7.000	21.750	1.3925e-02
 7.000	22.000	1.3925e-02
 7.000	22.250	1.3925e-02
 7.000	22.500	1.3925e-02
 7.000	22.750	1.3927e-02
 7.000	23.000	1.3927e-02
 7.000	23.250	1.3925e-02
 7.000	23.500	1.3926e-02
 7.000	23.750	1.3926e-02
 7.000	24.000	1.3927e-02
 7.250	17.000	7.0283e-02
 7.250	17.250	6.0374e-02
 7.250	17.500	4.0504e-02
 7.250	17.750	2.8494e-02
 7.250	18.000	2.1604e-02
 7.250	18.250	1.8016e-02
 7.250	18.500	1.6033e-02
 7.250	18.750	1.4915e-02
 7.250	19.000	1.4424e-02
 7.250	19.250	1.4170e-02
 7.250	19.500	1.4029e-02
 7.250	19.750	1.3970e-02
 7.250	20.000	1.3946e-02
 7.250	20.250	1.3935e-02
 7.250	20.500	1.3930e-02
 7.250	20.750	1.3928e-02
 7.250	21.000	1.3926e-02
 7.250	21.250	1.3926e-02
 7.250	21.500	1.3925e-02
 7.250	21.750	1.3925e-02
 7.250	22.000	1.3925e-02
 7.250	22.250	1.3925e-02
 7.250	22.500	1.3925e-02
 7.250	22.750	1.3925e-02
 7.250	23.000	1.3925e-02
 7.250	23.250	1.3925e-02
 7.250	23.500	1.3925e-02
 7.250	23.750	1.3925e-02
 7.250	24.000	1.3925e-02
 7.500	17.000	8.1645e-02
 7.500	17.250	6.9870e-02
 7.500	17.500	6.0266e-02
 7.500	17.750	4.0440e-02
 7.500	18.000	2.8454e-02
 7.500	18.250	2.1584e-02
 7.500	18.500	1.8007e-02
 7.500	18.750	1.6029e-02
 7.500	19.000	1.4914e-02
 7.500	19.250	1.4424e-02
 7.500	19.500	1.4170e-02
 7.500	19.750	1.4029e-02
 7.500	20.000	1.3970e-02
 7.500	20.250	1.3946e-02
 7.500	20.500	1.3935e-02
 7.500	20.750	1.3930e-02
 7.500	21.000	1.3928e-02
 7.500	21.250	1.3926e-02
 7.500	21.500	1.3926e-02
 7.500	21.750	1.3925e-02
 7.500	22.000	1.3925e-02
 7.500	22.250	1.3925e-02
 7.500	22.500	1.3925e-02
 7.500	22.750	1.3925e-02
 7.500	23.000	1.3925e-02
 7.500	23.250	1.3925e-02
 7.500	23.500	1.3927e-02
 7.500	23.750	1.3925e-02
 7.500	24.000	1.3925e-02
 7.750	17.000	7.7469e-02
 7.750	17.250	8.0731e-02
 7.750	17.500	6.9549e-02
 7.750	17.750	6.0203e-02
 7.750	18.000	4.0401e-02
 7.750	18.250	2.8426e-02
 7.750	18.500	2.1568e-02
 7.750	18.750	1.8000e-02
 7.750	19.000	1.6027e-02
 7.750	19.250	1.4913e-02
 7.750	19.500	1.4423e-02
 7.750	19.750	1.4170e-02
 7.750	20.000	1.4029e-02
 7.750	20.250	1.3970e-02
 7.750	20.500	1.3946e-02
 7.750	20.750	1.3935e-02
 7.750	21.000	1.3930e-02
 7.750	21.250	1.3928e-02
 7.750	21.500	1.3926e-02
 7.750	21.750	1.3926e-02
 7.750	22.000	1.3925e-02
 7.750	22.250	1.3925e-02
 7.750	22.500	1.3925e-02
 7.750	22.750	1.3925e-02
 7.750	23.000	1.3925e-02
 7.750	23.250	1.3925e-02
 7.750	23.500	1.3925e-02
 7.750	23.750	1.3925e-02
 7.750	24.000	1.3925e-02
 8.000	17.000	7.2349e-02
 8.000	17.250	7.5554e-02
 8.000	17.500	7.9145e-02
 8.000	17.750	6.9037e-02
 8.000	18.000	6.0167e-02
 8.000	18.250	4.0378e-02
 8.000	18.500	2.8405e-02
 8.000	18.750	2.1554e-02
 8.000	19.000	1.7995e-02
 8.000	19.250	1.6025e-02
 8.000	19.500	1.4912e-02
 8.000	19.750	1.4423e-02
 8.000	20.000	1.4170e-02
 8.000	20.250	1.4029e-02
 8.000	20.500	1.3970e-02
 8.000	20.750	1.3946e-02
 8.000	21.000	1.3935e-02
 8.000	21.250	1.3930e-02
 8.000	21.500	1.3927e-02
 8.000	21.750	1.3926e-02
 8.000	22.000	1.3926e-02
 8.000	22.250	1.3925e-02
 8.000	22.500	1.3925e-02
 8.000	22.750	1.3925e-02
 8.000	23.000	1.3925e-02
 8.000	23.250	1.3925e-02
 8.000	23.500	1.3925e-02
 8.000	23.750	1.3925e-02
 8.000	24.000	1.3925e-02
 8.250	17.000	6.8333e-02
 8.250	17.250	7.1528e-02
 8.250	17.500	7.4860e-02
 8.250	17.750	7.8630e-02
 8.250	18.000	6.8879e-02
 8.250	18.250	6.0144e-02
 8.250	18.500	4.0364e-02
 8.250	18.750	2.8386e-02
 8.250	19.000	2.1541e-02
 8.250	19.250	1.7990e-02
 8.250	19.500	1.6024e-02
 8.250	19.750	1.4912e-02
 8.250	20.000	1.4423e-02
 8.250	20.250	1.4170e-02
 8.250	20.500	1.4029e-02
 8.250	20.750	1.3970e-02
 8.250	21.000	1.3946e-02
 8.250	21.250	1.3935e-02
 8.250	21.500	1.3930e-02
 8.250	21.750	1.3927e-02
 8.250	22.000	1.3926e-02
 8.250	22.250	1.3926e-02
 8.250	22.500	1.3925e-02
 8.250	22.750	1.3926e-02
 8.250	23.000	1.3925e-02
 8.250	23.250	1.3925e-02
 8.250	23.500	1.3925e-02
 8.250	23.750	1.3925e-02
 8.250	24.000	1.3925e-02
 8.500	17.000	6.4781e-02
 8.500	17.250	6.7755e-02
 8.500	17.500	7.1091e-02
 8.500	17.750	7.4520e-02
 8.500	18.000	7.8349e-02
 8.500	18.250	6.8772e-02
 8.500	18.500	6.0126e-02
 8.500	18.750	4.0355e-02
 8.500	19.000	2.8369e-02
 8.500	19.250	2.1528e-02
 8.500	19.500	1.7985e-02
 8.500	19.750	1.6022e-02
 8.500	20.000	1.4912e-02
 8.500	20.250	1.4423e-02
 8.500	20.500	1.4170e-02
 8.500	20.750	1.4029e-02
 8.500	21.000	1.3970e-02
 8.500	21.250	1.3946e-02
 8.500	21.500	1.3935e-02
 8.500	21.750	1.3930e-02
 8.500	22.000	1.3927e-02
 8.500	22.250	1.3926e-02
 8.500	22.500	1.3926e-02
 8.500	22.750	1.3925e-02
 8.500	23.000	1.3925e-02
 8.500	23.250	1.3925e-02
 8.500	23.500	1.3925e-02
 8.500	23.750	1.3925e-02
 8.500	24.000	1.3925e-02
 8.750	17.000	6.1613e-02
 8.750	17.250	6.4480e-02
 8.750	17.500	6.7589e-02
 8.750	17.750	7.0993e-02
 8.750	18.000	7.4517e-02
 8.750	18.250	7.8358e-02
 8.750	18.500	6.8724e-02
 8.750	18.750	6.0109e-02
 8.750	19.000	4.0349e-02
 8.750	19.250	2.8352e-02
 8.750	19.500	2.1515e-02
 8.750	19.750	1.7981e-02
 8.750	20.000	1.6021e-02
 8.750	20.250	1.4911e-02
 8.750	20.500	1.4423e-02
 8.750	20.750	1.4170e-02
 8.750	21.000	1.4029e-02
 8.750	21.250	1.3970e-02
 8.750	21.500	1.3946e-02
 8.750	21.750	1.3935e-02
 8.750	22.000	1.3930e-02
 8.750	22.250	1.3927e-02
 8.750	22.500	1.3926e-02
 8.750	22.750	1.3926e-02
 8.750	23.000	1.3925e-02
 8.750	23.250	1.3925e-02
 8.750	23.500	1.3925e-02
 8.750	23.750	1.3925e-02
 8.750	24.000	1.3925e-02
 9.000	17.000	5.8543e-02
 9.000	17.250	6.1587e-02
 9.000	17.500	6.4617e-02
 9.000	17.750	6.7893e-02
 9.000	18.000	7.1416e-02
 9.000	18.250	7.5029e-02
 9.000	18.500	7.8664e-02
 9.000	18.750	6.8678e-02
 9.000	19.000	6.0092e-02
 9.000	19.250	4.0345e-02
 9.000	19.500	2.8335e-02
 9.000	19.750	2.1502e-02
 9.000	20.000	1.7977e-02
 9.000	20.250	1.6021e-02
 9.000	20.500	1.4911e-02
 9.000	20.750	1.4423e-02
 9.000	21.000	1.4170e-02
 9.000	21.250	1.4029e-02
 9.000	21.500	1.3970e-02
 9.000	21.750	1.3946e-02
 9.000	22.000	1.3935e-02
 9.000	22.250	1.3930e-02
 9.000	22.500	1.3927e-02
 9.000	22.750	1.3926e-02
 9.000	23.000	1.3926e-02
 9.000	23.250	1.3925e-02
 9.000	23.500	1.3925e-02
 9.000	23.750	1.3925e-02
 9.000	24.000	1.3925e-02
 9.250	17.000	5.5204e-02
 9.250	17.250	5.8689e-02
 9.250	17.500	6.2029e-02
 9.250	17.750	6.5362e-02
 9.250	18.000	6.8854e-02
 9.250	18.250	7.2613e-02
 9.250	18.500	7.6591e-02
 9.250	18.750	7.9603e-02
 9.250	19.000	6.8599e-02
 9.250	19.250	6.0071e-02
 9.250	19.500	4.0342e-02
 9.250	19.750	2.8320e-02
 9.250	20.000	2.1489e-02
 9.250	20.250	1.7973e-02
 9.250	20.500	1.6020e-02
 9.250	20.750	1.4911e-02
 9.250	21.000	1.4423e-02
 9.250	21.250	1.4170e-02
 9.250	21.500	1.4027e-02
 9.250	21.750	1.3969e-02
 9.250	22.000	1.3944e-02
 9.250	22.250	1.3933e-02
 9.250	22.500	1.3929e-02
 9.250	22.750	1.3927e-02
 9.250	23.000	1.3926e-02
 9.250	23.250	1.3925e-02
 9.250	23.500	1.3925e-02
 9.250	23.750	1.3925e-02
 9.250	24.000	1.3925e-02
 9.500	17.000	5.1296e-02
 9.500	17.250	5.5434e-02
 9.500	17.500	5.9393e-02
 9.500	17.750	6.3233e-02
 9.500	18.000	6.6928e-02
 9.500	18.250	7.0861e-02
 9.500	18.500	7.5257e-02
 9.500	18.750	8.0036e-02
 9.500	19.000	7.9052e-02
 9.500	19.250	6.8456e-02
 9.500	19.500	6.0047e-02
 9.500	19.750	4.0340e-02
 9.500	20.000	2.8309e-02
 9.500	20.250	2.1478e-02
 9.500	20.500	1.7970e-02
 9.500	20.750	1.6019e-02
 9.500	21.000	1.4909e-02
 9.500	21.250	1.4421e-02
 9.500	21.500	1.4168e-02
 9.500	21.750	1.4026e-02
 9.500	22.000	1.3968e-02
 9.500	22.250	1.3943e-02
 9.500	22.500	1.3933e-02
 9.500	22.750	1.3928e-02
 9.500	23.000	1.3925e-02
 9.500	23.250	1.3924e-02
 9.500	23.500	1.3923e-02
 9.500	23.750	1.3923e-02
 9.500	24.000	1.3922e-02
 9.750	17.000	4.6580e-02
 9.750	17.250	5.1393e-02
 9.750	17.500	5.6196e-02
 9.750	17.750	6.0894e-02
 9.750	18.000	6.5387e-02
 9.750	18.250	6.9897e-02
 9.750	18.500	7.4554e-02
 9.750	18.750	7.9487e-02
 9.750	19.000	8.5086e-02
 9.750	19.250	7.7993e-02
 9.750	19.500	6.8179e-02
 9.750	19.750	6.0018e-02
 9.750	20.000	4.0338e-02
 9.750	20.250	2.8302e-02
 9.750	20.500	2.1469e-02
 9.750	20.750	1.7968e-02
 9.750	21.000	1.6018e-02
 9.750	21.250	1.4909e-02
 9.750	21.500	1.4421e-02
 9.750	21.750	1.4169e-02
 9.750	22.000	1.4027e-02
 9.750	22.250	1.3968e-02
 9.750	22.500	1.3943e-02
 9.750	22.750	1.3933e-02
 9.750	23.000	1.3928e-02
 9.750	23.250	1.3925e-02
 9.750	23.500	1.3924e-02
 9.750	23.750	1.3923e-02
 9.750	24.000	1.3923e-02
10.000	17.000	4.0946e-02
10.000	17.250	4.6390e-02
10.000	17.500	5.2040e-02
10.000	17.750	5.7903e-02
10.000	18.000	6.3710e-02
10.000	18.250	6.9256e-02
10.000	18.500	7.4233e-02
10.000	18.750	7.9162e-02
10.000	19.000	8.4858e-02
10.000	19.250	8.9362e-02
10.000	19.500	7.7208e-02
10.000	19.750	6.7944e-02
10.000	20.000	5.9993e-02
10.000	20.250	4.0335e-02
10.000	20.500	2.8299e-02
10.000	20.750	2.1462e-02
10.000	21.000	1.7966e-02
10.000	21.250	1.6018e-02
10.000	21.500	1.4909e-02
10.000	21.750	1.4421e-02
10.000	22.000	1.4169e-02
10.000	22.250	1.4027e-02
10.000	22.500	1.3968e-02
10.000	22.750	1.3943e-02
10.000	23.000	1.3933e-02
10.000	23.250	1.3928e-02
10.000	23.500	1.3925e-02
10.000	23.750	1.3924e-02
10.000	24.000	1.3923e-02
10.250	17.000	3.5669e-02
10.250	17.250	4.0533e-02
10.250	17.500	4.6940e-02
10.250	17.750	5.3890e-02
10.250	18.000	6.1206e-02
10.250	18.250	6.8007e-02
10.250	18.500	7.3654e-02
10.250	18.750	7.8675e-02
10.250	19.000	8.3774e-02
10.250	19.250	9.0298e-02
10.250	19.500	9.2773e-02
10.250	19.750	7.6796e-02
10.250	20.000	6.7598e-02
10.250	20.250	5.9969e-02
10.250	20.500	4.0331e-02
10.250	20.750	2.8299e-02
10.250	21.000	2.1458e-02
10.250	21.250	1.7966e-02
10.250	21.500	1.6018e-02
10.250	21.750	1.4910e-02
10.250	22.000	1.4422e-02
10.250	22.250	1.4169e-02
10.250	22.500	1.4027e-02
10.250	22.750	1.3968e-02
10.250	23.000	1.3943e-02
10.250	23.250	1.3933e-02
10.250	23.500	1.3928e-02
10.250	23.750	1.3925e-02
10.250	24.000	1.3924e-02
10.500	17.000	3.1278e-02
10.500	17.250	3.5148e-02
10.500	17.500	4.1077e-02
10.500	17.750	4.8988e-02
10.500	18.000	5.7343e-02
10.500	18.250	6.5091e-02
10.500	18.500	7.1578e-02
10.500	18.750	7.6868e-02
10.500	19.000	8.1878e-02
10.500	19.250	8.7776e-02
10.500	19.500	9.5537e-02
10.500	19.750	9.2740e-02
10.500	20.000	7.7253e-02
10.500	20.250	6.7676e-02
10.500	20.500	5.9984e-02
10.500	20.750	4.0325e-02
10.500	21.000	2.8302e-02
10.500	21.250	2.1457e-02
10.500	21.500	1.7967e-02
10.500	21.750	1.6018e-02
10.500	22.000	1.4910e-02
10.500	22.250	1.4422e-02
10.500	22.500	1.4169e-02
10.500	22.750	1.4027e-02
10.500	23.000	1.3968e-02
10.500	23.250	1.3943e-02
10.500	23.500	1.3933e-02
10.500	23.750	1.3928e-02
10.500	24.000	1.3925e-02
10.750	17.000	2.8118e-02
10.750	17.250	3.0863e-02
10.750	17.500	3.5823e-02
10.750	17.750	4.3350e-02
10.750	18.000	5.1898e-02
10.750	18.250	5.9949e-02
10.750	18.500	6.6915e-02
10.750	18.750	7.2891e-02
10.750	19.000	7.8443e-02
10.750	19.250	8.4195e-02
10.750	19.500	9.0961e-02
10.750	19.750	9.9297e-02
10.750	20.000	9.2655e-02
10.750	20.250	7.9514e-02
10.750	20.500	6.8515e-02
10.750	20.750	6.0044e-02
10.750	21.000	4.0319e-02
10.750	21.250	2.8306e-02
10.750	21.500	2.1458e-02
10.750	21.750	1.7969e-02
10.750	22.000	1.6018e-02
10.750	22.250	1.4909e-02
10.750	22.500	1.4423e-02
10.750	22.750	1.4169e-02
10.750	23.000	1.4027e-02
10.750	23.250	1.3969e-02
10.750	23.500	1.3944e-02
10.750	23.750	1.3933e-02
10.750	24.000	1.3928e-02
11.000	17.000	2.6000e-02
11.000	17.250	2.7960e-02
11.000	17.500	3.1686e-02
11.000	17.750	3.7605e-02
11.000	18.000	4.5010e-02
11.000	18.250	5.2592e-02
11.000	18.500	5.9895e-02
11.000	18.750	6.6728e-02
11.000	19.000	7.3183e-02
11.000	19.250	7.9339e-02
11.000	19.500	8.5655e-02
11.000	19.750	9.2782e-02
11.000	20.000	9.9886e-02
11.000	20.250	9.5532e-02
11.000	20.500	8.0527e-02
11.000	20.750	6.9845e-02
11.000	21.000	6.0164e-02
11.000	21.250	4.0311e-02
11.000	21.500	2.8309e-02
11.000	21.750	2.1462e-02
11.000	22.000	1.7973e-02
11.000	22.250	1.6019e-02
11.000	22.500	1.4909e-02
11.000	22.750	1.4423e-02
11.000	23.000	1.4170e-02
11.000	23.250	1.4027e-02
11.000	23.500	1.3969e-02
11.000	23.750	1.3944e-02
11.000	24.000	1.3933e-02
11.250	17.000	2.4678e-02
11.250	17.250	2.6191e-02
11.250	17.500	2.8651e-02
11.250	17.750	3.2440e-02
11.250	18.000	3.7744e-02
11.250	18.250	4.4079e-02
11.250	18.500	5.1311e-02
11.250	18.750	5.8936e-02
11.250	19.000	6.6258e-02
11.250	19.250	7.3040e-02
11.250	19.500	7.9491e-02
11.250	19.750	8.6182e-02
11.250	20.000	9.3686e-02
11.250	20.250	1.0171e-01
11.250	20.500	9.7350e-02
11.250	20.750	8.3758e-02
11.250	21.000	7.2325e-02
11.250	21.250	6.0328e-02
11.250	21.500	4.0296e-02
11.250	21.750	2.8308e-02
11.250	22.000	2.1468e-02
11.250	22.250	1.7977e-02
11.250	22.500	1.6020e-02
11.250	22.750	1.4909e-02
11.250	23.000	1.4423e-02
11.250	23.250	1.4170e-02
11.250	23.500	1.4028e-02
11.250	23.750	1.3969e-02
11.250	24.000	1.3944e-02
11.500	17.000	2.3989e-02
11.500	17.250	2.5114e-02
11.500	17.500	2.6464e-02
11.500	17.750	2.8363e-02
11.500	18.000	3.1311e-02
11.500	18.250	3.5846e-02
11.500	18.500	4.2250e-02
11.500	18.750	5.0051e-02
11.500	19.000	5.8297e-02
11.500	19.250	6.5730e-02
11.500	19.500	7.2575e-02
11.500	19.750	7.9463e-02
11.500	20.000	8.6819e-02
11.500	20.250	9.5016e-02
11.500	20.500	1.0353e-01
11.500	20.750	1.0106e-01
11.500	21.000	8.8092e-02
11.500	21.250	7.6675e-02
11.500	21.500	6.0492e-02
11.500	21.750	4.0267e-02
11.500	22.000	2.8297e-02
11.500	22.250	2.1476e-02
11.500	22.500	1.7982e-02
11.500	22.750	1.6022e-02
11.500	23.000	1.4908e-02
11.500	23.250	1.4423e-02
11.500	23.500	1.4170e-02
11.500	23.750	1.4028e-02
11.500	24.000	1.3969e-02
11.750	17.000	2.3773e-02
11.750	17.250	2.4306e-02
11.750	17.500	2.4766e-02
11.750	17.750	2.5321e-02
11.750	18.000	2.6462e-02
11.750	18.250	2.9225e-02
11.750	18.500	3.4154e-02
11.750	18.750	4.1250e-02
11.750	19.000	4.9654e-02
11.750	19.250	5.8010e-02
11.750	19.500	6.5433e-02
11.750	19.750	7.2612e-02
11.750	20.000	8.0201e-02
11.750	20.250	8.8391e-02
11.750	20.500	9.7664e-02
11.750	20.750	1.0537e-01
11.750	21.000	1.0687e-01
11.750	21.250	9.5696e-02
11.750	21.500	8.3460e-02
11.750	21.750	6.0601e-02
11.750	22.000	4.0214e-02
11.750	22.250	2.8270e-02
11.750	22.500	2.1485e-02
11.750	22.750	1.7988e-02
11.750	23.000	1.6024e-02
11.750	23.250	1.4908e-02
11.750	23.500	1.4423e-02
11.750	23.750	1.4170e-02
11.750	24.000	1.4029e-02
12.000	17.000	2.3671e-02
12.000	17.250	2.3551e-02
12.000	17.500	2.3205e-02
12.000	17.750	2.2887e-02
12.000	18.000	2.3149e-02
12.000	18.250	2.4631e-02
12.000	18.500	2.8094e-02
12.000	18.750	3.3732e-02
12.000	19.000	4.1335e-02
12.000	19.250	5.0056e-02
12.000	19.500	5.8487e-02
12.000	19.750	6.6090e-02
12.000	20.000	7.3869e-02
12.000	20.250	8.2361e-02
12.000	20.500	9.1577e-02
12.000	20.750	1.0211e-01
12.000	21.000	1.1132e-01
12.000	21.250	1.1589e-01
12.000	21.500	1.0619e-01
12.000	21.750	9.1735e-02
12.000	22.000	6.0671e-02
12.000	22.250	4.0136e-02
12.000	22.500	2.8223e-02
12.000	22.750	2.1493e-02
12.000	23.000	1.7995e-02
12.000	23.250	1.6027e-02
12.000	23.500	1.4907e-02
12.000	23.750	1.4422e-02
12.000	24.000	1.4171e-02
12.250	17.000	2.3468e-02
12.250	17.250	2.2638e-02
12.250	17.500	2.1575e-02
12.250	17.750	2.0768e-02
12.250	18.000	2.0682e-02
12.250	18.250	2.1761e-02
12.250	18.500	2.4397e-02
12.250	18.750	2.8596e-02
12.250	19.000	3.4596e-02
12.250	19.250	4.2562e-02
12.250	19.500	5.1515e-02
12.250	19.750	6.0143e-02
12.250	20.000	6.8152e-02
12.250	20.250	7.6758e-02
12.250	20.500	8.6340e-02
12.250	20.750	9.7373e-02
12.250	21.000	1.1101e-01
12.250	21.250	1.2344e-01
12.250	21.500	1.2839e-01
12.250	21.750	1.1916e-01
12.250	22.000	9.5792e-02
12.250	22.250	6.0651e-02
12.250	22.500	4.0030e-02
12.250	22.750	2.8156e-02
12.250	23.000	2.1497e-02
12.250	23.250	1.8001e-02
12.250	23.500	1.6029e-02
12.250	23.750	1.4906e-02
12.250	24.000	1.4422e-02
12.500	17.000	2.2654e-02
12.500	17.250	2.1243e-02
12.500	17.500	1.9767e-02
12.500	17.750	1.8751e-02
12.500	18.000	1.8636e-02
12.500	18.250	1.9824e-02
12.500	18.500	2.2281e-02
12.500	18.750	2.5857e-02
12.500	19.000	3.0575e-02
12.500	19.250	3.6880e-02
12.500	19.500	4.5141e-02
12.500	19.750	5.4385e-02
12.500	20.000	6.3358e-02
12.500	20.250	7.2017e-02
12.500	20.500	8.1703e-02
12.500	20.750	9.3561e-02
12.500	21.000	1.0929e-01
12.500	21.250	1.2742e-01
12.500	21.500	1.3976e-01
12.500	21.750	1.4511e-01
12.500	22.000	1.3292e-01
12.500	22.250	9.6260e-02
12.500	22.500	6.0566e-02
12.500	22.750	3.9890e-02
12.500	23.000	2.8071e-02
12.500	23.250	2.1497e-02
12.500	23.500	1.8006e-02
12.500	23.750	1.6032e-02
12.500	24.000	1.4905e-02
12.750	17.000	2.0525e-02
12.750	17.250	1.9156e-02
12.750	17.500	1.7691e-02
12.750	17.750	1.6806e-02
12.750	18.000	1.6978e-02
12.750	18.250	1.8312e-02
12.750	18.500	2.0812e-02
12.750	18.750	2.4375e-02
12.750	19.000	2.8673e-02
12.750	19.250	3.3861e-02
12.750	19.500	4.0562e-02
12.750	19.750	4.9176e-02
12.750	20.000	5.8662e-02
12.750	20.250	6.8664e-02
12.750	20.500	7.8116e-02
12.750	20.750	9.0237e-02
12.750	21.000	1.0617e-01
12.750	21.250	1.2959e-01
12.750	21.500	1.4854e-01
12.750	21.750	1.6043e-01
12.750	22.000	1.6499e-01
12.750	22.250	1.4456e-01
12.750	22.500	9.6467e-02
12.750	22.750	6.0439e-02
12.750	23.000	3.9721e-02
12.750	23.250	2.7973e-02
12.750	23.500	2.1489e-02
12.750	23.750	1.8009e-02
12.750	24.000	1.6034e-02
13.000	17.000	8.6621e-03
13.000	17.250	1.0642e-02
13.000	17.500	1.5621e-02
13.000	17.750	1.5163e-02
13.000	18.000	1.5584e-02
13.000	18.250	1.7046e-02
13.000	18.500	1.9596e-02
13.000	18.750	2.3193e-02
13.000	19.000	2.7664e-02
13.000	19.250	3.2702e-02
13.000	19.500	3.8500e-02
13.000	19.750	4.5719e-02
13.000	20.000	5.4587e-02
13.000	20.250	6.4828e-02
13.000	20.500	7.6273e-02
13.000	20.750	8.8295e-02
13.000	21.000	1.0496e-01
13.000	21.250	1.2724e-01
13.000	21.500	1.5215e-01
13.000	21.750	1.7632e-01
13.000	22.000	1.8983e-01
13.000	22.250	1.8465e-01
13.000	22.500	1.5116e-01
13.000	22.750	9.6575e-02
13.000	23.000	6.0304e-02
13.000	23.250	3.9544e-02
13.000	23.500	2.7864e-02
13.000	23.750	2.1471e-02
13.000	24.000	1.8009e-02
13.250	17.000	5.8110e-03
13.250	17.250	7.1006e-03
13.250	17.500	1.0531e-02
13.250	17.750	1.3448e-02
13.250	18.000	1.4468e-02
13.250	18.250	1.5978e-02
13.250	18.500	1.8512e-02
13.250	18.750	2.2108e-02
13.250	19.000	2.6654e-02
13.250	19.250	3.1897e-02
13.250	19.500	3.7751e-02
13.250	19.750	4.4357e-02
13.250	20.000	5.2292e-02
13.250	20.250	6.1755e-02
13.250	20.500	7.3163e-02
13.250	20.750	8.6637e-02
13.250	21.000	1.0354e-01
13.250	21.250	1.2345e-01
13.250	21.500	1.4720e-01
13.250	21.750	1.7399e-01
13.250	22.000	2.0703e-01
13.250	22.250	2.0438e-01
13.250	22.500	1.9597e-01
13.250	22.750	1.5306e-01
13.250	23.000	9.6561e-02
13.250	23.250	6.0078e-02
13.250	23.500	3.9341e-02
13.250	23.750	2.7757e-02
13.250	24.000	2.1447e-02
13.500	17.000	3.9978e-03
13.500	17.250	4.9972e-03
13.500	17.500	7.0877e-03
13.500	17.750	1.0154e-02
13.500	18.000	1.3456e-02
13.500	18.250	1.5032e-02
13.500	18.500	1.7533e-02
13.500	18.750	2.1082e-02
13.500	19.000	2.5653e-02
13.500	19.250	3.1051e-02
13.500	19.500	3.7101e-02
13.500	19.750	4.3852e-02
13.500	20.000	5.1674e-02
13.500	20.250	6.1200e-02
13.500	20.500	7.1504e-02
13.500	20.750	8.3646e-02
13.500	21.000	9.7838e-02
13.500	21.250	1.1694e-01
13.500	21.500	1.3271e-01
13.500	21.750	1.5986e-01
13.500	22.000	1.9289e-01
13.500	22.250	2.2457e-01
13.500	22.500	2.1558e-01
13.500	22.750	2.0163e-01
13.500	23.000	1.5298e-01
13.500	23.250	9.6378e-02
13.500	23.500	5.9813e-02
13.500	23.750	3.9097e-02
13.500	24.000	2.7647e-02
13.750	17.000	2.8646e-03
13.750	17.250	3.6199e-03
13.750	17.500	5.1148e-03
13.750	17.750	7.4624e-03
13.750	18.000	1.1014e-02
13.750	18.250	1.3739e-02
13.750	18.500	1.6636e-02
13.750	18.750	2.0090e-02
13.750	19.000	2.4645e-02
13.750	19.250	3.0210e-02
13.750	19.500	3.6554e-02
13.750	19.750	4.3631e-02
13.750	20.000	5.1710e-02
13.750	20.250	6.1108e-02
13.750	20.500	7.2012e-02
13.750	20.750	8.4071e-02
13.750	21.000	9.7259e-02
13.750	21.250	1.1184e-01
13.750	21.500	1.2765e-01
13.750	21.750	1.4853e-01
13.750	22.000	1.7790e-01
13.750	22.250	2.2004e-01
13.750	22.500	2.4729e-01
13.750	22.750	2.2718e-01
13.750	23.000	2.0220e-01
13.750	23.250	1.5333e-01
13.750	23.500	9.6121e-02
13.750	23.750	5.9487e-02
13.750	24.000	3.8843e-02
14.000	17.000	2.1367e-03
14.000	17.250	2.6974e-03
14.000	17.500	3.8307e-03
14.000	17.750	5.5551e-03
14.000	18.000	8.6281e-03
14.000	18.250	1.2545e-02
14.000	18.500	1.5903e-02
14.000	18.750	1.9216e-02
14.000	19.000	2.3665e-02
14.000	19.250	2.9310e-02
14.000	19.500	3.5994e-02
14.000	19.750	4.3565e-02
14.000	20.000	5.1974e-02
14.000	20.250	6.1648e-02
14.000	20.500	7.2973e-02
14.000	20.750	8.5733e-02
14.000	21.000	9.9745e-02
14.000	21.250	1.1521e-01
14.000	21.500	1.2933e-01
14.000	21.750	1.4878e-01
14.000	22.000	1.7459e-01
14.000	22.250	2.1264e-01
14.000	22.500	2.6755e-01
14.000	22.750	2.8256e-01
14.000	23.000	2.5072e-01
14.000	23.250	2.0804e-01
14.000	23.500	1.5525e-01
14.000	23.750	9.5687e-02
14.000	24.000	5.9081e-02
