InwT 10000.0A  relative to Inci 1215.00A scaled to 1215A.
Hden   Phi(H)  Eq_Width (A)
 7.000	17.000	9.8213e-03
 7.000	17.250	6.2618e-03
 7.000	17.500	4.4012e-03
 7.000	17.750	3.4507e-03
 7.000	18.000	2.9900e-03
 7.000	18.250	2.7390e-03
 7.000	18.500	2.5977e-03
 7.000	18.750	2.5372e-03
 7.000	19.000	2.5064e-03
 7.000	19.250	2.4896e-03
 7.000	19.500	2.4831e-03
 7.000	19.750	2.4805e-03
 7.000	20.000	2.4794e-03
 7.000	20.250	2.4789e-03
 7.000	20.500	2.4787e-03
 7.000	20.750	2.4786e-03
 7.000	21.000	2.4785e-03
 7.000	21.250	2.4784e-03
 7.000	21.500	2.4784e-03
 7.000	21.750	2.4784e-03
 7.000	22.000	2.4784e-03
 7.000	22.250	2.4784e-03
 7.000	22.500	2.4784e-03
 7.000	22.750	2.4787e-03
 7.000	23.000	2.4787e-03
 7.000	23.250	2.4784e-03
 7.000	23.500	2.4787e-03
 7.000	23.750	2.4787e-03
 7.000	24.000	2.4788e-03
 7.250	17.000	1.5045e-02
 7.250	17.250	9.8121e-03
 7.250	17.500	6.2579e-03
 7.250	17.750	4.3988e-03
 7.250	18.000	3.4500e-03
 7.250	18.250	2.9898e-03
 7.250	18.500	2.7389e-03
 7.250	18.750	2.5977e-03
 7.250	19.000	2.5372e-03
 7.250	19.250	2.5064e-03
 7.250	19.500	2.4896e-03
 7.250	19.750	2.4831e-03
 7.250	20.000	2.4805e-03
 7.250	20.250	2.4794e-03
 7.250	20.500	2.4789e-03
 7.250	20.750	2.4787e-03
 7.250	21.000	2.4785e-03
 7.250	21.250	2.4785e-03
 7.250	21.500	2.4784e-03
 7.250	21.750	2.4784e-03
 7.250	22.000	2.4784e-03
 7.250	22.250	2.4784e-03
 7.250	22.500	2.4784e-03
 7.250	22.750	2.4784e-03
 7.250	23.000	2.4784e-03
 7.250	23.250	2.4784e-03
 7.250	23.500	2.4784e-03
 7.250	23.750	2.4784e-03
 7.250	24.000	2.4784e-03
 7.500	17.000	2.2623e-02
 7.500	17.250	1.5027e-02
 7.500	17.500	9.8051e-03
 7.500	17.750	6.2548e-03
 7.500	18.000	4.3961e-03
 7.500	18.250	3.4490e-03
 7.500	18.500	2.9895e-03
 7.500	18.750	2.7389e-03
 7.500	19.000	2.5977e-03
 7.500	19.250	2.5372e-03
 7.500	19.500	2.5064e-03
 7.500	19.750	2.4896e-03
 7.500	20.000	2.4831e-03
 7.500	20.250	2.4805e-03
 7.500	20.500	2.4794e-03
 7.500	20.750	2.4789e-03
 7.500	21.000	2.4787e-03
 7.500	21.250	2.4785e-03
 7.500	21.500	2.4784e-03
 7.500	21.750	2.4784e-03
 7.500	22.000	2.4784e-03
 7.500	22.250	2.4784e-03
 7.500	22.500	2.4784e-03
 7.500	22.750	2.4784e-03
 7.500	23.000	2.4784e-03
 7.500	23.250	2.4784e-03
 7.500	23.500	2.4787e-03
 7.500	23.750	2.4784e-03
 7.500	24.000	2.4784e-03
 7.750	17.000	2.4360e-02
 7.750	17.250	2.2671e-02
 7.750	17.500	1.5014e-02
 7.750	17.750	9.8007e-03
 7.750	18.000	6.2523e-03
 7.750	18.250	4.3933e-03
 7.750	18.500	3.4477e-03
 7.750	18.750	2.9892e-03
 7.750	19.000	2.7388e-03
 7.750	19.250	2.5977e-03
 7.750	19.500	2.5372e-03
 7.750	19.750	2.5064e-03
 7.750	20.000	2.4896e-03
 7.750	20.250	2.4831e-03
 7.750	20.500	2.4805e-03
 7.750	20.750	2.4794e-03
 7.750	21.000	2.4789e-03
 7.750	21.250	2.4787e-03
 7.750	21.500	2.4785e-03
 7.750	21.750	2.4784e-03
 7.750	22.000	2.4784e-03
 7.750	22.250	2.4784e-03
 7.750	22.500	2.4784e-03
 7.750	22.750	2.4784e-03
 7.750	23.000	2.4784e-03
 7.750	23.250	2.4784e-03
 7.750	23.500	2.4784e-03
 7.750	23.750	2.4784e-03
 7.750	24.000	2.4784e-03
 8.000	17.000	2.5235e-02
 8.000	17.250	2.4175e-02
 8.000	17.500	2.2463e-02
 8.000	17.750	1.4990e-02
 8.000	18.000	9.7974e-03
 8.000	18.250	6.2503e-03
 8.000	18.500	4.3902e-03
 8.000	18.750	3.4463e-03
 8.000	19.000	2.9888e-03
 8.000	19.250	2.7388e-03
 8.000	19.500	2.5977e-03
 8.000	19.750	2.5372e-03
 8.000	20.000	2.5064e-03
 8.000	20.250	2.4896e-03
 8.000	20.500	2.4831e-03
 8.000	20.750	2.4805e-03
 8.000	21.000	2.4794e-03
 8.000	21.250	2.4789e-03
 8.000	21.500	2.4787e-03
 8.000	21.750	2.4785e-03
 8.000	22.000	2.4784e-03
 8.000	22.250	2.4784e-03
 8.000	22.500	2.4784e-03
 8.000	22.750	2.4784e-03
 8.000	23.000	2.4784e-03
 8.000	23.250	2.4784e-03
 8.000	23.500	2.4784e-03
 8.000	23.750	2.4784e-03
 8.000	24.000	2.4784e-03
 8.250	17.000	2.6069e-02
 8.250	17.250	2.5473e-02
 8.250	17.500	2.4306e-02
 8.250	17.750	2.2486e-02
 8.250	18.000	1.4986e-02
 8.250	18.250	9.7969e-03
 8.250	18.500	6.2485e-03
 8.250	18.750	4.3868e-03
 8.250	19.000	3.4447e-03
 8.250	19.250	2.9883e-03
 8.250	19.500	2.7388e-03
 8.250	19.750	2.5976e-03
 8.250	20.000	2.5372e-03
 8.250	20.250	2.5064e-03
 8.250	20.500	2.4896e-03
 8.250	20.750	2.4831e-03
 8.250	21.000	2.4805e-03
 8.250	21.250	2.4794e-03
 8.250	21.500	2.4789e-03
 8.250	21.750	2.4787e-03
 8.250	22.000	2.4785e-03
 8.250	22.250	2.4784e-03
 8.250	22.500	2.4784e-03
 8.250	22.750	2.4785e-03
 8.250	23.000	2.4784e-03
 8.250	23.250	2.4784e-03
 8.250	23.500	2.4785e-03
 8.250	23.750	2.4784e-03
 8.250	24.000	2.4784e-03
 8.500	17.000	2.6777e-02
 8.500	17.250	2.6389e-02
 8.500	17.500	2.5772e-02
 8.500	17.750	2.4483e-02
 8.500	18.000	2.2531e-02
 8.500	18.250	1.4984e-02
 8.500	18.500	9.7979e-03
 8.500	18.750	6.2469e-03
 8.500	19.000	4.3830e-03
 8.500	19.250	3.4429e-03
 8.500	19.500	2.9878e-03
 8.500	19.750	2.7386e-03
 8.500	20.000	2.5976e-03
 8.500	20.250	2.5372e-03
 8.500	20.500	2.5064e-03
 8.500	20.750	2.4896e-03
 8.500	21.000	2.4831e-03
 8.500	21.250	2.4805e-03
 8.500	21.500	2.4794e-03
 8.500	21.750	2.4789e-03
 8.500	22.000	2.4787e-03
 8.500	22.250	2.4785e-03
 8.500	22.500	2.4784e-03
 8.500	22.750	2.4784e-03
 8.500	23.000	2.4784e-03
 8.500	23.250	2.4784e-03
 8.500	23.500	2.4784e-03
 8.500	23.750	2.4784e-03
 8.500	24.000	2.4784e-03
 8.750	17.000	2.7372e-02
 8.750	17.250	2.7181e-02
 8.750	17.500	2.6862e-02
 8.750	17.750	2.6274e-02
 8.750	18.000	2.4856e-02
 8.750	18.250	2.2681e-02
 8.750	18.500	1.4984e-02
 8.750	18.750	9.8004e-03
 8.750	19.000	6.2454e-03
 8.750	19.250	4.3789e-03
 8.750	19.500	3.4409e-03
 8.750	19.750	2.9872e-03
 8.750	20.000	2.7385e-03
 8.750	20.250	2.5976e-03
 8.750	20.500	2.5372e-03
 8.750	20.750	2.5064e-03
 8.750	21.000	2.4896e-03
 8.750	21.250	2.4831e-03
 8.750	21.500	2.4805e-03
 8.750	21.750	2.4794e-03
 8.750	22.000	2.4789e-03
 8.750	22.250	2.4787e-03
 8.750	22.500	2.4785e-03
 8.750	22.750	2.4784e-03
 8.750	23.000	2.4784e-03
 8.750	23.250	2.4784e-03
 8.750	23.500	2.4784e-03
 8.750	23.750	2.4784e-03
 8.750	24.000	2.4784e-03
 9.000	17.000	2.7839e-02
 9.000	17.250	2.7877e-02
 9.000	17.500	2.7866e-02
 9.000	17.750	2.7759e-02
 9.000	18.000	2.7221e-02
 9.000	18.250	2.5658e-02
 9.000	18.500	2.2988e-02
 9.000	18.750	1.4982e-02
 9.000	19.000	9.8041e-03
 9.000	19.250	6.2448e-03
 9.000	19.500	4.3748e-03
 9.000	19.750	3.4388e-03
 9.000	20.000	2.9867e-03
 9.000	20.250	2.7384e-03
 9.000	20.500	2.5975e-03
 9.000	20.750	2.5372e-03
 9.000	21.000	2.5064e-03
 9.000	21.250	2.4896e-03
 9.000	21.500	2.4831e-03
 9.000	21.750	2.4805e-03
 9.000	22.000	2.4794e-03
 9.000	22.250	2.4789e-03
 9.000	22.500	2.4787e-03
 9.000	22.750	2.4785e-03
 9.000	23.000	2.4784e-03
 9.000	23.250	2.4784e-03
 9.000	23.500	2.4784e-03
 9.000	23.750	2.4784e-03
 9.000	24.000	2.4784e-03
 9.250	17.000	2.8170e-02
 9.250	17.250	2.8440e-02
 9.250	17.500	2.8828e-02
 9.250	17.750	2.9306e-02
 9.250	18.000	2.9610e-02
 9.250	18.250	2.9222e-02
 9.250	18.500	2.7365e-02
 9.250	18.750	2.3753e-02
 9.250	19.000	1.4978e-02
 9.250	19.250	9.8093e-03
 9.250	19.500	6.2450e-03
 9.250	19.750	4.3712e-03
 9.250	20.000	3.4368e-03
 9.250	20.250	2.9862e-03
 9.250	20.500	2.7384e-03
 9.250	20.750	2.5975e-03
 9.250	21.000	2.5372e-03
 9.250	21.250	2.5064e-03
 9.250	21.500	2.4894e-03
 9.250	21.750	2.4828e-03
 9.250	22.000	2.4802e-03
 9.250	22.250	2.4792e-03
 9.250	22.500	2.4788e-03
 9.250	22.750	2.4785e-03
 9.250	23.000	2.4785e-03
 9.250	23.250	2.4784e-03
 9.250	23.500	2.4784e-03
 9.250	23.750	2.4784e-03
 9.250	24.000	2.4784e-03
 9.500	17.000	2.8451e-02
 9.500	17.250	2.8969e-02
 9.500	17.500	2.9763e-02
 9.500	17.750	3.0933e-02
 9.500	18.000	3.2279e-02
 9.500	18.250	3.3383e-02
 9.500	18.500	3.3120e-02
 9.500	18.750	3.0683e-02
 9.500	19.000	2.3803e-02
 9.500	19.250	1.4968e-02
 9.500	19.500	9.8147e-03
 9.500	19.750	6.2464e-03
 9.500	20.000	4.3685e-03
 9.500	20.250	3.4351e-03
 9.500	20.500	2.9858e-03
 9.500	20.750	2.7381e-03
 9.500	21.000	2.5973e-03
 9.500	21.250	2.5370e-03
 9.500	21.500	2.5062e-03
 9.500	21.750	2.4892e-03
 9.500	22.000	2.4827e-03
 9.500	22.250	2.4801e-03
 9.500	22.500	2.4790e-03
 9.500	22.750	2.4784e-03
 9.500	23.000	2.4782e-03
 9.500	23.250	2.4781e-03
 9.500	23.500	2.4780e-03
 9.500	23.750	2.4779e-03
 9.500	24.000	2.4779e-03
 9.750	17.000	2.8637e-02
 9.750	17.250	2.9391e-02
 9.750	17.500	3.0651e-02
 9.750	17.750	3.2665e-02
 9.750	18.000	3.5506e-02
 9.750	18.250	3.8299e-02
 9.750	18.500	3.9791e-02
 9.750	18.750	3.8738e-02
 9.750	19.000	3.5279e-02
 9.750	19.250	2.3850e-02
 9.750	19.500	1.4955e-02
 9.750	19.750	9.8202e-03
 9.750	20.000	6.2489e-03
 9.750	20.250	4.3670e-03
 9.750	20.500	3.4337e-03
 9.750	20.750	2.9853e-03
 9.750	21.000	2.7381e-03
 9.750	21.250	2.5972e-03
 9.750	21.500	2.5370e-03
 9.750	21.750	2.5062e-03
 9.750	22.000	2.4893e-03
 9.750	22.250	2.4827e-03
 9.750	22.500	2.4801e-03
 9.750	22.750	2.4790e-03
 9.750	23.000	2.4785e-03
 9.750	23.250	2.4783e-03
 9.750	23.500	2.4781e-03
 9.750	23.750	2.4780e-03
 9.750	24.000	2.4780e-03
10.000	17.000	2.8707e-02
10.000	17.250	2.9831e-02
10.000	17.500	3.1642e-02
10.000	17.750	3.4689e-02
10.000	18.000	3.9330e-02
10.000	18.250	4.3956e-02
10.000	18.500	4.7158e-02
10.000	18.750	4.7771e-02
10.000	19.000	4.5613e-02
10.000	19.250	3.8042e-02
10.000	19.500	2.3862e-02
10.000	19.750	1.4924e-02
10.000	20.000	9.8221e-03
10.000	20.250	6.2517e-03
10.000	20.500	4.3663e-03
10.000	20.750	3.4326e-03
10.000	21.000	2.9852e-03
10.000	21.250	2.7381e-03
10.000	21.500	2.5972e-03
10.000	21.750	2.5370e-03
10.000	22.000	2.5062e-03
10.000	22.250	2.4893e-03
10.000	22.500	2.4827e-03
10.000	22.750	2.4801e-03
10.000	23.000	2.4790e-03
10.000	23.250	2.4784e-03
10.000	23.500	2.4782e-03
10.000	23.750	2.4781e-03
10.000	24.000	2.4780e-03
10.250	17.000	2.9089e-02
10.250	17.250	3.0331e-02
10.250	17.500	3.2949e-02
10.250	17.750	3.7371e-02
10.250	18.000	4.3824e-02
10.250	18.250	5.0204e-02
10.250	18.500	5.4882e-02
10.250	18.750	5.7258e-02
10.250	19.000	5.6636e-02
10.250	19.250	5.3071e-02
10.250	19.500	4.0018e-02
10.250	19.750	2.3829e-02
10.250	20.000	1.4893e-02
10.250	20.250	9.8207e-03
10.250	20.500	6.2544e-03
10.250	20.750	4.3665e-03
10.250	21.000	3.4319e-03
10.250	21.250	2.9851e-03
10.250	21.500	2.7380e-03
10.250	21.750	2.5973e-03
10.250	22.000	2.5370e-03
10.250	22.250	2.5062e-03
10.250	22.500	2.4894e-03
10.250	22.750	2.4827e-03
10.250	23.000	2.4801e-03
10.250	23.250	2.4790e-03
10.250	23.500	2.4785e-03
10.250	23.750	2.4783e-03
10.250	24.000	2.4781e-03
10.500	17.000	3.0005e-02
10.500	17.250	3.1413e-02
10.500	17.500	3.4832e-02
10.500	17.750	4.1037e-02
10.500	18.000	4.9176e-02
10.500	18.250	5.7097e-02
10.500	18.500	6.2709e-02
10.500	18.750	6.6224e-02
10.500	19.000	6.7196e-02
10.500	19.250	6.5171e-02
10.500	19.500	5.9340e-02
10.500	19.750	3.9950e-02
10.500	20.000	2.3719e-02
10.500	20.250	1.4828e-02
10.500	20.500	9.8044e-03
10.500	20.750	6.2555e-03
10.500	21.000	4.3673e-03
10.500	21.250	3.4317e-03
10.500	21.500	2.9853e-03
10.500	21.750	2.7380e-03
10.500	22.000	2.5973e-03
10.500	22.250	2.5371e-03
10.500	22.500	2.5063e-03
10.500	22.750	2.4894e-03
10.500	23.000	2.4828e-03
10.500	23.250	2.4801e-03
10.500	23.500	2.4790e-03
10.500	23.750	2.4785e-03
10.500	24.000	2.4783e-03
10.750	17.000	3.1590e-02
10.750	17.250	3.3191e-02
10.750	17.500	3.7802e-02
10.750	17.750	4.5718e-02
10.750	18.000	5.5293e-02
10.750	18.250	6.3966e-02
10.750	18.500	7.0458e-02
10.750	18.750	7.5014e-02
10.750	19.000	7.6961e-02
10.750	19.250	7.6478e-02
10.750	19.500	7.3122e-02
10.750	19.750	6.5156e-02
10.750	20.000	3.9879e-02
10.750	20.250	2.3472e-02
10.750	20.500	1.4725e-02
10.750	20.750	9.7695e-03
10.750	21.000	6.2520e-03
10.750	21.250	4.3684e-03
10.750	21.500	3.4319e-03
10.750	21.750	2.9855e-03
10.750	22.000	2.7380e-03
10.750	22.250	2.5973e-03
10.750	22.500	2.5371e-03
10.750	22.750	2.5063e-03
10.750	23.000	2.4894e-03
10.750	23.250	2.4828e-03
10.750	23.500	2.4802e-03
10.750	23.750	2.4790e-03
10.750	24.000	2.4785e-03
11.000	17.000	3.3945e-02
11.000	17.250	3.5731e-02
11.000	17.500	4.1614e-02
11.000	17.750	5.1168e-02
11.000	18.000	6.1601e-02
11.000	18.250	7.0794e-02
11.000	18.500	7.8137e-02
11.000	18.750	8.3320e-02
11.000	19.000	8.6211e-02
11.000	19.250	8.6932e-02
11.000	19.500	8.5360e-02
11.000	19.750	8.1143e-02
11.000	20.000	6.9521e-02
11.000	20.250	3.9554e-02
11.000	20.500	2.3362e-02
11.000	20.750	1.4627e-02
11.000	21.000	9.7114e-03
11.000	21.250	6.2395e-03
11.000	21.500	4.3695e-03
11.000	21.750	3.4323e-03
11.000	22.000	2.9859e-03
11.000	22.250	2.7380e-03
11.000	22.500	2.5972e-03
11.000	22.750	2.5371e-03
11.000	23.000	2.5064e-03
11.000	23.250	2.4894e-03
11.000	23.500	2.4829e-03
11.000	23.750	2.4802e-03
11.000	24.000	2.4791e-03
11.250	17.000	3.7236e-02
11.250	17.250	3.8947e-02
11.250	17.500	4.5860e-02
11.250	17.750	5.6705e-02
11.250	18.000	6.7904e-02
11.250	18.250	7.7424e-02
11.250	18.500	8.4957e-02
11.250	18.750	9.1023e-02
11.250	19.000	9.4662e-02
11.250	19.250	9.6596e-02
11.250	19.500	9.6323e-02
11.250	19.750	9.3855e-02
11.250	20.000	8.8815e-02
11.250	20.250	7.0177e-02
11.250	20.500	3.9366e-02
11.250	20.750	2.3130e-02
11.250	21.000	1.4546e-02
11.250	21.250	9.6258e-03
11.250	21.500	6.2164e-03
11.250	21.750	4.3687e-03
11.250	22.000	3.4330e-03
11.250	22.250	2.9863e-03
11.250	22.500	2.7380e-03
11.250	22.750	2.5970e-03
11.250	23.000	2.5371e-03
11.250	23.250	2.5064e-03
11.250	23.500	2.4895e-03
11.250	23.750	2.4829e-03
11.250	24.000	2.4802e-03
11.500	17.000	4.1866e-02
11.500	17.250	4.3116e-02
11.500	17.500	5.0411e-02
11.500	17.750	6.1997e-02
11.500	18.000	7.3800e-02
11.500	18.250	8.3544e-02
11.500	18.500	9.1501e-02
11.500	18.750	9.8056e-02
11.500	19.000	1.0265e-01
11.500	19.250	1.0521e-01
11.500	19.500	1.0569e-01
11.500	19.750	1.0467e-01
11.500	20.000	1.0172e-01
11.500	20.250	9.6248e-02
11.500	20.500	7.0384e-02
11.500	20.750	3.9076e-02
11.500	21.000	2.2977e-02
11.500	21.250	1.4557e-02
11.500	21.500	9.5272e-03
11.500	21.750	6.1779e-03
11.500	22.000	4.3648e-03
11.500	22.250	3.4337e-03
11.500	22.500	2.9867e-03
11.500	22.750	2.7380e-03
11.500	23.000	2.5970e-03
11.500	23.250	2.5370e-03
11.500	23.500	2.5064e-03
11.500	23.750	2.4895e-03
11.500	24.000	2.4829e-03
11.750	17.000	4.8353e-02
11.750	17.250	4.8489e-02
11.750	17.500	5.5412e-02
11.750	17.750	6.7067e-02
11.750	18.000	7.8995e-02
11.750	18.250	8.9155e-02
11.750	18.500	9.7675e-02
11.750	18.750	1.0446e-01
11.750	19.000	1.0987e-01
11.750	19.250	1.1305e-01
11.750	19.500	1.1446e-01
11.750	19.750	1.1393e-01
11.750	20.000	1.1228e-01
11.750	20.250	1.0891e-01
11.750	20.500	1.0306e-01
11.750	20.750	7.0113e-02
11.750	21.000	3.8811e-02
11.750	21.250	2.2953e-02
11.750	21.500	1.4780e-02
11.750	21.750	9.4155e-03
11.750	22.000	6.1264e-03
11.750	22.250	4.3562e-03
11.750	22.500	3.4341e-03
11.750	22.750	2.9867e-03
11.750	23.000	2.7379e-03
11.750	23.250	2.5967e-03
11.750	23.500	2.5370e-03
11.750	23.750	2.5064e-03
11.750	24.000	2.4895e-03
12.000	17.000	5.7538e-02
12.000	17.250	5.5575e-02
12.000	17.500	6.1054e-02
12.000	17.750	7.1760e-02
12.000	18.000	8.3464e-02
12.000	18.250	9.4215e-02
12.000	18.500	1.0340e-01
12.000	18.750	1.1101e-01
12.000	19.000	1.1688e-01
12.000	19.250	1.2055e-01
12.000	19.500	1.2239e-01
12.000	19.750	1.2236e-01
12.000	20.000	1.2111e-01
12.000	20.250	1.1881e-01
12.000	20.500	1.1505e-01
12.000	20.750	1.0822e-01
12.000	21.000	6.9577e-02
12.000	21.250	3.8757e-02
12.000	21.500	2.3228e-02
12.000	21.750	1.5100e-02
12.000	22.000	9.2937e-03
12.000	22.250	6.0838e-03
12.000	22.500	4.3421e-03
12.000	22.750	3.4337e-03
12.000	23.000	2.9865e-03
12.000	23.250	2.7376e-03
12.000	23.500	2.5964e-03
12.000	23.750	2.5368e-03
12.000	24.000	2.5063e-03
12.250	17.000	7.0355e-02
12.250	17.250	6.4976e-02
12.250	17.500	6.7621e-02
12.250	17.750	7.6234e-02
12.250	18.000	8.7345e-02
12.250	18.250	9.8739e-02
12.250	18.500	1.0905e-01
12.250	18.750	1.1751e-01
12.250	19.000	1.2370e-01
12.250	19.250	1.2755e-01
12.250	19.500	1.2952e-01
12.250	19.750	1.2991e-01
12.250	20.000	1.2872e-01
12.250	20.250	1.2683e-01
12.250	20.500	1.2428e-01
12.250	20.750	1.2051e-01
12.250	21.000	1.1164e-01
12.250	21.250	6.8907e-02
12.250	21.500	3.9031e-02
12.250	21.750	2.3573e-02
12.250	22.000	1.5096e-02
12.250	22.250	9.1713e-03
12.250	22.500	6.0239e-03
12.250	22.750	4.3223e-03
12.250	23.000	3.4319e-03
12.250	23.250	2.9855e-03
12.250	23.500	2.7369e-03
12.250	23.750	2.5958e-03
12.250	24.000	2.5365e-03
12.500	17.000	8.6469e-02
12.500	17.250	7.6827e-02
12.500	17.500	7.5392e-02
12.500	17.750	8.1031e-02
12.500	18.000	9.1283e-02
12.500	18.250	1.0294e-01
12.500	18.500	1.1425e-01
12.500	18.750	1.2354e-01
12.500	19.000	1.3041e-01
12.500	19.250	1.3430e-01
12.500	19.500	1.3615e-01
12.500	19.750	1.3658e-01
12.500	20.000	1.3570e-01
12.500	20.250	1.3378e-01
12.500	20.500	1.3150e-01
12.500	20.750	1.2891e-01
12.500	21.000	1.2531e-01
12.500	21.250	1.1656e-01
12.500	21.500	6.8635e-02
12.500	21.750	3.9054e-02
12.500	22.000	2.4025e-02
12.500	22.250	1.4808e-02
12.500	22.500	9.0400e-03
12.500	22.750	5.9444e-03
12.500	23.000	4.2965e-03
12.500	23.250	3.4275e-03
12.500	23.500	2.9832e-03
12.500	23.750	2.7355e-03
12.500	24.000	2.5951e-03
12.750	17.000	9.9963e-02
12.750	17.250	8.8699e-02
12.750	17.500	8.4131e-02
12.750	17.750	8.7626e-02
12.750	18.000	9.6237e-02
12.750	18.250	1.0745e-01
12.750	18.500	1.1881e-01
12.750	18.750	1.2900e-01
12.750	19.000	1.3637e-01
12.750	19.250	1.4073e-01
12.750	19.500	1.4221e-01
12.750	19.750	1.4245e-01
12.750	20.000	1.4161e-01
12.750	20.250	1.4022e-01
12.750	20.500	1.3741e-01
12.750	20.750	1.3547e-01
12.750	21.000	1.3321e-01
12.750	21.250	1.3029e-01
12.750	21.500	1.1554e-01
12.750	21.750	6.7560e-02
12.750	22.000	3.9158e-02
12.750	22.250	2.4301e-02
12.750	22.500	1.4507e-02
12.750	22.750	8.8910e-03
12.750	23.000	5.8686e-03
12.750	23.250	4.2651e-03
12.750	23.500	3.4192e-03
12.750	23.750	2.9787e-03
12.750	24.000	2.7329e-03
13.000	17.000	6.4127e-02
13.000	17.250	7.4707e-02
13.000	17.500	9.5182e-02
13.000	17.750	9.7229e-02
13.000	18.000	1.0343e-01
13.000	18.250	1.1305e-01
13.000	18.500	1.2385e-01
13.000	18.750	1.3378e-01
13.000	19.000	1.4147e-01
13.000	19.250	1.4627e-01
13.000	19.500	1.4811e-01
13.000	19.750	1.4792e-01
13.000	20.000	1.4670e-01
13.000	20.250	1.4522e-01
13.000	20.500	1.4348e-01
13.000	20.750	1.4137e-01
13.000	21.000	1.3956e-01
13.000	21.250	1.3810e-01
13.000	21.500	1.3343e-01
13.000	21.750	1.1270e-01
13.000	22.000	6.6418e-02
13.000	22.250	3.8978e-02
13.000	22.500	2.4109e-02
13.000	22.750	1.4162e-02
13.000	23.000	8.6877e-03
13.000	23.250	5.8035e-03
13.000	23.500	4.2256e-03
13.000	23.750	3.4048e-03
13.000	24.000	2.9702e-03
13.250	17.000	6.4062e-02
13.250	17.250	7.3267e-02
13.250	17.500	9.4041e-02
13.250	17.750	1.0708e-01
13.250	18.000	1.1282e-01
13.250	18.250	1.2057e-01
13.250	18.500	1.3000e-01
13.250	18.750	1.3904e-01
13.250	19.000	1.4640e-01
13.250	19.250	1.5097e-01
13.250	19.500	1.5304e-01
13.250	19.750	1.5300e-01
13.250	20.000	1.5176e-01
13.250	20.250	1.5008e-01
13.250	20.500	1.4823e-01
13.250	20.750	1.4637e-01
13.250	21.000	1.4514e-01
13.250	21.250	1.4333e-01
13.250	21.500	1.4063e-01
13.250	21.750	1.3445e-01
13.250	22.000	1.0817e-01
13.250	22.250	6.3842e-02
13.250	22.500	3.8270e-02
13.250	22.750	2.3387e-02
13.250	23.000	1.3762e-02
13.250	23.250	8.4977e-03
13.250	23.500	5.7054e-03
13.250	23.750	4.1785e-03
13.250	24.000	3.3824e-03
13.500	17.000	6.3771e-02
13.500	17.250	7.3625e-02
13.500	17.500	9.1493e-02
13.500	17.750	1.0996e-01
13.500	18.000	1.2494e-01
13.500	18.250	1.3027e-01
13.500	18.500	1.3730e-01
13.500	18.750	1.4517e-01
13.500	19.000	1.5189e-01
13.500	19.250	1.5658e-01
13.500	19.500	1.5825e-01
13.500	19.750	1.5797e-01
13.500	20.000	1.5674e-01
13.500	20.250	1.5537e-01
13.500	20.500	1.5288e-01
13.500	20.750	1.5054e-01
13.500	21.000	1.4841e-01
13.500	21.250	1.4694e-01
13.500	21.500	1.4368e-01
13.500	21.750	1.4108e-01
13.500	22.000	1.3232e-01
13.500	22.250	1.0088e-01
13.500	22.500	6.0127e-02
13.500	22.750	3.6584e-02
13.500	23.000	2.2361e-02
13.500	23.250	1.3318e-02
13.500	23.500	8.2815e-03
13.500	23.750	5.5667e-03
13.500	24.000	4.1179e-03
13.750	17.000	6.3712e-02
13.750	17.250	7.3712e-02
13.750	17.500	9.1074e-02
13.750	17.750	1.1055e-01
13.750	18.000	1.3236e-01
13.750	18.250	1.4149e-01
13.750	18.500	1.4817e-01
13.750	18.750	1.5328e-01
13.750	19.000	1.5848e-01
13.750	19.250	1.6249e-01
13.750	19.500	1.6444e-01
13.750	19.750	1.6417e-01
13.750	20.000	1.6265e-01
13.750	20.250	1.6065e-01
13.750	20.500	1.5851e-01
13.750	20.750	1.5576e-01
13.750	21.000	1.5298e-01
13.750	21.250	1.5024e-01
13.750	21.500	1.4744e-01
13.750	21.750	1.4533e-01
13.750	22.000	1.4142e-01
13.750	22.250	1.2843e-01
13.750	22.500	9.2010e-02
13.750	22.750	5.5445e-02
13.750	23.000	3.4123e-02
13.750	23.250	2.1223e-02
13.750	23.500	1.2762e-02
13.750	23.750	8.0128e-03
13.750	24.000	5.4169e-03
14.000	17.000	6.3479e-02
14.000	17.250	7.2918e-02
14.000	17.500	9.0994e-02
14.000	17.750	1.0934e-01
14.000	18.000	1.3547e-01
14.000	18.250	1.5548e-01
14.000	18.500	1.6263e-01
14.000	18.750	1.6469e-01
14.000	19.000	1.6734e-01
14.000	19.250	1.7013e-01
14.000	19.500	1.7166e-01
14.000	19.750	1.7174e-01
14.000	20.000	1.7008e-01
14.000	20.250	1.6752e-01
14.000	20.500	1.6499e-01
14.000	20.750	1.6213e-01
14.000	21.000	1.5905e-01
14.000	21.250	1.5610e-01
14.000	21.500	1.5264e-01
14.000	21.750	1.5090e-01
14.000	22.000	1.4911e-01
14.000	22.250	1.4290e-01
14.000	22.500	1.2211e-01
14.000	22.750	8.2454e-02
14.000	23.000	5.1034e-02
14.000	23.250	3.1674e-02
14.000	23.500	1.9994e-02
14.000	23.750	1.2098e-02
14.000	24.000	7.6639e-03
