nFnu 511.948A  relative to Inci 1215.00A scaled to 1215A.
Hden   Phi(H)  Eq_Width (A)
7.000  17.000  3.9145e-02
7.000  17.250  9.5282e-02
7.000  17.500  1.2212e-01
7.000  17.750  1.0449e-01
7.000  18.000  7.8787e-02
7.000  18.250  5.9690e-02
7.000  18.500  4.8516e-02
7.000  18.750  4.4467e-02
7.000  19.000  4.2516e-02
7.000  19.250  4.1453e-02
7.000  19.500  4.0837e-02
7.000  19.750  4.0493e-02
7.000  20.000  4.0360e-02
7.000  20.250  4.0372e-02
7.000  20.500  4.0467e-02
7.000  20.750  4.0582e-02
7.000  21.000  4.0653e-02
7.000  21.250  4.0650e-02
7.000  21.500  4.0648e-02
7.000  21.750  4.0648e-02
7.000  22.000  4.0648e-02
7.000  22.250  4.0647e-02
7.000  22.500  4.0648e-02
7.000  22.750  4.0648e-02
7.000  23.000  4.0648e-02
7.000  23.250  4.0648e-02
7.000  23.500  4.0648e-02
7.000  23.750  4.0648e-02
7.000  24.000  4.0648e-02
7.250  17.000  2.3458e-02
7.250  17.250  3.8421e-02
7.250  17.500  9.3752e-02
7.250  17.750  1.2070e-01
7.250  18.000  1.0369e-01
7.250  18.250  7.8344e-02
7.250  18.500  5.9482e-02
7.250  18.750  4.8441e-02
7.250  19.000  4.4437e-02
7.250  19.250  4.2506e-02
7.250  19.500  4.1451e-02
7.250  19.750  4.0838e-02
7.250  20.000  4.0497e-02
7.250  20.250  4.0363e-02
7.250  20.500  4.0375e-02
7.250  20.750  4.0469e-02
7.250  21.000  4.0583e-02
7.250  21.250  4.0653e-02
7.250  21.500  4.0650e-02
7.250  21.750  4.0648e-02
7.250  22.000  4.0647e-02
7.250  22.250  4.0647e-02
7.250  22.500  4.0646e-02
7.250  22.750  4.0647e-02
7.250  23.000  4.0647e-02
7.250  23.250  4.0647e-02
7.250  23.500  4.0647e-02
7.250  23.750  4.0647e-02
7.250  24.000  4.0647e-02
7.500  17.000  1.4752e-02
7.500  17.250  2.3068e-02
7.500  17.500  3.8047e-02
7.500  17.750  9.3100e-02
7.500  18.000  1.1998e-01
7.500  18.250  1.0327e-01
7.500  18.500  7.8066e-02
7.500  18.750  5.9350e-02
7.500  19.000  4.8392e-02
7.500  19.250  4.4417e-02
7.500  19.500  4.2498e-02
7.500  19.750  4.1449e-02
7.500  20.000  4.0803e-02
7.500  20.250  4.0395e-02
7.500  20.500  4.0183e-02
7.500  20.750  4.0125e-02
7.500  21.000  4.0177e-02
7.500  21.250  4.0298e-02
7.500  21.500  4.0445e-02
7.500  21.750  4.0576e-02
7.500  22.000  4.0648e-02
7.500  22.250  4.0647e-02
7.500  22.500  4.0646e-02
7.500  22.750  4.0646e-02
7.500  23.000  4.0646e-02
7.500  23.250  4.0646e-02
7.500  23.500  4.0648e-02
7.500  23.750  4.0646e-02
7.500  24.000  4.0646e-02
7.750  17.000  9.6528e-03
7.750  17.250  1.4570e-02
7.750  17.500  2.2860e-02
7.750  17.750  3.7861e-02
7.750  18.000  9.2822e-02
7.750  18.250  1.1971e-01
7.750  18.500  1.0310e-01
7.750  18.750  7.7895e-02
7.750  19.000  5.9268e-02
7.750  19.250  4.8361e-02
7.750  19.500  4.4405e-02
7.750  19.750  4.2494e-02
7.750  20.000  4.1448e-02
7.750  20.250  4.1007e-02
7.750  20.500  4.0815e-02
7.750  20.750  4.0730e-02
7.750  21.000  4.0690e-02
7.750  21.250  4.0669e-02
7.750  21.500  4.0659e-02
7.750  21.750  4.0653e-02
7.750  22.000  4.0649e-02
7.750  22.250  4.0648e-02
7.750  22.500  4.0647e-02
7.750  22.750  4.0646e-02
7.750  23.000  4.0646e-02
7.750  23.250  4.0646e-02
7.750  23.500  4.0646e-02
7.750  23.750  4.0646e-02
7.750  24.000  4.0646e-02
8.000  17.000  6.4630e-03
8.000  17.250  9.5193e-03
8.000  17.500  1.4404e-02
8.000  17.750  2.2681e-02
8.000  18.000  3.7670e-02
8.000  18.250  9.2578e-02
8.000  18.500  1.1971e-01
8.000  18.750  1.0309e-01
8.000  19.000  7.7789e-02
8.000  19.250  5.9219e-02
8.000  19.500  4.8343e-02
8.000  19.750  4.4397e-02
8.000  20.000  4.2491e-02
8.000  20.250  4.1448e-02
8.000  20.500  4.1006e-02
8.000  20.750  4.0785e-02
8.000  21.000  4.0675e-02
8.000  21.250  4.0641e-02
8.000  21.500  4.0647e-02
8.000  21.750  4.0659e-02
8.000  22.000  4.0653e-02
8.000  22.250  4.0649e-02
8.000  22.500  4.0648e-02
8.000  22.750  4.0647e-02
8.000  23.000  4.0646e-02
8.000  23.250  4.0647e-02
8.000  23.500  4.0646e-02
8.000  23.750  4.0645e-02
8.000  24.000  4.0645e-02
8.250  17.000  4.4636e-03
8.250  17.250  6.4187e-03
8.250  17.500  9.4701e-03
8.250  17.750  1.4341e-02
8.250  18.000  2.2607e-02
8.250  18.250  3.7610e-02
8.250  18.500  9.2556e-02
8.250  18.750  1.1989e-01
8.250  19.000  1.0319e-01
8.250  19.250  7.7718e-02
8.250  19.500  5.9190e-02
8.250  19.750  4.8332e-02
8.250  20.000  4.4393e-02
8.250  20.250  4.2490e-02
8.250  20.500  4.1447e-02
8.250  20.750  4.1006e-02
8.250  21.000  4.0815e-02
8.250  21.250  4.0730e-02
8.250  21.500  4.0690e-02
8.250  21.750  4.0669e-02
8.250  22.000  4.0658e-02
8.250  22.250  4.0653e-02
8.250  22.500  4.0649e-02
8.250  22.750  4.0648e-02
8.250  23.000  4.0647e-02
8.250  23.250  4.0646e-02
8.250  23.500  4.0646e-02
8.250  23.750  4.0646e-02
8.250  24.000  4.0645e-02
8.500  17.000  3.1900e-03
8.500  17.250  4.4390e-03
8.500  17.500  6.3920e-03
8.500  17.750  9.4353e-03
8.500  18.000  1.4302e-02
8.500  18.250  2.2544e-02
8.500  18.500  3.7571e-02
8.500  18.750  9.2580e-02
8.500  19.000  1.2018e-01
8.500  19.250  1.0336e-01
8.500  19.500  7.7668e-02
8.500  19.750  5.9165e-02
8.500  20.000  4.8325e-02
8.500  20.250  4.4391e-02
8.500  20.500  4.2489e-02
8.500  20.750  4.1447e-02
8.500  21.000  4.1006e-02
8.500  21.250  4.0815e-02
8.500  21.500  4.0730e-02
8.500  21.750  4.0690e-02
8.500  22.000  4.0669e-02
8.500  22.250  4.0658e-02
8.500  22.500  4.0653e-02
8.500  22.750  4.0649e-02
8.500  23.000  4.0648e-02
8.500  23.250  4.0647e-02
8.500  23.500  4.0646e-02
8.500  23.750  4.0646e-02
8.500  24.000  4.0646e-02
8.750  17.000  2.3620e-03
8.750  17.250  3.1834e-03
8.750  17.500  4.4293e-03
8.750  17.750  6.3763e-03
8.750  18.000  9.4162e-03
8.750  18.250  1.4280e-02
8.750  18.500  2.2522e-02
8.750  18.750  3.7595e-02
8.750  19.000  9.2644e-02
8.750  19.250  1.2051e-01
8.750  19.500  1.0357e-01
8.750  19.750  7.7628e-02
8.750  20.000  5.9149e-02
8.750  20.250  4.8321e-02
8.750  20.500  4.4390e-02
8.750  20.750  4.2488e-02
8.750  21.000  4.1447e-02
8.750  21.250  4.1006e-02
8.750  21.500  4.0815e-02
8.750  21.750  4.0730e-02
8.750  22.000  4.0690e-02
8.750  22.250  4.0669e-02
8.750  22.500  4.0659e-02
8.750  22.750  4.0653e-02
8.750  23.000  4.0649e-02
8.750  23.250  4.0648e-02
8.750  23.500  4.0647e-02
8.750  23.750  4.0646e-02
8.750  24.000  4.0646e-02
9.000  17.000  1.7765e-03
9.000  17.250  2.3793e-03
9.000  17.500  3.1982e-03
9.000  17.750  4.4381e-03
9.000  18.000  6.3811e-03
9.000  18.250  9.4196e-03
9.000  18.500  1.4286e-02
9.000  18.750  2.2577e-02
9.000  19.000  3.8078e-02
9.000  19.250  9.2733e-02
9.000  19.500  1.2083e-01
9.000  19.750  1.0381e-01
9.000  20.000  7.7594e-02
9.000  20.250  5.9137e-02
9.000  20.500  4.8319e-02
9.000  20.750  4.4390e-02
9.000  21.000  4.2488e-02
9.000  21.250  4.1447e-02
9.000  21.500  4.1006e-02
9.000  21.750  4.0815e-02
9.000  22.000  4.0730e-02
9.000  22.250  4.0690e-02
9.000  22.500  4.0669e-02
9.000  22.750  4.0658e-02
9.000  23.000  4.0653e-02
9.000  23.250  4.0649e-02
9.000  23.500  4.0648e-02
9.000  23.750  4.0647e-02
9.000  24.000  4.0646e-02
9.250  17.000  1.3232e-03
9.250  17.250  1.8149e-03
9.250  17.500  2.4271e-03
9.250  17.750  3.2456e-03
9.250  18.000  4.4779e-03
9.250  18.250  6.4148e-03
9.250  18.500  9.4626e-03
9.250  18.750  1.4393e-02
9.250  19.000  2.2873e-02
9.250  19.250  4.1047e-02
9.250  19.500  9.2962e-02
9.250  19.750  1.2109e-01
9.250  20.000  1.0403e-01
9.250  20.250  7.7564e-02
9.250  20.500  5.9130e-02
9.250  20.750  4.8318e-02
9.250  21.000  4.4390e-02
9.250  21.250  4.2489e-02
9.250  21.500  4.1439e-02
9.250  21.750  4.0994e-02
9.250  22.000  4.0802e-02
9.250  22.250  4.0718e-02
9.250  22.500  4.0689e-02
9.250  22.750  4.0669e-02
9.250  23.000  4.0658e-02
9.250  23.250  4.0652e-02
9.250  23.500  4.0649e-02
9.250  23.750  4.0648e-02
9.250  24.000  4.0647e-02
9.500  17.000  9.4757e-04
9.500  17.250  1.3712e-03
9.500  17.500  1.8887e-03
9.500  17.750  2.5137e-03
9.500  18.000  3.3306e-03
9.500  18.250  4.5562e-03
9.500  18.500  6.5041e-03
9.500  18.750  9.6243e-03
9.500  19.000  1.4734e-02
9.500  19.250  2.3633e-02
9.500  19.500  4.8018e-02
9.500  19.750  9.3590e-02
9.500  20.000  1.2126e-01
9.500  20.250  1.0422e-01
9.500  20.500  7.7540e-02
9.500  20.750  5.9122e-02
9.500  21.000  4.8304e-02
9.500  21.250  4.4377e-02
9.500  21.500  4.2475e-02
9.500  21.750  4.1431e-02
9.500  22.000  4.0985e-02
9.500  22.250  4.0794e-02
9.500  22.500  4.0709e-02
9.500  22.750  4.0667e-02
9.500  23.000  4.0647e-02
9.500  23.250  4.0637e-02
9.500  23.500  4.0636e-02
9.500  23.750  4.0633e-02
9.500  24.000  4.0631e-02
9.750  17.000  6.3218e-04
9.750  17.250  9.8691e-04
9.750  17.500  1.4495e-03
9.750  17.750  2.0000e-03
9.750  18.000  2.6377e-03
9.750  18.250  3.4592e-03
9.750  18.500  4.7091e-03
9.750  18.750  6.7314e-03
9.750  19.000  1.0046e-02
9.750  19.250  1.5556e-02
9.750  19.500  2.5169e-02
9.750  19.750  5.5297e-02
9.750  20.000  9.4758e-02
9.750  20.250  1.2136e-01
9.750  20.500  1.0436e-01
9.750  20.750  7.7525e-02
9.750  21.000  5.9119e-02
9.750  21.250  4.8313e-02
9.750  21.500  4.4380e-02
9.750  21.750  4.2476e-02
9.750  22.000  4.1433e-02
9.750  22.250  4.0987e-02
9.750  22.500  4.0793e-02
9.750  22.750  4.0709e-02
9.750  23.000  4.0669e-02
9.750  23.250  4.0648e-02
9.750  23.500  4.0637e-02
9.750  23.750  4.0631e-02
9.750  24.000  4.0627e-02
10.000  17.000  3.7481e-04
10.000  17.250  6.5621e-04
10.000  17.500  1.0500e-03
10.000  17.750  1.5554e-03
10.000  18.000  2.1411e-03
10.000  18.250  2.8057e-03
10.000  18.500  3.6667e-03
10.000  18.750  5.0041e-03
10.000  19.000  7.2187e-03
10.000  19.250  1.0875e-02
10.000  19.500  1.6976e-02
10.000  19.750  2.8576e-02
10.000  20.000  6.0794e-02
10.000  20.250  9.7357e-02
10.000  20.500  1.2156e-01
10.000  20.750  1.0449e-01
10.000  21.000  7.7523e-02
10.000  21.250  5.9120e-02
10.000  21.500  4.8315e-02
10.000  21.750  4.4388e-02
10.000  22.000  4.2478e-02
10.000  22.250  4.1434e-02
10.000  22.500  4.0990e-02
10.000  22.750  4.0795e-02
10.000  23.000  4.0708e-02
10.000  23.250  4.0668e-02
10.000  23.500  4.0648e-02
10.000  23.750  4.0637e-02
10.000  24.000  4.0631e-02
10.250  17.000  2.2313e-04
10.250  17.250  3.8922e-04
10.250  17.500  6.9934e-04
10.250  17.750  1.1333e-03
10.250  18.000  1.6888e-03
10.250  18.250  2.3305e-03
10.250  18.500  3.0610e-03
10.250  18.750  4.0328e-03
10.250  19.000  5.5473e-03
10.250  19.250  8.0579e-03
10.250  19.500  1.2200e-02
10.250  19.750  1.9123e-02
10.250  20.000  3.9773e-02
10.250  20.250  6.5605e-02
10.250  20.500  9.9645e-02
10.250  20.750  1.2192e-01
10.250  21.000  1.0462e-01
10.250  21.250  7.7544e-02
10.250  21.500  5.9126e-02
10.250  21.750  4.8317e-02
10.250  22.000  4.4393e-02
10.250  22.250  4.2483e-02
10.250  22.500  4.1435e-02
10.250  22.750  4.0992e-02
10.250  23.000  4.0798e-02
10.250  23.250  4.0710e-02
10.250  23.500  4.0668e-02
10.250  23.750  4.0647e-02
10.250  24.000  4.0636e-02
10.500  17.000  1.3621e-04
10.500  17.250  2.3136e-04
10.500  17.500  4.1761e-04
10.500  17.750  7.6354e-04
10.500  18.000  1.2534e-03
10.500  18.250  1.8845e-03
10.500  18.500  2.6142e-03
10.500  18.750  3.4603e-03
10.500  19.000  4.5925e-03
10.500  19.250  6.3632e-03
10.500  19.500  9.2752e-03
10.500  19.750  1.4031e-02
10.500  20.000  2.1979e-02
10.500  20.250  4.4952e-02
10.500  20.500  6.9700e-02
10.500  20.750  1.0274e-01
10.500  21.000  1.2277e-01
10.500  21.250  1.0478e-01
10.500  21.500  7.7581e-02
10.500  21.750  5.9143e-02
10.500  22.000  4.8319e-02
10.500  22.250  4.4396e-02
10.500  22.500  4.2489e-02
10.500  22.750  4.1435e-02
10.500  23.000  4.0993e-02
10.500  23.250  4.0801e-02
10.500  23.500  4.0713e-02
10.500  23.750  4.0671e-02
10.500  24.000  4.0650e-02
10.750  17.000  8.7654e-05
10.750  17.250  1.4140e-04
10.750  17.500  2.5202e-04
10.750  17.750  4.7844e-04
10.750  18.000  8.7514e-04
10.750  18.250  1.4523e-03
10.750  18.500  2.1772e-03
10.750  18.750  3.0109e-03
10.750  19.000  3.9922e-03
10.750  19.250  5.3421e-03
10.750  19.500  7.4499e-03
10.750  19.750  1.0863e-02
10.750  20.000  1.6365e-02
10.750  20.250  3.0996e-02
10.750  20.500  5.0879e-02
10.750  20.750  7.5861e-02
10.750  21.000  1.0749e-01
10.750  21.250  1.2427e-01
10.750  21.500  1.0499e-01
10.750  21.750  7.7653e-02
10.750  22.000  5.9178e-02
10.750  22.250  4.8322e-02
10.750  22.500  4.4399e-02
10.750  22.750  4.2492e-02
10.750  23.000  4.1438e-02
10.750  23.250  4.0994e-02
10.750  23.500  4.0802e-02
10.750  23.750  4.0716e-02
10.750  24.000  4.0674e-02
11.000  17.000  5.9753e-05
11.000  17.250  9.0700e-05
11.000  17.500  1.5531e-04
11.000  17.750  2.9984e-04
11.000  18.000  5.8469e-04
11.000  18.250  1.0500e-03
11.000  18.500  1.7135e-03
11.000  18.750  2.5351e-03
11.000  19.000  3.4737e-03
11.000  19.250  4.6319e-03
11.000  19.500  6.2737e-03
11.000  19.750  8.8241e-03
11.000  20.000  1.2847e-02
11.000  20.250  1.9203e-02
11.000  20.500  3.6294e-02
11.000  20.750  5.8440e-02
11.000  21.000  8.3263e-02
11.000  21.250  1.1420e-01
11.000  21.500  1.2648e-01
11.000  21.750  1.0532e-01
11.000  22.000  7.7768e-02
11.000  22.250  5.9222e-02
11.000  22.500  4.8327e-02
11.000  22.750  4.4403e-02
11.000  23.000  4.2495e-02
11.000  23.250  4.1444e-02
11.000  23.500  4.0995e-02
11.000  23.750  4.0803e-02
11.000  24.000  4.0717e-02
11.250  17.000  4.2881e-05
11.250  17.250  6.0988e-05
11.250  17.500  9.9177e-05
11.250  17.750  1.8823e-04
11.250  18.000  3.8082e-04
11.250  18.250  7.1992e-04
11.250  18.500  1.2486e-03
11.250  18.750  1.9979e-03
11.250  19.000  2.9121e-03
11.250  19.250  3.9868e-03
11.250  19.500  5.3916e-03
11.250  19.750  7.4342e-03
11.250  20.000  1.0534e-02
11.250  20.250  1.5275e-02
11.250  20.500  2.2648e-02
11.250  20.750  4.5289e-02
11.250  21.000  6.7479e-02
11.250  21.250  9.4334e-02
11.250  21.500  1.2427e-01
11.250  21.750  1.2944e-01
11.250  22.000  1.0574e-01
11.250  22.250  7.7940e-02
11.250  22.500  5.9283e-02
11.250  22.750  4.8334e-02
11.250  23.000  4.4408e-02
11.250  23.250  4.2498e-02
11.250  23.500  4.1448e-02
11.250  23.750  4.0997e-02
11.250  24.000  4.0804e-02
11.500  17.000  3.2510e-05
11.500  17.250  4.3292e-05
11.500  17.500  6.5844e-05
11.500  17.750  1.1794e-04
11.500  18.000  2.3827e-04
11.500  18.250  4.7037e-04
11.500  18.500  8.5185e-04
11.500  18.750  1.4449e-03
11.500  19.000  2.2868e-03
11.500  19.250  3.3095e-03
11.500  19.500  4.5682e-03
11.500  19.750  6.3176e-03
11.500  20.000  8.8777e-03
11.500  20.250  1.2626e-02
11.500  20.500  1.8176e-02
11.500  20.750  2.6704e-02
11.500  21.000  5.3200e-02
11.500  21.250  7.9140e-02
11.500  21.500  1.0890e-01
11.500  21.750  1.3768e-01
11.500  22.000  1.3313e-01
11.500  22.250  1.0626e-01
11.500  22.500  7.8134e-02
11.500  22.750  5.9377e-02
11.500  23.000  4.8346e-02
11.500  23.250  4.4415e-02
11.500  23.500  4.2501e-02
11.500  23.750  4.1449e-02
11.500  24.000  4.1003e-02
11.750  17.000  2.5679e-05
11.750  17.250  3.2181e-05
11.750  17.500  4.5597e-05
11.750  17.750  7.5144e-05
11.750  18.000  1.4329e-04
11.750  18.250  2.8872e-04
11.750  18.500  5.5292e-04
11.750  18.750  9.7556e-04
11.750  19.000  1.6387e-03
11.750  19.250  2.5803e-03
11.750  19.500  3.7427e-03
11.750  19.750  5.2593e-03
11.750  20.000  7.4605e-03
11.750  20.250  1.0646e-02
11.750  20.500  1.5142e-02
11.750  20.750  2.1635e-02
11.750  21.000  3.1674e-02
11.750  21.250  6.4275e-02
11.750  21.500  9.4758e-02
11.750  21.750  1.2754e-01
11.750  22.000  1.5220e-01
11.750  22.250  1.3661e-01
11.750  22.500  1.0688e-01
11.750  22.750  7.8323e-02
11.750  23.000  5.9487e-02
11.750  23.250  4.8363e-02
11.750  23.500  4.4423e-02
11.750  23.750  4.2506e-02
11.750  24.000  4.1450e-02
12.000  17.000  2.0905e-05
12.000  17.250  2.5021e-05
12.000  17.500  3.3086e-05
12.000  17.750  4.9794e-05
12.000  18.000  8.6502e-05
12.000  18.250  1.6774e-04
12.000  18.500  3.3383e-04
12.000  18.750  6.2905e-04
12.000  19.000  1.0948e-03
12.000  19.250  1.8369e-03
12.000  19.500  2.8954e-03
12.000  19.750  4.2372e-03
12.000  20.000  6.1149e-03
12.000  20.250  8.9022e-03
12.000  20.500  1.2822e-02
12.000  20.750  1.8160e-02
12.000  21.000  2.5952e-02
12.000  21.250  3.7680e-02
12.000  21.500  7.7909e-02
12.000  21.750  1.1488e-01
12.000  22.000  1.4793e-01
12.000  22.250  1.6432e-01
12.000  22.500  1.4017e-01
12.000  22.750  1.0751e-01
12.000  23.000  7.8505e-02
12.000  23.250  5.9604e-02
12.000  23.500  4.8382e-02
12.000  23.750  4.4433e-02
12.000  24.000  4.2510e-02
12.250  17.000  1.7613e-05
12.250  17.250  2.0165e-05
12.250  17.500  2.4938e-05
12.250  17.750  3.4650e-05
12.250  18.000  5.4568e-05
12.250  18.250  9.7613e-05
12.250  18.500  1.9062e-04
12.250  18.750  3.7827e-04
12.250  19.000  7.0000e-04
12.250  19.250  1.2141e-03
12.250  19.500  2.0461e-03
12.250  19.750  3.2520e-03
12.250  20.000  4.8506e-03
12.250  20.250  7.2166e-03
12.250  20.500  1.0703e-02
12.250  20.750  1.5486e-02
12.250  21.000  2.2022e-02
12.250  21.250  3.1517e-02
12.250  21.500  5.5584e-02
12.250  21.750  9.6693e-02
12.250  22.000  1.3918e-01
12.250  22.250  1.7020e-01
12.250  22.500  1.7585e-01
12.250  22.750  1.4374e-01
12.250  23.000  1.0800e-01
12.250  23.250  7.8649e-02
12.250  23.500  5.9712e-02
12.250  23.750  4.8399e-02
12.250  24.000  4.4441e-02
12.500  17.000  1.4815e-05
12.500  17.250  1.6708e-05
12.500  17.500  1.9671e-05
12.500  17.750  2.5267e-05
12.500  18.000  3.6461e-05
12.500  18.250  5.9424e-05
12.500  18.500  1.0881e-04
12.500  18.750  2.1473e-04
12.500  19.000  4.2181e-04
12.500  19.250  7.6979e-04
12.500  19.500  1.3374e-03
12.500  19.750  2.2877e-03
12.500  20.000  3.6849e-03
12.500  20.250  5.6436e-03
12.500  20.500  8.6478e-03
12.500  20.750  1.3039e-02
12.500  21.000  1.9070e-02
12.500  21.250  2.7253e-02
12.500  21.500  3.8524e-02
12.500  21.750  7.5110e-02
12.500  22.000  1.1931e-01
12.500  22.250  1.6563e-01
12.500  22.500  1.9274e-01
12.500  22.750  1.8702e-01
12.500  23.000  1.4731e-01
12.500  23.250  1.0833e-01
12.500  23.500  7.8740e-02
12.500  23.750  5.9804e-02
12.500  24.000  4.8409e-02
12.750  17.000  1.2510e-05
12.750  17.250  1.3827e-05
12.750  17.500  1.5885e-05
12.750  17.750  1.9424e-05
12.750  18.000  2.6008e-05
12.750  18.250  3.8683e-05
12.750  18.500  6.5021e-05
12.750  18.750  1.2132e-04
12.750  19.000  2.3901e-04
12.750  19.250  4.6239e-04
12.750  19.500  8.3350e-04
12.750  19.750  1.4606e-03
12.750  20.000  2.5405e-03
12.750  20.250  4.2199e-03
12.750  20.500  6.6709e-03
12.750  20.750  1.0436e-02
12.750  21.000  1.6030e-02
12.750  21.250  2.3653e-02
12.750  21.500  3.3349e-02
12.750  21.750  4.7271e-02
12.750  22.000  9.5773e-02
12.750  22.250  1.4534e-01
12.750  22.500  1.9376e-01
12.750  22.750  2.1594e-01
12.750  23.000  1.9656e-01
12.750  23.250  1.5044e-01
12.750  23.500  1.0875e-01
12.750  23.750  7.8762e-02
12.750  24.000  5.9856e-02
13.000  17.000  1.0617e-05
13.000  17.250  1.1523e-05
13.000  17.500  1.2922e-05
13.000  17.750  1.5226e-05
13.000  18.000  1.9342e-05
13.000  18.250  2.6996e-05
13.000  18.500  4.1975e-05
13.000  18.750  7.2346e-05
13.000  19.000  1.3523e-04
13.000  19.250  2.6091e-04
13.000  19.500  4.8831e-04
13.000  19.750  8.7835e-04
13.000  20.000  1.5736e-03
13.000  20.250  2.8040e-03
13.000  20.500  4.8230e-03
13.000  20.750  7.9287e-03
13.000  21.000  1.2697e-02
13.000  21.250  1.9883e-02
13.000  21.500  2.9372e-02
13.000  21.750  4.0623e-02
13.000  22.000  5.6416e-02
13.000  22.250  1.1970e-01
13.000  22.500  1.7272e-01
13.000  22.750  2.2030e-01
13.000  23.000  2.3872e-01
13.000  23.250  2.0659e-01
13.000  23.500  1.5419e-01
13.000  23.750  1.0887e-01
13.000  24.000  7.8711e-02
13.250  17.000  8.9712e-06
13.250  17.250  9.6296e-06
13.250  17.500  1.0617e-05
13.250  17.750  1.2181e-05
13.250  18.000  1.4897e-05
13.250  18.250  1.9918e-05
13.250  18.500  2.9218e-05
13.250  18.750  4.7078e-05
13.250  19.000  8.1811e-05
13.250  19.250  1.5004e-04
13.250  19.500  2.8000e-04
13.250  19.750  5.1695e-04
13.250  20.000  9.3210e-04
13.250  20.250  1.6681e-03
13.250  20.500  3.0095e-03
13.250  20.750  5.4018e-03
13.250  21.000  9.1291e-03
13.250  21.250  1.5006e-02
13.250  21.500  2.2586e-02
13.250  21.750  3.3678e-02
13.250  22.000  4.8347e-02
13.250  22.250  6.6932e-02
13.250  22.500  1.4403e-01
13.250  22.750  2.0106e-01
13.250  23.000  2.4998e-01
13.250  23.250  2.6261e-01
13.250  23.500  2.1546e-01
13.250  23.750  1.5602e-01
13.250  24.000  1.0854e-01
13.500  17.000  7.6543e-06
13.500  17.250  8.0658e-06
13.500  17.500  8.8066e-06
13.500  17.750  9.9588e-06
13.500  18.000  1.1852e-05
13.500  18.250  1.5309e-05
13.500  18.500  2.1728e-05
13.500  18.750  3.3416e-05
13.500  19.000  5.5226e-05
13.500  19.250  9.5473e-05
13.500  19.500  1.7095e-04
13.500  19.750  3.1210e-04
13.500  20.000  5.6626e-04
13.500  20.250  1.0153e-03
13.500  20.500  1.7948e-03
13.500  20.750  3.2495e-03
13.500  21.000  5.7416e-03
13.500  21.250  1.0062e-02
13.500  21.500  1.6215e-02
13.500  21.750  2.5979e-02
13.500  22.000  3.9875e-02
13.500  22.250  5.6527e-02
13.500  22.500  7.8784e-02
13.500  22.750  1.7329e-01
13.500  23.000  2.3741e-01
13.500  23.250  2.8530e-01
13.500  23.500  2.8794e-01
13.500  23.750  2.2348e-01
13.500  24.000  1.5717e-01
13.750  17.000  6.5021e-06
13.750  17.250  6.8313e-06
13.750  17.500  7.4074e-06
13.750  17.750  8.2305e-06
13.750  18.000  9.7119e-06
13.750  18.250  1.2263e-05
13.750  18.500  1.6872e-05
13.750  18.750  2.5350e-05
13.750  19.000  4.0823e-05
13.750  19.250  6.8477e-05
13.750  19.500  1.1802e-04
13.750  19.750  2.0840e-04
13.750  20.000  3.7481e-04
13.750  20.250  6.7284e-04
13.750  20.500  1.1861e-03
13.750  20.750  2.0640e-03
13.750  21.000  3.6252e-03
13.750  21.250  6.3279e-03
13.750  21.500  1.0943e-02
13.750  21.750  1.8253e-02
13.750  22.000  2.8949e-02
13.750  22.250  4.4673e-02
13.750  22.500  6.6452e-02
13.750  22.750  9.4578e-02
13.750  23.000  2.1288e-01
13.750  23.250  2.8481e-01
13.750  23.500  3.2768e-01
13.750  23.750  3.1373e-01
13.750  24.000  2.3000e-01
14.000  17.000  5.5967e-06
14.000  17.250  5.8436e-06
14.000  17.500  6.1728e-06
14.000  17.750  6.9136e-06
14.000  18.000  8.0658e-06
14.000  18.250  1.0041e-05
14.000  18.500  1.3663e-05
14.000  18.750  2.0247e-05
14.000  19.000  3.2099e-05
14.000  19.250  5.3498e-05
14.000  19.500  9.1029e-05
14.000  19.750  1.5695e-04
14.000  20.000  2.7465e-04
14.000  20.250  4.8724e-04
14.000  20.500  8.6313e-04
14.000  20.750  1.4982e-03
14.000  21.000  2.5560e-03
14.000  21.250  4.3944e-03
14.000  21.500  7.5045e-03
14.000  21.750  1.2811e-02
14.000  22.000  2.1102e-02
14.000  22.250  3.3726e-02
14.000  22.500  5.2864e-02
14.000  22.750  8.1238e-02
14.000  23.000  1.3161e-01
14.000  23.250  2.7623e-01
14.000  23.500  3.5296e-01
14.000  23.750  3.7607e-01
14.000  24.000  3.3565e-01
