nFnu 1064.34A  relative to Inci 1215.00A scaled to 1215A.
Hden   Phi(H)  Eq_Width (A)
7.000  17.000  7.7849e-02
7.000  17.250  7.6908e-02
7.000  17.500  7.5529e-02
7.000  17.750  6.6667e-02
7.000  18.000  5.8386e-02
7.000  18.250  5.2294e-02
7.000  18.500  4.8273e-02
7.000  18.750  4.6281e-02
7.000  19.000  4.5237e-02
7.000  19.250  4.4638e-02
7.000  19.500  4.4384e-02
7.000  19.750  4.4277e-02
7.000  20.000  4.4230e-02
7.000  20.250  4.4208e-02
7.000  20.500  4.4197e-02
7.000  20.750  4.4191e-02
7.000  21.000  4.4188e-02
7.000  21.250  4.4187e-02
7.000  21.500  4.4186e-02
7.000  21.750  4.4186e-02
7.000  22.000  4.4186e-02
7.000  22.250  4.4186e-02
7.000  22.500  4.4186e-02
7.000  22.750  4.4187e-02
7.000  23.000  4.4187e-02
7.000  23.250  4.4187e-02
7.000  23.500  4.4187e-02
7.000  23.750  4.4187e-02
7.000  24.000  4.4187e-02
7.250  17.000  6.2691e-02
7.250  17.250  7.5472e-02
7.250  17.500  7.5906e-02
7.250  17.750  7.5180e-02
7.250  18.000  6.6497e-02
7.250  18.250  5.8294e-02
7.250  18.500  5.2248e-02
7.250  18.750  4.8257e-02
7.250  19.000  4.6275e-02
7.250  19.250  4.5235e-02
7.250  19.500  4.4637e-02
7.250  19.750  4.4384e-02
7.250  20.000  4.4277e-02
7.250  20.250  4.4230e-02
7.250  20.500  4.4208e-02
7.250  20.750  4.4197e-02
7.250  21.000  4.4191e-02
7.250  21.250  4.4188e-02
7.250  21.500  4.4186e-02
7.250  21.750  4.4185e-02
7.250  22.000  4.4185e-02
7.250  22.250  4.4185e-02
7.250  22.500  4.4185e-02
7.250  22.750  4.4185e-02
7.250  23.000  4.4185e-02
7.250  23.250  4.4185e-02
7.250  23.500  4.4185e-02
7.250  23.750  4.4185e-02
7.250  24.000  4.4186e-02
7.500  17.000  4.3470e-02
7.500  17.250  5.9832e-02
7.500  17.500  7.3082e-02
7.500  17.750  7.5167e-02
7.500  18.000  7.5000e-02
7.500  18.250  6.6415e-02
7.500  18.500  5.8242e-02
7.500  18.750  5.2219e-02
7.500  19.000  4.8246e-02
7.500  19.250  4.6270e-02
7.500  19.500  4.5233e-02
7.500  19.750  4.4637e-02
7.500  20.000  4.4384e-02
7.500  20.250  4.4277e-02
7.500  20.500  4.4230e-02
7.500  20.750  4.4208e-02
7.500  21.000  4.4197e-02
7.500  21.250  4.4191e-02
7.500  21.500  4.4188e-02
7.500  21.750  4.4186e-02
7.500  22.000  4.4185e-02
7.500  22.250  4.4185e-02
7.500  22.500  4.4185e-02
7.500  22.750  4.4184e-02
7.500  23.000  4.4184e-02
7.500  23.250  4.4184e-02
7.500  23.500  4.4187e-02
7.500  23.750  4.4184e-02
7.500  24.000  4.4184e-02
7.750  17.000  2.9729e-02
7.750  17.250  4.0388e-02
7.750  17.500  5.7408e-02
7.750  17.750  7.1067e-02
7.750  18.000  7.4597e-02
7.750  18.250  7.4923e-02
7.750  18.500  6.6392e-02
7.750  18.750  5.8215e-02
7.750  19.000  5.2202e-02
7.750  19.250  4.8239e-02
7.750  19.500  4.6268e-02
7.750  19.750  4.5232e-02
7.750  20.000  4.4637e-02
7.750  20.250  4.4384e-02
7.750  20.500  4.4277e-02
7.750  20.750  4.4230e-02
7.750  21.000  4.4208e-02
7.750  21.250  4.4197e-02
7.750  21.500  4.4191e-02
7.750  21.750  4.4188e-02
7.750  22.000  4.4186e-02
7.750  22.250  4.4185e-02
7.750  22.500  4.4185e-02
7.750  22.750  4.4184e-02
7.750  23.000  4.4184e-02
7.750  23.250  4.4184e-02
7.750  23.500  4.4184e-02
7.750  23.750  4.4184e-02
7.750  24.000  4.4184e-02
8.000  17.000  2.1514e-02
8.000  17.250  2.6790e-02
8.000  17.500  3.7559e-02
8.000  17.750  5.5110e-02
8.000  18.000  6.9379e-02
8.000  18.250  7.4185e-02
8.000  18.500  7.4912e-02
8.000  18.750  6.6406e-02
8.000  19.000  5.8204e-02
8.000  19.250  5.2192e-02
8.000  19.500  4.8235e-02
8.000  19.750  4.6266e-02
8.000  20.000  4.5232e-02
8.000  20.250  4.4637e-02
8.000  20.500  4.4384e-02
8.000  20.750  4.4277e-02
8.000  21.000  4.4230e-02
8.000  21.250  4.4208e-02
8.000  21.500  4.4197e-02
8.000  21.750  4.4191e-02
8.000  22.000  4.4188e-02
8.000  22.250  4.4186e-02
8.000  22.500  4.4185e-02
8.000  22.750  4.4185e-02
8.000  23.000  4.4184e-02
8.000  23.250  4.4185e-02
8.000  23.500  4.4184e-02
8.000  23.750  4.4184e-02
8.000  24.000  4.4184e-02
8.250  17.000  1.6868e-02
8.250  17.250  1.9412e-02
8.250  17.500  2.4886e-02
8.250  17.750  3.5843e-02
8.250  18.000  5.3727e-02
8.250  18.250  6.8354e-02
8.250  18.500  7.3955e-02
8.250  18.750  7.4942e-02
8.250  19.000  6.6448e-02
8.250  19.250  5.8204e-02
8.250  19.500  5.2185e-02
8.250  19.750  4.8232e-02
8.250  20.000  4.6265e-02
8.250  20.250  4.5231e-02
8.250  20.500  4.4637e-02
8.250  20.750  4.4384e-02
8.250  21.000  4.4277e-02
8.250  21.250  4.4230e-02
8.250  21.500  4.4208e-02
8.250  21.750  4.4197e-02
8.250  22.000  4.4191e-02
8.250  22.250  4.4188e-02
8.250  22.500  4.4186e-02
8.250  22.750  4.4185e-02
8.250  23.000  4.4184e-02
8.250  23.250  4.4184e-02
8.250  23.500  4.4184e-02
8.250  23.750  4.4184e-02
8.250  24.000  4.4184e-02
8.500  17.000  1.4125e-02
8.500  17.250  1.5229e-02
8.500  17.500  1.7990e-02
8.500  17.750  2.3563e-02
8.500  18.000  3.4782e-02
8.500  18.250  5.2972e-02
8.500  18.500  6.7685e-02
8.500  18.750  7.3829e-02
8.500  19.000  7.4997e-02
8.500  19.250  6.6511e-02
8.500  19.500  5.8211e-02
8.500  19.750  5.2182e-02
8.500  20.000  4.8230e-02
8.500  20.250  4.6264e-02
8.500  20.500  4.5231e-02
8.500  20.750  4.4636e-02
8.500  21.000  4.4384e-02
8.500  21.250  4.4277e-02
8.500  21.500  4.4230e-02
8.500  21.750  4.4208e-02
8.500  22.000  4.4197e-02
8.500  22.250  4.4191e-02
8.500  22.500  4.4188e-02
8.500  22.750  4.4186e-02
8.500  23.000  4.4185e-02
8.500  23.250  4.4185e-02
8.500  23.500  4.4184e-02
8.500  23.750  4.4184e-02
8.500  24.000  4.4184e-02
8.750  17.000  1.2631e-02
8.750  17.250  1.2876e-02
8.750  17.500  1.4186e-02
8.750  17.750  1.7077e-02
8.750  18.000  2.2873e-02
8.750  18.250  3.4540e-02
8.750  18.500  5.2871e-02
8.750  18.750  6.7230e-02
8.750  19.000  7.3763e-02
8.750  19.250  7.5062e-02
8.750  19.500  6.6588e-02
8.750  19.750  5.8221e-02
8.750  20.000  5.2179e-02
8.750  20.250  4.8229e-02
8.750  20.500  4.6264e-02
8.750  20.750  4.5231e-02
8.750  21.000  4.4636e-02
8.750  21.250  4.4384e-02
8.750  21.500  4.4277e-02
8.750  21.750  4.4230e-02
8.750  22.000  4.4208e-02
8.750  22.250  4.4197e-02
8.750  22.500  4.4191e-02
8.750  22.750  4.4188e-02
8.750  23.000  4.4186e-02
8.750  23.250  4.4185e-02
8.750  23.500  4.4185e-02
8.750  23.750  4.4184e-02
8.750  24.000  4.4184e-02
9.000  17.000  1.1991e-02
9.000  17.250  1.1668e-02
9.000  17.500  1.2107e-02
9.000  17.750  1.3564e-02
9.000  18.000  1.6676e-02
9.000  18.250  2.2974e-02
9.000  18.500  3.5747e-02
9.000  18.750  5.4520e-02
9.000  19.000  6.6886e-02
9.000  19.250  7.3701e-02
9.000  19.500  7.5124e-02
9.000  19.750  6.6669e-02
9.000  20.000  5.8233e-02
9.000  20.250  5.2177e-02
9.000  20.500  4.8228e-02
9.000  20.750  4.6264e-02
9.000  21.000  4.5231e-02
9.000  21.250  4.4636e-02
9.000  21.500  4.4384e-02
9.000  21.750  4.4277e-02
9.000  22.000  4.4230e-02
9.000  22.250  4.4208e-02
9.000  22.500  4.4197e-02
9.000  22.750  4.4191e-02
9.000  23.000  4.4188e-02
9.000  23.250  4.4186e-02
9.000  23.500  4.4185e-02
9.000  23.750  4.4184e-02
9.000  24.000  4.4184e-02
9.250  17.000  1.1990e-02
9.250  17.250  1.1209e-02
9.250  17.500  1.1096e-02
9.250  17.750  1.1731e-02
9.250  18.000  1.3525e-02
9.250  18.250  1.7136e-02
9.250  18.500  2.4406e-02
9.250  18.750  3.8849e-02
9.250  19.000  5.7137e-02
9.250  19.250  6.6556e-02
9.250  19.500  7.3616e-02
9.250  19.750  7.5169e-02
9.250  20.000  6.6744e-02
9.250  20.250  5.8245e-02
9.250  20.500  5.2175e-02
9.250  20.750  4.8227e-02
9.250  21.000  4.6264e-02
9.250  21.250  4.5231e-02
9.250  21.500  4.4628e-02
9.250  21.750  4.4371e-02
9.250  22.000  4.4263e-02
9.250  22.250  4.4217e-02
9.250  22.500  4.4207e-02
9.250  22.750  4.4196e-02
9.250  23.000  4.4191e-02
9.250  23.250  4.4188e-02
9.250  23.500  4.4186e-02
9.250  23.750  4.4185e-02
9.250  24.000  4.4185e-02
9.500  17.000  1.2502e-02
9.500  17.250  1.1298e-02
9.500  17.500  1.0776e-02
9.500  17.750  1.0953e-02
9.500  18.000  1.1967e-02
9.500  18.250  1.3397e-02
9.500  18.500  1.5087e-02
9.500  18.750  1.6995e-02
9.500  19.000  1.9081e-02
9.500  19.250  2.1304e-02
9.500  19.500  2.3624e-02
9.500  19.750  2.6000e-02
9.500  20.000  2.8392e-02
9.500  20.250  3.0758e-02
9.500  20.500  3.3058e-02
9.500  20.750  3.5251e-02
9.500  21.000  3.7297e-02
9.500  21.250  3.9156e-02
9.500  21.500  4.0786e-02
9.500  21.750  4.2146e-02
9.500  22.000  4.3197e-02
9.500  22.250  4.3897e-02
9.500  22.500  4.4206e-02
9.500  22.750  4.4184e-02
9.500  23.000  4.4173e-02
9.500  23.250  4.4167e-02
9.500  23.500  4.4170e-02
9.500  23.750  4.4168e-02
9.500  24.000  4.4167e-02
9.750  17.000  1.3517e-02
9.750  17.250  1.1832e-02
9.750  17.500  1.0927e-02
9.750  17.750  1.0777e-02
9.750  18.000  1.1386e-02
9.750  18.250  1.2826e-02
9.750  18.500  1.5564e-02
9.750  18.750  2.0870e-02
9.750  19.000  3.1473e-02
9.750  19.250  4.8768e-02
9.750  19.500  6.0995e-02
9.750  19.750  6.5958e-02
9.750  20.000  7.3297e-02
9.750  20.250  7.5167e-02
9.750  20.500  6.6854e-02
9.750  20.750  5.8266e-02
9.750  21.000  5.2173e-02
9.750  21.250  4.8221e-02
9.750  21.500  4.6252e-02
9.750  21.750  4.5217e-02
9.750  22.000  4.4621e-02
9.750  22.250  4.4363e-02
9.750  22.500  4.4253e-02
9.750  22.750  4.4207e-02
9.750  23.000  4.4185e-02
9.750  23.250  4.4174e-02
9.750  23.500  4.4167e-02
9.750  23.750  4.4164e-02
9.750  24.000  4.4162e-02
10.000  17.000  1.5050e-02
10.000  17.250  1.2805e-02
10.000  17.500  1.2693e-02
10.000  17.750  1.4806e-02
10.000  18.000  1.8722e-02
10.000  18.250  2.4022e-02
10.000  18.500  3.0285e-02
10.000  18.750  3.7092e-02
10.000  19.000  4.4023e-02
10.000  19.250  5.0657e-02
10.000  19.500  5.6575e-02
10.000  19.750  6.1356e-02
10.000  20.000  6.5881e-02
10.000  20.250  7.3099e-02
10.000  20.500  7.5124e-02
10.000  20.750  6.6888e-02
10.000  21.000  5.8274e-02
10.000  21.250  5.2173e-02
10.000  21.500  4.8223e-02
10.000  21.750  4.6259e-02
10.000  22.000  4.5219e-02
10.000  22.250  4.4622e-02
10.000  22.500  4.4366e-02
10.000  22.750  4.4255e-02
10.000  23.000  4.4206e-02
10.000  23.250  4.4184e-02
10.000  23.500  4.4173e-02
10.000  23.750  4.4168e-02
10.000  24.000  4.4165e-02
10.250  17.000  1.7200e-02
10.250  17.250  1.4292e-02
10.250  17.500  1.2736e-02
10.250  17.750  1.2696e-02
10.250  18.000  1.4036e-02
10.250  18.250  1.6623e-02
10.250  18.500  2.0320e-02
10.250  18.750  2.4995e-02
10.250  19.000  3.0513e-02
10.250  19.250  3.6738e-02
10.250  19.500  4.3537e-02
10.250  19.750  5.0775e-02
10.250  20.000  5.8316e-02
10.250  20.250  6.6028e-02
10.250  20.500  7.3124e-02
10.250  20.750  7.5089e-02
10.250  21.000  6.6909e-02
10.250  21.250  5.8279e-02
10.250  21.500  5.2172e-02
10.250  21.750  4.8223e-02
10.250  22.000  4.6262e-02
10.250  22.250  4.5224e-02
10.250  22.500  4.4623e-02
10.250  22.750  4.4368e-02
10.250  23.000  4.4258e-02
10.250  23.250  4.4208e-02
10.250  23.500  4.4185e-02
10.250  23.750  4.4173e-02
10.250  24.000  4.4167e-02
10.500  17.000  1.9993e-02
10.500  17.250  1.6390e-02
10.500  17.500  1.4079e-02
10.500  17.750  1.3227e-02
10.500  18.000  1.3715e-02
10.500  18.250  1.5427e-02
10.500  18.500  1.8248e-02
10.500  18.750  2.2060e-02
10.500  19.000  2.6746e-02
10.500  19.250  3.2190e-02
10.500  19.500  3.8276e-02
10.500  19.750  4.4886e-02
10.500  20.000  5.1905e-02
10.500  20.250  5.9215e-02
10.500  20.500  6.6700e-02
10.500  20.750  7.3526e-02
10.500  21.000  7.5104e-02
10.500  21.250  6.6917e-02
10.500  21.500  5.8282e-02
10.500  21.750  5.2172e-02
10.500  22.000  4.8222e-02
10.500  22.250  4.6263e-02
10.500  22.500  4.5229e-02
10.500  22.750  4.4623e-02
10.500  23.000  4.4370e-02
10.500  23.250  4.4261e-02
10.500  23.500  4.4212e-02
10.500  23.750  4.4188e-02
10.500  24.000  4.4175e-02
10.750  17.000  2.3386e-02
10.750  17.250  1.9116e-02
10.750  17.500  1.6063e-02
10.750  17.750  1.4395e-02
10.750  18.000  1.4017e-02
10.750  18.250  1.4833e-02
10.750  18.500  1.6749e-02
10.750  18.750  1.9669e-02
10.750  19.000  2.3499e-02
10.750  19.250  2.8143e-02
10.750  19.500  3.3507e-02
10.750  19.750  3.9496e-02
10.750  20.000  4.6014e-02
10.750  20.250  5.2966e-02
10.750  20.500  6.0258e-02
10.750  20.750  6.7794e-02
10.750  21.000  7.4501e-02
10.750  21.250  7.5247e-02
10.750  21.500  6.6923e-02
10.750  21.750  5.8283e-02
10.750  22.000  5.2172e-02
10.750  22.250  4.8221e-02
10.750  22.500  4.6263e-02
10.750  22.750  4.5231e-02
10.750  23.000  4.4626e-02
10.750  23.250  4.4370e-02
10.750  23.500  4.4262e-02
10.750  23.750  4.4214e-02
10.750  24.000  4.4191e-02
11.000  17.000  2.7193e-02
11.000  17.250  2.2391e-02
11.000  17.500  1.8988e-02
11.000  17.750  1.7219e-02
11.000  18.000  1.6587e-02
11.000  18.250  1.6459e-02
11.000  18.500  1.6659e-02
11.000  18.750  1.7353e-02
11.000  19.000  1.7954e-02
11.000  19.250  1.9293e-02
11.000  19.500  2.2637e-02
11.000  19.750  2.9254e-02
11.000  20.000  4.0411e-02
11.000  20.250  5.3839e-02
11.000  20.500  5.9331e-02
11.000  20.750  6.4373e-02
11.000  21.000  6.9856e-02
11.000  21.250  7.6485e-02
11.000  21.500  7.5567e-02
11.000  21.750  6.6939e-02
11.000  22.000  5.8280e-02
11.000  22.250  5.2172e-02
11.000  22.500  4.8220e-02
11.000  22.750  4.6263e-02
11.000  23.000  4.5232e-02
11.000  23.250  4.4632e-02
11.000  23.500  4.4371e-02
11.000  23.750  4.4263e-02
11.000  24.000  4.4215e-02
11.250  17.000  3.0808e-02
11.250  17.250  2.5919e-02
11.250  17.500  2.2261e-02
11.250  17.750  2.0281e-02
11.250  18.000  1.9319e-02
11.250  18.250  1.8619e-02
11.250  18.500  1.8089e-02
11.250  18.750  1.8020e-02
11.250  19.000  2.0183e-02
11.250  19.250  2.4519e-02
11.250  19.500  3.0378e-02
11.250  19.750  3.7108e-02
11.250  20.000  4.4058e-02
11.250  20.250  5.0577e-02
11.250  20.500  5.6015e-02
11.250  20.750  6.0642e-02
11.250  21.000  6.6783e-02
11.250  21.250  7.3082e-02
11.250  21.500  7.9773e-02
11.250  21.750  7.6147e-02
11.250  22.000  6.6981e-02
11.250  22.250  5.8276e-02
11.250  22.500  5.2172e-02
11.250  22.750  4.8219e-02
11.250  23.000  4.6263e-02
11.250  23.250  4.5232e-02
11.250  23.500  4.4635e-02
11.250  23.750  4.4373e-02
11.250  24.000  4.4264e-02
11.500  17.000  3.2717e-02
11.500  17.250  2.9010e-02
11.500  17.500  2.5597e-02
11.500  17.750  2.3594e-02
11.500  18.000  2.2383e-02
11.500  18.250  2.1239e-02
11.500  18.500  2.0026e-02
11.500  18.750  1.9301e-02
11.500  19.000  1.8654e-02
11.500  19.250  1.8609e-02
11.500  19.500  1.9588e-02
11.500  19.750  2.2149e-02
11.500  20.000  2.6918e-02
11.500  20.250  3.4521e-02
11.500  20.500  4.5583e-02
11.500  20.750  5.7782e-02
11.500  21.000  6.3254e-02
11.500  21.250  7.0988e-02
11.500  21.500  7.8390e-02
11.500  21.750  8.4327e-02
11.500  22.000  7.6890e-02
11.500  22.250  6.7066e-02
11.500  22.500  5.8269e-02
11.500  22.750  5.2172e-02
11.500  23.000  4.8217e-02
11.500  23.250  4.6263e-02
11.500  23.500  4.5232e-02
11.500  23.750  4.4636e-02
11.500  24.000  4.4379e-02
11.750  17.000  2.5611e-02
11.750  17.250  2.9140e-02
11.750  17.500  2.7764e-02
11.750  17.750  2.6393e-02
11.750  18.000  2.5302e-02
11.750  18.250  2.3988e-02
11.750  18.500  2.2379e-02
11.750  18.750  2.0842e-02
11.750  19.000  1.9785e-02
11.750  19.250  1.8971e-02
11.750  19.500  1.8855e-02
11.750  19.750  2.0141e-02
11.750  20.000  2.3301e-02
11.750  20.250  2.8747e-02
11.750  20.500  3.6889e-02
11.750  20.750  4.8136e-02
11.750  21.000  6.0444e-02
11.750  21.250  6.7371e-02
11.750  21.500  7.6965e-02
11.750  21.750  8.5517e-02
11.750  22.000  8.8527e-02
11.750  22.250  7.7682e-02
11.750  22.500  6.7198e-02
11.750  22.750  5.8261e-02
11.750  23.000  5.2173e-02
11.750  23.250  4.8216e-02
11.750  23.500  4.6262e-02
11.750  23.750  4.5233e-02
11.750  24.000  4.4636e-02
12.000  17.000  2.3143e-02
12.000  17.250  2.1865e-02
12.000  17.500  2.3008e-02
12.000  17.750  2.6131e-02
12.000  18.000  2.6712e-02
12.000  18.250  2.6088e-02
12.000  18.500  2.4633e-02
12.000  18.750  2.2781e-02
12.000  19.000  2.1306e-02
12.000  19.250  1.9770e-02
12.000  19.500  1.8993e-02
12.000  19.750  2.0751e-02
12.000  20.000  2.5011e-02
12.000  20.250  3.1219e-02
12.000  20.500  3.8820e-02
12.000  20.750  4.7260e-02
12.000  21.000  5.5984e-02
12.000  21.250  6.4437e-02
12.000  21.500  7.3275e-02
12.000  21.750  8.5168e-02
12.000  22.000  9.3413e-02
12.000  22.250  9.1493e-02
12.000  22.500  7.8614e-02
12.000  22.750  6.7376e-02
12.000  23.000  5.8252e-02
12.000  23.250  5.2174e-02
12.000  23.500  4.8214e-02
12.000  23.750  4.6262e-02
12.000  24.000  4.5233e-02
12.250  17.000  2.2280e-02
12.250  17.250  2.1727e-02
12.250  17.500  2.1483e-02
12.250  17.750  2.1617e-02
12.250  18.000  2.1435e-02
12.250  18.250  2.5081e-02
12.250  18.500  2.5304e-02
12.250  18.750  2.4032e-02
12.250  19.000  2.2608e-02
12.250  19.250  2.0813e-02
12.250  19.500  1.9547e-02
12.250  19.750  1.8871e-02
12.250  20.000  1.9347e-02
12.250  20.250  2.1492e-02
12.250  20.500  2.5748e-02
12.250  20.750  3.2561e-02
12.250  21.000  4.2375e-02
12.250  21.250  5.5635e-02
12.250  21.500  7.0483e-02
12.250  21.750  8.1207e-02
12.250  22.000  9.5045e-02
12.250  22.250  1.0171e-01
12.250  22.500  9.4341e-02
12.250  22.750  7.9593e-02
12.250  23.000  6.7566e-02
12.250  23.250  5.8243e-02
12.250  23.500  5.2175e-02
12.250  23.750  4.8211e-02
12.250  24.000  4.6260e-02
12.500  17.000  2.1216e-02
12.500  17.250  2.1216e-02
12.500  17.500  2.1517e-02
12.500  17.750  2.1907e-02
12.500  18.000  2.1789e-02
12.500  18.250  2.1085e-02
12.500  18.500  1.9998e-02
12.500  18.750  2.2009e-02
12.500  19.000  2.2315e-02
12.500  19.250  2.1544e-02
12.500  19.500  2.2518e-02
12.500  19.750  2.5599e-02
12.500  20.000  3.0488e-02
12.500  20.250  3.6882e-02
12.500  20.500  4.4480e-02
12.500  20.750  5.2981e-02
12.500  21.000  6.2084e-02
12.500  21.250  7.1488e-02
12.500  21.500  8.0890e-02
12.500  21.750  8.9991e-02
12.500  22.000  9.8488e-02
12.500  22.250  1.0608e-01
12.500  22.500  1.0915e-01
12.500  22.750  9.7249e-02
12.500  23.000  8.0694e-02
12.500  23.250  6.7748e-02
12.500  23.500  5.8237e-02
12.500  23.750  5.2174e-02
12.500  24.000  4.8206e-02
12.750  17.000  2.0605e-02
12.750  17.250  2.0837e-02
12.750  17.500  2.1116e-02
12.750  17.750  2.1315e-02
12.750  18.000  2.1290e-02
12.750  18.250  2.0945e-02
12.750  18.500  2.0247e-02
12.750  18.750  1.9291e-02
12.750  19.000  2.0101e-02
12.750  19.250  2.2985e-02
12.750  19.500  2.7654e-02
12.750  19.750  3.3820e-02
12.750  20.000  4.1194e-02
12.750  20.250  4.9487e-02
12.750  20.500  5.8411e-02
12.750  20.750  6.7677e-02
12.750  21.000  7.6996e-02
12.750  21.250  8.6080e-02
12.750  21.500  9.4640e-02
12.750  21.750  1.0239e-01
12.750  22.000  1.0903e-01
12.750  22.250  1.1429e-01
12.750  22.500  1.1787e-01
12.750  22.750  1.1619e-01
12.750  23.000  9.9811e-02
12.750  23.250  8.1792e-02
12.750  23.500  6.8006e-02
12.750  23.750  5.8239e-02
12.750  24.000  5.2171e-02
13.000  17.000  3.9595e-02
13.000  17.250  2.3141e-02
13.000  17.500  1.0863e-02
13.000  17.750  3.0384e-03
13.000  18.000  -1.0285e-03
13.000  18.250  -2.0340e-03
13.000  18.500  -6.7465e-04
13.000  18.750  2.3534e-03
13.000  19.000  6.3538e-03
13.000  19.250  1.0630e-02
13.000  19.500  1.4486e-02
13.000  19.750  1.7226e-02
13.000  20.000  1.8153e-02
13.000  20.250  1.7678e-02
13.000  20.500  1.9590e-02
13.000  20.750  2.4579e-02
13.000  21.000  3.2285e-02
13.000  21.250  4.2345e-02
13.000  21.500  5.4399e-02
13.000  21.750  6.8086e-02
13.000  22.000  8.3044e-02
13.000  22.250  9.8912e-02
13.000  22.500  1.1533e-01
13.000  22.750  1.2810e-01
13.000  23.000  1.2265e-01
13.000  23.250  1.0273e-01
13.000  23.500  8.3087e-02
13.000  23.750  6.8223e-02
13.000  24.000  5.8243e-02
13.250  17.000  3.8116e-02
13.250  17.250  3.3909e-02
13.250  17.500  3.1331e-02
13.250  17.750  3.0574e-02
13.250  18.000  3.1468e-02
13.250  18.250  3.3846e-02
13.250  18.500  3.7539e-02
13.250  18.750  4.2378e-02
13.250  19.000  4.8195e-02
13.250  19.250  5.4821e-02
13.250  19.500  6.2088e-02
13.250  19.750  6.9827e-02
13.250  20.000  7.7871e-02
13.250  20.250  8.6049e-02
13.250  20.500  9.4194e-02
13.250  20.750  1.0214e-01
13.250  21.000  1.0971e-01
13.250  21.250  1.1675e-01
13.250  21.500  1.2307e-01
13.250  21.750  1.2852e-01
13.250  22.000  1.3293e-01
13.250  22.250  1.3613e-01
13.250  22.500  1.3794e-01
13.250  22.750  1.3820e-01
13.250  23.000  1.3675e-01
13.250  23.250  1.2933e-01
13.250  23.500  1.0539e-01
13.250  23.750  8.3999e-02
13.250  24.000  6.8293e-02
13.500  17.000  3.6504e-02
13.500  17.250  3.2195e-02
13.500  17.500  2.9659e-02
13.500  17.750  2.9103e-02
13.500  18.000  3.0345e-02
13.500  18.250  3.3201e-02
13.500  18.500  3.7486e-02
13.500  18.750  4.3019e-02
13.500  19.000  4.9614e-02
13.500  19.250  5.7089e-02
13.500  19.500  6.5261e-02
13.500  19.750  7.3945e-02
13.500  20.000  8.2959e-02
13.500  20.250  9.2118e-02
13.500  20.500  1.0124e-01
13.500  20.750  1.1014e-01
13.500  21.000  1.1864e-01
13.500  21.250  1.2654e-01
13.500  21.500  1.3368e-01
13.500  21.750  1.3986e-01
13.500  22.000  1.4490e-01
13.500  22.250  1.4862e-01
13.500  22.500  1.5084e-01
13.500  22.750  1.5136e-01
13.500  23.000  1.5001e-01
13.500  23.250  1.4661e-01
13.500  23.500  1.3631e-01
13.500  23.750  1.0795e-01
13.500  24.000  8.4753e-02
13.750  17.000  3.4392e-02
13.750  17.250  3.1348e-02
13.750  17.500  3.0209e-02
13.750  17.750  3.1190e-02
13.750  18.000  3.4082e-02
13.750  18.250  3.8674e-02
13.750  18.500  4.4760e-02
13.750  18.750  5.2129e-02
13.750  19.000  6.0573e-02
13.750  19.250  6.9883e-02
13.750  19.500  7.9849e-02
13.750  19.750  9.0264e-02
13.750  20.000  1.0092e-01
13.750  20.250  1.1160e-01
13.750  20.500  1.2211e-01
13.750  20.750  1.3222e-01
13.750  21.000  1.4175e-01
13.750  21.250  1.5046e-01
13.750  21.500  1.5816e-01
13.750  21.750  1.6464e-01
13.750  22.000  1.6969e-01
13.750  22.250  1.7309e-01
13.750  22.500  1.7464e-01
13.750  22.750  1.7414e-01
13.750  23.000  1.7137e-01
13.750  23.250  1.6612e-01
13.750  23.500  1.5818e-01
13.750  23.750  1.4339e-01
13.750  24.000  1.1021e-01
14.000  17.000  3.1440e-02
14.000  17.250  3.1264e-02
14.000  17.500  1.9515e-02
14.000  17.750  1.5436e-02
14.000  18.000  1.4664e-02
14.000  18.250  1.4403e-02
14.000  18.500  1.4512e-02
14.000  18.750  1.4852e-02
14.000  19.000  1.5282e-02
14.000  19.250  1.5663e-02
14.000  19.500  1.5854e-02
14.000  19.750  1.5715e-02
14.000  20.000  1.5107e-02
14.000  20.250  1.4463e-02
14.000  20.500  1.5937e-02
14.000  20.750  1.9942e-02
14.000  21.000  2.6316e-02
14.000  21.250  3.4893e-02
14.000  21.500  4.5511e-02
14.000  21.750  5.8005e-02
14.000  22.000  7.2211e-02
14.000  22.250  8.7966e-02
14.000  22.500  1.0510e-01
14.000  22.750  1.2346e-01
14.000  23.000  1.4288e-01
14.000  23.250  1.6186e-01
14.000  23.500  1.7432e-01
14.000  23.750  1.7309e-01
14.000  24.000  1.4953e-01
