InwC 913.000A  relative to Inci 1215.00A scaled to 1215A.
Hden   Phi(H)  Eq_Width (A)
7.000  17.000  4.1201e-02
7.000  17.250  4.2648e-02
7.000  17.500  4.3799e-02
7.000  17.750  4.3819e-02
7.000  18.000  4.3839e-02
7.000  18.250  4.3863e-02
7.000  18.500  4.3875e-02
7.000  18.750  4.3881e-02
7.000  19.000  4.3886e-02
7.000  19.250  4.3890e-02
7.000  19.500  4.3891e-02
7.000  19.750  4.3892e-02
7.000  20.000  4.3892e-02
7.000  20.250  4.3893e-02
7.000  20.500  4.3893e-02
7.000  20.750  4.3893e-02
7.000  21.000  4.3893e-02
7.000  21.250  4.3893e-02
7.000  21.500  4.3893e-02
7.000  21.750  4.3894e-02
7.000  22.000  4.3894e-02
7.000  22.250  4.3894e-02
7.000  22.500  4.3895e-02
7.000  22.750  4.3895e-02
7.000  23.000  4.3895e-02
7.000  23.250  4.3895e-02
7.000  23.500  4.3895e-02
7.000  23.750  4.3895e-02
7.000  24.000  4.3895e-02
7.250  17.000  3.3275e-02
7.250  17.250  4.1197e-02
7.250  17.500  4.2658e-02
7.250  17.750  4.3799e-02
7.250  18.000  4.3819e-02
7.250  18.250  4.3839e-02
7.250  18.500  4.3863e-02
7.250  18.750  4.3875e-02
7.250  19.000  4.3881e-02
7.250  19.250  4.3886e-02
7.250  19.500  4.3890e-02
7.250  19.750  4.3891e-02
7.250  20.000  4.3892e-02
7.250  20.250  4.3892e-02
7.250  20.500  4.3893e-02
7.250  20.750  4.3893e-02
7.250  21.000  4.3893e-02
7.250  21.250  4.3893e-02
7.250  21.500  4.3893e-02
7.250  21.750  4.3893e-02
7.250  22.000  4.3893e-02
7.250  22.250  4.3893e-02
7.250  22.500  4.3893e-02
7.250  22.750  4.3894e-02
7.250  23.000  4.3894e-02
7.250  23.250  4.3894e-02
7.250  23.500  4.3894e-02
7.250  23.750  4.3894e-02
7.250  24.000  4.3894e-02
7.500  17.000  2.1824e-02
7.500  17.250  3.3141e-02
7.500  17.500  4.1195e-02
7.500  17.750  4.2667e-02
7.500  18.000  4.3800e-02
7.500  18.250  4.3819e-02
7.500  18.500  4.3839e-02
7.500  18.750  4.3863e-02
7.500  19.000  4.3875e-02
7.500  19.250  4.3881e-02
7.500  19.500  4.3886e-02
7.500  19.750  4.3890e-02
7.500  20.000  4.3891e-02
7.500  20.250  4.3892e-02
7.500  20.500  4.3892e-02
7.500  20.750  4.3892e-02
7.500  21.000  4.3893e-02
7.500  21.250  4.3893e-02
7.500  21.500  4.3893e-02
7.500  21.750  4.3893e-02
7.500  22.000  4.3893e-02
7.500  22.250  4.3893e-02
7.500  22.500  4.3893e-02
7.500  22.750  4.3893e-02
7.500  23.000  4.3893e-02
7.500  23.250  4.3893e-02
7.500  23.500  4.3896e-02
7.500  23.750  4.3893e-02
7.500  24.000  4.3893e-02
7.750  17.000  1.3788e-02
7.750  17.250  2.1478e-02
7.750  17.500  3.3050e-02
7.750  17.750  4.1192e-02
7.750  18.000  4.2676e-02
7.750  18.250  4.3800e-02
7.750  18.500  4.3819e-02
7.750  18.750  4.3839e-02
7.750  19.000  4.3863e-02
7.750  19.250  4.3875e-02
7.750  19.500  4.3881e-02
7.750  19.750  4.3886e-02
7.750  20.000  4.3890e-02
7.750  20.250  4.3891e-02
7.750  20.500  4.3892e-02
7.750  20.750  4.3892e-02
7.750  21.000  4.3892e-02
7.750  21.250  4.3893e-02
7.750  21.500  4.3893e-02
7.750  21.750  4.3893e-02
7.750  22.000  4.3893e-02
7.750  22.250  4.3893e-02
7.750  22.500  4.3893e-02
7.750  22.750  4.3893e-02
7.750  23.000  4.3893e-02
7.750  23.250  4.3893e-02
7.750  23.500  4.3893e-02
7.750  23.750  4.3893e-02
7.750  24.000  4.3893e-02
8.000  17.000  9.1877e-03
8.000  17.250  1.3363e-02
8.000  17.500  2.0977e-02
8.000  17.750  3.2738e-02
8.000  18.000  4.1190e-02
8.000  18.250  4.2673e-02
8.000  18.500  4.3800e-02
8.000  18.750  4.3819e-02
8.000  19.000  4.3839e-02
8.000  19.250  4.3864e-02
8.000  19.500  4.3875e-02
8.000  19.750  4.3881e-02
8.000  20.000  4.3886e-02
8.000  20.250  4.3890e-02
8.000  20.500  4.3891e-02
8.000  20.750  4.3892e-02
8.000  21.000  4.3892e-02
8.000  21.250  4.3892e-02
8.000  21.500  4.3893e-02
8.000  21.750  4.3893e-02
8.000  22.000  4.3893e-02
8.000  22.250  4.3893e-02
8.000  22.500  4.3893e-02
8.000  22.750  4.3893e-02
8.000  23.000  4.3893e-02
8.000  23.250  4.3894e-02
8.000  23.500  4.3893e-02
8.000  23.750  4.3893e-02
8.000  24.000  4.3893e-02
8.250  17.000  6.7833e-03
8.250  17.250  8.9675e-03
8.250  17.500  1.3112e-02
8.250  17.750  2.0767e-02
8.250  18.000  3.2668e-02
8.250  18.250  4.1184e-02
8.250  18.500  4.2681e-02
8.250  18.750  4.3800e-02
8.250  19.000  4.3819e-02
8.250  19.250  4.3839e-02
8.250  19.500  4.3863e-02
8.250  19.750  4.3875e-02
8.250  20.000  4.3881e-02
8.250  20.250  4.3886e-02
8.250  20.500  4.3890e-02
8.250  20.750  4.3891e-02
8.250  21.000  4.3892e-02
8.250  21.250  4.3892e-02
8.250  21.500  4.3893e-02
8.250  21.750  4.3893e-02
8.250  22.000  4.3893e-02
8.250  22.250  4.3893e-02
8.250  22.500  4.3893e-02
8.250  22.750  4.3893e-02
8.250  23.000  4.3893e-02
8.250  23.250  4.3893e-02
8.250  23.500  4.3893e-02
8.250  23.750  4.3893e-02
8.250  24.000  4.3893e-02
8.500  17.000  5.4788e-03
8.500  17.250  6.6100e-03
8.500  17.500  8.7872e-03
8.500  17.750  1.2901e-02
8.500  18.000  2.0668e-02
8.500  18.250  3.2743e-02
8.500  18.500  4.1168e-02
8.500  18.750  4.2688e-02
8.500  19.000  4.3800e-02
8.500  19.250  4.3820e-02
8.500  19.500  4.3840e-02
8.500  19.750  4.3863e-02
8.500  20.000  4.3875e-02
8.500  20.250  4.3881e-02
8.500  20.500  4.3886e-02
8.500  20.750  4.3890e-02
8.500  21.000  4.3891e-02
8.500  21.250  4.3892e-02
8.500  21.500  4.3892e-02
8.500  21.750  4.3892e-02
8.500  22.000  4.3893e-02
8.500  22.250  4.3893e-02
8.500  22.500  4.3893e-02
8.500  22.750  4.3893e-02
8.500  23.000  4.3893e-02
8.500  23.250  4.3893e-02
8.500  23.500  4.3893e-02
8.500  23.750  4.3893e-02
8.500  24.000  4.3893e-02
8.750  17.000  4.7485e-03
8.750  17.250  5.3328e-03
8.750  17.500  6.4756e-03
8.750  17.750  8.6547e-03
8.750  18.000  1.2863e-02
8.750  18.250  2.0946e-02
8.750  18.500  3.3204e-02
8.750  18.750  4.1146e-02
8.750  19.000  4.2694e-02
8.750  19.250  4.3800e-02
8.750  19.500  4.3820e-02
8.750  19.750  4.3840e-02
8.750  20.000  4.3864e-02
8.750  20.250  4.3875e-02
8.750  20.500  4.3881e-02
8.750  20.750  4.3886e-02
8.750  21.000  4.3890e-02
8.750  21.250  4.3891e-02
8.750  21.500  4.3892e-02
8.750  21.750  4.3892e-02
8.750  22.000  4.3892e-02
8.750  22.250  4.3892e-02
8.750  22.500  4.3893e-02
8.750  22.750  4.3893e-02
8.750  23.000  4.3893e-02
8.750  23.250  4.3893e-02
8.750  23.500  4.3893e-02
8.750  23.750  4.3893e-02
8.750  24.000  4.3893e-02
9.000  17.000  4.3114e-03
9.000  17.250  4.6180e-03
9.000  17.500  5.2194e-03
9.000  17.750  6.3923e-03
9.000  18.000  8.6726e-03
9.000  18.250  1.3215e-02
9.000  18.500  2.2108e-02
9.000  18.750  3.4744e-02
9.000  19.000  4.1145e-02
9.000  19.250  4.2697e-02
9.000  19.500  4.3799e-02
9.000  19.750  4.3820e-02
9.000  20.000  4.3840e-02
9.000  20.250  4.3864e-02
9.000  20.500  4.3875e-02
9.000  20.750  4.3881e-02
9.000  21.000  4.3886e-02
9.000  21.250  4.3890e-02
9.000  21.500  4.3891e-02
9.000  21.750  4.3892e-02
9.000  22.000  4.3892e-02
9.000  22.250  4.3892e-02
9.000  22.500  4.3892e-02
9.000  22.750  4.3893e-02
9.000  23.000  4.3893e-02
9.000  23.250  4.3893e-02
9.000  23.500  4.3893e-02
9.000  23.750  4.3893e-02
9.000  24.000  4.3893e-02
9.250  17.000  4.0274e-03
9.250  17.250  4.1883e-03
9.250  17.500  4.5192e-03
9.250  17.750  5.1837e-03
9.250  18.000  6.5435e-03
9.250  18.250  9.1717e-03
9.250  18.500  1.4432e-02
9.250  18.750  2.4579e-02
9.250  19.000  3.7071e-02
9.250  19.250  4.1143e-02
9.250  19.500  4.2696e-02
9.250  19.750  4.3799e-02
9.250  20.000  4.3820e-02
9.250  20.250  4.3840e-02
9.250  20.500  4.3863e-02
9.250  20.750  4.3875e-02
9.250  21.000  4.3881e-02
9.250  21.250  4.3886e-02
9.250  21.500  4.3882e-02
9.250  21.750  4.3879e-02
9.250  22.000  4.3878e-02
9.250  22.250  4.3879e-02
9.250  22.500  4.3892e-02
9.250  22.750  4.3892e-02
9.250  23.000  4.3892e-02
9.250  23.250  4.3892e-02
9.250  23.500  4.3892e-02
9.250  23.750  4.3893e-02
9.250  24.000  4.3893e-02
9.500  17.000  3.8331e-03
9.500  17.250  3.9084e-03
9.500  17.500  4.1086e-03
9.500  17.750  4.5449e-03
9.500  18.000  5.4045e-03
9.500  18.250  7.0347e-03
9.500  18.500  1.0209e-02
9.500  18.750  1.6550e-02
9.500  19.000  2.8090e-02
9.500  19.250  3.8954e-02
9.500  19.500  4.1142e-02
9.500  19.750  4.2687e-02
9.500  20.000  4.3798e-02
9.500  20.250  4.3820e-02
9.500  20.500  4.3840e-02
9.500  20.750  4.3862e-02
9.500  21.000  4.3866e-02
9.500  21.250  4.3868e-02
9.500  21.500  4.3873e-02
9.500  21.750  4.3873e-02
9.500  22.000  4.3868e-02
9.500  22.250  4.3869e-02
9.500  22.500  4.3869e-02
9.500  22.750  4.3868e-02
9.500  23.000  4.3869e-02
9.500  23.250  4.3869e-02
9.500  23.500  4.3875e-02
9.500  23.750  4.3875e-02
9.500  24.000  4.3875e-02
9.750  17.000  3.7252e-03
9.750  17.250  3.7124e-03
9.750  17.500  3.8362e-03
9.750  17.750  4.1548e-03
9.750  18.000  4.7837e-03
9.750  18.250  5.9132e-03
9.750  18.500  7.9764e-03
9.750  18.750  1.1941e-02
9.750  19.000  1.9755e-02
9.750  19.250  3.2401e-02
9.750  19.500  4.0205e-02
9.750  19.750  4.1147e-02
9.750  20.000  4.2674e-02
9.750  20.250  4.3797e-02
9.750  20.500  4.3820e-02
9.750  20.750  4.3841e-02
9.750  21.000  4.3863e-02
9.750  21.250  4.3872e-02
9.750  21.500  4.3870e-02
9.750  21.750  4.3873e-02
9.750  22.000  4.3875e-02
9.750  22.250  4.3871e-02
9.750  22.500  4.3868e-02
9.750  22.750  4.3869e-02
9.750  23.000  4.3870e-02
9.750  23.250  4.3869e-02
9.750  23.500  4.3869e-02
9.750  23.750  4.3869e-02
9.750  24.000  4.3869e-02
10.000  17.000  3.7074e-03
10.000  17.250  3.5855e-03
10.000  17.500  3.6178e-03
10.000  17.750  3.8656e-03
10.000  18.000  4.4174e-03
10.000  18.250  5.3043e-03
10.000  18.500  6.7864e-03
10.000  18.750  9.4706e-03
10.000  19.000  1.4642e-02
10.000  19.250  2.4521e-02
10.000  19.500  3.6638e-02
10.000  19.750  4.0248e-02
10.000  20.000  4.1156e-02
10.000  20.250  4.2661e-02
10.000  20.500  4.3794e-02
10.000  20.750  4.3820e-02
10.000  21.000  4.3841e-02
10.000  21.250  4.3863e-02
10.000  21.500  4.3874e-02
10.000  21.750  4.3877e-02
10.000  22.000  4.3874e-02
10.000  22.250  4.3876e-02
10.000  22.500  4.3874e-02
10.000  22.750  4.3870e-02
10.000  23.000  4.3868e-02
10.000  23.250  4.3869e-02
10.000  23.500  4.3869e-02
10.000  23.750  4.3870e-02
10.000  24.000  4.3870e-02
10.250  17.000  3.7806e-03
10.250  17.250  3.5476e-03
10.250  17.500  3.4842e-03
10.250  17.750  3.6665e-03
10.250  18.000  4.1681e-03
10.250  18.250  4.9431e-03
10.250  18.500  6.1257e-03
10.250  18.750  8.1555e-03
10.250  19.000  1.1901e-02
10.250  19.250  1.8581e-02
10.250  19.500  2.9159e-02
10.250  19.750  3.8474e-02
10.250  20.000  4.0296e-02
10.250  20.250  4.1164e-02
10.250  20.500  4.2659e-02
10.250  20.750  4.3791e-02
10.250  21.000  4.3819e-02
10.250  21.250  4.3840e-02
10.250  21.500  4.3863e-02
10.250  21.750  4.3875e-02
10.250  22.000  4.3880e-02
10.250  22.250  4.3879e-02
10.250  22.500  4.3877e-02
10.250  22.750  4.3876e-02
10.250  23.000  4.3874e-02
10.250  23.250  4.3871e-02
10.250  23.500  4.3869e-02
10.250  23.750  4.3868e-02
10.250  24.000  4.3869e-02
10.500  17.000  3.9156e-03
10.500  17.250  3.5914e-03
10.500  17.500  3.4374e-03
10.500  17.750  3.5534e-03
10.500  18.000  3.9840e-03
10.500  18.250  4.9765e-03
10.500  18.500  6.5329e-03
10.500  18.750  8.5743e-03
10.500  19.000  1.1022e-02
10.500  19.250  1.3796e-02
10.500  19.500  1.6819e-02
10.500  19.750  2.0011e-02
10.500  20.000  2.3294e-02
10.500  20.250  2.6588e-02
10.500  20.500  2.9814e-02
10.500  20.750  3.2894e-02
10.500  21.000  3.5749e-02
10.500  21.250  3.8300e-02
10.500  21.500  4.0467e-02
10.500  21.750  4.2172e-02
10.500  22.000  4.3337e-02
10.500  22.250  4.3881e-02
10.500  22.500  4.3884e-02
10.500  22.750  4.3877e-02
10.500  23.000  4.3878e-02
10.500  23.250  4.3876e-02
10.500  23.500  4.3874e-02
10.500  23.750  4.3873e-02
10.500  24.000  4.3871e-02
10.750  17.000  4.0695e-03
10.750  17.250  3.6912e-03
10.750  17.500  3.4708e-03
10.750  17.750  3.5281e-03
10.750  18.000  3.8578e-03
10.750  18.250  4.4133e-03
10.750  18.500  5.5480e-03
10.750  18.750  7.2871e-03
10.750  19.000  9.5392e-03
10.750  19.250  1.2213e-02
10.750  19.500  1.5217e-02
10.750  19.750  1.8459e-02
10.750  20.000  2.1848e-02
10.750  20.250  2.5293e-02
10.750  20.500  2.8702e-02
10.750  20.750  3.1984e-02
10.750  21.000  3.5046e-02
10.750  21.250  3.7799e-02
10.750  21.500  4.0149e-02
10.750  21.750  4.2006e-02
10.750  22.000  4.3279e-02
10.750  22.250  4.3875e-02
10.750  22.500  4.3881e-02
10.750  22.750  4.3885e-02
10.750  23.000  4.3880e-02
10.750  23.250  4.3878e-02
10.750  23.500  4.3878e-02
10.750  23.750  4.3877e-02
10.750  24.000  4.3875e-02
11.000  17.000  4.1967e-03
11.000  17.250  3.8072e-03
11.000  17.500  3.5514e-03
11.000  17.750  3.5579e-03
11.000  18.000  3.7905e-03
11.000  18.250  4.1652e-03
11.000  18.500  4.6971e-03
11.000  18.750  5.8739e-03
11.000  19.000  7.7365e-03
11.000  19.250  1.0174e-02
11.000  19.500  1.3075e-02
11.000  19.750  1.6329e-02
11.000  20.000  1.9825e-02
11.000  20.250  2.3451e-02
11.000  20.500  2.7098e-02
11.000  20.750  3.0654e-02
11.000  21.000  3.4008e-02
11.000  21.250  3.7048e-02
11.000  21.500  3.9665e-02
11.000  21.750  4.1747e-02
11.000  22.000  4.3184e-02
11.000  22.250  4.3863e-02
11.000  22.500  4.3875e-02
11.000  22.750  4.3881e-02
11.000  23.000  4.3886e-02
11.000  23.250  4.3886e-02
11.000  23.500  4.3879e-02
11.000  23.750  4.3879e-02
11.000  24.000  4.3878e-02
11.250  17.000  4.2207e-03
11.250  17.250  3.8850e-03
11.250  17.500  3.6244e-03
11.250  17.750  3.5980e-03
11.250  18.000  3.7509e-03
11.250  18.250  3.9655e-03
11.250  18.500  4.2747e-03
11.250  18.750  4.7795e-03
11.250  19.000  5.5631e-03
11.250  19.250  6.9514e-03
11.250  19.500  8.9471e-03
11.250  19.750  1.1449e-02
11.250  20.000  1.4354e-02
11.250  20.250  1.7561e-02
11.250  20.500  2.0970e-02
11.250  20.750  2.4476e-02
11.250  21.000  2.7980e-02
11.250  21.250  3.1379e-02
11.250  21.500  3.4571e-02
11.250  21.750  3.7456e-02
11.250  22.000  3.9930e-02
11.250  22.250  4.1892e-02
11.250  22.500  4.3241e-02
11.250  22.750  4.3875e-02
11.250  23.000  4.3881e-02
11.250  23.250  4.3886e-02
11.250  23.500  4.3889e-02
11.250  23.750  4.3881e-02
11.250  24.000  4.3879e-02
11.500  17.000  4.0840e-03
11.500  17.250  3.8664e-03
11.500  17.500  3.6403e-03
11.500  17.750  3.6012e-03
11.500  18.000  3.6915e-03
11.500  18.250  3.8030e-03
11.500  18.500  3.9776e-03
11.500  18.750  4.2915e-03
11.500  19.000  4.8198e-03
11.500  19.250  5.6365e-03
11.500  19.500  6.8486e-03
11.500  19.750  8.7970e-03
11.500  20.000  1.1403e-02
11.500  20.250  1.4516e-02
11.500  20.500  1.8002e-02
11.500  20.750  2.1725e-02
11.500  21.000  2.5550e-02
11.500  21.250  2.9343e-02
11.500  21.500  3.2968e-02
11.500  21.750  3.6291e-02
11.500  22.000  3.9177e-02
11.500  22.250  4.1491e-02
11.500  22.500  4.3097e-02
11.500  22.750  4.3861e-02
11.500  23.000  4.3875e-02
11.500  23.250  4.3881e-02
11.500  23.500  4.3886e-02
11.500  23.750  4.3890e-02
11.500  24.000  4.3887e-02
11.750  17.000  3.6816e-03
11.750  17.250  3.6681e-03
11.750  17.500  3.5419e-03
11.750  17.750  3.5281e-03
11.750  18.000  3.6071e-03
11.750  18.250  3.6788e-03
11.750  18.500  3.7683e-03
11.750  18.750  3.9368e-03
11.750  19.000  4.2567e-03
11.750  19.250  4.8073e-03
11.750  19.500  5.6541e-03
11.750  19.750  6.9124e-03
11.750  20.000  8.9540e-03
11.750  20.250  1.2460e-02
11.750  20.500  1.8680e-02
11.750  20.750  2.9050e-02
11.750  21.000  3.8194e-02
11.750  21.250  3.9787e-02
11.750  21.500  4.0697e-02
11.750  21.750  4.2123e-02
11.750  22.000  4.3662e-02
11.750  22.250  4.3753e-02
11.750  22.500  4.3805e-02
11.750  22.750  4.3835e-02
11.750  23.000  4.3861e-02
11.750  23.250  4.3875e-02
11.750  23.500  4.3881e-02
11.750  23.750  4.3886e-02
11.750  24.000  4.3890e-02
12.000  17.000  2.9872e-03
12.000  17.250  3.2121e-03
12.000  17.500  3.2635e-03
12.000  17.750  3.3563e-03
12.000  18.000  3.4814e-03
12.000  18.250  3.5385e-03
12.000  18.500  3.5644e-03
12.000  18.750  3.6388e-03
12.000  19.000  3.8244e-03
12.000  19.250  4.1742e-03
12.000  19.500  4.7503e-03
12.000  19.750  5.6184e-03
12.000  20.000  6.9128e-03
12.000  20.250  9.0152e-03
12.000  20.500  1.2636e-02
12.000  20.750  1.9104e-02
12.000  21.000  2.9993e-02
12.000  21.250  3.8323e-02
12.000  21.500  3.9882e-02
12.000  21.750  4.0958e-02
12.000  22.000  4.2595e-02
12.000  22.250  4.3652e-02
12.000  22.500  4.3743e-02
12.000  22.750  4.3800e-02
12.000  23.000  4.3833e-02
12.000  23.250  4.3860e-02
12.000  23.500  4.3875e-02
12.000  23.750  4.3881e-02
12.000  24.000  4.3886e-02
12.250  17.000  2.1397e-03
12.250  17.250  2.5355e-03
12.250  17.500  2.8035e-03
12.250  17.750  3.0626e-03
12.250  18.000  3.2324e-03
12.250  18.250  3.2717e-03
12.250  18.500  3.2719e-03
12.250  18.750  3.3262e-03
12.250  19.000  3.4571e-03
12.250  19.250  3.6896e-03
12.250  19.500  4.0693e-03
12.250  19.750  4.6657e-03
12.250  20.000  5.5442e-03
12.250  20.250  6.8507e-03
12.250  20.500  8.9830e-03
12.250  20.750  1.2675e-02
12.250  21.000  1.9399e-02
12.250  21.250  3.0957e-02
12.250  21.500  3.8558e-02
12.250  21.750  4.0029e-02
12.250  22.000  4.1304e-02
12.250  22.250  4.3049e-02
12.250  22.500  4.3639e-02
12.250  22.750  4.3733e-02
12.250  23.000  4.3794e-02
12.250  23.250  4.3830e-02
12.250  23.500  4.3860e-02
12.250  23.750  4.3874e-02
12.250  24.000  4.3880e-02
12.500  17.000  1.4545e-03
12.500  17.250  1.8874e-03
12.500  17.500  2.2771e-03
12.500  17.750  2.5784e-03
12.500  18.000  2.7370e-03
12.500  18.250  2.8040e-03
12.500  18.500  2.8603e-03
12.500  18.750  2.9565e-03
12.500  19.000  3.0942e-03
12.500  19.250  3.2835e-03
12.500  19.500  3.5533e-03
12.500  19.750  3.9523e-03
12.500  20.000  4.5556e-03
12.500  20.250  5.4271e-03
12.500  20.500  6.7326e-03
12.500  20.750  8.8770e-03
12.500  21.000  1.2647e-02
12.500  21.250  1.9699e-02
12.500  21.500  3.1734e-02
12.500  21.750  3.8791e-02
12.500  22.000  4.0247e-02
12.500  22.250  4.1706e-02
12.500  22.500  4.3314e-02
12.500  22.750  4.3629e-02
12.500  23.000  4.3725e-02
12.500  23.250  4.3787e-02
12.500  23.500  4.3826e-02
12.500  23.750  4.3858e-02
12.500  24.000  4.3874e-02
12.750  17.000  1.0200e-03
12.750  17.250  1.3700e-03
12.750  17.500  1.6656e-03
12.750  17.750  1.8765e-03
12.750  18.000  2.0446e-03
12.750  18.250  2.1986e-03
12.750  18.500  2.3472e-03
12.750  18.750  2.5104e-03
12.750  19.000  2.6949e-03
12.750  19.250  2.8955e-03
12.750  19.500  3.1225e-03
12.750  19.750  3.4135e-03
12.750  20.000  3.8188e-03
12.750  20.250  4.4202e-03
12.750  20.500  5.2715e-03
12.750  20.750  6.5634e-03
12.750  21.000  8.7179e-03
12.750  21.250  1.2613e-02
12.750  21.500  1.9830e-02
12.750  21.750  3.3029e-02
12.750  22.000  3.9079e-02
12.750  22.250  4.0508e-02
12.750  22.500  4.2148e-02
12.750  22.750  4.3427e-02
12.750  23.000  4.3623e-02
12.750  23.250  4.3719e-02
12.750  23.500  4.3781e-02
12.750  23.750  4.3822e-02
12.750  24.000  4.3856e-02
13.000  17.000  6.4716e-04
13.000  17.250  8.8469e-04
13.000  17.500  1.0634e-03
13.000  17.750  1.2212e-03
13.000  18.000  1.3943e-03
13.000  18.250  1.5862e-03
13.000  18.500  1.7906e-03
13.000  18.750  2.0081e-03
13.000  19.000  2.2396e-03
13.000  19.250  2.4759e-03
13.000  19.500  2.7105e-03
13.000  19.750  2.9595e-03
13.000  20.000  3.2586e-03
13.000  20.250  3.6672e-03
13.000  20.500  4.2539e-03
13.000  20.750  5.0891e-03
13.000  21.000  6.3691e-03
13.000  21.250  8.5692e-03
13.000  21.500  1.2549e-02
13.000  21.750  2.0302e-02
13.000  22.000  3.4339e-02
13.000  22.250  3.9313e-02
13.000  22.500  4.0797e-02
13.000  22.750  4.2450e-02
13.000  23.000  4.3464e-02
13.000  23.250  4.3620e-02
13.000  23.500  4.3713e-02
13.000  23.750  4.3774e-02
13.000  24.000  4.3817e-02
13.250  17.000  4.1547e-04
13.250  17.250  5.7177e-04
13.250  17.500  6.9687e-04
13.250  17.750  7.8025e-04
13.250  18.000  9.0305e-04
13.250  18.250  1.0672e-03
13.250  18.500  1.2674e-03
13.250  18.750  1.4959e-03
13.250  19.000  1.7499e-03
13.250  19.250  2.0179e-03
13.250  19.500  2.2821e-03
13.250  19.750  2.5391e-03
13.250  20.000  2.8010e-03
13.250  20.250  3.0991e-03
13.250  20.500  3.4942e-03
13.250  20.750  4.0597e-03
13.250  21.000  4.8727e-03
13.250  21.250  6.1517e-03
13.250  21.500  8.2994e-03
13.250  21.750  1.2403e-02
13.250  22.000  2.0959e-02
13.250  22.250  3.5685e-02
13.250  22.500  3.9446e-02
13.250  22.750  4.0861e-02
13.250  23.000  4.2402e-02
13.250  23.250  4.3462e-02
13.250  23.500  4.3613e-02
13.250  23.750  4.3706e-02
13.250  24.000  4.3767e-02
13.500  17.000  2.7671e-04
13.500  17.250  3.7300e-04
13.500  17.500  4.5292e-04
13.500  17.750  5.0700e-04
13.500  18.000  5.7835e-04
13.500  18.250  6.9267e-04
13.500  18.500  8.4675e-04
13.500  18.750  1.0424e-03
13.500  19.000  1.2766e-03
13.500  19.250  1.5416e-03
13.500  19.500  1.8181e-03
13.500  19.750  2.0899e-03
13.500  20.000  2.3486e-03
13.500  20.250  2.6109e-03
13.500  20.500  2.9035e-03
13.500  20.750  3.2868e-03
13.500  21.000  3.8288e-03
13.500  21.250  4.6148e-03
13.500  21.500  5.8442e-03
13.500  21.750  8.0347e-03
13.500  22.000  1.2430e-02
13.500  22.250  2.1935e-02
13.500  22.500  3.6625e-02
13.500  22.750  3.9482e-02
13.500  23.000  4.0781e-02
13.500  23.250  4.2373e-02
13.500  23.500  4.3452e-02
13.500  23.750  4.3602e-02
13.500  24.000  4.3696e-02
13.750  17.000  1.9342e-04
13.750  17.250  2.5514e-04
13.750  17.500  3.0584e-04
13.750  17.750  3.4091e-04
13.750  18.000  3.8222e-04
13.750  18.250  4.5111e-04
13.750  18.500  5.5416e-04
13.750  18.750  6.9366e-04
13.750  19.000  8.7720e-04
13.750  19.250  1.1029e-03
13.750  19.500  1.3615e-03
13.750  19.750  1.6325e-03
13.750  20.000  1.8994e-03
13.750  20.250  2.1532e-03
13.750  20.500  2.4078e-03
13.750  20.750  2.6935e-03
13.750  21.000  3.0599e-03
13.750  21.250  3.5734e-03
13.750  21.500  4.3305e-03
13.750  21.750  5.5397e-03
13.750  22.000  7.7722e-03
13.750  22.250  1.2571e-02
13.750  22.500  2.3666e-02
13.750  22.750  3.7337e-02
13.750  23.000  3.9434e-02
13.750  23.250  4.0725e-02
13.750  23.500  4.2285e-02
13.750  23.750  4.3432e-02
13.750  24.000  4.3583e-02
14.000  17.000  1.4049e-04
14.000  17.250  1.8346e-04
14.000  17.500  2.1794e-04
14.000  17.750  2.3975e-04
14.000  18.000  2.6519e-04
14.000  18.250  3.0519e-04
14.000  18.500  3.6733e-04
14.000  18.750  4.5761e-04
14.000  19.000  5.8255e-04
14.000  19.250  7.5004e-04
14.000  19.500  9.6016e-04
14.000  19.750  1.2027e-03
14.000  20.000  1.4599e-03
14.000  20.250  1.7145e-03
14.000  20.500  1.9571e-03
14.000  20.750  2.2006e-03
14.000  21.000  2.4743e-03
14.000  21.250  2.8292e-03
14.000  21.500  3.3308e-03
14.000  21.750  4.0463e-03
14.000  22.000  5.2644e-03
14.000  22.250  7.7210e-03
14.000  22.500  1.3350e-02
14.000  22.750  2.6435e-02
14.000  23.000  3.7772e-02
14.000  23.250  3.9455e-02
14.000  23.500  4.0759e-02
14.000  23.750  4.2403e-02
14.000  24.000  4.3391e-02
