InwC 4400.00A  relative to Inci 1215.00A scaled to 1215A.
Hden   Phi(H)  Eq_Width (A)
7.000  17.000  2.5533e-02
7.000  17.250  2.6694e-02
7.000  17.500  2.7372e-02
7.000  17.750  2.7384e-02
7.000  18.000  2.7397e-02
7.000  18.250  2.7412e-02
7.000  18.500  2.7420e-02
7.000  18.750  2.7423e-02
7.000  19.000  2.7426e-02
7.000  19.250  2.7429e-02
7.000  19.500  2.7430e-02
7.000  19.750  2.7430e-02
7.000  20.000  2.7430e-02
7.000  20.250  2.7430e-02
7.000  20.500  2.7430e-02
7.000  20.750  2.7430e-02
7.000  21.000  2.7430e-02
7.000  21.250  2.7431e-02
7.000  21.500  2.7431e-02
7.000  21.750  2.7431e-02
7.000  22.000  2.7431e-02
7.000  22.250  2.7431e-02
7.000  22.500  2.7432e-02
7.000  22.750  2.7432e-02
7.000  23.000  2.7432e-02
7.000  23.250  2.7432e-02
7.000  23.500  2.7432e-02
7.000  23.750  2.7432e-02
7.000  24.000  2.7432e-02
7.250  17.000  1.9012e-02
7.250  17.250  2.5624e-02
7.250  17.500  2.6700e-02
7.250  17.750  2.7372e-02
7.250  18.000  2.7384e-02
7.250  18.250  2.7397e-02
7.250  18.500  2.7412e-02
7.250  18.750  2.7420e-02
7.250  19.000  2.7423e-02
7.250  19.250  2.7426e-02
7.250  19.500  2.7429e-02
7.250  19.750  2.7429e-02
7.250  20.000  2.7430e-02
7.250  20.250  2.7430e-02
7.250  20.500  2.7430e-02
7.250  20.750  2.7430e-02
7.250  21.000  2.7430e-02
7.250  21.250  2.7430e-02
7.250  21.500  2.7430e-02
7.250  21.750  2.7430e-02
7.250  22.000  2.7431e-02
7.250  22.250  2.7431e-02
7.250  22.500  2.7431e-02
7.250  22.750  2.7431e-02
7.250  23.000  2.7431e-02
7.250  23.250  2.7431e-02
7.250  23.500  2.7431e-02
7.250  23.750  2.7431e-02
7.250  24.000  2.7431e-02
7.500  17.000  1.4010e-02
7.500  17.250  1.9254e-02
7.500  17.500  2.5693e-02
7.500  17.750  2.6704e-02
7.500  18.000  2.7372e-02
7.500  18.250  2.7384e-02
7.500  18.500  2.7397e-02
7.500  18.750  2.7412e-02
7.500  19.000  2.7420e-02
7.500  19.250  2.7423e-02
7.500  19.500  2.7426e-02
7.500  19.750  2.7429e-02
7.500  20.000  2.7430e-02
7.500  20.250  2.7430e-02
7.500  20.500  2.7430e-02
7.500  20.750  2.7430e-02
7.500  21.000  2.7430e-02
7.500  21.250  2.7430e-02
7.500  21.500  2.7430e-02
7.500  21.750  2.7430e-02
7.500  22.000  2.7430e-02
7.500  22.250  2.7430e-02
7.500  22.500  2.7430e-02
7.500  22.750  2.7430e-02
7.500  23.000  2.7430e-02
7.500  23.250  2.7431e-02
7.500  23.500  2.7432e-02
7.500  23.750  2.7431e-02
7.500  24.000  2.7431e-02
7.750  17.000  9.8626e-03
7.750  17.250  1.4301e-02
7.750  17.500  1.9450e-02
7.750  17.750  2.5745e-02
7.750  18.000  2.6709e-02
7.750  18.250  2.7372e-02
7.750  18.500  2.7384e-02
7.750  18.750  2.7397e-02
7.750  19.000  2.7412e-02
7.750  19.250  2.7420e-02
7.750  19.500  2.7423e-02
7.750  19.750  2.7426e-02
7.750  20.000  2.7429e-02
7.750  20.250  2.7430e-02
7.750  20.500  2.7430e-02
7.750  20.750  2.7430e-02
7.750  21.000  2.7430e-02
7.750  21.250  2.7430e-02
7.750  21.500  2.7430e-02
7.750  21.750  2.7430e-02
7.750  22.000  2.7430e-02
7.750  22.250  2.7430e-02
7.750  22.500  2.7430e-02
7.750  22.750  2.7430e-02
7.750  23.000  2.7430e-02
7.750  23.250  2.7430e-02
7.750  23.500  2.7430e-02
7.750  23.750  2.7430e-02
7.750  24.000  2.7430e-02
8.000  17.000  6.7509e-03
8.000  17.250  1.0044e-02
8.000  17.500  1.4536e-02
8.000  17.750  1.9541e-02
8.000  18.000  2.5678e-02
8.000  18.250  2.6707e-02
8.000  18.500  2.7372e-02
8.000  18.750  2.7384e-02
8.000  19.000  2.7397e-02
8.000  19.250  2.7412e-02
8.000  19.500  2.7420e-02
8.000  19.750  2.7423e-02
8.000  20.000  2.7426e-02
8.000  20.250  2.7429e-02
8.000  20.500  2.7429e-02
8.000  20.750  2.7430e-02
8.000  21.000  2.7430e-02
8.000  21.250  2.7430e-02
8.000  21.500  2.7430e-02
8.000  21.750  2.7430e-02
8.000  22.000  2.7430e-02
8.000  22.250  2.7430e-02
8.000  22.500  2.7430e-02
8.000  22.750  2.7430e-02
8.000  23.000  2.7430e-02
8.000  23.250  2.7431e-02
8.000  23.500  2.7430e-02
8.000  23.750  2.7430e-02
8.000  24.000  2.7430e-02
8.250  17.000  4.6884e-03
8.250  17.250  6.9142e-03
8.250  17.500  1.0322e-02
8.250  17.750  1.4877e-02
8.250  18.000  1.9844e-02
8.250  18.250  2.5734e-02
8.250  18.500  2.6711e-02
8.250  18.750  2.7372e-02
8.250  19.000  2.7385e-02
8.250  19.250  2.7397e-02
8.250  19.500  2.7412e-02
8.250  19.750  2.7420e-02
8.250  20.000  2.7423e-02
8.250  20.250  2.7426e-02
8.250  20.500  2.7429e-02
8.250  20.750  2.7429e-02
8.250  21.000  2.7430e-02
8.250  21.250  2.7430e-02
8.250  21.500  2.7430e-02
8.250  21.750  2.7430e-02
8.250  22.000  2.7430e-02
8.250  22.250  2.7430e-02
8.250  22.500  2.7430e-02
8.250  22.750  2.7430e-02
8.250  23.000  2.7430e-02
8.250  23.250  2.7430e-02
8.250  23.500  2.7430e-02
8.250  23.750  2.7430e-02
8.250  24.000  2.7430e-02
8.500  17.000  3.3090e-03
8.500  17.250  4.8085e-03
8.500  17.500  7.1310e-03
8.500  17.750  1.0715e-02
8.500  18.000  1.5453e-02
8.500  18.250  2.0286e-02
8.500  18.500  2.5837e-02
8.500  18.750  2.6715e-02
8.500  19.000  2.7372e-02
8.500  19.250  2.7385e-02
8.500  19.500  2.7397e-02
8.500  19.750  2.7412e-02
8.500  20.000  2.7420e-02
8.500  20.250  2.7423e-02
8.500  20.500  2.7426e-02
8.500  20.750  2.7429e-02
8.500  21.000  2.7430e-02
8.500  21.250  2.7430e-02
8.500  21.500  2.7430e-02
8.500  21.750  2.7430e-02
8.500  22.000  2.7430e-02
8.500  22.250  2.7430e-02
8.500  22.500  2.7430e-02
8.500  22.750  2.7430e-02
8.500  23.000  2.7430e-02
8.500  23.250  2.7430e-02
8.500  23.500  2.7430e-02
8.500  23.750  2.7430e-02
8.500  24.000  2.7430e-02
8.750  17.000  2.3570e-03
8.750  17.250  3.3954e-03
8.750  17.500  4.9774e-03
8.750  17.750  7.4919e-03
8.750  18.000  1.1373e-02
8.750  18.250  1.6340e-02
8.750  18.500  2.1146e-02
8.750  18.750  2.5888e-02
8.750  19.000  2.6718e-02
8.750  19.250  2.7372e-02
8.750  19.500  2.7385e-02
8.750  19.750  2.7397e-02
8.750  20.000  2.7412e-02
8.750  20.250  2.7420e-02
8.750  20.500  2.7423e-02
8.750  20.750  2.7426e-02
8.750  21.000  2.7429e-02
8.750  21.250  2.7429e-02
8.750  21.500  2.7430e-02
8.750  21.750  2.7430e-02
8.750  22.000  2.7430e-02
8.750  22.250  2.7430e-02
8.750  22.500  2.7430e-02
8.750  22.750  2.7430e-02
8.750  23.000  2.7430e-02
8.750  23.250  2.7430e-02
8.750  23.500  2.7430e-02
8.750  23.750  2.7430e-02
8.750  24.000  2.7430e-02
9.000  17.000  1.6898e-03
9.000  17.250  2.4206e-03
9.000  17.500  3.5286e-03
9.000  17.750  5.2660e-03
9.000  18.000  8.1040e-03
9.000  18.250  1.2458e-02
9.000  18.500  1.7566e-02
9.000  18.750  2.1823e-02
9.000  19.000  2.5881e-02
9.000  19.250  2.6718e-02
9.000  19.500  2.7372e-02
9.000  19.750  2.7385e-02
9.000  20.000  2.7397e-02
9.000  20.250  2.7412e-02
9.000  20.500  2.7420e-02
9.000  20.750  2.7423e-02
9.000  21.000  2.7426e-02
9.000  21.250  2.7429e-02
9.000  21.500  2.7430e-02
9.000  21.750  2.7430e-02
9.000  22.000  2.7430e-02
9.000  22.250  2.7430e-02
9.000  22.500  2.7430e-02
9.000  22.750  2.7430e-02
9.000  23.000  2.7430e-02
9.000  23.250  2.7430e-02
9.000  23.500  2.7430e-02
9.000  23.750  2.7430e-02
9.000  24.000  2.7430e-02
9.250  17.000  1.2183e-03
9.250  17.250  1.7356e-03
9.250  17.500  2.5245e-03
9.250  17.750  3.7685e-03
9.250  18.000  5.8321e-03
9.250  18.250  9.1672e-03
9.250  18.500  1.3895e-02
9.250  18.750  1.8957e-02
9.250  19.000  2.3097e-02
9.250  19.250  2.5866e-02
9.250  19.500  2.6715e-02
9.250  19.750  2.7372e-02
9.250  20.000  2.7385e-02
9.250  20.250  2.7398e-02
9.250  20.500  2.7412e-02
9.250  20.750  2.7420e-02
9.250  21.000  2.7423e-02
9.250  21.250  2.7426e-02
9.250  21.500  2.7423e-02
9.250  21.750  2.7421e-02
9.250  22.000  2.7421e-02
9.250  22.250  2.7422e-02
9.250  22.500  2.7430e-02
9.250  22.750  2.7430e-02
9.250  23.000  2.7430e-02
9.250  23.250  2.7430e-02
9.250  23.500  2.7430e-02
9.250  23.750  2.7430e-02
9.250  24.000  2.7430e-02
9.500  17.000  8.8354e-04
9.500  17.250  1.2525e-03
9.500  17.500  1.8170e-03
9.500  17.750  2.7242e-03
9.500  18.000  4.2648e-03
9.500  18.250  6.7705e-03
9.500  18.500  1.0536e-02
9.500  18.750  1.5396e-02
9.500  19.000  2.0060e-02
9.500  19.250  2.4143e-02
9.500  19.500  2.5843e-02
9.500  19.750  2.6706e-02
9.500  20.000  2.7372e-02
9.500  20.250  2.7385e-02
9.500  20.500  2.7398e-02
9.500  20.750  2.7411e-02
9.500  21.000  2.7414e-02
9.500  21.250  2.7415e-02
9.500  21.500  2.7418e-02
9.500  21.750  2.7418e-02
9.500  22.000  2.7415e-02
9.500  22.250  2.7416e-02
9.500  22.500  2.7416e-02
9.500  22.750  2.7415e-02
9.500  23.000  2.7415e-02
9.500  23.250  2.7416e-02
9.500  23.500  2.7419e-02
9.500  23.750  2.7419e-02
9.500  24.000  2.7419e-02
9.750  17.000  6.4576e-04
9.750  17.250  9.0807e-04
9.750  17.500  1.3138e-03
9.750  17.750  1.9802e-03
9.750  18.000  3.1312e-03
9.750  18.250  5.0544e-03
9.750  18.500  7.9312e-03
9.750  18.750  1.1902e-02
9.750  19.000  1.6728e-02
9.750  19.250  2.1322e-02
9.750  19.500  2.5300e-02
9.750  19.750  2.5815e-02
9.750  20.000  2.6691e-02
9.750  20.250  2.7371e-02
9.750  20.500  2.7385e-02
9.750  20.750  2.7398e-02
9.750  21.000  2.7412e-02
9.750  21.250  2.7417e-02
9.750  21.500  2.7416e-02
9.750  21.750  2.7418e-02
9.750  22.000  2.7419e-02
9.750  22.250  2.7417e-02
9.750  22.500  2.7415e-02
9.750  22.750  2.7416e-02
9.750  23.000  2.7416e-02
9.750  23.250  2.7416e-02
9.750  23.500  2.7416e-02
9.750  23.750  2.7415e-02
9.750  24.000  2.7415e-02
10.000  17.000  4.7597e-04
10.000  17.250  6.6395e-04
10.000  17.500  9.5621e-04
10.000  17.750  1.4476e-03
10.000  18.000  2.3226e-03
10.000  18.250  3.7853e-03
10.000  18.500  5.9692e-03
10.000  18.750  9.0230e-03
10.000  19.000  1.3168e-02
10.000  19.250  1.7887e-02
10.000  19.500  2.2687e-02
10.000  19.750  2.5300e-02
10.000  20.000  2.5786e-02
10.000  20.250  2.6665e-02
10.000  20.500  2.7367e-02
10.000  20.750  2.7385e-02
10.000  21.000  2.7398e-02
10.000  21.250  2.7412e-02
10.000  21.500  2.7419e-02
10.000  21.750  2.7420e-02
10.000  22.000  2.7419e-02
10.000  22.250  2.7420e-02
10.000  22.500  2.7419e-02
10.000  22.750  2.7416e-02
10.000  23.000  2.7415e-02
10.000  23.250  2.7416e-02
10.000  23.500  2.7416e-02
10.000  23.750  2.7416e-02
10.000  24.000  2.7416e-02
10.250  17.000  3.5539e-04
10.250  17.250  4.9021e-04
10.250  17.500  7.0222e-04
10.250  17.750  1.0665e-03
10.250  18.000  1.7261e-03
10.250  18.250  2.8291e-03
10.250  18.500  4.4515e-03
10.250  18.750  6.7705e-03
10.250  19.000  9.9535e-03
10.250  19.250  1.4114e-02
10.250  19.500  1.8960e-02
10.250  19.750  2.3635e-02
10.250  20.000  2.5259e-02
10.250  20.250  2.5751e-02
10.250  20.500  2.6645e-02
10.250  20.750  2.7363e-02
10.250  21.000  2.7384e-02
10.250  21.250  2.7397e-02
10.250  21.500  2.7412e-02
10.250  21.750  2.7419e-02
10.250  22.000  2.7422e-02
10.250  22.250  2.7422e-02
10.250  22.500  2.7420e-02
10.250  22.750  2.7420e-02
10.250  23.000  2.7418e-02
10.250  23.250  2.7417e-02
10.250  23.500  2.7416e-02
10.250  23.750  2.7415e-02
10.250  24.000  2.7415e-02
10.500  17.000  2.7004e-04
10.500  17.250  3.6691e-04
10.500  17.500  5.2173e-04
10.500  17.750  7.9391e-04
10.500  18.000  1.2879e-03
10.500  18.250  2.1086e-03
10.500  18.500  3.2967e-03
10.500  18.750  5.0142e-03
10.500  19.000  7.3908e-03
10.500  19.250  1.0627e-02
10.500  19.500  1.4819e-02
10.500  19.750  1.9838e-02
10.500  20.000  2.4478e-02
10.500  20.250  2.5232e-02
10.500  20.500  2.5741e-02
10.500  20.750  2.6644e-02
10.500  21.000  2.7353e-02
10.500  21.250  2.7382e-02
10.500  21.500  2.7397e-02
10.500  21.750  2.7411e-02
10.500  22.000  2.7419e-02
10.500  22.250  2.7423e-02
10.500  22.500  2.7425e-02
10.500  22.750  2.7421e-02
10.500  23.000  2.7421e-02
10.500  23.250  2.7420e-02
10.500  23.500  2.7419e-02
10.500  23.750  2.7418e-02
10.500  24.000  2.7417e-02
10.750  17.000  2.0947e-04
10.750  17.250  2.7918e-04
10.750  17.500  3.9284e-04
10.750  17.750  5.9588e-04
10.750  18.000  9.6255e-04
10.750  18.250  1.5570e-03
10.750  18.500  2.4226e-03
10.750  18.750  3.6719e-03
10.750  19.000  5.4220e-03
10.750  19.250  7.8433e-03
10.750  19.500  1.1157e-02
10.750  19.750  1.5503e-02
10.750  20.000  2.0755e-02
10.750  20.250  2.4878e-02
10.750  20.500  2.5211e-02
10.750  20.750  2.5725e-02
10.750  21.000  2.6665e-02
10.750  21.250  2.7342e-02
10.750  21.500  2.7378e-02
10.750  21.750  2.7396e-02
10.750  22.000  2.7411e-02
10.750  22.250  2.7419e-02
10.750  22.500  2.7423e-02
10.750  22.750  2.7426e-02
10.750  23.000  2.7422e-02
10.750  23.250  2.7421e-02
10.750  23.500  2.7421e-02
10.750  23.750  2.7420e-02
10.750  24.000  2.7420e-02
11.000  17.000  1.6634e-04
11.000  17.250  2.1621e-04
11.000  17.500  2.9967e-04
11.000  17.750  4.5012e-04
11.000  18.000  7.1835e-04
11.000  18.250  1.1436e-03
11.000  18.500  1.7706e-03
11.000  18.750  2.6914e-03
11.000  19.000  3.9646e-03
11.000  19.250  5.7170e-03
11.000  19.500  8.2033e-03
11.000  19.750  1.1650e-02
11.000  20.000  1.6172e-02
11.000  20.250  2.1629e-02
11.000  20.500  2.4857e-02
11.000  20.750  2.5198e-02
11.000  21.000  2.5746e-02
11.000  21.250  2.6737e-02
11.000  21.500  2.7331e-02
11.000  21.750  2.7373e-02
11.000  22.000  2.7393e-02
11.000  22.250  2.7409e-02
11.000  22.500  2.7419e-02
11.000  22.750  2.7423e-02
11.000  23.000  2.7426e-02
11.000  23.250  2.7426e-02
11.000  23.500  2.7421e-02
11.000  23.750  2.7422e-02
11.000  24.000  2.7421e-02
11.250  17.000  1.3556e-04
11.250  17.250  1.7095e-04
11.250  17.500  2.3136e-04
11.250  17.750  3.4173e-04
11.250  18.000  5.3514e-04
11.250  18.250  8.3695e-04
11.250  18.500  1.2797e-03
11.250  18.750  1.9355e-03
11.250  19.000  2.8508e-03
11.250  19.250  4.1441e-03
11.250  19.500  5.9475e-03
11.250  19.750  8.5216e-03
11.250  20.000  1.2074e-02
11.250  20.250  1.6806e-02
11.250  20.500  2.2490e-02
11.250  20.750  2.4820e-02
11.250  21.000  2.5200e-02
11.250  21.250  2.5812e-02
11.250  21.500  2.6893e-02
11.250  21.750  2.7322e-02
11.250  22.000  2.7366e-02
11.250  22.250  2.7389e-02
11.250  22.500  2.7407e-02
11.250  22.750  2.7418e-02
11.250  23.000  2.7422e-02
11.250  23.250  2.7426e-02
11.250  23.500  2.7428e-02
11.250  23.750  2.7423e-02
11.250  24.000  2.7422e-02
11.500  17.000  1.1407e-04
11.500  17.250  1.3885e-04
11.500  17.500  1.8206e-04
11.500  17.750  2.6115e-04
11.500  18.000  3.9811e-04
11.500  18.250  6.1103e-04
11.500  18.500  9.2263e-04
11.500  18.750  1.3881e-03
11.500  19.000  2.0370e-03
11.500  19.250  2.9671e-03
11.500  19.500  4.2752e-03
11.500  19.750  6.1422e-03
11.500  20.000  8.7992e-03
11.500  20.250  1.2504e-02
11.500  20.500  1.7442e-02
11.500  20.750  2.3154e-02
11.500  21.000  2.4798e-02
11.500  21.250  2.5241e-02
11.500  21.500  2.5973e-02
11.500  21.750  2.7103e-02
11.500  22.000  2.7308e-02
11.500  22.250  2.7357e-02
11.500  22.500  2.7383e-02
11.500  22.750  2.7404e-02
11.500  23.000  2.7417e-02
11.500  23.250  2.7422e-02
11.500  23.500  2.7426e-02
11.500  23.750  2.7428e-02
11.500  24.000  2.7427e-02
11.750  17.000  9.9259e-05
11.750  17.250  1.1630e-04
11.750  17.500  1.4658e-04
11.750  17.750  2.0198e-04
11.750  18.000  2.9695e-04
11.750  18.250  4.4461e-04
11.750  18.500  6.6296e-04
11.750  18.750  9.8428e-04
11.750  19.000  1.4543e-03
11.750  19.250  2.1151e-03
11.750  19.500  3.0650e-03
11.750  19.750  4.4097e-03
11.750  20.000  6.3236e-03
11.750  20.250  9.0630e-03
11.750  20.500  1.2941e-02
11.750  20.750  1.8089e-02
11.750  21.000  2.3882e-02
11.750  21.250  2.4784e-02
11.750  21.500  2.5335e-02
11.750  21.750  2.6225e-02
11.750  22.000  2.7206e-02
11.750  22.250  2.7291e-02
11.750  22.500  2.7346e-02
11.750  22.750  2.7375e-02
11.750  23.000  2.7400e-02
11.750  23.250  2.7416e-02
11.750  23.500  2.7421e-02
11.750  23.750  2.7425e-02
11.750  24.000  2.7428e-02
12.000  17.000  8.8560e-05
12.000  17.250  1.0033e-04
12.000  17.500  1.2123e-04
12.000  17.750  1.5893e-04
12.000  18.000  2.2305e-04
12.000  18.250  3.2346e-04
12.000  18.500  4.7646e-04
12.000  18.750  7.0370e-04
12.000  19.000  1.0368e-03
12.000  19.250  1.5095e-03
12.000  19.500  2.1846e-03
12.000  19.750  3.1449e-03
12.000  20.000  4.5114e-03
12.000  20.250  6.4859e-03
12.000  20.500  9.3273e-03
12.000  20.750  1.3373e-02
12.000  21.000  1.8739e-02
12.000  21.250  2.3721e-02
12.000  21.500  2.4780e-02
12.000  21.750  2.5462e-02
12.000  22.000  2.6495e-02
12.000  22.250  2.7185e-02
12.000  22.500  2.7273e-02
12.000  22.750  2.7332e-02
12.000  23.000  2.7365e-02
12.000  23.250  2.7393e-02
12.000  23.500  2.7413e-02
12.000  23.750  2.7420e-02
12.000  24.000  2.7425e-02
12.250  17.000  8.1152e-05
12.250  17.250  8.9218e-05
12.250  17.500  1.0305e-04
12.250  17.750  1.2774e-04
12.250  18.000  1.7029e-04
12.250  18.250  2.3918e-04
12.250  18.500  3.4601e-04
12.250  18.750  5.0634e-04
12.250  19.000  7.4140e-04
12.250  19.250  1.0801e-03
12.250  19.500  1.5579e-03
12.250  19.750  2.2388e-03
12.250  20.000  3.2151e-03
12.250  20.250  4.6164e-03
12.250  20.500  6.6329e-03
12.250  20.750  9.5847e-03
12.250  21.000  1.3824e-02
12.250  21.250  1.9379e-02
12.250  21.500  2.3860e-02
12.250  21.750  2.4772e-02
12.250  22.000  2.5623e-02
12.250  22.250  2.6744e-02
12.250  22.500  2.7154e-02
12.250  22.750  2.7247e-02
12.250  23.000  2.7313e-02
12.250  23.250  2.7350e-02
12.250  23.500  2.7385e-02
12.250  23.750  2.7410e-02
12.250  24.000  2.7418e-02
12.500  17.000  6.0658e-05
12.500  17.250  8.1728e-05
12.500  17.500  9.0947e-05
12.500  17.750  1.0675e-04
12.500  18.000  1.3407e-04
12.500  18.250  1.8016e-04
12.500  18.500  2.5424e-04
12.500  18.750  3.6733e-04
12.500  19.000  5.3325e-04
12.500  19.250  7.7251e-04
12.500  19.500  1.1144e-03
12.500  19.750  1.5987e-03
12.500  20.000  2.2893e-03
12.500  20.250  3.2868e-03
12.500  20.500  4.7023e-03
12.500  20.750  6.7923e-03
12.500  21.000  9.8760e-03
12.500  21.250  1.4314e-02
12.500  21.500  1.9740e-02
12.500  21.750  2.3715e-02
12.500  22.000  2.4760e-02
12.500  22.250  2.5791e-02
12.500  22.500  2.6853e-02
12.500  22.750  2.7111e-02
12.500  23.000  2.7214e-02
12.500  23.250  2.7285e-02
12.500  23.500  2.7328e-02
12.500  23.750  2.7372e-02
12.500  24.000  2.7406e-02
12.750  17.000  3.3251e-05
12.750  17.250  6.6667e-05
12.750  17.500  8.2551e-05
12.750  17.750  9.2922e-05
12.750  18.000  1.1045e-04
12.750  18.250  1.4107e-04
12.750  18.500  1.9095e-04
12.750  18.750  2.6947e-04
12.750  19.000  3.8584e-04
12.750  19.250  5.5630e-04
12.750  19.500  7.9720e-04
12.750  19.750  1.1413e-03
12.750  20.000  1.6263e-03
12.750  20.250  2.3314e-03
12.750  20.500  3.3345e-03
12.750  20.750  4.7819e-03
12.750  21.000  6.9632e-03
12.750  21.250  1.0193e-02
12.750  21.500  1.4579e-02
12.750  21.750  2.0201e-02
12.750  22.000  2.3509e-02
12.750  22.250  2.4721e-02
12.750  22.500  2.5929e-02
12.750  22.750  2.6836e-02
12.750  23.000  2.7046e-02
12.750  23.250  2.7166e-02
12.750  23.500  2.7246e-02
12.750  23.750  2.7296e-02
12.750  24.000  2.7352e-02
13.000  17.000  6.3374e-06
13.000  17.250  1.4897e-05
13.000  17.500  5.1193e-05
13.000  17.750  8.1975e-05
13.000  18.000  9.5226e-05
13.000  18.250  1.1539e-04
13.000  18.500  1.4856e-04
13.000  18.750  2.0173e-04
13.000  19.000  2.8255e-04
13.000  19.250  4.0173e-04
13.000  19.500  5.7243e-04
13.000  19.750  8.1572e-04
13.000  20.000  1.1619e-03
13.000  20.250  1.6520e-03
13.000  20.500  2.3678e-03
13.000  20.750  3.4045e-03
13.000  21.000  4.9221e-03
13.000  21.250  7.1912e-03
13.000  21.500  1.0419e-02
13.000  21.750  1.5063e-02
13.000  22.000  2.0396e-02
13.000  22.250  2.3202e-02
13.000  22.500  2.4608e-02
13.000  22.750  2.5896e-02
13.000  23.000  2.6722e-02
13.000  23.250  2.6950e-02
13.000  23.500  2.7093e-02
13.000  23.750  2.7186e-02
13.000  24.000  2.7247e-02
13.250  17.000  3.7037e-06
13.250  17.250  7.1605e-06
13.250  17.500  1.7284e-05
13.250  17.750  4.0988e-05
13.250  18.000  6.7737e-05
13.250  18.250  9.8519e-05
13.250  18.500  1.2049e-04
13.250  18.750  1.5572e-04
13.250  19.000  2.1012e-04
13.250  19.250  2.9317e-04
13.250  19.500  4.1317e-04
13.250  19.750  5.8477e-04
13.250  20.000  8.2856e-04
13.250  20.250  1.1788e-03
13.250  20.500  1.6787e-03
13.250  20.750  2.4048e-03
13.250  21.000  3.4840e-03
13.250  21.250  5.0644e-03
13.250  21.500  7.2988e-03
13.250  21.750  1.0749e-02
13.250  22.000  1.5445e-02
13.250  22.250  2.0287e-02
13.250  22.500  2.2681e-02
13.250  22.750  2.4207e-02
13.250  23.000  2.5567e-02
13.250  23.250  2.6515e-02
13.250  23.500  2.6801e-02
13.250  23.750  2.6981e-02
13.250  24.000  2.7093e-02
13.500  17.000  2.2222e-06
13.500  17.250  4.3621e-06
13.500  17.500  9.7942e-06
13.500  17.750  2.1975e-05
13.500  18.000  4.8724e-05
13.500  18.250  7.3416e-05
13.500  18.500  1.0181e-04
13.500  18.750  1.2477e-04
13.500  19.000  1.6132e-04
13.500  19.250  2.1671e-04
13.500  19.500  3.0025e-04
13.500  19.750  4.2033e-04
13.500  20.000  5.9309e-04
13.500  20.250  8.3951e-04
13.500  20.500  1.1956e-03
13.500  20.750  1.7062e-03
13.500  21.000  2.4556e-03
13.500  21.250  3.5725e-03
13.500  21.500  5.1331e-03
13.500  21.750  7.5691e-03
13.500  22.000  1.1115e-02
13.500  22.250  1.5543e-02
13.500  22.500  1.9747e-02
13.500  22.750  2.1942e-02
13.500  23.000  2.3616e-02
13.500  23.250  2.5129e-02
13.500  23.500  2.6210e-02
13.500  23.750  2.6575e-02
13.500  24.000  2.6808e-02
13.750  17.000  1.3169e-06
13.750  17.250  2.6337e-06
13.750  17.500  5.7613e-06
13.750  17.750  1.1605e-05
13.750  18.000  2.7654e-05
13.750  18.250  5.6214e-05
13.750  18.500  7.6790e-05
13.750  18.750  1.0461e-04
13.750  19.000  1.2840e-04
13.750  19.250  1.6568e-04
13.750  19.500  2.2206e-04
13.750  19.750  3.0551e-04
13.750  20.000  4.2667e-04
13.750  20.250  6.0058e-04
13.750  20.500  8.5119e-04
13.750  20.750  1.2136e-03
13.750  21.000  1.7392e-03
13.750  21.250  2.5194e-03
13.750  21.500  3.6286e-03
13.750  21.750  5.3341e-03
13.750  22.000  7.7959e-03
13.750  22.250  1.1109e-02
13.750  22.500  1.5147e-02
13.750  22.750  1.8957e-02
13.750  23.000  2.1046e-02
13.750  23.250  2.2876e-02
13.750  23.500  2.4519e-02
13.750  23.750  2.5767e-02
13.750  24.000  2.6240e-02
14.000  17.000  1.0000e-07
14.000  17.250  1.5638e-06
14.000  17.500  3.4568e-06
14.000  17.750  6.9959e-06
14.000  18.000  1.4403e-05
14.000  18.250  3.2922e-05
14.000  18.500  6.0412e-05
14.000  18.750  8.5185e-05
14.000  19.000  1.0667e-04
14.000  19.250  1.3095e-04
14.000  19.500  1.6864e-04
14.000  19.750  2.2535e-04
14.000  20.000  3.1004e-04
14.000  20.250  4.3202e-04
14.000  20.500  6.0914e-04
14.000  20.750  8.6601e-04
14.000  21.000  1.2412e-03
14.000  21.250  1.7948e-03
14.000  21.500  2.5762e-03
14.000  21.750  3.7937e-03
14.000  22.000  5.5426e-03
14.000  22.250  7.7671e-03
14.000  22.500  1.0517e-02
14.000  22.750  1.4337e-02
14.000  23.000  1.7885e-02
14.000  23.250  2.0027e-02
14.000  23.500  2.1980e-02
14.000  23.750  2.3782e-02
14.000  24.000  2.5124e-02
