InwC 1113.22A  relative to Inci 1215.00A scaled to 1215A.
Hden   Phi(H)  Eq_Width (A)
7.000  17.000  4.3106e-02
7.000  17.250  4.2936e-02
7.000  17.500  4.4119e-02
7.000  17.750  4.4138e-02
7.000  18.000  4.4159e-02
7.000  18.250  4.4184e-02
7.000  18.500  4.4196e-02
7.000  18.750  4.4201e-02
7.000  19.000  4.4206e-02
7.000  19.250  4.4210e-02
7.000  19.500  4.4212e-02
7.000  19.750  4.4212e-02
7.000  20.000  4.4213e-02
7.000  20.250  4.4213e-02
7.000  20.500  4.4213e-02
7.000  20.750  4.4213e-02
7.000  21.000  4.4213e-02
7.000  21.250  4.4213e-02
7.000  21.500  4.4214e-02
7.000  21.750  4.4214e-02
7.000  22.000  4.4215e-02
7.000  22.250  4.4215e-02
7.000  22.500  4.4215e-02
7.000  22.750  4.4216e-02
7.000  23.000  4.4216e-02
7.000  23.250  4.4216e-02
7.000  23.500  4.4216e-02
7.000  23.750  4.4216e-02
7.000  24.000  4.4216e-02
7.250  17.000  7.3724e-02
7.250  17.250  4.2667e-02
7.250  17.500  4.2946e-02
7.250  17.750  4.4119e-02
7.250  18.000  4.4139e-02
7.250  18.250  4.4159e-02
7.250  18.500  4.4183e-02
7.250  18.750  4.4196e-02
7.250  19.000  4.4201e-02
7.250  19.250  4.4207e-02
7.250  19.500  4.4210e-02
7.250  19.750  4.4212e-02
7.250  20.000  4.4212e-02
7.250  20.250  4.4213e-02
7.250  20.500  4.4213e-02
7.250  20.750  4.4213e-02
7.250  21.000  4.4213e-02
7.250  21.250  4.4213e-02
7.250  21.500  4.4213e-02
7.250  21.750  4.4213e-02
7.250  22.000  4.4213e-02
7.250  22.250  4.4213e-02
7.250  22.500  4.4214e-02
7.250  22.750  4.4214e-02
7.250  23.000  4.4214e-02
7.250  23.250  4.4214e-02
7.250  23.500  4.4214e-02
7.250  23.750  4.4214e-02
7.250  24.000  4.4215e-02
7.500  17.000  9.8986e-02
7.500  17.250  7.2261e-02
7.500  17.500  4.2347e-02
7.500  17.750  4.2955e-02
7.500  18.000  4.4119e-02
7.500  18.250  4.3344e-02
7.500  18.500  4.2744e-02
7.500  18.750  4.2305e-02
7.500  19.000  4.2010e-02
7.500  19.250  4.1844e-02
7.500  19.500  4.1791e-02
7.500  19.750  4.1835e-02
7.500  20.000  4.1961e-02
7.500  20.250  4.2151e-02
7.500  20.500  4.2392e-02
7.500  20.750  4.2667e-02
7.500  21.000  4.2959e-02
7.500  21.250  4.3255e-02
7.500  21.500  4.3536e-02
7.500  21.750  4.3789e-02
7.500  22.000  4.3996e-02
7.500  22.250  4.4143e-02
7.500  22.500  4.4213e-02
7.500  22.750  4.4213e-02
7.500  23.000  4.4213e-02
7.500  23.250  4.4213e-02
7.500  23.500  4.4216e-02
7.500  23.750  4.4213e-02
7.500  24.000  4.4213e-02
7.750  17.000  1.2101e-01
7.750  17.250  9.7199e-02
7.750  17.500  7.1052e-02
7.750  17.750  5.1974e-02
7.750  18.000  4.1089e-02
7.750  18.250  3.6529e-02
7.750  18.500  3.6427e-02
7.750  18.750  3.8916e-02
7.750  19.000  4.2128e-02
7.750  19.250  4.4196e-02
7.750  19.500  4.4201e-02
7.750  19.750  4.4207e-02
7.750  20.000  4.4210e-02
7.750  20.250  4.4212e-02
7.750  20.500  4.4212e-02
7.750  20.750  4.4213e-02
7.750  21.000  4.4213e-02
7.750  21.250  4.4213e-02
7.750  21.500  4.4213e-02
7.750  21.750  4.4213e-02
7.750  22.000  4.4213e-02
7.750  22.250  4.4213e-02
7.750  22.500  4.4213e-02
7.750  22.750  4.4213e-02
7.750  23.000  4.4213e-02
7.750  23.250  4.4213e-02
7.750  23.500  4.4213e-02
7.750  23.750  4.4213e-02
7.750  24.000  4.4213e-02
8.000  17.000  1.3784e-01
8.000  17.250  1.1984e-01
8.000  17.500  9.5635e-02
8.000  17.750  7.0337e-02
8.000  18.000  5.4015e-02
8.000  18.250  4.6356e-02
8.000  18.500  4.4119e-02
8.000  18.750  4.4139e-02
8.000  19.000  4.4159e-02
8.000  19.250  4.4184e-02
8.000  19.500  4.4196e-02
8.000  19.750  4.4201e-02
8.000  20.000  4.4207e-02
8.000  20.250  4.4210e-02
8.000  20.500  4.4211e-02
8.000  20.750  4.4212e-02
8.000  21.000  4.4213e-02
8.000  21.250  4.4213e-02
8.000  21.500  4.4213e-02
8.000  21.750  4.4213e-02
8.000  22.000  4.4213e-02
8.000  22.250  4.4213e-02
8.000  22.500  4.4213e-02
8.000  22.750  4.4213e-02
8.000  23.000  4.4213e-02
8.000  23.250  4.4214e-02
8.000  23.500  4.4213e-02
8.000  23.750  4.4213e-02
8.000  24.000  4.4213e-02
8.250  17.000  1.4894e-01
8.250  17.250  1.3676e-01
8.250  17.500  1.1808e-01
8.250  17.750  9.3427e-02
8.250  18.000  6.8418e-02
8.250  18.250  5.0603e-02
8.250  18.500  4.2970e-02
8.250  18.750  4.4119e-02
8.250  19.000  4.4139e-02
8.250  19.250  4.4159e-02
8.250  19.500  4.4183e-02
8.250  19.750  4.4196e-02
8.250  20.000  4.4201e-02
8.250  20.250  4.4207e-02
8.250  20.500  4.4210e-02
8.250  20.750  4.4212e-02
8.250  21.000  4.4212e-02
8.250  21.250  4.4213e-02
8.250  21.500  4.4213e-02
8.250  21.750  4.4213e-02
8.250  22.000  4.4213e-02
8.250  22.250  4.4213e-02
8.250  22.500  4.4213e-02
8.250  22.750  4.4213e-02
8.250  23.000  4.4213e-02
8.250  23.250  4.4213e-02
8.250  23.500  4.4213e-02
8.250  23.750  4.4213e-02
8.250  24.000  4.4213e-02
8.500  17.000  1.5631e-01
8.500  17.250  1.4810e-01
8.500  17.500  1.3530e-01
8.500  17.750  1.1549e-01
8.500  18.000  8.9749e-02
8.500  18.250  6.5623e-02
8.500  18.500  4.9485e-02
8.500  18.750  4.2977e-02
8.500  19.000  4.4119e-02
8.500  19.250  4.4139e-02
8.500  19.500  4.4160e-02
8.500  19.750  4.4184e-02
8.500  20.000  4.4196e-02
8.500  20.250  4.4201e-02
8.500  20.500  4.4206e-02
8.500  20.750  4.4210e-02
8.500  21.000  4.4212e-02
8.500  21.250  4.4212e-02
8.500  21.500  4.4213e-02
8.500  21.750  4.4213e-02
8.500  22.000  4.4213e-02
8.500  22.250  4.4213e-02
8.500  22.500  4.4213e-02
8.500  22.750  4.4213e-02
8.500  23.000  4.4213e-02
8.500  23.250  4.4213e-02
8.500  23.500  4.4213e-02
8.500  23.750  4.4213e-02
8.500  24.000  4.4213e-02
8.750  17.000  1.6123e-01
8.750  17.250  1.5559e-01
8.750  17.500  1.4682e-01
8.750  17.750  1.3282e-01
8.750  18.000  1.1119e-01
8.750  18.250  8.4045e-02
8.750  18.500  6.0211e-02
8.750  18.750  4.1352e-02
8.750  19.000  4.2983e-02
8.750  19.250  4.4119e-02
8.750  19.500  4.4140e-02
8.750  19.750  4.4160e-02
8.750  20.000  4.4184e-02
8.750  20.250  4.4196e-02
8.750  20.500  4.4201e-02
8.750  20.750  4.4207e-02
8.750  21.000  4.4210e-02
8.750  21.250  4.4212e-02
8.750  21.500  4.4212e-02
8.750  21.750  4.4213e-02
8.750  22.000  4.4213e-02
8.750  22.250  4.4213e-02
8.750  22.500  4.4213e-02
8.750  22.750  4.4213e-02
8.750  23.000  4.4213e-02
8.750  23.250  4.4213e-02
8.750  23.500  4.4213e-02
8.750  23.750  4.4213e-02
8.750  24.000  4.4213e-02
9.000  17.000  1.6449e-01
9.000  17.250  1.6060e-01
9.000  17.500  1.5445e-01
9.000  17.750  1.4466e-01
9.000  18.000  1.2863e-01
9.000  18.250  1.0410e-01
9.000  18.500  7.6243e-02
9.000  18.750  5.6406e-02
9.000  19.000  4.1336e-02
9.000  19.250  4.2986e-02
9.000  19.500  4.4119e-02
9.000  19.750  4.4033e-02
9.000  20.000  4.4019e-02
9.000  20.250  4.4053e-02
9.000  20.500  4.4112e-02
9.000  20.750  4.4171e-02
9.000  21.000  4.4207e-02
9.000  21.250  4.4210e-02
9.000  21.500  4.4212e-02
9.000  21.750  4.4212e-02
9.000  22.000  4.4213e-02
9.000  22.250  4.4213e-02
9.000  22.500  4.4213e-02
9.000  22.750  4.4213e-02
9.000  23.000  4.4213e-02
9.000  23.250  4.4213e-02
9.000  23.500  4.4213e-02
9.000  23.750  4.4213e-02
9.000  24.000  4.4213e-02
9.250  17.000  1.6657e-01
9.250  17.250  1.6391e-01
9.250  17.500  1.5955e-01
9.250  17.750  1.5243e-01
9.250  18.000  1.4055e-01
9.250  18.250  1.2155e-01
9.250  18.500  9.4922e-02
9.250  18.750  6.7713e-02
9.250  19.000  4.9656e-02
9.250  19.250  4.1325e-02
9.250  19.500  3.6497e-02
9.250  19.750  3.3420e-02
9.250  20.000  3.1843e-02
9.250  20.250  3.1519e-02
9.250  20.500  3.2200e-02
9.250  20.750  3.3635e-02
9.250  21.000  3.5578e-02
9.250  21.250  3.7780e-02
9.250  21.500  3.9991e-02
9.250  21.750  4.1964e-02
9.250  22.000  4.3450e-02
9.250  22.250  4.4200e-02
9.250  22.500  4.4212e-02
9.250  22.750  4.4212e-02
9.250  23.000  4.4213e-02
9.250  23.250  4.4213e-02
9.250  23.500  4.4213e-02
9.250  23.750  4.4213e-02
9.250  24.000  4.4213e-02
9.500  17.000  1.6776e-01
9.500  17.250  1.6601e-01
9.500  17.500  1.6291e-01
9.500  17.750  1.5763e-01
9.500  18.000  1.4857e-01
9.500  18.250  1.3406e-01
9.500  18.500  1.1255e-01
9.500  18.750  8.5336e-02
9.500  19.000  6.1440e-02
9.500  19.250  4.4818e-02
9.500  19.500  4.1319e-02
9.500  19.750  4.1057e-02
9.500  20.000  4.0975e-02
9.500  20.250  4.1045e-02
9.500  20.500  4.1240e-02
9.500  20.750  4.1534e-02
9.500  21.000  4.1899e-02
9.500  21.250  4.2309e-02
9.500  21.500  4.2736e-02
9.500  21.750  4.3153e-02
9.500  22.000  4.3534e-02
9.500  22.250  4.3852e-02
9.500  22.500  4.4079e-02
9.500  22.750  4.4189e-02
9.500  23.000  4.4189e-02
9.500  23.250  4.4189e-02
9.500  23.500  4.4195e-02
9.500  23.750  4.4195e-02
9.500  24.000  4.4195e-02
9.750  17.000  1.6828e-01
9.750  17.250  1.6720e-01
9.750  17.500  1.6503e-01
9.750  17.750  1.6108e-01
9.750  18.000  1.5412e-01
9.750  18.250  1.4266e-01
9.750  18.500  1.2589e-01
9.750  18.750  1.0331e-01
9.750  19.000  7.6884e-02
9.750  19.250  5.4755e-02
9.750  19.500  4.0370e-02
9.750  19.750  4.1324e-02
9.750  20.000  4.2956e-02
9.750  20.250  4.3571e-02
9.750  20.500  4.3948e-02
9.750  20.750  4.4144e-02
9.750  21.000  4.4213e-02
9.750  21.250  4.4210e-02
9.750  21.500  4.4191e-02
9.750  21.750  4.4193e-02
9.750  22.000  4.4195e-02
9.750  22.250  4.4192e-02
9.750  22.500  4.4188e-02
9.750  22.750  4.4190e-02
9.750  23.000  4.4190e-02
9.750  23.250  4.4190e-02
9.750  23.500  4.4189e-02
9.750  23.750  4.4189e-02
9.750  24.000  4.4189e-02
10.000  17.000  1.6826e-01
10.000  17.250  1.6771e-01
10.000  17.500  1.6624e-01
10.000  17.750  1.6324e-01
10.000  18.000  1.5770e-01
10.000  18.250  1.4860e-01
10.000  18.500  1.3548e-01
10.000  18.750  1.1774e-01
10.000  19.000  9.4520e-02
10.000  19.250  6.9772e-02
10.000  19.500  4.7974e-02
10.000  19.750  4.0308e-02
10.000  20.000  4.1335e-02
10.000  20.250  4.3204e-02
10.000  20.500  4.4472e-02
10.000  20.750  4.5233e-02
10.000  21.000  4.5580e-02
10.000  21.250  4.5606e-02
10.000  21.500  4.5405e-02
10.000  21.750  4.5070e-02
10.000  22.000  4.4695e-02
10.000  22.250  4.4372e-02
10.000  22.500  4.4195e-02
10.000  22.750  4.4191e-02
10.000  23.000  4.4188e-02
10.000  23.250  4.4189e-02
10.000  23.500  4.4190e-02
10.000  23.750  4.4190e-02
10.000  24.000  4.4190e-02
10.250  17.000  1.6778e-01
10.250  17.250  1.6765e-01
10.250  17.500  1.6671e-01
10.250  17.750  1.6441e-01
10.250  18.000  1.5991e-01
10.250  18.250  1.5266e-01
10.250  18.500  1.4244e-01
10.250  18.750  1.2848e-01
10.250  19.000  1.1009e-01
10.250  19.250  8.7729e-02
10.250  19.500  6.3808e-02
10.250  19.750  4.4120e-02
10.250  20.000  4.0365e-02
10.250  20.250  4.1344e-02
10.250  20.500  4.2934e-02
10.250  20.750  4.4104e-02
10.250  21.000  4.4137e-02
10.250  21.250  4.4160e-02
10.250  21.500  4.4183e-02
10.250  21.750  4.4195e-02
10.250  22.000  4.4200e-02
10.250  22.250  4.4199e-02
10.250  22.500  4.4197e-02
10.250  22.750  4.4197e-02
10.250  23.000  4.4194e-02
10.250  23.250  4.4191e-02
10.250  23.500  4.4190e-02
10.250  23.750  4.4189e-02
10.250  24.000  4.4189e-02
10.500  17.000  1.6683e-01
10.500  17.250  1.6708e-01
10.500  17.500  1.6654e-01
10.500  17.750  1.6473e-01
10.500  18.000  1.6102e-01
10.500  18.250  1.5514e-01
10.500  18.500  1.4725e-01
10.500  18.750  1.3656e-01
10.500  19.000  1.2292e-01
10.500  19.250  1.0566e-01
10.500  19.500  8.4015e-02
10.500  19.750  5.9665e-02
10.500  20.000  4.5076e-02
10.500  20.250  4.0416e-02
10.500  20.500  4.1369e-02
10.500  20.750  4.2949e-02
10.500  21.000  4.4097e-02
10.500  21.250  4.4136e-02
10.500  21.500  4.4159e-02
10.500  21.750  4.4183e-02
10.500  22.000  4.4196e-02
10.500  22.250  4.4201e-02
10.500  22.500  4.4204e-02
10.500  22.750  4.4197e-02
10.500  23.000  4.4198e-02
10.500  23.250  4.4196e-02
10.500  23.500  4.4194e-02
10.500  23.750  4.4193e-02
10.500  24.000  4.4192e-02
10.750  17.000  1.6536e-01
10.750  17.250  1.6598e-01
10.750  17.500  1.6576e-01
10.750  17.750  1.6426e-01
10.750  18.000  1.6114e-01
10.750  18.250  1.5647e-01
10.750  18.500  1.5038e-01
10.750  18.750  1.4258e-01
10.750  19.000  1.3280e-01
10.750  19.250  1.1992e-01
10.750  19.500  1.0264e-01
10.750  19.750  8.0393e-02
10.750  20.000  5.5170e-02
10.750  20.250  4.2657e-02
10.750  20.500  4.0433e-02
10.750  20.750  4.1403e-02
10.750  21.000  4.3001e-02
10.750  21.250  4.4090e-02
10.750  21.500  4.4133e-02
10.750  21.750  4.4158e-02
10.750  22.000  4.4183e-02
10.750  22.250  4.4196e-02
10.750  22.500  4.4201e-02
10.750  22.750  4.4206e-02
10.750  23.000  4.4200e-02
10.750  23.250  4.4199e-02
10.750  23.500  4.4198e-02
10.750  23.750  4.4197e-02
10.750  24.000  4.4196e-02
11.000  17.000  1.6313e-01
11.000  17.250  1.6427e-01
11.000  17.500  1.6431e-01
11.000  17.750  1.6303e-01
11.000  18.000  1.6034e-01
11.000  18.250  1.5661e-01
11.000  18.500  1.5193e-01
11.000  18.750  1.4633e-01
11.000  19.000  1.3958e-01
11.000  19.250  1.3042e-01
11.000  19.500  1.1746e-01
11.000  19.750  9.9593e-02
11.000  20.000  7.6552e-02
11.000  20.250  5.0624e-02
11.000  20.500  3.9683e-02
11.000  20.750  4.0450e-02
11.000  21.000  4.1462e-02
11.000  21.250  4.3128e-02
11.000  21.500  4.4082e-02
11.000  21.750  4.4129e-02
11.000  22.000  4.4157e-02
11.000  22.250  4.4182e-02
11.000  22.500  4.4196e-02
11.000  22.750  4.4201e-02
11.000  23.000  4.4206e-02
11.000  23.250  4.4206e-02
11.000  23.500  4.4199e-02
11.000  23.750  4.4199e-02
11.000  24.000  4.4198e-02
11.250  17.000  1.5991e-01
11.250  17.250  1.6172e-01
11.250  17.500  1.6209e-01
11.250  17.750  1.6092e-01
11.250  18.000  1.5852e-01
11.250  18.250  1.5545e-01
11.250  18.500  1.5206e-01
11.250  18.750  1.4828e-01
11.250  19.000  1.4377e-01
11.250  19.250  1.3739e-01
11.250  19.500  1.2822e-01
11.250  19.750  1.1496e-01
11.250  20.000  9.6592e-02
11.250  20.250  7.2577e-02
11.250  20.500  4.6076e-02
11.250  20.750  3.9636e-02
11.250  21.000  4.0497e-02
11.250  21.250  4.1589e-02
11.250  21.500  4.3382e-02
11.250  21.750  4.4297e-02
11.250  22.000  4.4342e-02
11.250  22.250  4.4155e-02
11.250  22.500  4.4181e-02
11.250  22.750  4.4195e-02
11.250  23.000  4.4201e-02
11.250  23.250  4.4206e-02
11.250  23.500  4.4209e-02
11.250  23.750  4.4201e-02
11.250  24.000  4.4199e-02
11.500  17.000  1.5561e-01
11.500  17.250  1.5799e-01
11.500  17.500  1.5877e-01
11.500  17.750  1.5773e-01
11.500  18.000  1.5546e-01
11.500  18.250  1.5287e-01
11.500  18.500  1.5059e-01
11.500  18.750  1.4818e-01
11.500  19.000  1.4534e-01
11.500  19.250  1.4124e-01
11.500  19.500  1.3512e-01
11.500  19.750  1.2589e-01
11.500  20.000  1.1247e-01
11.500  20.250  9.3374e-02
11.500  20.500  6.8390e-02
11.500  20.750  4.2477e-02
11.500  21.000  3.9640e-02
11.500  21.250  4.0586e-02
11.500  21.500  4.1860e-02
11.500  21.750  4.2980e-02
11.500  22.000  4.3663e-02
11.500  22.250  4.4018e-02
11.500  22.500  4.4153e-02
11.500  22.750  4.4180e-02
11.500  23.000  4.4195e-02
11.500  23.250  4.4201e-02
11.500  23.500  4.4206e-02
11.500  23.750  4.4210e-02
11.500  24.000  4.4207e-02
11.750  17.000  1.5021e-01
11.750  17.250  1.5283e-01
11.750  17.500  1.5396e-01
11.750  17.750  1.5307e-01
11.750  18.000  1.5087e-01
11.750  18.250  1.4881e-01
11.750  18.500  1.4743e-01
11.750  18.750  1.4614e-01
11.750  19.000  1.4443e-01
11.750  19.250  1.4200e-01
11.750  19.500  1.3825e-01
11.750  19.750  1.3239e-01
11.750  20.000  1.2345e-01
11.750  20.250  1.0986e-01
11.750  20.500  8.9965e-02
11.750  20.750  6.3902e-02
11.750  21.000  3.8038e-02
11.750  21.250  3.9663e-02
11.750  21.500  4.0762e-02
11.750  21.750  4.2285e-02
11.750  22.000  4.3904e-02
11.750  22.250  4.4040e-02
11.750  22.500  4.4113e-02
11.750  22.750  4.4150e-02
11.750  23.000  4.4179e-02
11.750  23.250  4.4195e-02
11.750  23.500  4.4201e-02
11.750  23.750  4.4206e-02
11.750  24.000  4.4210e-02
12.000  17.000  1.4340e-01
12.000  17.250  1.4616e-01
12.000  17.500  1.4723e-01
12.000  17.750  1.4642e-01
12.000  18.000  1.4456e-01
12.000  18.250  1.4326e-01
12.000  18.500  1.4249e-01
12.000  18.750  1.4190e-01
12.000  19.000  1.4113e-01
12.000  19.250  1.4005e-01
12.000  19.500  1.3816e-01
12.000  19.750  1.3510e-01
12.000  20.000  1.2987e-01
12.000  20.250  1.2104e-01
12.000  20.500  1.0714e-01
12.000  20.750  8.6305e-02
12.000  21.000  5.9231e-02
12.000  21.250  3.8612e-02
12.000  21.500  3.9744e-02
12.000  21.750  4.1018e-02
12.000  22.000  4.2745e-02
12.000  22.250  4.3885e-02
12.000  22.500  4.4022e-02
12.000  22.750  4.4104e-02
12.000  23.000  4.4146e-02
12.000  23.250  4.4178e-02
12.000  23.500  4.4194e-02
12.000  23.750  4.4201e-02
12.000  24.000  4.4206e-02
12.250  17.000  1.3341e-01
12.250  17.250  1.3714e-01
12.250  17.500  1.3824e-01
12.250  17.750  1.3760e-01
12.250  18.000  1.3653e-01
12.250  18.250  1.3586e-01
12.250  18.500  1.3581e-01
12.250  18.750  1.3588e-01
12.250  19.000  1.3600e-01
12.250  19.250  1.3607e-01
12.250  19.500  1.3577e-01
12.250  19.750  1.3470e-01
12.250  20.000  1.3233e-01
12.250  20.250  1.2733e-01
12.250  20.500  1.1858e-01
12.250  20.750  1.0416e-01
12.250  21.000  8.2277e-02
12.250  21.250  5.4389e-02
12.250  21.500  3.8033e-02
12.250  21.750  3.9888e-02
12.250  22.000  4.1355e-02
12.250  22.250  4.3190e-02
12.250  22.500  4.3863e-02
12.250  22.750  4.4005e-02
12.250  23.000  4.4094e-02
12.250  23.250  4.4141e-02
12.250  23.500  4.4177e-02
12.250  23.750  4.4194e-02
12.250  24.000  4.4200e-02
12.500  17.000  1.0184e-01
12.500  17.250  1.2510e-01
12.500  17.500  1.2697e-01
12.500  17.750  1.2706e-01
12.500  18.000  1.2685e-01
12.500  18.250  1.2706e-01
12.500  18.500  1.2760e-01
12.500  18.750  1.2858e-01
12.500  19.000  1.2978e-01
12.500  19.250  1.3098e-01
12.500  19.500  1.3193e-01
12.500  19.750  1.3235e-01
12.500  20.000  1.3180e-01
12.500  20.250  1.2963e-01
12.500  20.500  1.2484e-01
12.500  20.750  1.1585e-01
12.500  21.000  1.0072e-01
12.500  21.250  7.7640e-02
12.500  21.500  5.0709e-02
12.500  21.750  3.8262e-02
12.500  22.000  4.0109e-02
12.500  22.250  4.1743e-02
12.500  22.500  4.3448e-02
12.500  22.750  4.3845e-02
12.500  23.000  4.3991e-02
12.500  23.250  4.4083e-02
12.500  23.500  4.4135e-02
12.500  23.750  4.4174e-02
12.500  24.000  4.4193e-02
12.750  17.000  6.0026e-02
12.750  17.250  1.0138e-01
12.750  17.500  1.1451e-01
12.750  17.750  1.1523e-01
12.750  18.000  1.1504e-01
12.750  18.250  1.1590e-01
12.750  18.500  1.1777e-01
12.750  18.750  1.2004e-01
12.750  19.000  1.2253e-01
12.750  19.250  1.2490e-01
12.750  19.500  1.2707e-01
12.750  19.750  1.2868e-01
12.750  20.000  1.2949e-01
12.750  20.250  1.2908e-01
12.750  20.500  1.2701e-01
12.750  20.750  1.2210e-01
12.750  21.000  1.1261e-01
12.750  21.250  9.6588e-02
12.750  21.500  7.3670e-02
12.750  21.750  4.6033e-02
12.750  22.000  3.8570e-02
12.750  22.250  4.0374e-02
12.750  22.500  4.2168e-02
12.750  22.750  4.3557e-02
12.750  23.000  4.3834e-02
12.750  23.250  4.3980e-02
12.750  23.500  4.4072e-02
12.750  23.750  4.4129e-02
12.750  24.000  4.4171e-02
13.000  17.000  1.1738e-02
13.000  17.250  2.6551e-02
13.000  17.500  7.4607e-02
13.000  17.750  9.8482e-02
13.000  18.000  1.0126e-01
13.000  18.250  1.0309e-01
13.000  18.500  1.0609e-01
13.000  18.750  1.0989e-01
13.000  19.000  1.1394e-01
13.000  19.250  1.1778e-01
13.000  19.500  1.2109e-01
13.000  19.750  1.2384e-01
13.000  20.000  1.2577e-01
13.000  20.250  1.2669e-01
13.000  20.500  1.2625e-01
13.000  20.750  1.2398e-01
13.000  21.000  1.1852e-01
13.000  21.250  1.0837e-01
13.000  21.500  9.2320e-02
13.000  21.750  6.7380e-02
13.000  22.000  4.2071e-02
13.000  22.250  3.8840e-02
13.000  22.500  4.0660e-02
13.000  22.750  4.2457e-02
13.000  23.000  4.3592e-02
13.000  23.250  4.3828e-02
13.000  23.500  4.3971e-02
13.000  23.750  4.4062e-02
13.000  24.000  4.4120e-02
13.250  17.000  7.1484e-03
13.250  17.250  1.3057e-02
13.250  17.500  2.9531e-02
13.250  17.750  5.6453e-02
13.250  18.000  7.4943e-02
13.250  18.250  8.9302e-02
13.250  18.500  9.2967e-02
13.250  18.750  9.7799e-02
13.250  19.000  1.0351e-01
13.250  19.250  1.0894e-01
13.250  19.500  1.1379e-01
13.250  19.750  1.1776e-01
13.250  20.000  1.2080e-01
13.250  20.250  1.2283e-01
13.250  20.500  1.2369e-01
13.250  20.750  1.2305e-01
13.250  21.000  1.2030e-01
13.250  21.250  1.1410e-01
13.250  21.500  1.0394e-01
13.250  21.750  8.5489e-02
13.250  22.000  5.9629e-02
13.250  22.250  3.8999e-02
13.250  22.500  3.8995e-02
13.250  22.750  4.0716e-02
13.250  23.000  4.2408e-02
13.250  23.250  4.3588e-02
13.250  23.500  4.3819e-02
13.250  23.750  4.3960e-02
13.250  24.000  4.4051e-02
13.500  17.000  4.3617e-03
13.500  17.250  8.3338e-03
13.500  17.500  1.7564e-02
13.500  17.750  3.3320e-02
13.500  18.000  5.4949e-02
13.500  18.250  6.7640e-02
13.500  18.500  7.9091e-02
13.500  18.750  8.4616e-02
13.500  19.000  9.1090e-02
13.500  19.250  9.8072e-02
13.500  19.500  1.0453e-01
13.500  19.750  1.1007e-01
13.500  20.000  1.1444e-01
13.500  20.250  1.1762e-01
13.500  20.500  1.1957e-01
13.500  20.750  1.2024e-01
13.500  21.000  1.1909e-01
13.500  21.250  1.1559e-01
13.500  21.500  1.0907e-01
13.500  21.750  9.6250e-02
13.500  22.000  7.5599e-02
13.500  22.250  5.0698e-02
13.500  22.500  3.7281e-02
13.500  22.750  3.9037e-02
13.500  23.000  4.0640e-02
13.500  23.250  4.2374e-02
13.500  23.500  4.3573e-02
13.500  23.750  4.3801e-02
13.500  24.000  4.3944e-02
13.750  17.000  2.7060e-03
13.750  17.250  5.2875e-03
13.750  17.500  1.0858e-02
13.750  17.750  1.9078e-02
13.750  18.000  3.4512e-02
13.750  18.250  5.0869e-02
13.750  18.500  6.0180e-02
13.750  18.750  7.0737e-02
13.750  19.000  7.7656e-02
13.750  19.250  8.5265e-02
13.750  19.500  9.3136e-02
13.750  19.750  1.0030e-01
13.750  20.000  1.0627e-01
13.750  20.250  1.1091e-01
13.750  20.500  1.1416e-01
13.750  20.750  1.1587e-01
13.750  21.000  1.1602e-01
13.750  21.250  1.1406e-01
13.750  21.500  1.1009e-01
13.750  21.750  1.0082e-01
13.750  22.000  8.5385e-02
13.750  22.250  6.3554e-02
13.750  22.500  4.2332e-02
13.750  22.750  3.6836e-02
13.750  23.000  3.9007e-02
13.750  23.250  4.0576e-02
13.750  23.500  4.2278e-02
13.750  23.750  4.3542e-02
13.750  24.000  4.3772e-02
14.000  17.000  1.6620e-03
14.000  17.250  3.1784e-03
14.000  17.500  6.7625e-03
14.000  17.750  1.2238e-02
14.000  18.000  2.0128e-02
14.000  18.250  3.3068e-02
14.000  18.500  4.5291e-02
14.000  18.750  5.5313e-02
14.000  19.000  6.4002e-02
14.000  19.250  7.1715e-02
14.000  19.500  8.0149e-02
14.000  19.750  8.8579e-02
14.000  20.000  9.6054e-02
14.000  20.250  1.0230e-01
14.000  20.500  1.0700e-01
14.000  20.750  1.1015e-01
14.000  21.000  1.1146e-01
14.000  21.250  1.1068e-01
14.000  21.500  1.0828e-01
14.000  21.750  1.0143e-01
14.000  22.000  8.9061e-02
14.000  22.250  7.1384e-02
14.000  22.500  5.1334e-02
14.000  22.750  3.6446e-02
14.000  23.000  3.7058e-02
14.000  23.250  3.9024e-02
14.000  23.500  4.0580e-02
14.000  23.750  4.2363e-02
14.000  24.000  4.3479e-02
