InwC 1458.33A  relative to Inci 1215.00A scaled to 1215A.
Hden   Phi(H)  Eq_Width (A)
7.000  17.000  4.0818e-02
7.000  17.250  4.2437e-02
7.000  17.500  4.3652e-02
7.000  17.750  4.3671e-02
7.000  18.000  4.3691e-02
7.000  18.250  4.3716e-02
7.000  18.500  4.3728e-02
7.000  18.750  4.3733e-02
7.000  19.000  4.3738e-02
7.000  19.250  4.3742e-02
7.000  19.500  4.3744e-02
7.000  19.750  4.3744e-02
7.000  20.000  4.3744e-02
7.000  20.250  4.3745e-02
7.000  20.500  4.3745e-02
7.000  20.750  4.3745e-02
7.000  21.000  4.3745e-02
7.000  21.250  4.3745e-02
7.000  21.500  4.3745e-02
7.000  21.750  4.3746e-02
7.000  22.000  4.3746e-02
7.000  22.250  4.3747e-02
7.000  22.500  4.3747e-02
7.000  22.750  4.3748e-02
7.000  23.000  4.3748e-02
7.000  23.250  4.3747e-02
7.000  23.500  4.3747e-02
7.000  23.750  4.3747e-02
7.000  24.000  4.3747e-02
7.250  17.000  4.2230e-02
7.250  17.250  4.0794e-02
7.250  17.500  4.2447e-02
7.250  17.750  4.3652e-02
7.250  18.000  4.3671e-02
7.250  18.250  4.3691e-02
7.250  18.500  4.3715e-02
7.250  18.750  4.3727e-02
7.250  19.000  4.3733e-02
7.250  19.250  4.3738e-02
7.250  19.500  4.3742e-02
7.250  19.750  4.3743e-02
7.250  20.000  4.3744e-02
7.250  20.250  4.3744e-02
7.250  20.500  4.3745e-02
7.250  20.750  4.3745e-02
7.250  21.000  4.3745e-02
7.250  21.250  4.3745e-02
7.250  21.500  4.3745e-02
7.250  21.750  4.3745e-02
7.250  22.000  4.3745e-02
7.250  22.250  4.3745e-02
7.250  22.500  4.3745e-02
7.250  22.750  4.3746e-02
7.250  23.000  4.3746e-02
7.250  23.250  4.3746e-02
7.250  23.500  4.3746e-02
7.250  23.750  4.3746e-02
7.250  24.000  4.3747e-02
7.500  17.000  4.4238e-02
7.500  17.250  4.2064e-02
7.500  17.500  4.0779e-02
7.500  17.750  4.2457e-02
7.500  18.000  4.3652e-02
7.500  18.250  4.3671e-02
7.500  18.500  4.3691e-02
7.500  18.750  4.3715e-02
7.500  19.000  4.3728e-02
7.500  19.250  4.3733e-02
7.500  19.500  4.3738e-02
7.500  19.750  4.3742e-02
7.500  20.000  4.3744e-02
7.500  20.250  4.3744e-02
7.500  20.500  4.3744e-02
7.500  20.750  4.3745e-02
7.500  21.000  4.3745e-02
7.500  21.250  4.3745e-02
7.500  21.500  4.3745e-02
7.500  21.750  4.3745e-02
7.500  22.000  4.3745e-02
7.500  22.250  4.3745e-02
7.500  22.500  4.3745e-02
7.500  22.750  4.3745e-02
7.500  23.000  4.3745e-02
7.500  23.250  4.3745e-02
7.500  23.500  4.3748e-02
7.500  23.750  4.3745e-02
7.500  24.000  4.3745e-02
7.750  17.000  4.6503e-02
7.750  17.250  4.4007e-02
7.750  17.500  4.1920e-02
7.750  17.750  4.0768e-02
7.750  18.000  4.2468e-02
7.750  18.250  4.3652e-02
7.750  18.500  4.3671e-02
7.750  18.750  4.3691e-02
7.750  19.000  4.3715e-02
7.750  19.250  4.3728e-02
7.750  19.500  4.3733e-02
7.750  19.750  4.3738e-02
7.750  20.000  4.3742e-02
7.750  20.250  4.3743e-02
7.750  20.500  4.3744e-02
7.750  20.750  4.3744e-02
7.750  21.000  4.3745e-02
7.750  21.250  4.3745e-02
7.750  21.500  4.3745e-02
7.750  21.750  4.3745e-02
7.750  22.000  4.3745e-02
7.750  22.250  4.3745e-02
7.750  22.500  4.3745e-02
7.750  22.750  4.3745e-02
7.750  23.000  4.3745e-02
7.750  23.250  4.3745e-02
7.750  23.500  4.3745e-02
7.750  23.750  4.3745e-02
7.750  24.000  4.3745e-02
8.000  17.000  4.8470e-02
8.000  17.250  4.6326e-02
8.000  17.500  4.3779e-02
8.000  17.750  4.1798e-02
8.000  18.000  4.0778e-02
8.000  18.250  4.2465e-02
8.000  18.500  4.3652e-02
8.000  18.750  4.3671e-02
8.000  19.000  4.3692e-02
8.000  19.250  4.3716e-02
8.000  19.500  4.3728e-02
8.000  19.750  4.3733e-02
8.000  20.000  4.3738e-02
8.000  20.250  4.3742e-02
8.000  20.500  4.3743e-02
8.000  20.750  4.3744e-02
8.000  21.000  4.3744e-02
8.000  21.250  4.3745e-02
8.000  21.500  4.3745e-02
8.000  21.750  4.3745e-02
8.000  22.000  4.3745e-02
8.000  22.250  4.3745e-02
8.000  22.500  4.3745e-02
8.000  22.750  4.3745e-02
8.000  23.000  4.3745e-02
8.000  23.250  4.3746e-02
8.000  23.500  4.3745e-02
8.000  23.750  4.3745e-02
8.000  24.000  4.3745e-02
8.250  17.000  4.9855e-02
8.250  17.250  4.8286e-02
8.250  17.500  4.6058e-02
8.250  17.750  4.3458e-02
8.250  18.000  4.1545e-02
8.250  18.250  4.0756e-02
8.250  18.500  4.2473e-02
8.250  18.750  4.3651e-02
8.250  19.000  4.3671e-02
8.250  19.250  4.3692e-02
8.250  19.500  4.3715e-02
8.250  19.750  4.3728e-02
8.250  20.000  4.3733e-02
8.250  20.250  4.3738e-02
8.250  20.500  4.3742e-02
8.250  20.750  4.3743e-02
8.250  21.000  4.3744e-02
8.250  21.250  4.3744e-02
8.250  21.500  4.3745e-02
8.250  21.750  4.3745e-02
8.250  22.000  4.3745e-02
8.250  22.250  4.3745e-02
8.250  22.500  4.3745e-02
8.250  22.750  4.3745e-02
8.250  23.000  4.3745e-02
8.250  23.250  4.3745e-02
8.250  23.500  4.3745e-02
8.250  23.750  4.3745e-02
8.250  24.000  4.3745e-02
8.500  17.000  5.0825e-02
8.500  17.250  4.9689e-02
8.500  17.500  4.8024e-02
8.500  17.750  4.5636e-02
8.500  18.000  4.2923e-02
8.500  18.250  4.1172e-02
8.500  18.500  4.0718e-02
8.500  18.750  4.2479e-02
8.500  19.000  4.3651e-02
8.500  19.250  4.3672e-02
8.500  19.500  4.3692e-02
8.500  19.750  4.3716e-02
8.500  20.000  4.3728e-02
8.500  20.250  4.3733e-02
8.500  20.500  4.3738e-02
8.500  20.750  4.3742e-02
8.500  21.000  4.3743e-02
8.500  21.250  4.3744e-02
8.500  21.500  4.3744e-02
8.500  21.750  4.3745e-02
8.500  22.000  4.3745e-02
8.500  22.250  4.3745e-02
8.500  22.500  4.3745e-02
8.500  22.750  4.3745e-02
8.500  23.000  4.3745e-02
8.500  23.250  4.3745e-02
8.500  23.500  4.3745e-02
8.500  23.750  4.3745e-02
8.500  24.000  4.3745e-02
8.750  17.000  5.1490e-02
8.750  17.250  5.0654e-02
8.750  17.500  4.9417e-02
8.750  17.750  4.7566e-02
8.750  18.000  4.4934e-02
8.750  18.250  4.2092e-02
8.750  18.500  4.0479e-02
8.750  18.750  4.0678e-02
8.750  19.000  4.2484e-02
8.750  19.250  4.3651e-02
8.750  19.500  4.3672e-02
8.750  19.750  4.3692e-02
8.750  20.000  4.3716e-02
8.750  20.250  4.3728e-02
8.750  20.500  4.3733e-02
8.750  20.750  4.3738e-02
8.750  21.000  4.3742e-02
8.750  21.250  4.3743e-02
8.750  21.500  4.3744e-02
8.750  21.750  4.3744e-02
8.750  22.000  4.3745e-02
8.750  22.250  4.3745e-02
8.750  22.500  4.3745e-02
8.750  22.750  4.3745e-02
8.750  23.000  4.3745e-02
8.750  23.250  4.3745e-02
8.750  23.500  4.3745e-02
8.750  23.750  4.3745e-02
8.750  24.000  4.3745e-02
9.000  17.000  5.1947e-02
9.000  17.250  5.1313e-02
9.000  17.500  5.0370e-02
9.000  17.750  4.8953e-02
9.000  18.000  4.6790e-02
9.000  18.250  4.3798e-02
9.000  18.500  4.0988e-02
9.000  18.750  4.0049e-02
9.000  19.000  4.0663e-02
9.000  19.250  4.2484e-02
9.000  19.500  4.3649e-02
9.000  19.750  4.3672e-02
9.000  20.000  4.3692e-02
9.000  20.250  4.3716e-02
9.000  20.500  4.3728e-02
9.000  20.750  4.3733e-02
9.000  21.000  4.3738e-02
9.000  21.250  4.3742e-02
9.000  21.500  4.3744e-02
9.000  21.750  4.3744e-02
9.000  22.000  4.3744e-02
9.000  22.250  4.3745e-02
9.000  22.500  4.3745e-02
9.000  22.750  4.3745e-02
9.000  23.000  4.3745e-02
9.000  23.250  4.3745e-02
9.000  23.500  4.3745e-02
9.000  23.750  4.3745e-02
9.000  24.000  4.3745e-02
9.250  17.000  5.2258e-02
9.250  17.250  5.1758e-02
9.250  17.500  5.1011e-02
9.250  17.750  4.9873e-02
9.250  18.000  4.8108e-02
9.250  18.250  4.5550e-02
9.250  18.500  4.2397e-02
9.250  18.750  3.9866e-02
9.250  19.000  3.9453e-02
9.250  19.250  4.0644e-02
9.250  19.500  4.2477e-02
9.250  19.750  4.3648e-02
9.250  20.000  4.3672e-02
9.250  20.250  4.3692e-02
9.250  20.500  4.3715e-02
9.250  20.750  4.3728e-02
9.250  21.000  4.3733e-02
9.250  21.250  4.3738e-02
9.250  21.500  4.3734e-02
9.250  21.750  4.3731e-02
9.250  22.000  4.3730e-02
9.250  22.250  4.3732e-02
9.250  22.500  4.3744e-02
9.250  22.750  4.3744e-02
9.250  23.000  4.3744e-02
9.250  23.250  4.3744e-02
9.250  23.500  4.3744e-02
9.250  23.750  4.3745e-02
9.250  24.000  4.3745e-02
9.500  17.000  5.2464e-02
9.500  17.250  5.2057e-02
9.500  17.500  5.1437e-02
9.500  17.750  5.0488e-02
9.500  18.000  4.9007e-02
9.500  18.250  4.6858e-02
9.500  18.500  4.4001e-02
9.500  18.750  4.0902e-02
9.500  19.000  3.9080e-02
9.500  19.250  3.9226e-02
9.500  19.500  4.0629e-02
9.500  19.750  4.2459e-02
9.500  20.000  4.3644e-02
9.500  20.250  4.3671e-02
9.500  20.500  4.3692e-02
9.500  20.750  4.3714e-02
9.500  21.000  4.3718e-02
9.500  21.250  4.3720e-02
9.500  21.500  4.3725e-02
9.500  21.750  4.3725e-02
9.500  22.000  4.3720e-02
9.500  22.250  4.3721e-02
9.500  22.500  4.3721e-02
9.500  22.750  4.3721e-02
9.500  23.000  4.3721e-02
9.500  23.250  4.3721e-02
9.500  23.500  4.3727e-02
9.500  23.750  4.3727e-02
9.500  24.000  4.3727e-02
9.750  17.000  5.2600e-02
9.750  17.250  5.2250e-02
9.750  17.500  5.1721e-02
9.750  17.750  5.0895e-02
9.750  18.000  4.9618e-02
9.750  18.250  4.7713e-02
9.750  18.500  4.5196e-02
9.750  18.750  4.2247e-02
9.750  19.000  3.9488e-02
9.750  19.250  3.8435e-02
9.750  19.500  3.9303e-02
9.750  19.750  4.0629e-02
9.750  20.000  4.2435e-02
9.750  20.250  4.3639e-02
9.750  20.500  4.3670e-02
9.750  20.750  4.3692e-02
9.750  21.000  4.3715e-02
9.750  21.250  4.3724e-02
9.750  21.500  4.3723e-02
9.750  21.750  4.3725e-02
9.750  22.000  4.3727e-02
9.750  22.250  4.3724e-02
9.750  22.500  4.3720e-02
9.750  22.750  4.3722e-02
9.750  23.000  4.3722e-02
9.750  23.250  4.3722e-02
9.750  23.500  4.3721e-02
9.750  23.750  4.3721e-02
9.750  24.000  4.3721e-02
10.000  17.000  5.2687e-02
10.000  17.250  5.2380e-02
10.000  17.500  5.1911e-02
10.000  17.750  5.1162e-02
10.000  18.000  4.9990e-02
10.000  18.250  4.8240e-02
10.000  18.500  4.5956e-02
10.000  18.750  4.3269e-02
10.000  19.000  4.0393e-02
10.000  19.250  3.8299e-02
10.000  19.500  3.8003e-02
10.000  19.750  3.9376e-02
10.000  20.000  4.0640e-02
10.000  20.250  4.2410e-02
10.000  20.500  4.3631e-02
10.000  20.750  4.3668e-02
10.000  21.000  4.3692e-02
10.000  21.250  4.3715e-02
10.000  21.500  4.3727e-02
10.000  21.750  4.3729e-02
10.000  22.000  4.3726e-02
10.000  22.250  4.3728e-02
10.000  22.500  4.3727e-02
10.000  22.750  4.3723e-02
10.000  23.000  4.3720e-02
10.000  23.250  4.3721e-02
10.000  23.500  4.3722e-02
10.000  23.750  4.3722e-02
10.000  24.000  4.3722e-02
10.250  17.000  5.2738e-02
10.250  17.250  5.2461e-02
10.250  17.500  5.2027e-02
10.250  17.750  5.1325e-02
10.250  18.000  5.0187e-02
10.250  18.250  4.8538e-02
10.250  18.500  4.6424e-02
10.250  18.750  4.3910e-02
10.250  19.000  4.1145e-02
10.250  19.250  3.8819e-02
10.250  19.500  3.7661e-02
10.250  19.750  3.8154e-02
10.250  20.000  3.9449e-02
10.250  20.250  4.0646e-02
10.250  20.500  4.2395e-02
10.250  20.750  4.3619e-02
10.250  21.000  4.3666e-02
10.250  21.250  4.3691e-02
10.250  21.500  4.3715e-02
10.250  21.750  4.3727e-02
10.250  22.000  4.3732e-02
10.250  22.250  4.3731e-02
10.250  22.500  4.3729e-02
10.250  22.750  4.3728e-02
10.250  23.000  4.3726e-02
10.250  23.250  4.3723e-02
10.250  23.500  4.3722e-02
10.250  23.750  4.3721e-02
10.250  24.000  4.3721e-02
10.500  17.000  5.2754e-02
10.500  17.250  5.2503e-02
10.500  17.500  5.2087e-02
10.500  17.750  5.1396e-02
10.500  18.000  5.0263e-02
10.500  18.250  4.8640e-02
10.500  18.500  4.6683e-02
10.500  18.750  4.4472e-02
10.500  19.000  4.2328e-02
10.500  19.250  4.0396e-02
10.500  19.500  3.8615e-02
10.500  19.750  3.7650e-02
10.500  20.000  3.8311e-02
10.500  20.250  3.9521e-02
10.500  20.500  4.0665e-02
10.500  20.750  4.2400e-02
10.500  21.000  4.3607e-02
10.500  21.250  4.3662e-02
10.500  21.500  4.3689e-02
10.500  21.750  4.3714e-02
10.500  22.000  4.3727e-02
10.500  22.250  4.3733e-02
10.500  22.500  4.3736e-02
10.500  22.750  4.3729e-02
10.500  23.000  4.3730e-02
10.500  23.250  4.3728e-02
10.500  23.500  4.3726e-02
10.500  23.750  4.3725e-02
10.500  24.000  4.3724e-02
10.750  17.000  5.2725e-02
10.750  17.250  5.2497e-02
10.750  17.500  5.2087e-02
10.750  17.750  5.1356e-02
10.750  18.000  5.0206e-02
10.750  18.250  4.8663e-02
10.750  18.500  4.6878e-02
10.750  18.750  4.5083e-02
10.750  19.000  4.3508e-02
10.750  19.250  4.1903e-02
10.750  19.500  4.0123e-02
10.750  19.750  3.8382e-02
10.750  20.000  3.7481e-02
10.750  20.250  3.8412e-02
10.750  20.500  3.9527e-02
10.750  20.750  4.0694e-02
10.750  21.000  4.2439e-02
10.750  21.250  4.3593e-02
10.750  21.500  4.3656e-02
10.750  21.750  4.3687e-02
10.750  22.000  4.3713e-02
10.750  22.250  4.3727e-02
10.750  22.500  4.3733e-02
10.750  22.750  4.3738e-02
10.750  23.000  4.3732e-02
10.750  23.250  4.3730e-02
10.750  23.500  4.3730e-02
10.750  23.750  4.3729e-02
10.750  24.000  4.3728e-02
11.000  17.000  5.2625e-02
11.000  17.250  5.2433e-02
11.000  17.500  5.1995e-02
11.000  17.750  5.1207e-02
11.000  18.000  5.0019e-02
11.000  18.250  4.8523e-02
11.000  18.500  4.6897e-02
11.000  18.750  4.5500e-02
11.000  19.000  4.4370e-02
11.000  19.250  4.3134e-02
11.000  19.500  4.1595e-02
11.000  19.750  3.9753e-02
11.000  20.000  3.7969e-02
11.000  20.250  3.7142e-02
11.000  20.500  3.8459e-02
11.000  20.750  3.9526e-02
11.000  21.000  4.0743e-02
11.000  21.250  4.2548e-02
11.000  21.500  4.3576e-02
11.000  21.750  4.3649e-02
11.000  22.000  4.3684e-02
11.000  22.250  4.3712e-02
11.000  22.500  4.3727e-02
11.000  22.750  4.3733e-02
11.000  23.000  4.3738e-02
11.000  23.250  4.3738e-02
11.000  23.500  4.3731e-02
11.000  23.750  4.3731e-02
11.000  24.000  4.3730e-02
11.250  17.000  5.2464e-02
11.250  17.250  5.2273e-02
11.250  17.500  5.1788e-02
11.250  17.750  5.0911e-02
11.250  18.000  4.9626e-02
11.250  18.250  4.8100e-02
11.250  18.500  4.6687e-02
11.250  18.750  4.5665e-02
11.250  19.000  4.4888e-02
11.250  19.250  4.3998e-02
11.250  19.500  4.2809e-02
11.250  19.750  4.1203e-02
11.250  20.000  3.9248e-02
11.250  20.250  3.7379e-02
11.250  20.500  3.6739e-02
11.250  20.750  3.8352e-02
11.250  21.000  3.9562e-02
11.250  21.250  4.0848e-02
11.250  21.500  4.2778e-02
11.250  21.750  4.3551e-02
11.250  22.000  4.3641e-02
11.250  22.250  4.3680e-02
11.250  22.500  4.3711e-02
11.250  22.750  4.3727e-02
11.250  23.000  4.3733e-02
11.250  23.250  4.3738e-02
11.250  23.500  4.3741e-02
11.250  23.750  4.3733e-02
11.250  24.000  4.3731e-02
11.500  17.000  5.2291e-02
11.500  17.250  5.2006e-02
11.500  17.500  5.1429e-02
11.500  17.750  5.0388e-02
11.500  18.000  4.8899e-02
11.500  18.250  4.7317e-02
11.500  18.500  4.6202e-02
11.500  18.750  4.5530e-02
11.500  19.000  4.5055e-02
11.500  19.250  4.4496e-02
11.500  19.500  4.3673e-02
11.500  19.750  4.2440e-02
11.500  20.000  4.0742e-02
11.500  20.250  3.8627e-02
11.500  20.500  3.6701e-02
11.500  20.750  3.6368e-02
11.500  21.000  3.8328e-02
11.500  21.250  3.9633e-02
11.500  21.500  4.1095e-02
11.500  21.750  4.3094e-02
11.500  22.000  4.3521e-02
11.500  22.250  4.3632e-02
11.500  22.500  4.3676e-02
11.500  22.750  4.3709e-02
11.500  23.000  4.3726e-02
11.500  23.250  4.3732e-02
11.500  23.500  4.3738e-02
11.500  23.750  4.3742e-02
11.500  24.000  4.3739e-02
11.750  17.000  5.2113e-02
11.750  17.250  5.1652e-02
11.750  17.500  5.0869e-02
11.750  17.750  4.9528e-02
11.750  18.000  4.7729e-02
11.750  18.250  4.6221e-02
11.750  18.500  4.5467e-02
11.750  18.750  4.5142e-02
11.750  19.000  4.4913e-02
11.750  19.250  4.4627e-02
11.750  19.500  4.4147e-02
11.750  19.750  4.3313e-02
11.750  20.000  4.2023e-02
11.750  20.250  4.0194e-02
11.750  20.500  3.7935e-02
11.750  20.750  3.5956e-02
11.750  21.000  3.5755e-02
11.750  21.250  3.8312e-02
11.750  21.500  3.9790e-02
11.750  21.750  4.1485e-02
11.750  22.000  4.3250e-02
11.750  22.250  4.3491e-02
11.750  22.500  4.3618e-02
11.750  22.750  4.3671e-02
11.750  23.000  4.3707e-02
11.750  23.250  4.3726e-02
11.750  23.500  4.3732e-02
11.750  23.750  4.3738e-02
11.750  24.000  4.3742e-02
12.000  17.000  5.1862e-02
12.000  17.250  5.1161e-02
12.000  17.500  4.9988e-02
12.000  17.750  4.8176e-02
12.000  18.000  4.6153e-02
12.000  18.250  4.4938e-02
12.000  18.500  4.4506e-02
12.000  18.750  4.4442e-02
12.000  19.000  4.4459e-02
12.000  19.250  4.4433e-02
12.000  19.500  4.4248e-02
12.000  19.750  4.3809e-02
12.000  20.000  4.2957e-02
12.000  20.250  4.1575e-02
12.000  20.500  3.9609e-02
12.000  20.750  3.7182e-02
12.000  21.000  3.5243e-02
12.000  21.250  3.5673e-02
12.000  21.500  3.8357e-02
12.000  21.750  4.0024e-02
12.000  22.000  4.1904e-02
12.000  22.250  4.3210e-02
12.000  22.500  4.3456e-02
12.000  22.750  4.3599e-02
12.000  23.000  4.3663e-02
12.000  23.250  4.3705e-02
12.000  23.500  4.3725e-02
12.000  23.750  4.3732e-02
12.000  24.000  4.3738e-02
12.250  17.000  5.1177e-02
12.250  17.250  5.0192e-02
12.250  17.500  4.8508e-02
12.250  17.750  4.6212e-02
12.250  18.000  4.4304e-02
12.250  18.250  4.3430e-02
12.250  18.500  4.3334e-02
12.250  18.750  4.3477e-02
12.250  19.000  4.3701e-02
12.250  19.250  4.3918e-02
12.250  19.500  4.4019e-02
12.250  19.750  4.3902e-02
12.250  20.000  4.3473e-02
12.250  20.250  4.2564e-02
12.250  20.500  4.1093e-02
12.250  20.750  3.8959e-02
12.250  21.000  3.6405e-02
12.250  21.250  3.4614e-02
12.250  21.500  3.5825e-02
12.250  21.750  3.8489e-02
12.250  22.000  4.0329e-02
12.250  22.250  4.2312e-02
12.250  22.500  4.3165e-02
12.250  22.750  4.3423e-02
12.250  23.000  4.3578e-02
12.250  23.250  4.3654e-02
12.250  23.500  4.3701e-02
12.250  23.750  4.3724e-02
12.250  24.000  4.3731e-02
12.500  17.000  3.8534e-02
12.500  17.250  4.8019e-02
12.500  17.500  4.5974e-02
12.500  17.750  4.3684e-02
12.500  18.000  4.2223e-02
12.500  18.250  4.1801e-02
12.500  18.500  4.1920e-02
12.500  18.750  4.2246e-02
12.500  19.000  4.2668e-02
12.500  19.250  4.3107e-02
12.500  19.500  4.3464e-02
12.500  19.750  4.3644e-02
12.500  20.000  4.3558e-02
12.500  20.250  4.3105e-02
12.500  20.500  4.2148e-02
12.500  20.750  4.0555e-02
12.500  21.000  3.8251e-02
12.500  21.250  3.5617e-02
12.500  21.500  3.4126e-02
12.500  21.750  3.6083e-02
12.500  22.000  3.8712e-02
12.500  22.250  4.0671e-02
12.500  22.500  4.2546e-02
12.500  22.750  4.3130e-02
12.500  23.000  4.3394e-02
12.500  23.250  4.3558e-02
12.500  23.500  4.3642e-02
12.500  23.750  4.3697e-02
12.500  24.000  4.3723e-02
12.750  17.000  1.9778e-02
12.750  17.250  3.7942e-02
12.750  17.500  4.2200e-02
12.750  17.750  4.0723e-02
12.750  18.000  3.9745e-02
12.750  18.250  3.9762e-02
12.750  18.500  4.0154e-02
12.750  18.750  4.0711e-02
12.750  19.000  4.1352e-02
12.750  19.250  4.1991e-02
12.750  19.500  4.2593e-02
12.750  19.750  4.3047e-02
12.750  20.000  4.3276e-02
12.750  20.250  4.3189e-02
12.750  20.500  4.2704e-02
12.750  20.750  4.1657e-02
12.750  21.000  3.9897e-02
12.750  21.250  3.7427e-02
12.750  21.500  3.4866e-02
12.750  21.750  3.3776e-02
12.750  22.000  3.6443e-02
12.750  22.250  3.8977e-02
12.750  22.500  4.1041e-02
12.750  22.750  4.2642e-02
12.750  23.000  4.3110e-02
12.750  23.250  4.3374e-02
12.750  23.500  4.3536e-02
12.750  23.750  4.3630e-02
12.750  24.000  4.3690e-02
13.000  17.000  3.3461e-03
13.000  17.250  7.7115e-03
13.000  17.500  2.5263e-02
13.000  17.750  3.6224e-02
13.000  18.000  3.6941e-02
13.000  18.250  3.7243e-02
13.000  18.500  3.7874e-02
13.000  18.750  3.8729e-02
13.000  19.000  3.9662e-02
13.000  19.250  4.0576e-02
13.000  19.500  4.1405e-02
13.000  19.750  4.2112e-02
13.000  20.000  4.2623e-02
13.000  20.250  4.2868e-02
13.000  20.500  4.2754e-02
13.000  20.750  4.2181e-02
13.000  21.000  4.0977e-02
13.000  21.250  3.9022e-02
13.000  21.500  3.6493e-02
13.000  21.750  3.3906e-02
13.000  22.000  3.3619e-02
13.000  22.250  3.6792e-02
13.000  22.500  3.9248e-02
13.000  22.750  4.1295e-02
13.000  23.000  4.2675e-02
13.000  23.250  4.3098e-02
13.000  23.500  4.3356e-02
13.000  23.750  4.3518e-02
13.000  24.000  4.3613e-02
13.250  17.000  2.0222e-03
13.250  17.250  3.7193e-03
13.250  17.500  8.6626e-03
13.250  17.750  1.8655e-02
13.250  18.000  2.7100e-02
13.250  18.250  3.4292e-02
13.250  18.500  3.5093e-02
13.250  18.750  3.6197e-02
13.250  19.000  3.7504e-02
13.250  19.250  3.8748e-02
13.250  19.500  3.9881e-02
13.250  19.750  4.0845e-02
13.250  20.000  4.1616e-02
13.250  20.250  4.2150e-02
13.250  20.500  4.2374e-02
13.250  20.750  4.2182e-02
13.250  21.000  4.1453e-02
13.250  21.250  4.0012e-02
13.250  21.500  3.7939e-02
13.250  21.750  3.4993e-02
13.250  22.000  3.2652e-02
13.250  22.250  3.3654e-02
13.250  22.500  3.7000e-02
13.250  22.750  3.9290e-02
13.250  23.000  4.1249e-02
13.250  23.250  4.2668e-02
13.250  23.500  4.3081e-02
13.250  23.750  4.3336e-02
13.250  24.000  4.3497e-02
13.500  17.000  1.2319e-03
13.500  17.250  2.3527e-03
13.500  17.500  5.0152e-03
13.500  17.750  1.0334e-02
13.500  18.000  1.9912e-02
13.500  18.250  2.6317e-02
13.500  18.500  3.1998e-02
13.500  18.750  3.3286e-02
13.500  19.000  3.4809e-02
13.500  19.250  3.6432e-02
13.500  19.500  3.7916e-02
13.500  19.750  3.9205e-02
13.500  20.000  4.0259e-02
13.500  20.250  4.1063e-02
13.500  20.500  4.1574e-02
13.500  20.750  4.1726e-02
13.500  21.000  4.1372e-02
13.500  21.250  4.0383e-02
13.500  21.500  3.8726e-02
13.500  21.750  3.5969e-02
13.500  22.000  3.2640e-02
13.500  22.250  3.1098e-02
13.500  22.500  3.3791e-02
13.500  22.750  3.7067e-02
13.500  23.000  3.9232e-02
13.500  23.250  4.1208e-02
13.500  23.500  4.2644e-02
13.500  23.750  4.3051e-02
13.500  24.000  4.3308e-02
13.750  17.000  7.6593e-04
13.750  17.250  1.4884e-03
13.750  17.500  3.0569e-03
13.750  17.750  5.6277e-03
13.750  18.000  1.1797e-02
13.750  18.250  2.0486e-02
13.750  18.500  2.4973e-02
13.750  18.750  3.0086e-02
13.750  19.000  3.1761e-02
13.750  19.250  3.3590e-02
13.750  19.500  3.5448e-02
13.750  19.750  3.7107e-02
13.750  20.000  3.8495e-02
13.750  20.250  3.9602e-02
13.750  20.500  4.0408e-02
13.750  20.750  4.0841e-02
13.750  21.000  4.0815e-02
13.750  21.250  4.0168e-02
13.750  21.500  3.8894e-02
13.750  21.750  3.6390e-02
13.750  22.000  3.2797e-02
13.750  22.250  2.9374e-02
13.750  22.500  2.9621e-02
13.750  22.750  3.4165e-02
13.750  23.000  3.7094e-02
13.750  23.250  3.9159e-02
13.750  23.500  4.1101e-02
13.750  23.750  4.2593e-02
13.750  24.000  4.3003e-02
14.000  17.000  4.7259e-04
14.000  17.250  8.9745e-04
14.000  17.500  1.8949e-03
14.000  17.750  3.5277e-03
14.000  18.000  6.4174e-03
14.000  18.250  1.2607e-02
14.000  18.500  1.9896e-02
14.000  18.750  2.5237e-02
14.000  19.000  2.8530e-02
14.000  19.250  3.0456e-02
14.000  19.500  3.2527e-02
14.000  19.750  3.4538e-02
14.000  20.000  3.6277e-02
14.000  20.250  3.7722e-02
14.000  20.500  3.8827e-02
14.000  20.750  3.9568e-02
14.000  21.000  3.9830e-02
14.000  21.250  3.9466e-02
14.000  21.500  3.8488e-02
14.000  21.750  3.6221e-02
14.000  22.000  3.2541e-02
14.000  22.250  2.8184e-02
14.000  22.500  2.5787e-02
14.000  22.750  2.8845e-02
14.000  23.000  3.4493e-02
14.000  23.250  3.7113e-02
14.000  23.500  3.9103e-02
14.000  23.750  4.1118e-02
14.000  24.000  4.2488e-02
