InwC 2700.00A  relative to Inci 1215.00A scaled to 1215A.
Hden   Phi(H)  Eq_Width (A)
7.000  17.000  3.5012e-02
7.000  17.250  3.6622e-02
7.000  17.500  3.7557e-02
7.000  17.750  3.7574e-02
7.000  18.000  3.7592e-02
7.000  18.250  3.7613e-02
7.000  18.500  3.7623e-02
7.000  18.750  3.7628e-02
7.000  19.000  3.7633e-02
7.000  19.250  3.7636e-02
7.000  19.500  3.7637e-02
7.000  19.750  3.7638e-02
7.000  20.000  3.7638e-02
7.000  20.250  3.7638e-02
7.000  20.500  3.7638e-02
7.000  20.750  3.7639e-02
7.000  21.000  3.7639e-02
7.000  21.250  3.7639e-02
7.000  21.500  3.7639e-02
7.000  21.750  3.7639e-02
7.000  22.000  3.7640e-02
7.000  22.250  3.7640e-02
7.000  22.500  3.7640e-02
7.000  22.750  3.7641e-02
7.000  23.000  3.7641e-02
7.000  23.250  3.7641e-02
7.000  23.500  3.7641e-02
7.000  23.750  3.7641e-02
7.000  24.000  3.7641e-02
7.250  17.000  2.6192e-02
7.250  17.250  3.5120e-02
7.250  17.500  3.6627e-02
7.250  17.750  3.7557e-02
7.250  18.000  3.7574e-02
7.250  18.250  3.7592e-02
7.250  18.500  3.7612e-02
7.250  18.750  3.7623e-02
7.250  19.000  3.7628e-02
7.250  19.250  3.7633e-02
7.250  19.500  3.7636e-02
7.250  19.750  3.7637e-02
7.250  20.000  3.7638e-02
7.250  20.250  3.7638e-02
7.250  20.500  3.7638e-02
7.250  20.750  3.7638e-02
7.250  21.000  3.7638e-02
7.250  21.250  3.7638e-02
7.250  21.500  3.7639e-02
7.250  21.750  3.7639e-02
7.250  22.000  3.7639e-02
7.250  22.250  3.7639e-02
7.250  22.500  3.7639e-02
7.250  22.750  3.7639e-02
7.250  23.000  3.7640e-02
7.250  23.250  3.7640e-02
7.250  23.500  3.7640e-02
7.250  23.750  3.7640e-02
7.250  24.000  3.7640e-02
7.500  17.000  1.9440e-02
7.500  17.250  2.6482e-02
7.500  17.500  3.5190e-02
7.500  17.750  3.6631e-02
7.500  18.000  3.7557e-02
7.500  18.250  3.7574e-02
7.500  18.500  3.7592e-02
7.500  18.750  3.7613e-02
7.500  19.000  3.7623e-02
7.500  19.250  3.7628e-02
7.500  19.500  3.7633e-02
7.500  19.750  3.7636e-02
7.500  20.000  3.7637e-02
7.500  20.250  3.7638e-02
7.500  20.500  3.7638e-02
7.500  20.750  3.7638e-02
7.500  21.000  3.7638e-02
7.500  21.250  3.7638e-02
7.500  21.500  3.7638e-02
7.500  21.750  3.7638e-02
7.500  22.000  3.7638e-02
7.500  22.250  3.7639e-02
7.500  22.500  3.7639e-02
7.500  22.750  3.7639e-02
7.500  23.000  3.7639e-02
7.500  23.250  3.7639e-02
7.500  23.500  3.7641e-02
7.500  23.750  3.7639e-02
7.500  24.000  3.7639e-02
7.750  17.000  1.3861e-02
7.750  17.250  1.9780e-02
7.750  17.500  2.6692e-02
7.750  17.750  3.5227e-02
7.750  18.000  3.6632e-02
7.750  18.250  3.7557e-02
7.750  18.500  3.7574e-02
7.750  18.750  3.7592e-02
7.750  19.000  3.7613e-02
7.750  19.250  3.7623e-02
7.750  19.500  3.7628e-02
7.750  19.750  3.7633e-02
7.750  20.000  3.7636e-02
7.750  20.250  3.7637e-02
7.750  20.500  3.7638e-02
7.750  20.750  3.7638e-02
7.750  21.000  3.7638e-02
7.750  21.250  3.7638e-02
7.750  21.500  3.7638e-02
7.750  21.750  3.7638e-02
7.750  22.000  3.7638e-02
7.750  22.250  3.7638e-02
7.750  22.500  3.7638e-02
7.750  22.750  3.7638e-02
7.750  23.000  3.7639e-02
7.750  23.250  3.7638e-02
7.750  23.500  3.7638e-02
7.750  23.750  3.7639e-02
7.750  24.000  3.7639e-02
8.000  17.000  9.6858e-03
8.000  17.250  1.4053e-02
8.000  17.500  2.0013e-02
8.000  17.750  2.6727e-02
8.000  18.000  3.5088e-02
8.000  18.250  3.6624e-02
8.000  18.500  3.7556e-02
8.000  18.750  3.7574e-02
8.000  19.000  3.7592e-02
8.000  19.250  3.7613e-02
8.000  19.500  3.7623e-02
8.000  19.750  3.7628e-02
8.000  20.000  3.7633e-02
8.000  20.250  3.7636e-02
8.000  20.500  3.7637e-02
8.000  20.750  3.7638e-02
8.000  21.000  3.7638e-02
8.000  21.250  3.7638e-02
8.000  21.500  3.7638e-02
8.000  21.750  3.7638e-02
8.000  22.000  3.7638e-02
8.000  22.250  3.7638e-02
8.000  22.500  3.7638e-02
8.000  22.750  3.7639e-02
8.000  23.000  3.7638e-02
8.000  23.250  3.7639e-02
8.000  23.500  3.7638e-02
8.000  23.750  3.7638e-02
8.000  24.000  3.7638e-02
8.250  17.000  6.9207e-03
8.250  17.250  9.8568e-03
8.250  17.500  1.4336e-02
8.250  17.750  2.0331e-02
8.250  18.000  2.6990e-02
8.250  18.250  3.5090e-02
8.250  18.500  3.6619e-02
8.250  18.750  3.7555e-02
8.250  19.000  3.7574e-02
8.250  19.250  3.7592e-02
8.250  19.500  3.7612e-02
8.250  19.750  3.7623e-02
8.250  20.000  3.7628e-02
8.250  20.250  3.7633e-02
8.250  20.500  3.7636e-02
8.250  20.750  3.7637e-02
8.250  21.000  3.7638e-02
8.250  21.250  3.7638e-02
8.250  21.500  3.7638e-02
8.250  21.750  3.7638e-02
8.250  22.000  3.7638e-02
8.250  22.250  3.7638e-02
8.250  22.500  3.7638e-02
8.250  22.750  3.7638e-02
8.250  23.000  3.7638e-02
8.250  23.250  3.7638e-02
8.250  23.500  3.7638e-02
8.250  23.750  3.7638e-02
8.250  24.000  3.7638e-02
8.500  17.000  5.0726e-03
8.500  17.250  7.0373e-03
8.500  17.500  1.0063e-02
8.500  17.750  1.4702e-02
8.500  18.000  2.0855e-02
8.500  18.250  2.7351e-02
8.500  18.500  3.5113e-02
8.500  18.750  3.6608e-02
8.500  19.000  3.7553e-02
8.500  19.250  3.7574e-02
8.500  19.500  3.7592e-02
8.500  19.750  3.7613e-02
8.500  20.000  3.7623e-02
8.500  20.250  3.7628e-02
8.500  20.500  3.7633e-02
8.500  20.750  3.7636e-02
8.500  21.000  3.7637e-02
8.500  21.250  3.7638e-02
8.500  21.500  3.7638e-02
8.500  21.750  3.7638e-02
8.500  22.000  3.7638e-02
8.500  22.250  3.7638e-02
8.500  22.500  3.7638e-02
8.500  22.750  3.7638e-02
8.500  23.000  3.7638e-02
8.500  23.250  3.7639e-02
8.500  23.500  3.7638e-02
8.500  23.750  3.7638e-02
8.500  24.000  3.7638e-02
8.750  17.000  3.7982e-03
8.750  17.250  5.1472e-03
8.750  17.500  7.1849e-03
8.750  17.750  1.0392e-02
8.750  18.000  1.5295e-02
8.750  18.250  2.1631e-02
8.750  18.500  2.8132e-02
8.750  18.750  3.5038e-02
8.750  19.000  3.6587e-02
8.750  19.250  3.7550e-02
8.750  19.500  3.7574e-02
8.750  19.750  3.7592e-02
8.750  20.000  3.7613e-02
8.750  20.250  3.7623e-02
8.750  20.500  3.7628e-02
8.750  20.750  3.7633e-02
8.750  21.000  3.7636e-02
8.750  21.250  3.7637e-02
8.750  21.500  3.7638e-02
8.750  21.750  3.7638e-02
8.750  22.000  3.7638e-02
8.750  22.250  3.7638e-02
8.750  22.500  3.7638e-02
8.750  22.750  3.7638e-02
8.750  23.000  3.7638e-02
8.750  23.250  3.7638e-02
8.750  23.500  3.7639e-02
8.750  23.750  3.7639e-02
8.750  24.000  3.7638e-02
9.000  17.000  2.9061e-03
9.000  17.250  3.8453e-03
9.000  17.500  5.2530e-03
9.000  17.750  7.4298e-03
9.000  18.000  1.0930e-02
9.000  18.250  1.6262e-02
9.000  18.500  2.2704e-02
9.000  18.750  2.8666e-02
9.000  19.000  3.4867e-02
9.000  19.250  3.6552e-02
9.000  19.500  3.7545e-02
9.000  19.750  3.7573e-02
9.000  20.000  3.7592e-02
9.000  20.250  3.7613e-02
9.000  20.500  3.7623e-02
9.000  20.750  3.7628e-02
9.000  21.000  3.7633e-02
9.000  21.250  3.7636e-02
9.000  21.500  3.7637e-02
9.000  21.750  3.7638e-02
9.000  22.000  3.7638e-02
9.000  22.250  3.7638e-02
9.000  22.500  3.7638e-02
9.000  22.750  3.7638e-02
9.000  23.000  3.7638e-02
9.000  23.250  3.7638e-02
9.000  23.500  3.7638e-02
9.000  23.750  3.7638e-02
9.000  24.000  3.7639e-02
9.250  17.000  2.2767e-03
9.250  17.250  2.9332e-03
9.250  17.500  3.9194e-03
9.250  17.750  5.4465e-03
9.250  18.000  7.9295e-03
9.250  18.250  1.1890e-02
9.250  18.500  1.7525e-02
9.250  18.750  2.3932e-02
9.250  19.000  2.9950e-02
9.250  19.250  3.4681e-02
9.250  19.500  3.6494e-02
9.250  19.750  3.7536e-02
9.250  20.000  3.7571e-02
9.250  20.250  3.7592e-02
9.250  20.500  3.7612e-02
9.250  20.750  3.7623e-02
9.250  21.000  3.7628e-02
9.250  21.250  3.7633e-02
9.250  21.500  3.7629e-02
9.250  21.750  3.7626e-02
9.250  22.000  3.7626e-02
9.250  22.250  3.7627e-02
9.250  22.500  3.7638e-02
9.250  22.750  3.7638e-02
9.250  23.000  3.7638e-02
9.250  23.250  3.7638e-02
9.250  23.500  3.7638e-02
9.250  23.750  3.7638e-02
9.250  24.000  3.7638e-02
9.500  17.000  1.8310e-03
9.500  17.250  2.2922e-03
9.500  17.500  2.9848e-03
9.500  17.750  4.0741e-03
9.500  18.000  5.8845e-03
9.500  18.250  8.7743e-03
9.500  18.500  1.3047e-02
9.500  18.750  1.8659e-02
9.500  19.000  2.4741e-02
9.500  19.250  3.0971e-02
9.500  19.500  3.4497e-02
9.500  19.750  3.6416e-02
9.500  20.000  3.7522e-02
9.500  20.250  3.7568e-02
9.500  20.500  3.7591e-02
9.500  20.750  3.7611e-02
9.500  21.000  3.7615e-02
9.500  21.250  3.7617e-02
9.500  21.500  3.7621e-02
9.500  21.750  3.7622e-02
9.500  22.000  3.7617e-02
9.500  22.250  3.7618e-02
9.500  22.500  3.7618e-02
9.500  22.750  3.7618e-02
9.500  23.000  3.7618e-02
9.500  23.250  3.7618e-02
9.500  23.500  3.7623e-02
9.500  23.750  3.7623e-02
9.500  24.000  3.7623e-02
9.750  17.000  1.5153e-03
9.750  17.250  1.8371e-03
9.750  17.500  2.3248e-03
9.750  17.750  3.1064e-03
9.750  18.000  4.4271e-03
9.750  18.250  6.5649e-03
9.750  18.500  9.6588e-03
9.750  18.750  1.3889e-02
9.750  19.000  1.9348e-02
9.750  19.250  2.5830e-02
9.750  19.500  3.2340e-02
9.750  19.750  3.4331e-02
9.750  20.000  3.6311e-02
9.750  20.250  3.7499e-02
9.750  20.500  3.7563e-02
9.750  20.750  3.7589e-02
9.750  21.000  3.7611e-02
9.750  21.250  3.7620e-02
9.750  21.500  3.7619e-02
9.750  21.750  3.7622e-02
9.750  22.000  3.7623e-02
9.750  22.250  3.7620e-02
9.750  22.500  3.7617e-02
9.750  22.750  3.7618e-02
9.750  23.000  3.7619e-02
9.750  23.250  3.7619e-02
9.750  23.500  3.7618e-02
9.750  23.750  3.7618e-02
9.750  24.000  3.7618e-02
10.000  17.000  1.2907e-03
10.000  17.250  1.5165e-03
10.000  17.500  1.8600e-03
10.000  17.750  2.4222e-03
10.000  18.000  3.3979e-03
10.000  18.250  4.9561e-03
10.000  18.500  7.1616e-03
10.000  18.750  1.0153e-02
10.000  19.000  1.4285e-02
10.000  19.250  1.9754e-02
10.000  19.500  2.7131e-02
10.000  19.750  3.2346e-02
10.000  20.000  3.4194e-02
10.000  20.250  3.6209e-02
10.000  20.500  3.7465e-02
10.000  20.750  3.7556e-02
10.000  21.000  3.7587e-02
10.000  21.250  3.7610e-02
10.000  21.500  3.7622e-02
10.000  21.750  3.7624e-02
10.000  22.000  3.7622e-02
10.000  22.250  3.7624e-02
10.000  22.500  3.7623e-02
10.000  22.750  3.7619e-02
10.000  23.000  3.7618e-02
10.000  23.250  3.7618e-02
10.000  23.500  3.7619e-02
10.000  23.750  3.7619e-02
10.000  24.000  3.7619e-02
10.250  17.000  1.1317e-03
10.250  17.250  1.2896e-03
10.250  17.500  1.5319e-03
10.250  17.750  1.9376e-03
10.250  18.000  2.6467e-03
10.250  18.250  3.7705e-03
10.250  18.500  5.3119e-03
10.250  18.750  7.3963e-03
10.250  19.000  1.0234e-02
10.250  19.250  1.4463e-02
10.250  19.500  2.0716e-02
10.250  19.750  2.8439e-02
10.250  20.000  3.2168e-02
10.250  20.250  3.4067e-02
10.250  20.500  3.6111e-02
10.250  20.750  3.7420e-02
10.250  21.000  3.7543e-02
10.250  21.250  3.7582e-02
10.250  21.500  3.7609e-02
10.250  21.750  3.7623e-02
10.250  22.000  3.7627e-02
10.250  22.250  3.7626e-02
10.250  22.500  3.7625e-02
10.250  22.750  3.7624e-02
10.250  23.000  3.7622e-02
10.250  23.250  3.7620e-02
10.250  23.500  3.7618e-02
10.250  23.750  3.7618e-02
10.250  24.000  3.7618e-02
10.500  17.000  1.0193e-03
10.500  17.250  1.1291e-03
10.500  17.500  1.3000e-03
10.500  17.750  1.5927e-03
10.500  18.000  2.1039e-03
10.500  18.250  2.9071e-03
10.500  18.500  3.9980e-03
10.500  18.750  5.5168e-03
10.500  19.000  7.6789e-03
10.500  19.250  1.0838e-02
10.500  19.500  1.5402e-02
10.500  19.750  2.2019e-02
10.500  20.000  2.9416e-02
10.500  20.250  3.2168e-02
10.500  20.500  3.3893e-02
10.500  20.750  3.6030e-02
10.500  21.000  3.7369e-02
10.500  21.250  3.7526e-02
10.500  21.500  3.7575e-02
10.500  21.750  3.7607e-02
10.500  22.000  3.7622e-02
10.500  22.250  3.7627e-02
10.500  22.500  3.7631e-02
10.500  22.750  3.7625e-02
10.500  23.000  3.7625e-02
10.500  23.250  3.7624e-02
10.500  23.500  3.7623e-02
10.500  23.750  3.7621e-02
10.500  24.000  3.7620e-02
10.750  17.000  9.3901e-04
10.750  17.250  1.0147e-03
10.750  17.500  1.1343e-03
10.750  17.750  1.3430e-03
10.750  18.000  1.7115e-03
10.750  18.250  2.2863e-03
10.750  18.500  3.0900e-03
10.750  18.750  4.2402e-03
10.750  19.000  5.8733e-03
10.750  19.250  8.1722e-03
10.750  19.500  1.1455e-02
10.750  19.750  1.6215e-02
10.750  20.000  2.3072e-02
10.750  20.250  2.9656e-02
10.750  20.500  3.1969e-02
10.750  20.750  3.3810e-02
10.750  21.000  3.5989e-02
10.750  21.250  3.7316e-02
10.750  21.500  3.7502e-02
10.750  21.750  3.7565e-02
10.750  22.000  3.7604e-02
10.750  22.250  3.7622e-02
10.750  22.500  3.7627e-02
10.750  22.750  3.7632e-02
10.750  23.000  3.7627e-02
10.750  23.250  3.7626e-02
10.750  23.500  3.7626e-02
10.750  23.750  3.7625e-02
10.750  24.000  3.7624e-02
11.000  17.000  8.8049e-04
11.000  17.250  9.3144e-04
11.000  17.500  1.0133e-03
11.000  17.750  1.1612e-03
11.000  18.000  1.4257e-03
11.000  18.250  1.8402e-03
11.000  18.500  2.4450e-03
11.000  18.750  3.3317e-03
11.000  19.000  4.5445e-03
11.000  19.250  6.1982e-03
11.000  19.500  8.5513e-03
11.000  19.750  1.1916e-02
11.000  20.000  1.6783e-02
11.000  20.250  2.3744e-02
11.000  20.500  2.9581e-02
11.000  20.750  3.1778e-02
11.000  21.000  3.3773e-02
11.000  21.250  3.6028e-02
11.000  21.500  3.7261e-02
11.000  21.750  3.7475e-02
11.000  22.000  3.7552e-02
11.000  22.250  3.7599e-02
11.000  22.500  3.7621e-02
11.000  22.750  3.7627e-02
11.000  23.000  3.7632e-02
11.000  23.250  3.7632e-02
11.000  23.500  3.7626e-02
11.000  23.750  3.7626e-02
11.000  24.000  3.7626e-02
11.250  17.000  8.3728e-04
11.250  17.250  8.6971e-04
11.250  17.500  9.2412e-04
11.250  17.750  1.0274e-03
11.250  18.000  1.2160e-03
11.250  18.250  1.5176e-03
11.250  18.500  1.9654e-03
11.250  18.750  2.6225e-03
11.250  19.000  3.5166e-03
11.250  19.250  4.7451e-03
11.250  19.500  6.4252e-03
11.250  19.750  8.8072e-03
11.250  20.000  1.2182e-02
11.250  20.250  1.7109e-02
11.250  20.500  2.4178e-02
11.250  20.750  2.9137e-02
11.250  21.000  3.1708e-02
11.250  21.250  3.3806e-02
11.250  21.500  3.6180e-02
11.250  21.750  3.7188e-02
11.250  22.000  3.7447e-02
11.250  22.250  3.7537e-02
11.250  22.500  3.7592e-02
11.250  22.750  3.7619e-02
11.250  23.000  3.7626e-02
11.250  23.250  3.7632e-02
11.250  23.500  3.7635e-02
11.250  23.750  3.7628e-02
11.250  24.000  3.7627e-02
11.500  17.000  8.0601e-04
11.500  17.250  8.2428e-04
11.500  17.500  8.5877e-04
11.500  17.750  9.2889e-04
11.500  18.000  1.0622e-03
11.500  18.250  1.2826e-03
11.500  18.500  1.6112e-03
11.500  18.750  2.0951e-03
11.500  19.000  2.7467e-03
11.500  19.250  3.6482e-03
11.500  19.500  4.8737e-03
11.500  19.750  6.5722e-03
11.500  20.000  8.9552e-03
11.500  20.250  1.2338e-02
11.500  20.500  1.7302e-02
11.500  20.750  2.4308e-02
11.500  21.000  2.8977e-02
11.500  21.250  3.1728e-02
11.500  21.500  3.4027e-02
11.500  21.750  3.6419e-02
11.500  22.000  3.7126e-02
11.500  22.250  3.7418e-02
11.500  22.500  3.7521e-02
11.500  22.750  3.7585e-02
11.500  23.000  3.7617e-02
11.500  23.250  3.7625e-02
11.500  23.500  3.7632e-02
11.500  23.750  3.7636e-02
11.500  24.000  3.7633e-02
11.750  17.000  7.8477e-04
11.750  17.250  7.9177e-04
11.750  17.500  8.1119e-04
11.750  17.750  8.5720e-04
11.750  18.000  9.5045e-04
11.750  18.250  1.1090e-03
11.750  18.500  1.3477e-03
11.750  18.750  1.6927e-03
11.750  19.000  2.1806e-03
11.750  19.250  2.8380e-03
11.750  19.500  3.7465e-03
11.750  19.750  4.9791e-03
11.750  20.000  6.6724e-03
11.750  20.250  9.0428e-03
11.750  20.500  1.2443e-02
11.750  20.750  1.7448e-02
11.750  21.000  2.4167e-02
11.750  21.250  2.8847e-02
11.750  21.500  3.1894e-02
11.750  21.750  3.4400e-02
11.750  22.000  3.6527e-02
11.750  22.250  3.7083e-02
11.750  22.500  3.7386e-02
11.750  22.750  3.7506e-02
11.750  23.000  3.7578e-02
11.750  23.250  3.7614e-02
11.750  23.500  3.7624e-02
11.750  23.750  3.7631e-02
11.750  24.000  3.7636e-02
12.000  17.000  7.7078e-04
12.000  17.250  7.7004e-04
12.000  17.500  7.7811e-04
12.000  17.750  8.0642e-04
12.000  18.000  8.7021e-04
12.000  18.250  9.8165e-04
12.000  18.500  1.1541e-03
12.000  18.750  1.4054e-03
12.000  19.000  1.7623e-03
12.000  19.250  2.2477e-03
12.000  19.500  2.9119e-03
12.000  19.750  3.8157e-03
12.000  20.000  5.0426e-03
12.000  20.250  6.7403e-03
12.000  20.500  9.1117e-03
12.000  20.750  1.2530e-02
12.000  21.000  1.7629e-02
12.000  21.250  2.3743e-02
12.000  21.500  2.8816e-02
12.000  21.750  3.2199e-02
12.000  22.000  3.4813e-02
12.000  22.250  3.6479e-02
12.000  22.500  3.7041e-02
12.000  22.750  3.7354e-02
12.000  23.000  3.7488e-02
12.000  23.250  3.7570e-02
12.000  23.500  3.7611e-02
12.000  23.750  3.7623e-02
12.000  24.000  3.7631e-02
12.250  17.000  7.6272e-04
12.250  17.250  7.5778e-04
12.250  17.500  7.5786e-04
12.250  17.750  7.7300e-04
12.250  18.000  8.1523e-04
12.250  18.250  8.9358e-04
12.250  18.500  1.0165e-03
12.250  18.750  1.1976e-03
12.250  19.000  1.4565e-03
12.250  19.250  1.8157e-03
12.250  19.500  2.3021e-03
12.250  19.750  2.9640e-03
12.250  20.000  3.8688e-03
12.250  20.250  5.1008e-03
12.250  20.500  6.7909e-03
12.250  20.750  9.1795e-03
12.250  21.000  1.2663e-02
12.250  21.250  1.7924e-02
12.250  21.500  2.3869e-02
12.250  21.750  2.9032e-02
12.250  22.000  3.2625e-02
12.250  22.250  3.5215e-02
12.250  22.500  3.6438e-02
12.250  22.750  3.6992e-02
12.250  23.000  3.7323e-02
12.250  23.250  3.7470e-02
12.250  23.500  3.7562e-02
12.250  23.750  3.7608e-02
12.250  24.000  3.7621e-02
12.500  17.000  5.9235e-04
12.500  17.250  7.5333e-04
12.500  17.500  7.5037e-04
12.500  17.750  7.5720e-04
12.500  18.000  7.8198e-04
12.500  18.250  8.3284e-04
12.500  18.500  9.1835e-04
12.500  18.750  1.0477e-03
12.500  19.000  1.2340e-03
12.500  19.250  1.4956e-03
12.500  19.500  1.8555e-03
12.500  19.750  2.3433e-03
12.500  20.000  3.0065e-03
12.500  20.250  3.9163e-03
12.500  20.500  5.1396e-03
12.500  20.750  6.8528e-03
12.500  21.000  9.2946e-03
12.500  21.250  1.2910e-02
12.500  21.500  1.8079e-02
12.500  21.750  2.4240e-02
12.500  22.000  2.9444e-02
12.500  22.250  3.3086e-02
12.500  22.500  3.5463e-02
12.500  22.750  3.6419e-02
12.500  23.000  3.6957e-02
12.500  23.250  3.7289e-02
12.500  23.500  3.7449e-02
12.500  23.750  3.7552e-02
12.500  24.000  3.7605e-02
12.750  17.000  3.2905e-04
12.750  17.250  6.5177e-04
12.750  17.500  7.5095e-04
12.750  17.750  7.5309e-04
12.750  18.000  7.6510e-04
12.750  18.250  7.9539e-04
12.750  18.500  8.5045e-04
12.750  18.750  9.4016e-04
12.750  19.000  1.0727e-03
12.750  19.250  1.2633e-03
12.750  19.500  1.5244e-03
12.750  19.750  1.8833e-03
12.750  20.000  2.3656e-03
12.750  20.250  3.0342e-03
12.750  20.500  3.9355e-03
12.750  20.750  5.1639e-03
12.750  21.000  6.9170e-03
12.750  21.250  9.4428e-03
12.750  21.500  1.2993e-02
12.750  21.750  1.8619e-02
12.750  22.000  2.4741e-02
12.750  22.250  2.9973e-02
12.750  22.500  3.3519e-02
12.750  22.750  3.5588e-02
12.750  23.000  3.6405e-02
12.750  23.250  3.6930e-02
12.750  23.500  3.7255e-02
12.750  23.750  3.7427e-02
12.750  24.000  3.7539e-02
13.000  17.000  5.5391e-05
13.000  17.250  1.3300e-04
13.000  17.500  4.8757e-04
13.000  17.750  7.4016e-04
13.000  18.000  7.5794e-04
13.000  18.250  7.7424e-04
13.000  18.500  8.0691e-04
13.000  18.750  8.6560e-04
13.000  19.000  9.5753e-04
13.000  19.250  1.0928e-03
13.000  19.500  1.2819e-03
13.000  19.750  1.5428e-03
13.000  20.000  1.8993e-03
13.000  20.250  2.3797e-03
13.000  20.500  3.0458e-03
13.000  20.750  3.9583e-03
13.000  21.000  5.2152e-03
13.000  21.250  7.0050e-03
13.000  21.500  9.4880e-03
13.000  21.750  1.3329e-02
13.000  22.000  1.9196e-02
13.000  22.250  2.5392e-02
13.000  22.500  3.0501e-02
13.000  22.750  3.3759e-02
13.000  23.000  3.5625e-02
13.000  23.250  3.6392e-02
13.000  23.500  3.6895e-02
13.000  23.750  3.7217e-02
13.000  24.000  3.7396e-02
13.250  17.000  3.3086e-05
13.250  17.250  6.2798e-05
13.250  17.500  1.5556e-04
13.250  17.750  3.7169e-04
13.250  18.000  5.7901e-04
13.250  18.250  7.6436e-04
13.250  18.500  7.8214e-04
13.250  18.750  8.1671e-04
13.250  19.000  8.7621e-04
13.250  19.250  9.7037e-04
13.250  19.500  1.1051e-03
13.250  19.750  1.2930e-03
13.250  20.000  1.5505e-03
13.250  20.250  1.9044e-03
13.250  20.500  2.3830e-03
13.250  20.750  3.0397e-03
13.250  21.000  3.9578e-03
13.250  21.250  5.2184e-03
13.250  21.500  6.9060e-03
13.250  21.750  9.4882e-03
13.250  22.000  1.3567e-02
13.250  22.250  1.9776e-02
13.250  22.500  2.5743e-02
13.250  22.750  3.0499e-02
13.250  23.000  3.3689e-02
13.250  23.250  3.5599e-02
13.250  23.500  3.6353e-02
13.250  23.750  3.6852e-02
13.250  24.000  3.7167e-02
13.500  17.000  1.9835e-05
13.500  17.250  3.9259e-05
13.500  17.500  8.8807e-05
13.500  17.750  2.0058e-04
13.500  18.000  4.4123e-04
13.500  18.250  6.1778e-04
13.500  18.500  7.6979e-04
13.500  18.750  7.8782e-04
13.500  19.000  8.2346e-04
13.500  19.250  8.8329e-04
13.500  19.500  9.7687e-04
13.500  19.750  1.1096e-03
13.500  20.000  1.2951e-03
13.500  20.250  1.5488e-03
13.500  20.500  1.8975e-03
13.500  20.750  2.3675e-03
13.500  21.000  3.0125e-03
13.500  21.250  3.9058e-03
13.500  21.500  5.0585e-03
13.500  21.750  6.7585e-03
13.500  22.000  9.3340e-03
13.500  22.250  1.3600e-02
13.500  22.500  2.0135e-02
13.500  22.750  2.5823e-02
13.500  23.000  3.0377e-02
13.500  23.250  3.3562e-02
13.500  23.500  3.5514e-02
13.500  23.750  3.6271e-02
13.500  24.000  3.6777e-02
13.750  17.000  1.2099e-05
13.750  17.250  2.4444e-05
13.750  17.500  5.3251e-05
13.750  17.750  1.0568e-04
13.750  18.000  2.5465e-04
13.750  18.250  5.0889e-04
13.750  18.500  6.3523e-04
13.750  18.750  7.7374e-04
13.750  19.000  7.9185e-04
13.750  19.250  8.2749e-04
13.750  19.500  8.8749e-04
13.750  19.750  9.7885e-04
13.750  20.000  1.1092e-03
13.750  20.250  1.2897e-03
13.750  20.500  1.5371e-03
13.750  20.750  1.8732e-03
13.750  21.000  2.3253e-03
13.750  21.250  2.9401e-03
13.750  21.500  3.7327e-03
13.750  21.750  4.8244e-03
13.750  22.000  6.3370e-03
13.750  22.250  8.8137e-03
13.750  22.500  1.3548e-02
13.750  22.750  2.0568e-02
13.750  23.000  2.5772e-02
13.750  23.250  3.0168e-02
13.750  23.500  3.3311e-02
13.750  23.750  3.5339e-02
13.750  24.000  3.6127e-02
14.000  17.000  7.3251e-06
14.000  17.250  1.4403e-05
14.000  17.500  3.2263e-05
14.000  17.750  6.4856e-05
14.000  18.000  1.3177e-04
14.000  18.250  3.0428e-04
14.000  18.500  5.4296e-04
14.000  18.750  7.0716e-04
14.000  19.000  7.7597e-04
14.000  19.250  7.9366e-04
14.000  19.500  8.2848e-04
14.000  19.750  8.8700e-04
14.000  20.000  9.7638e-04
14.000  20.250  1.1018e-03
14.000  20.500  1.2755e-03
14.000  20.750  1.5119e-03
14.000  21.000  1.8302e-03
14.000  21.250  2.2528e-03
14.000  21.500  2.7807e-03
14.000  21.750  3.4824e-03
14.000  22.000  4.3632e-03
14.000  22.250  5.6877e-03
14.000  22.500  8.3073e-03
14.000  22.750  1.3724e-02
14.000  23.000  2.0753e-02
14.000  23.250  2.5766e-02
14.000  23.500  2.9911e-02
14.000  23.750  3.3041e-02
14.000  24.000  3.5021e-02
