InwC 5100.00A  relative to Inci 1215.00A scaled to 1215A.
Hden   Phi(H)  Eq_Width (A)
7.000  17.000  2.2007e-02
7.000  17.250  2.3009e-02
7.000  17.500  2.3593e-02
7.000  17.750  2.3603e-02
7.000  18.000  2.3614e-02
7.000  18.250  2.3628e-02
7.000  18.500  2.3634e-02
7.000  18.750  2.3637e-02
7.000  19.000  2.3640e-02
7.000  19.250  2.3642e-02
7.000  19.500  2.3643e-02
7.000  19.750  2.3643e-02
7.000  20.000  2.3643e-02
7.000  20.250  2.3643e-02
7.000  20.500  2.3643e-02
7.000  20.750  2.3643e-02
7.000  21.000  2.3643e-02
7.000  21.250  2.3644e-02
7.000  21.500  2.3644e-02
7.000  21.750  2.3644e-02
7.000  22.000  2.3644e-02
7.000  22.250  2.3644e-02
7.000  22.500  2.3645e-02
7.000  22.750  2.3645e-02
7.000  23.000  2.3645e-02
7.000  23.250  2.3645e-02
7.000  23.500  2.3645e-02
7.000  23.750  2.3645e-02
7.000  24.000  2.3645e-02
7.250  17.000  1.6381e-02
7.250  17.250  2.2087e-02
7.250  17.500  2.3013e-02
7.250  17.750  2.3593e-02
7.250  18.000  2.3604e-02
7.250  18.250  2.3614e-02
7.250  18.500  2.3627e-02
7.250  18.750  2.3634e-02
7.250  19.000  2.3637e-02
7.250  19.250  2.3640e-02
7.250  19.500  2.3642e-02
7.250  19.750  2.3643e-02
7.250  20.000  2.3643e-02
7.250  20.250  2.3643e-02
7.250  20.500  2.3643e-02
7.250  20.750  2.3643e-02
7.250  21.000  2.3643e-02
7.250  21.250  2.3643e-02
7.250  21.500  2.3643e-02
7.250  21.750  2.3643e-02
7.250  22.000  2.3644e-02
7.250  22.250  2.3644e-02
7.250  22.500  2.3644e-02
7.250  22.750  2.3644e-02
7.250  23.000  2.3644e-02
7.250  23.250  2.3644e-02
7.250  23.500  2.3644e-02
7.250  23.750  2.3644e-02
7.250  24.000  2.3644e-02
7.500  17.000  1.2065e-02
7.500  17.250  1.6590e-02
7.500  17.500  2.2146e-02
7.500  17.750  2.3018e-02
7.500  18.000  2.3593e-02
7.500  18.250  2.3604e-02
7.500  18.500  2.3615e-02
7.500  18.750  2.3627e-02
7.500  19.000  2.3634e-02
7.500  19.250  2.3637e-02
7.500  19.500  2.3640e-02
7.500  19.750  2.3642e-02
7.500  20.000  2.3643e-02
7.500  20.250  2.3643e-02
7.500  20.500  2.3643e-02
7.500  20.750  2.3643e-02
7.500  21.000  2.3643e-02
7.500  21.250  2.3643e-02
7.500  21.500  2.3643e-02
7.500  21.750  2.3643e-02
7.500  22.000  2.3643e-02
7.500  22.250  2.3643e-02
7.500  22.500  2.3643e-02
7.500  22.750  2.3643e-02
7.500  23.000  2.3644e-02
7.500  23.250  2.3644e-02
7.500  23.500  2.3645e-02
7.500  23.750  2.3644e-02
7.500  24.000  2.3644e-02
7.750  17.000  8.4857e-03
7.750  17.250  1.2316e-02
7.750  17.500  1.6759e-02
7.750  17.750  2.2190e-02
7.750  18.000  2.3021e-02
7.750  18.250  2.3593e-02
7.750  18.500  2.3604e-02
7.750  18.750  2.3615e-02
7.750  19.000  2.3628e-02
7.750  19.250  2.3634e-02
7.750  19.500  2.3637e-02
7.750  19.750  2.3640e-02
7.750  20.000  2.3642e-02
7.750  20.250  2.3643e-02
7.750  20.500  2.3643e-02
7.750  20.750  2.3643e-02
7.750  21.000  2.3643e-02
7.750  21.250  2.3643e-02
7.750  21.500  2.3643e-02
7.750  21.750  2.3643e-02
7.750  22.000  2.3643e-02
7.750  22.250  2.3643e-02
7.750  22.500  2.3643e-02
7.750  22.750  2.3643e-02
7.750  23.000  2.3643e-02
7.750  23.250  2.3643e-02
7.750  23.500  2.3643e-02
7.750  23.750  2.3644e-02
7.750  24.000  2.3643e-02
8.000  17.000  5.8002e-03
8.000  17.250  8.6424e-03
8.000  17.500  1.2518e-02
8.000  17.750  1.6837e-02
8.000  18.000  2.2132e-02
8.000  18.250  2.3020e-02
8.000  18.500  2.3593e-02
8.000  18.750  2.3604e-02
8.000  19.000  2.3615e-02
8.000  19.250  2.3628e-02
8.000  19.500  2.3634e-02
8.000  19.750  2.3637e-02
8.000  20.000  2.3640e-02
8.000  20.250  2.3642e-02
8.000  20.500  2.3643e-02
8.000  20.750  2.3643e-02
8.000  21.000  2.3643e-02
8.000  21.250  2.3643e-02
8.000  21.500  2.3643e-02
8.000  21.750  2.3643e-02
8.000  22.000  2.3643e-02
8.000  22.250  2.3643e-02
8.000  22.500  2.3643e-02
8.000  22.750  2.3643e-02
8.000  23.000  2.3643e-02
8.000  23.250  2.3644e-02
8.000  23.500  2.3643e-02
8.000  23.750  2.3643e-02
8.000  24.000  2.3643e-02
8.250  17.000  4.0202e-03
8.250  17.250  5.9412e-03
8.250  17.500  8.8817e-03
8.250  17.750  1.2812e-02
8.250  18.000  1.7098e-02
8.250  18.250  2.2181e-02
8.250  18.500  2.3023e-02
8.250  18.750  2.3593e-02
8.250  19.000  2.3604e-02
8.250  19.250  2.3615e-02
8.250  19.500  2.3627e-02
8.250  19.750  2.3634e-02
8.250  20.000  2.3637e-02
8.250  20.250  2.3640e-02
8.250  20.500  2.3642e-02
8.250  20.750  2.3643e-02
8.250  21.000  2.3643e-02
8.250  21.250  2.3643e-02
8.250  21.500  2.3643e-02
8.250  21.750  2.3643e-02
8.250  22.000  2.3643e-02
8.250  22.250  2.3643e-02
8.250  22.500  2.3643e-02
8.250  22.750  2.3643e-02
8.250  23.000  2.3643e-02
8.250  23.250  2.3643e-02
8.250  23.500  2.3643e-02
8.250  23.750  2.3643e-02
8.250  24.000  2.3643e-02
8.500  17.000  2.8297e-03
8.500  17.250  4.1238e-03
8.500  17.500  6.1279e-03
8.500  17.750  9.2201e-03
8.500  18.000  1.3307e-02
8.500  18.250  1.7477e-02
8.500  18.500  2.2268e-02
8.500  18.750  2.3026e-02
8.500  19.000  2.3593e-02
8.500  19.250  2.3604e-02
8.500  19.500  2.3615e-02
8.500  19.750  2.3628e-02
8.500  20.000  2.3634e-02
8.500  20.250  2.3637e-02
8.500  20.500  2.3640e-02
8.500  20.750  2.3642e-02
8.500  21.000  2.3643e-02
8.500  21.250  2.3643e-02
8.500  21.500  2.3643e-02
8.500  21.750  2.3643e-02
8.500  22.000  2.3643e-02
8.500  22.250  2.3643e-02
8.500  22.500  2.3643e-02
8.500  22.750  2.3643e-02
8.500  23.000  2.3643e-02
8.500  23.250  2.3643e-02
8.500  23.500  2.3643e-02
8.500  23.750  2.3643e-02
8.500  24.000  2.3643e-02
8.750  17.000  2.0081e-03
8.750  17.250  2.9043e-03
8.750  17.500  4.2692e-03
8.750  17.750  6.4383e-03
8.750  18.000  9.7856e-03
8.750  18.250  1.4068e-02
8.750  18.500  1.8215e-02
8.750  18.750  2.2311e-02
8.750  19.000  2.3029e-02
8.750  19.250  2.3593e-02
8.750  19.500  2.3604e-02
8.750  19.750  2.3615e-02
8.750  20.000  2.3628e-02
8.750  20.250  2.3634e-02
8.750  20.500  2.3637e-02
8.750  20.750  2.3640e-02
8.750  21.000  2.3642e-02
8.750  21.250  2.3643e-02
8.750  21.500  2.3643e-02
8.750  21.750  2.3643e-02
8.750  22.000  2.3643e-02
8.750  22.250  2.3643e-02
8.750  22.500  2.3643e-02
8.750  22.750  2.3643e-02
8.750  23.000  2.3643e-02
8.750  23.250  2.3643e-02
8.750  23.500  2.3643e-02
8.750  23.750  2.3643e-02
8.750  24.000  2.3643e-02
9.000  17.000  1.4323e-03
9.000  17.250  2.0629e-03
9.000  17.500  3.0188e-03
9.000  17.750  4.5174e-03
9.000  18.000  6.9639e-03
9.000  18.250  1.0715e-02
9.000  18.500  1.5117e-02
9.000  18.750  1.8793e-02
9.000  19.000  2.2301e-02
9.000  19.250  2.3029e-02
9.000  19.500  2.3593e-02
9.000  19.750  2.3604e-02
9.000  20.000  2.3615e-02
9.000  20.250  2.3628e-02
9.000  20.500  2.3634e-02
9.000  20.750  2.3637e-02
9.000  21.000  2.3640e-02
9.000  21.250  2.3642e-02
9.000  21.500  2.3643e-02
9.000  21.750  2.3643e-02
9.000  22.000  2.3643e-02
9.000  22.250  2.3643e-02
9.000  22.500  2.3643e-02
9.000  22.750  2.3643e-02
9.000  23.000  2.3643e-02
9.000  23.250  2.3643e-02
9.000  23.500  2.3643e-02
9.000  23.750  2.3643e-02
9.000  24.000  2.3643e-02
9.250  17.000  1.0254e-03
9.250  17.250  1.4718e-03
9.250  17.500  2.1523e-03
9.250  17.750  3.2249e-03
9.250  18.000  5.0033e-03
9.250  18.250  7.8753e-03
9.250  18.500  1.1944e-02
9.250  18.750  1.6305e-02
9.250  19.000  1.9882e-02
9.250  19.250  2.2282e-02
9.250  19.500  2.3025e-02
9.250  19.750  2.3593e-02
9.250  20.000  2.3604e-02
9.250  20.250  2.3615e-02
9.250  20.500  2.3627e-02
9.250  20.750  2.3634e-02
9.250  21.000  2.3637e-02
9.250  21.250  2.3640e-02
9.250  21.500  2.3637e-02
9.250  21.750  2.3636e-02
9.250  22.000  2.3636e-02
9.250  22.250  2.3636e-02
9.250  22.500  2.3643e-02
9.250  22.750  2.3643e-02
9.250  23.000  2.3643e-02
9.250  23.250  2.3643e-02
9.250  23.500  2.3643e-02
9.250  23.750  2.3643e-02
9.250  24.000  2.3643e-02
9.500  17.000  7.3654e-04
9.500  17.250  1.0548e-03
9.500  17.500  1.5417e-03
9.500  17.750  2.3239e-03
9.500  18.000  3.6510e-03
9.500  18.250  5.8078e-03
9.500  18.500  9.0459e-03
9.500  18.750  1.3223e-02
9.500  19.000  1.7241e-02
9.500  19.250  2.0767e-02
9.500  19.500  2.2255e-02
9.500  19.750  2.3015e-02
9.500  20.000  2.3593e-02
9.500  20.250  2.3604e-02
9.500  20.500  2.3615e-02
9.500  20.750  2.3627e-02
9.500  21.000  2.3629e-02
9.500  21.250  2.3630e-02
9.500  21.500  2.3633e-02
9.500  21.750  2.3633e-02
9.500  22.000  2.3630e-02
9.500  22.250  2.3631e-02
9.500  22.500  2.3631e-02
9.500  22.750  2.3630e-02
9.500  23.000  2.3631e-02
9.500  23.250  2.3631e-02
9.500  23.500  2.3634e-02
9.500  23.750  2.3634e-02
9.500  24.000  2.3634e-02
9.750  17.000  5.3136e-04
9.750  17.250  7.5761e-04
9.750  17.500  1.1076e-03
9.750  17.750  1.6819e-03
9.750  18.000  2.6733e-03
9.750  18.250  4.3278e-03
9.750  18.500  6.7999e-03
9.750  18.750  1.0207e-02
9.750  19.000  1.4350e-02
9.750  19.250  1.8309e-02
9.750  19.500  2.1750e-02
9.750  19.750  2.2221e-02
9.750  20.000  2.2999e-02
9.750  20.250  2.3591e-02
9.750  20.500  2.3604e-02
9.750  20.750  2.3615e-02
9.750  21.000  2.3627e-02
9.750  21.250  2.3632e-02
9.750  21.500  2.3631e-02
9.750  21.750  2.3633e-02
9.750  22.000  2.3634e-02
9.750  22.250  2.3632e-02
9.750  22.500  2.3630e-02
9.750  22.750  2.3631e-02
9.750  23.000  2.3631e-02
9.750  23.250  2.3631e-02
9.750  23.500  2.3631e-02
9.750  23.750  2.3631e-02
9.750  24.000  2.3630e-02
10.000  17.000  3.8486e-04
10.000  17.250  5.4700e-04
10.000  17.500  7.9901e-04
10.000  17.750  1.2224e-03
10.000  18.000  1.9757e-03
10.000  18.250  3.2337e-03
10.000  18.500  5.1089e-03
10.000  18.750  7.7267e-03
10.000  19.000  1.1275e-02
10.000  19.250  1.5322e-02
10.000  19.500  1.9460e-02
10.000  19.750  2.1737e-02
10.000  20.000  2.2186e-02
10.000  20.250  2.2969e-02
10.000  20.500  2.3587e-02
10.000  20.750  2.3604e-02
10.000  21.000  2.3615e-02
10.000  21.250  2.3627e-02
10.000  21.500  2.3633e-02
10.000  21.750  2.3635e-02
10.000  22.000  2.3633e-02
10.000  22.250  2.3635e-02
10.000  22.500  2.3633e-02
10.000  22.750  2.3631e-02
10.000  23.000  2.3630e-02
10.000  23.250  2.3631e-02
10.000  23.500  2.3631e-02
10.000  23.750  2.3631e-02
10.000  24.000  2.3631e-02
10.250  17.000  2.8082e-04
10.250  17.250  3.9712e-04
10.250  17.500  5.7992e-04
10.250  17.750  8.9374e-04
10.250  18.000  1.4614e-03
10.250  18.250  2.4094e-03
10.250  18.500  3.8014e-03
10.250  18.750  5.7872e-03
10.250  19.000  8.5080e-03
10.250  19.250  1.2064e-02
10.250  19.500  1.6221e-02
10.250  19.750  2.0256e-02
10.250  20.000  2.1688e-02
10.250  20.250  2.2144e-02
10.250  20.500  2.2944e-02
10.250  20.750  2.3581e-02
10.250  21.000  2.3603e-02
10.250  21.250  2.3614e-02
10.250  21.500  2.3627e-02
10.250  21.750  2.3634e-02
10.250  22.000  2.3636e-02
10.250  22.250  2.3636e-02
10.250  22.500  2.3635e-02
10.250  22.750  2.3635e-02
10.250  23.000  2.3633e-02
10.250  23.250  2.3632e-02
10.250  23.500  2.3631e-02
10.250  23.750  2.3630e-02
10.250  24.000  2.3630e-02
10.500  17.000  2.0733e-04
10.500  17.250  2.9078e-04
10.500  17.500  4.2420e-04
10.500  17.750  6.5860e-04
10.500  18.000  1.0836e-03
10.500  18.250  1.7886e-03
10.500  18.500  2.8073e-03
10.500  18.750  4.2776e-03
10.500  19.000  6.3096e-03
10.500  19.250  9.0747e-03
10.500  19.500  1.2657e-02
10.500  19.750  1.6962e-02
10.500  20.000  2.0972e-02
10.500  20.250  2.1655e-02
10.500  20.500  2.2131e-02
10.500  20.750  2.2937e-02
10.500  21.000  2.3569e-02
10.500  21.250  2.3600e-02
10.500  21.500  2.3614e-02
10.500  21.750  2.3627e-02
10.500  22.000  2.3634e-02
10.500  22.250  2.3637e-02
10.500  22.500  2.3639e-02
10.500  22.750  2.3635e-02
10.500  23.000  2.3635e-02
10.500  23.250  2.3634e-02
10.500  23.500  2.3633e-02
10.500  23.750  2.3633e-02
10.500  24.000  2.3632e-02
10.750  17.000  1.5506e-04
10.750  17.250  2.1514e-04
10.750  17.500  3.1309e-04
10.750  17.750  4.8790e-04
10.750  18.000  8.0321e-04
10.750  18.250  1.3135e-03
10.750  18.500  2.0555e-03
10.750  18.750  3.1253e-03
10.750  19.000  4.6224e-03
10.750  19.250  6.6914e-03
10.750  19.500  9.5196e-03
10.750  19.750  1.3230e-02
10.750  20.000  1.7731e-02
10.750  20.250  2.1295e-02
10.750  20.500  2.1628e-02
10.750  20.750  2.2105e-02
10.750  21.000  2.2949e-02
10.750  21.250  2.3555e-02
10.750  21.500  2.3596e-02
10.750  21.750  2.3612e-02
10.750  22.000  2.3626e-02
10.750  22.250  2.3633e-02
10.750  22.500  2.3637e-02
10.750  22.750  2.3639e-02
10.750  23.000  2.3636e-02
10.750  23.250  2.3636e-02
10.750  23.500  2.3635e-02
10.750  23.750  2.3635e-02
10.750  24.000  2.3634e-02
11.000  17.000  1.1794e-04
11.000  17.250  1.6091e-04
11.000  17.500  2.3276e-04
11.000  17.750  3.6222e-04
11.000  18.000  5.9284e-04
11.000  18.250  9.5770e-04
11.000  18.500  1.4951e-03
11.000  18.750  2.2837e-03
11.000  19.000  3.3734e-03
11.000  19.250  4.8715e-03
11.000  19.500  6.9940e-03
11.000  19.750  9.9324e-03
11.000  20.000  1.3788e-02
11.000  20.250  1.8459e-02
11.000  20.500  2.1267e-02
11.000  20.750  2.1608e-02
11.000  21.000  2.2118e-02
11.000  21.250  2.3006e-02
11.000  21.500  2.3542e-02
11.000  21.750  2.3588e-02
11.000  22.000  2.3609e-02
11.000  22.250  2.3624e-02
11.000  22.500  2.3633e-02
11.000  22.750  2.3636e-02
11.000  23.000  2.3639e-02
11.000  23.250  2.3640e-02
11.000  23.500  2.3636e-02
11.000  23.750  2.3636e-02
11.000  24.000  2.3635e-02
11.250  17.000  9.1687e-05
11.250  17.250  1.2206e-04
11.250  17.500  1.7399e-04
11.250  17.750  2.6897e-04
11.250  18.000  4.3514e-04
11.250  18.250  6.9391e-04
11.250  18.500  1.0734e-03
11.250  18.750  1.6351e-03
11.250  19.000  2.4187e-03
11.250  19.250  3.5250e-03
11.250  19.500  5.0653e-03
11.250  19.750  7.2602e-03
11.250  20.000  1.0283e-02
11.250  20.250  1.4309e-02
11.250  20.500  1.9167e-02
11.250  20.750  2.1220e-02
11.250  21.000  2.1602e-02
11.250  21.250  2.2169e-02
11.250  21.500  2.3135e-02
11.250  21.750  2.3529e-02
11.250  22.000  2.3579e-02
11.250  22.250  2.3604e-02
11.250  22.500  2.3622e-02
11.250  22.750  2.3632e-02
11.250  23.000  2.3636e-02
11.250  23.250  2.3639e-02
11.250  23.500  2.3641e-02
11.250  23.750  2.3637e-02
11.250  24.000  2.3636e-02
11.500  17.000  7.3251e-05
11.500  17.250  9.4568e-05
11.500  17.500  1.3169e-04
11.500  17.750  1.9975e-04
11.500  18.000  3.1737e-04
11.500  18.250  4.9992e-04
11.500  18.500  7.6691e-04
11.500  18.750  1.1655e-03
11.500  19.000  1.7212e-03
11.500  19.250  2.5170e-03
11.500  19.500  3.6351e-03
11.500  19.750  5.2279e-03
11.500  20.000  7.4895e-03
11.500  20.250  1.0634e-02
11.500  20.500  1.4824e-02
11.500  20.750  1.9695e-02
11.500  21.000  2.1187e-02
11.500  21.250  2.1631e-02
11.500  21.500  2.2304e-02
11.500  21.750  2.3310e-02
11.500  22.000  2.3513e-02
11.500  22.250  2.3569e-02
11.500  22.500  2.3596e-02
11.500  22.750  2.3618e-02
11.500  23.000  2.3631e-02
11.500  23.250  2.3635e-02
11.500  23.500  2.3639e-02
11.500  23.750  2.3641e-02
11.500  24.000  2.3640e-02
11.750  17.000  6.0576e-05
11.750  17.250  7.5309e-05
11.750  17.500  1.0140e-04
11.750  17.750  1.4905e-04
11.750  18.000  2.3053e-04
11.750  18.250  3.5712e-04
11.750  18.500  5.4420e-04
11.750  18.750  8.1934e-04
11.750  19.000  1.2216e-03
11.750  19.250  1.7871e-03
11.750  19.500  2.5993e-03
11.750  19.750  3.7475e-03
11.750  20.000  5.3778e-03
11.750  20.250  7.7035e-03
11.750  20.500  1.0984e-02
11.750  20.750  1.5333e-02
11.750  21.000  2.0258e-02
11.750  21.250  2.1155e-02
11.750  21.500  2.1708e-02
11.750  21.750  2.2512e-02
11.750  22.000  2.3392e-02
11.750  22.250  2.3492e-02
11.750  22.500  2.3556e-02
11.750  22.750  2.3587e-02
11.750  23.000  2.3612e-02
11.750  23.250  2.3629e-02
11.750  23.500  2.3634e-02
11.750  23.750  2.3639e-02
11.750  24.000  2.3642e-02
12.000  17.000  5.1276e-05
12.000  17.250  6.1728e-05
12.000  17.500  7.9753e-05
12.000  17.750  1.1226e-04
12.000  18.000  1.6724e-04
12.000  18.250  2.5325e-04
12.000  18.500  3.8428e-04
12.000  18.750  5.7885e-04
12.000  19.000  8.6379e-04
12.000  19.250  1.2682e-03
12.000  19.500  1.8455e-03
12.000  19.750  2.6658e-03
12.000  20.000  3.8309e-03
12.000  20.250  5.5086e-03
12.000  20.500  7.9116e-03
12.000  20.750  1.1316e-02
12.000  21.000  1.5825e-02
12.000  21.250  2.0068e-02
12.000  21.500  2.1132e-02
12.000  21.750  2.1806e-02
12.000  22.000  2.2734e-02
12.000  22.250  2.3367e-02
12.000  22.500  2.3470e-02
12.000  22.750  2.3539e-02
12.000  23.000  2.3575e-02
12.000  23.250  2.3605e-02
12.000  23.500  2.3626e-02
12.000  23.750  2.3633e-02
12.000  24.000  2.3638e-02
12.250  17.000  4.4856e-05
12.250  17.250  5.2099e-05
12.250  17.500  6.4198e-05
12.250  17.750  8.5597e-05
12.250  18.000  1.2214e-04
12.250  18.250  1.8115e-04
12.250  18.500  2.7259e-04
12.250  18.750  4.0979e-04
12.250  19.000  6.1078e-04
12.250  19.250  9.0041e-04
12.250  19.500  1.3089e-03
12.250  19.750  1.8906e-03
12.250  20.000  2.7235e-03
12.250  20.250  3.9151e-03
12.250  20.500  5.6217e-03
12.250  20.750  8.1038e-03
12.250  21.000  1.1643e-02
12.250  21.250  1.6277e-02
12.250  21.500  2.0127e-02
12.250  21.750  2.1095e-02
12.250  22.000  2.1928e-02
12.250  22.250  2.2934e-02
12.250  22.500  2.3330e-02
12.250  22.750  2.3440e-02
12.250  23.000  2.3516e-02
12.250  23.250  2.3557e-02
12.250  23.500  2.3594e-02
12.250  23.750  2.3623e-02
12.250  24.000  2.3631e-02
12.500  17.000  3.2593e-05
12.500  17.250  4.5350e-05
12.500  17.500  5.3580e-05
12.500  17.750  6.7407e-05
12.500  18.000  9.1029e-05
12.500  18.250  1.3062e-04
12.500  18.500  1.9416e-04
12.500  18.750  2.9078e-04
12.500  19.000  4.3267e-04
12.500  19.250  6.3704e-04
12.500  19.500  9.2914e-04
12.500  19.750  1.3428e-03
12.500  20.000  1.9320e-03
12.500  20.250  2.7808e-03
12.500  20.500  3.9798e-03
12.500  20.750  5.7382e-03
12.500  21.000  8.3091e-03
12.500  21.250  1.1975e-02
12.500  21.500  1.6485e-02
12.500  21.750  1.9926e-02
12.500  22.000  2.1045e-02
12.500  22.250  2.2045e-02
12.500  22.500  2.3011e-02
12.500  22.750  2.3280e-02
12.500  23.000  2.3401e-02
12.500  23.250  2.3483e-02
12.500  23.500  2.3531e-02
12.500  23.750  2.3579e-02
12.500  24.000  2.3617e-02
12.750  17.000  1.7778e-05
12.750  17.250  3.5638e-05
12.750  17.500  4.6008e-05
12.750  17.750  5.5226e-05
12.750  18.000  7.0617e-05
12.750  18.250  9.7119e-05
12.750  18.500  1.4000e-04
12.750  18.750  2.0716e-04
12.750  19.000  3.0658e-04
12.750  19.250  4.5210e-04
12.750  19.500  6.5786e-04
12.750  19.750  9.5152e-04
12.750  20.000  1.3652e-03
12.750  20.250  1.9653e-03
12.750  20.500  2.8156e-03
12.750  20.750  4.0343e-03
12.750  21.000  5.8533e-03
12.750  21.250  8.5128e-03
12.750  21.500  1.2106e-02
12.750  21.750  1.6723e-02
12.750  22.000  1.9658e-02
12.750  22.250  2.0958e-02
12.750  22.500  2.2118e-02
12.750  22.750  2.2971e-02
12.750  23.000  2.3207e-02
12.750  23.250  2.3345e-02
12.750  23.500  2.3438e-02
12.750  23.750  2.3494e-02
12.750  24.000  2.3555e-02
13.000  17.000  3.7037e-06
13.000  17.250  8.5597e-06
13.000  17.500  2.7901e-05
13.000  17.750  4.6008e-05
13.000  18.000  5.7284e-05
13.000  18.250  7.4979e-05
13.000  18.500  1.0370e-04
13.000  18.750  1.4930e-04
13.000  19.000  2.1835e-04
13.000  19.250  3.2008e-04
13.000  19.500  4.6568e-04
13.000  19.750  6.7317e-04
13.000  20.000  9.6823e-04
13.000  20.250  1.3854e-03
13.000  20.500  1.9923e-03
13.000  20.750  2.8658e-03
13.000  21.000  4.1316e-03
13.000  21.250  5.9985e-03
13.000  21.500  8.6292e-03
13.000  21.750  1.2354e-02
13.000  22.000  1.6704e-02
13.000  22.250  1.9295e-02
13.000  22.500  2.0784e-02
13.000  22.750  2.2025e-02
13.000  23.000  2.2834e-02
13.000  23.250  2.3097e-02
13.000  23.500  2.3261e-02
13.000  23.750  2.3369e-02
13.000  24.000  2.3437e-02
13.250  17.000  2.1399e-06
13.250  17.250  4.1152e-06
13.250  17.500  9.7942e-06
13.250  17.750  2.3128e-05
13.250  18.000  3.9506e-05
13.250  18.250  6.0247e-05
13.250  18.500  7.9506e-05
13.250  18.750  1.0996e-04
13.250  19.000  1.5663e-04
13.250  19.250  2.2749e-04
13.250  19.500  3.2971e-04
13.250  19.750  4.7597e-04
13.250  20.000  6.8362e-04
13.250  20.250  9.8148e-04
13.250  20.500  1.4053e-03
13.250  20.750  2.0173e-03
13.250  21.000  2.9181e-03
13.250  21.250  4.2179e-03
13.250  21.500  6.0356e-03
13.250  21.750  8.7688e-03
13.250  22.000  1.2444e-02
13.250  22.250  1.6403e-02
13.250  22.500  1.8712e-02
13.250  22.750  2.0322e-02
13.250  23.000  2.1663e-02
13.250  23.250  2.2601e-02
13.250  23.500  2.2929e-02
13.250  23.750  2.3134e-02
13.250  24.000  2.3262e-02
13.500  17.000  1.2346e-06
13.500  17.250  2.4691e-06
13.500  17.500  5.5144e-06
13.500  17.750  1.2428e-05
13.500  18.000  2.7572e-05
13.500  18.250  4.3292e-05
13.500  18.500  6.3210e-05
13.500  18.750  8.3374e-05
13.500  19.000  1.1490e-04
13.500  19.250  1.6222e-04
13.500  19.500  2.3342e-04
13.500  19.750  3.3572e-04
13.500  20.000  4.8272e-04
13.500  20.250  6.9218e-04
13.500  20.500  9.9391e-04
13.500  20.750  1.4242e-03
13.500  21.000  2.0500e-03
13.500  21.250  2.9687e-03
13.500  21.500  4.2368e-03
13.500  21.750  6.1539e-03
13.500  22.000  8.8539e-03
13.500  22.250  1.2220e-02
13.500  22.500  1.5729e-02
13.500  22.750  1.7912e-02
13.500  23.000  1.9685e-02
13.500  23.250  2.1179e-02
13.500  23.500  2.2260e-02
13.500  23.750  2.2674e-02
13.500  24.000  2.2938e-02
13.750  17.000  1.0000e-07
13.750  17.250  1.4815e-06
13.750  17.500  3.2922e-06
13.750  17.750  6.5844e-06
13.750  18.000  1.5556e-05
13.750  18.250  3.1852e-05
13.750  18.500  4.5761e-05
13.750  18.750  6.5761e-05
13.750  19.000  8.6502e-05
13.750  19.250  1.1860e-04
13.750  19.500  1.6683e-04
13.750  19.750  2.3786e-04
13.750  20.000  3.4082e-04
13.750  20.250  4.8856e-04
13.750  20.500  7.0074e-04
13.750  20.750  1.0060e-03
13.750  21.000  1.4448e-03
13.750  21.250  2.0867e-03
13.750  21.500  2.9872e-03
13.750  21.750  4.3228e-03
13.750  22.000  6.1624e-03
13.750  22.250  8.5356e-03
13.750  22.500  1.1569e-02
13.750  22.750  1.4861e-02
13.750  23.000  1.6980e-02
13.750  23.250  1.8889e-02
13.750  23.500  2.0519e-02
13.750  23.750  2.1766e-02
13.750  24.000  2.2297e-02
14.000  17.000  1.0000e-07
14.000  17.250  9.0535e-07
14.000  17.500  1.9753e-06
14.000  17.750  3.9506e-06
14.000  18.000  8.1481e-06
14.000  18.250  1.8519e-05
14.000  18.500  3.4403e-05
14.000  18.750  5.0700e-05
14.000  19.000  6.7572e-05
14.000  19.250  8.8724e-05
14.000  19.500  1.2115e-04
14.000  19.750  1.6955e-04
14.000  20.000  2.4156e-04
14.000  20.250  3.4510e-04
14.000  20.500  4.9490e-04
14.000  20.750  7.1111e-04
14.000  21.000  1.0242e-03
14.000  21.250  1.4792e-03
14.000  21.500  2.1129e-03
14.000  21.750  3.0624e-03
14.000  22.000  4.3490e-03
14.000  22.250  5.8690e-03
14.000  22.500  7.7341e-03
14.000  22.750  1.0657e-02
14.000  23.000  1.3769e-02
14.000  23.250  1.5931e-02
14.000  23.500  1.7923e-02
14.000  23.750  1.9695e-02
14.000  24.000  2.1058e-02
