InwC 2392.03A  relative to Inci 1215.00A scaled to 1215A.
Hden   Phi(H)  Eq_Width (A)
7.000  17.000  3.5854e-02
7.000  17.250  3.8168e-02
7.000  17.500  3.9355e-02
7.000  17.750  3.9373e-02
7.000  18.000  3.9392e-02
7.000  18.250  3.9414e-02
7.000  18.500  3.9425e-02
7.000  18.750  3.9430e-02
7.000  19.000  3.9434e-02
7.000  19.250  3.9438e-02
7.000  19.500  3.9439e-02
7.000  19.750  3.9440e-02
7.000  20.000  3.9440e-02
7.000  20.250  3.9440e-02
7.000  20.500  3.9440e-02
7.000  20.750  3.9440e-02
7.000  21.000  3.9440e-02
7.000  21.250  3.9441e-02
7.000  21.500  3.9441e-02
7.000  21.750  3.9441e-02
7.000  22.000  3.9442e-02
7.000  22.250  3.9442e-02
7.000  22.500  3.9442e-02
7.000  22.750  3.9443e-02
7.000  23.000  3.9443e-02
7.000  23.250  3.9443e-02
7.000  23.500  3.9443e-02
7.000  23.750  3.9443e-02
7.000  24.000  3.9443e-02
7.250  17.000  2.6810e-02
7.250  17.250  3.5969e-02
7.250  17.500  3.8179e-02
7.250  17.750  3.9355e-02
7.250  18.000  3.9373e-02
7.250  18.250  3.9391e-02
7.250  18.500  3.9413e-02
7.250  18.750  3.9424e-02
7.250  19.000  3.9430e-02
7.250  19.250  3.9434e-02
7.250  19.500  3.9438e-02
7.250  19.750  3.9439e-02
7.250  20.000  3.9440e-02
7.250  20.250  3.9440e-02
7.250  20.500  3.9440e-02
7.250  20.750  3.9440e-02
7.250  21.000  3.9440e-02
7.250  21.250  3.9440e-02
7.250  21.500  3.9440e-02
7.250  21.750  3.9440e-02
7.250  22.000  3.9441e-02
7.250  22.250  3.9441e-02
7.250  22.500  3.9441e-02
7.250  22.750  3.9441e-02
7.250  23.000  3.9441e-02
7.250  23.250  3.9441e-02
7.250  23.500  3.9442e-02
7.250  23.750  3.9441e-02
7.250  24.000  3.9442e-02
7.500  17.000  2.0062e-02
7.500  17.250  2.7117e-02
7.500  17.500  3.6053e-02
7.500  17.750  3.8189e-02
7.500  18.000  3.9355e-02
7.500  18.250  3.9373e-02
7.500  18.500  3.9392e-02
7.500  18.750  3.9413e-02
7.500  19.000  3.9425e-02
7.500  19.250  3.9430e-02
7.500  19.500  3.9434e-02
7.500  19.750  3.9438e-02
7.500  20.000  3.9439e-02
7.500  20.250  3.9440e-02
7.500  20.500  3.9440e-02
7.500  20.750  3.9440e-02
7.500  21.000  3.9440e-02
7.500  21.250  3.9440e-02
7.500  21.500  3.9440e-02
7.500  21.750  3.9440e-02
7.500  22.000  3.9440e-02
7.500  22.250  3.9440e-02
7.500  22.500  3.9440e-02
7.500  22.750  3.9440e-02
7.500  23.000  3.9440e-02
7.500  23.250  3.9441e-02
7.500  23.500  3.9443e-02
7.500  23.750  3.9441e-02
7.500  24.000  3.9441e-02
7.750  17.000  1.4542e-02
7.750  17.250  2.0421e-02
7.750  17.500  2.7353e-02
7.750  17.750  3.6110e-02
7.750  18.000  3.8199e-02
7.750  18.250  3.9355e-02
7.750  18.500  3.9373e-02
7.750  18.750  3.9392e-02
7.750  19.000  3.9413e-02
7.750  19.250  3.9425e-02
7.750  19.500  3.9430e-02
7.750  19.750  3.9434e-02
7.750  20.000  3.9438e-02
7.750  20.250  3.9439e-02
7.750  20.500  3.9440e-02
7.750  20.750  3.9440e-02
7.750  21.000  3.9440e-02
7.750  21.250  3.9440e-02
7.750  21.500  3.9440e-02
7.750  21.750  3.9440e-02
7.750  22.000  3.9440e-02
7.750  22.250  3.9440e-02
7.750  22.500  3.9440e-02
7.750  22.750  3.9440e-02
7.750  23.000  3.9440e-02
7.750  23.250  3.9440e-02
7.750  23.500  3.9440e-02
7.750  23.750  3.9440e-02
7.750  24.000  3.9440e-02
8.000  17.000  1.0410e-02
8.000  17.250  1.4757e-02
8.000  17.500  2.0688e-02
8.000  17.750  2.7431e-02
8.000  18.000  3.6016e-02
8.000  18.250  3.8194e-02
8.000  18.500  3.9355e-02
8.000  18.750  3.9373e-02
8.000  19.000  3.9392e-02
8.000  19.250  3.9414e-02
8.000  19.500  3.9425e-02
8.000  19.750  3.9430e-02
8.000  20.000  3.9434e-02
8.000  20.250  3.9438e-02
8.000  20.500  3.9439e-02
8.000  20.750  3.9440e-02
8.000  21.000  3.9440e-02
8.000  21.250  3.9440e-02
8.000  21.500  3.9440e-02
8.000  21.750  3.9440e-02
8.000  22.000  3.9440e-02
8.000  22.250  3.9440e-02
8.000  22.500  3.9440e-02
8.000  22.750  3.9440e-02
8.000  23.000  3.9440e-02
8.000  23.250  3.9441e-02
8.000  23.500  3.9440e-02
8.000  23.750  3.9440e-02
8.000  24.000  3.9440e-02
8.250  17.000  7.6591e-03
8.250  17.250  1.0598e-02
8.250  17.500  1.5072e-02
8.250  17.750  2.1061e-02
8.250  18.000  2.7751e-02
8.250  18.250  3.6056e-02
8.250  18.500  3.8199e-02
8.250  18.750  3.9354e-02
8.250  19.000  3.9373e-02
8.250  19.250  3.9392e-02
8.250  19.500  3.9413e-02
8.250  19.750  3.9425e-02
8.250  20.000  3.9430e-02
8.250  20.250  3.9434e-02
8.250  20.500  3.9438e-02
8.250  20.750  3.9439e-02
8.250  21.000  3.9440e-02
8.250  21.250  3.9440e-02
8.250  21.500  3.9440e-02
8.250  21.750  3.9440e-02
8.250  22.000  3.9440e-02
8.250  22.250  3.9440e-02
8.250  22.500  3.9440e-02
8.250  22.750  3.9440e-02
8.250  23.000  3.9440e-02
8.250  23.250  3.9440e-02
8.250  23.500  3.9440e-02
8.250  23.750  3.9440e-02
8.250  24.000  3.9440e-02
8.500  17.000  5.8095e-03
8.500  17.250  7.7896e-03
8.500  17.500  1.0831e-02
8.500  17.750  1.5491e-02
8.500  18.000  2.1663e-02
8.500  18.250  2.8192e-02
8.500  18.500  3.6130e-02
8.500  18.750  3.8200e-02
8.500  19.000  3.9353e-02
8.500  19.250  3.9373e-02
8.500  19.500  3.9392e-02
8.500  19.750  3.9413e-02
8.500  20.000  3.9425e-02
8.500  20.250  3.9430e-02
8.500  20.500  3.9434e-02
8.500  20.750  3.9438e-02
8.500  21.000  3.9439e-02
8.500  21.250  3.9440e-02
8.500  21.500  3.9440e-02
8.500  21.750  3.9440e-02
8.500  22.000  3.9440e-02
8.500  22.250  3.9440e-02
8.500  22.500  3.9440e-02
8.500  22.750  3.9440e-02
8.500  23.000  3.9440e-02
8.500  23.250  3.9440e-02
8.500  23.500  3.9440e-02
8.500  23.750  3.9440e-02
8.500  24.000  3.9440e-02
8.750  17.000  4.5249e-03
8.750  17.250  5.8943e-03
8.750  17.500  7.9588e-03
8.750  17.750  1.1205e-02
8.750  18.000  1.6166e-02
8.750  18.250  2.2555e-02
8.750  18.500  2.9078e-02
8.750  18.750  3.6113e-02
8.750  19.000  3.8196e-02
8.750  19.250  3.9350e-02
8.750  19.500  3.9373e-02
8.750  19.750  3.9392e-02
8.750  20.000  3.9414e-02
8.750  20.250  3.9425e-02
8.750  20.500  3.9430e-02
8.750  20.750  3.9434e-02
8.750  21.000  3.9438e-02
8.750  21.250  3.9439e-02
8.750  21.500  3.9440e-02
8.750  21.750  3.9440e-02
8.750  22.000  3.9440e-02
8.750  22.250  3.9440e-02
8.750  22.500  3.9440e-02
8.750  22.750  3.9440e-02
8.750  23.000  3.9440e-02
8.750  23.250  3.9440e-02
8.750  23.500  3.9440e-02
8.750  23.750  3.9440e-02
8.750  24.000  3.9440e-02
9.000  17.000  3.6196e-03
9.000  17.250  4.5789e-03
9.000  17.500  6.0160e-03
9.000  17.750  8.2382e-03
9.000  18.000  1.1815e-02
9.000  18.250  1.7253e-02
9.000  18.500  2.3758e-02
9.000  18.750  2.9713e-02
9.000  19.000  3.6035e-02
9.000  19.250  3.8181e-02
9.000  19.500  3.9346e-02
9.000  19.750  3.9372e-02
9.000  20.000  3.9392e-02
9.000  20.250  3.9414e-02
9.000  20.500  3.9425e-02
9.000  20.750  3.9430e-02
9.000  21.000  3.9434e-02
9.000  21.250  3.9438e-02
9.000  21.500  3.9439e-02
9.000  21.750  3.9440e-02
9.000  22.000  3.9440e-02
9.000  22.250  3.9440e-02
9.000  22.500  3.9440e-02
9.000  22.750  3.9440e-02
9.000  23.000  3.9440e-02
9.000  23.250  3.9440e-02
9.000  23.500  3.9440e-02
9.000  23.750  3.9440e-02
9.000  24.000  3.9440e-02
9.250  17.000  2.9775e-03
9.250  17.250  3.6506e-03
9.250  17.500  4.6635e-03
9.250  17.750  6.2350e-03
9.250  18.000  8.7971e-03
9.250  18.250  1.2884e-02
9.250  18.500  1.8664e-02
9.250  18.750  2.5110e-02
9.250  19.000  3.1090e-02
9.250  19.250  3.5943e-02
9.250  19.500  3.8150e-02
9.250  19.750  3.9340e-02
9.250  20.000  3.9371e-02
9.250  20.250  3.9392e-02
9.250  20.500  3.9413e-02
9.250  20.750  3.9425e-02
9.250  21.000  3.9430e-02
9.250  21.250  3.9434e-02
9.250  21.500  3.9430e-02
9.250  21.750  3.9427e-02
9.250  22.000  3.9427e-02
9.250  22.250  3.9428e-02
9.250  22.500  3.9439e-02
9.250  22.750  3.9440e-02
9.250  23.000  3.9440e-02
9.250  23.250  3.9440e-02
9.250  23.500  3.9440e-02
9.250  23.750  3.9440e-02
9.250  24.000  3.9440e-02
9.500  17.000  2.5210e-03
9.500  17.250  2.9945e-03
9.500  17.500  3.7082e-03
9.500  17.750  4.8358e-03
9.500  18.000  6.7190e-03
9.500  18.250  9.7324e-03
9.500  18.500  1.4183e-02
9.500  18.750  1.9963e-02
9.500  19.000  2.6045e-02
9.500  19.250  3.2256e-02
9.500  19.500  3.5858e-02
9.500  19.750  3.8098e-02
9.500  20.000  3.9329e-02
9.500  20.250  3.9369e-02
9.500  20.500  3.9391e-02
9.500  20.750  3.9412e-02
9.500  21.000  3.9416e-02
9.500  21.250  3.9418e-02
9.500  21.500  3.9422e-02
9.500  21.750  3.9423e-02
9.500  22.000  3.9418e-02
9.500  22.250  3.9419e-02
9.500  22.500  3.9419e-02
9.500  22.750  3.9418e-02
9.500  23.000  3.9419e-02
9.500  23.250  3.9419e-02
9.500  23.500  3.9424e-02
9.500  23.750  3.9424e-02
9.500  24.000  3.9424e-02
9.750  17.000  2.1964e-03
9.750  17.250  2.5265e-03
9.750  17.500  3.0293e-03
9.750  17.750  3.8407e-03
9.750  18.000  5.2216e-03
9.750  18.250  7.4734e-03
9.750  18.500  1.0746e-02
9.750  18.750  1.5203e-02
9.750  19.000  2.0837e-02
9.750  19.250  2.7272e-02
9.750  19.500  3.3709e-02
9.750  19.750  3.5801e-02
9.750  20.000  3.8029e-02
9.750  20.250  3.9311e-02
9.750  20.500  3.9365e-02
9.750  20.750  3.9390e-02
9.750  21.000  3.9412e-02
9.750  21.250  3.9421e-02
9.750  21.500  3.9420e-02
9.750  21.750  3.9423e-02
9.750  22.000  3.9424e-02
9.750  22.250  3.9421e-02
9.750  22.500  3.9418e-02
9.750  22.750  3.9419e-02
9.750  23.000  3.9420e-02
9.750  23.250  3.9419e-02
9.750  23.500  3.9419e-02
9.750  23.750  3.9419e-02
9.750  24.000  3.9419e-02
10.000  17.000  1.9649e-03
10.000  17.250  2.1957e-03
10.000  17.500  2.5489e-03
10.000  17.750  3.1320e-03
10.000  18.000  4.1549e-03
10.000  18.250  5.8091e-03
10.000  18.500  8.1779e-03
10.000  18.750  1.1401e-02
10.000  19.000  1.5819e-02
10.000  19.250  2.1479e-02
10.000  19.500  2.8779e-02
10.000  19.750  3.3826e-02
10.000  20.000  3.5767e-02
10.000  20.250  3.7962e-02
10.000  20.500  3.9285e-02
10.000  20.750  3.9359e-02
10.000  21.000  3.9388e-02
10.000  21.250  3.9412e-02
10.000  21.500  3.9423e-02
10.000  21.750  3.9426e-02
10.000  22.000  3.9424e-02
10.000  22.250  3.9425e-02
10.000  22.500  3.9424e-02
10.000  22.750  3.9420e-02
10.000  23.000  3.9418e-02
10.000  23.250  3.9419e-02
10.000  23.500  3.9419e-02
10.000  23.750  3.9420e-02
10.000  24.000  3.9420e-02
10.250  17.000  1.8008e-03
10.250  17.250  1.9610e-03
10.250  17.500  2.2084e-03
10.250  17.750  2.6272e-03
10.250  18.000  3.3700e-03
10.250  18.250  4.5684e-03
10.250  18.500  6.2427e-03
10.250  18.750  8.5354e-03
10.250  19.000  1.1651e-02
10.250  19.250  1.6158e-02
10.250  19.500  2.2574e-02
10.250  19.750  3.0231e-02
10.250  20.000  3.3855e-02
10.250  20.250  3.5730e-02
10.250  20.500  3.7903e-02
10.250  20.750  3.9249e-02
10.250  21.000  3.9350e-02
10.250  21.250  3.9385e-02
10.250  21.500  3.9411e-02
10.250  21.750  3.9424e-02
10.250  22.000  3.9428e-02
10.250  22.250  3.9428e-02
10.250  22.500  3.9426e-02
10.250  22.750  3.9426e-02
10.250  23.000  3.9423e-02
10.250  23.250  3.9421e-02
10.250  23.500  3.9419e-02
10.250  23.750  3.9419e-02
10.250  24.000  3.9419e-02
10.500  17.000  1.6845e-03
10.500  17.250  1.7946e-03
10.500  17.500  1.9670e-03
10.500  17.750  2.2662e-03
10.500  18.000  2.7985e-03
10.500  18.250  3.6549e-03
10.500  18.500  4.8433e-03
10.500  18.750  6.5207e-03
10.500  19.000  8.8993e-03
10.500  19.250  1.2327e-02
10.500  19.500  1.7161e-02
10.500  19.750  2.3958e-02
10.500  20.000  3.1372e-02
10.500  20.250  3.3952e-02
10.500  20.500  3.5684e-02
10.500  20.750  3.7864e-02
10.500  21.000  3.9210e-02
10.500  21.250  3.9336e-02
10.500  21.500  3.9379e-02
10.500  21.750  3.9409e-02
10.500  22.000  3.9424e-02
10.500  22.250  3.9429e-02
10.500  22.500  3.9432e-02
10.500  22.750  3.9426e-02
10.500  23.000  3.9427e-02
10.500  23.250  3.9425e-02
10.500  23.500  3.9424e-02
10.500  23.750  3.9422e-02
10.500  24.000  3.9421e-02
10.750  17.000  1.6008e-03
10.750  17.250  1.6754e-03
10.750  17.500  1.7938e-03
10.750  17.750  2.0034e-03
10.750  18.000  2.3829e-03
10.750  18.250  2.9908e-03
10.750  18.500  3.8605e-03
10.750  18.750  5.1221e-03
10.750  19.000  6.9183e-03
10.750  19.250  9.4361e-03
10.750  19.500  1.2994e-02
10.750  19.750  1.8043e-02
10.750  20.000  2.5121e-02
10.750  20.250  3.1730e-02
10.750  20.500  3.3879e-02
10.750  20.750  3.5681e-02
10.750  21.000  3.7862e-02
10.750  21.250  3.9168e-02
10.750  21.500  3.9318e-02
10.750  21.750  3.9372e-02
10.750  22.000  3.9407e-02
10.750  22.250  3.9423e-02
10.750  22.500  3.9429e-02
10.750  22.750  3.9433e-02
10.750  23.000  3.9428e-02
10.750  23.250  3.9427e-02
10.750  23.500  3.9427e-02
10.750  23.750  3.9426e-02
10.750  24.000  3.9425e-02
11.000  17.000  1.5388e-03
11.000  17.250  1.5880e-03
11.000  17.500  1.6665e-03
11.000  17.750  1.8114e-03
11.000  18.000  2.0791e-03
11.000  18.250  2.5123e-03
11.000  18.500  3.1601e-03
11.000  18.750  4.1256e-03
11.000  19.000  5.4556e-03
11.000  19.250  7.2709e-03
11.000  19.500  9.8497e-03
11.000  19.750  1.3505e-02
11.000  20.000  1.8695e-02
11.000  20.250  2.5927e-02
11.000  20.500  3.1753e-02
11.000  20.750  3.3797e-02
11.000  21.000  3.5710e-02
11.000  21.250  3.7940e-02
11.000  21.500  3.9125e-02
11.000  21.750  3.9297e-02
11.000  22.000  3.9361e-02
11.000  22.250  3.9403e-02
11.000  22.500  3.9423e-02
11.000  22.750  3.9429e-02
11.000  23.000  3.9434e-02
11.000  23.250  3.9434e-02
11.000  23.500  3.9428e-02
11.000  23.750  3.9428e-02
11.000  24.000  3.9427e-02
11.250  17.000  1.4920e-03
11.250  17.250  1.5218e-03
11.250  17.500  1.5717e-03
11.250  17.750  1.6695e-03
11.250  18.000  1.8564e-03
11.250  18.250  2.1673e-03
11.250  18.500  2.6420e-03
11.250  18.750  3.3511e-03
11.250  19.000  4.3249e-03
11.250  19.250  5.6719e-03
11.250  19.500  7.5194e-03
11.250  19.750  1.0137e-02
11.250  20.000  1.3819e-02
11.250  20.250  1.9102e-02
11.250  20.500  2.6517e-02
11.250  20.750  3.1439e-02
11.250  21.000  3.3812e-02
11.250  21.250  3.5806e-02
11.250  21.500  3.8134e-02
11.250  21.750  3.9069e-02
11.250  22.000  3.9275e-02
11.250  22.250  3.9350e-02
11.250  22.500  3.9398e-02
11.250  22.750  3.9421e-02
11.250  23.000  3.9428e-02
11.250  23.250  3.9434e-02
11.250  23.500  3.9437e-02
11.250  23.750  3.9429e-02
11.250  24.000  3.9428e-02
11.500  17.000  1.4578e-03
11.500  17.250  1.4720e-03
11.500  17.500  1.5010e-03
11.500  17.750  1.5644e-03
11.500  18.000  1.6937e-03
11.500  18.250  1.9185e-03
11.500  18.500  2.2639e-03
11.500  18.750  2.7811e-03
11.500  19.000  3.4840e-03
11.500  19.250  4.4659e-03
11.500  19.500  5.8105e-03
11.500  19.750  7.6836e-03
11.500  20.000  1.0316e-02
11.500  20.250  1.4033e-02
11.500  20.500  1.9392e-02
11.500  20.750  2.6788e-02
11.500  21.000  3.1347e-02
11.500  21.250  3.3892e-02
11.500  21.500  3.6080e-02
11.500  21.750  3.8412e-02
11.500  22.000  3.9021e-02
11.500  22.250  3.9253e-02
11.500  22.500  3.9337e-02
11.500  22.750  3.9392e-02
11.500  23.000  3.9420e-02
11.500  23.250  3.9427e-02
11.500  23.500  3.9433e-02
11.500  23.750  3.9437e-02
11.500  24.000  3.9435e-02
11.750  17.000  1.4349e-03
11.750  17.250  1.4360e-03
11.750  17.500  1.4488e-03
11.750  17.750  1.4877e-03
11.750  18.000  1.5765e-03
11.750  18.250  1.7373e-03
11.750  18.500  1.9860e-03
11.750  18.750  2.3505e-03
11.750  19.000  2.8717e-03
11.750  19.250  3.5810e-03
11.750  19.500  4.5717e-03
11.750  19.750  5.9276e-03
11.750  20.000  7.8024e-03
11.750  20.250  1.0436e-02
11.750  20.500  1.4197e-02
11.750  20.750  1.9631e-02
11.750  21.000  2.6785e-02
11.750  21.250  3.1273e-02
11.750  21.500  3.4104e-02
11.750  21.750  3.6503e-02
11.750  22.000  3.8542e-02
11.750  22.250  3.8987e-02
11.750  22.500  3.9228e-02
11.750  22.750  3.9326e-02
11.750  23.000  3.9386e-02
11.750  23.250  3.9418e-02
11.750  23.500  3.9427e-02
11.750  23.750  3.9433e-02
11.750  24.000  3.9438e-02
12.000  17.000  1.4209e-03
12.000  17.250  1.4127e-03
12.000  17.500  1.4127e-03
12.000  17.750  1.4337e-03
12.000  18.000  1.4937e-03
12.000  18.250  1.6064e-03
12.000  18.500  1.7845e-03
12.000  18.750  2.0472e-03
12.000  19.000  2.4243e-03
12.000  19.250  2.9424e-03
12.000  19.500  3.6597e-03
12.000  19.750  4.6466e-03
12.000  20.000  5.9996e-03
12.000  20.250  7.8878e-03
12.000  20.500  1.0538e-02
12.000  20.750  1.4344e-02
12.000  21.000  1.9911e-02
12.000  21.250  2.6373e-02
12.000  21.500  3.1300e-02
12.000  21.750  3.4441e-02
12.000  22.000  3.6958e-02
12.000  22.250  3.8505e-02
12.000  22.500  3.8953e-02
12.000  22.750  3.9203e-02
12.000  23.000  3.9311e-02
12.000  23.250  3.9381e-02
12.000  23.500  3.9415e-02
12.000  23.750  3.9425e-02
12.000  24.000  3.9433e-02
12.250  17.000  1.4141e-03
12.250  17.250  1.4013e-03
12.250  17.500  1.3927e-03
12.250  17.750  1.4003e-03
12.250  18.000  1.4388e-03
12.250  18.250  1.5174e-03
12.250  18.500  1.6433e-03
12.250  18.750  1.8303e-03
12.250  19.000  2.1007e-03
12.250  19.250  2.4802e-03
12.250  19.500  2.9999e-03
12.250  19.750  3.7154e-03
12.250  20.000  4.7053e-03
12.250  20.250  6.0684e-03
12.250  20.500  7.9566e-03
12.250  20.750  1.0642e-02
12.250  21.000  1.4543e-02
12.250  21.250  2.0308e-02
12.250  21.500  2.6586e-02
12.250  21.750  3.1534e-02
12.250  22.000  3.4896e-02
12.250  22.250  3.7391e-02
12.250  22.500  3.8472e-02
12.250  22.750  3.8915e-02
12.250  23.000  3.9179e-02
12.250  23.250  3.9297e-02
12.250  23.500  3.9374e-02
12.250  23.750  3.9413e-02
12.250  24.000  3.9424e-02
12.500  17.000  1.1001e-03
12.500  17.250  1.4001e-03
12.500  17.500  1.3893e-03
12.500  17.750  1.3890e-03
12.500  18.000  1.4090e-03
12.500  18.250  1.4579e-03
12.500  18.500  1.5436e-03
12.500  18.750  1.6754e-03
12.500  19.000  1.8677e-03
12.500  19.250  2.1413e-03
12.500  19.500  2.5221e-03
12.500  19.750  3.0441e-03
12.500  20.000  3.7624e-03
12.500  20.250  4.7608e-03
12.500  20.500  6.1187e-03
12.500  20.750  8.0434e-03
12.500  21.000  1.0806e-02
12.500  21.250  1.4874e-02
12.500  21.500  2.0546e-02
12.500  21.750  2.6970e-02
12.500  22.000  3.1959e-02
12.500  22.250  3.5382e-02
12.500  22.500  3.7651e-02
12.500  22.750  3.8457e-02
12.500  23.000  3.8887e-02
12.500  23.250  3.9151e-02
12.500  23.500  3.9281e-02
12.500  23.750  3.9366e-02
12.500  24.000  3.9410e-02
12.750  17.000  6.1012e-04
12.750  17.250  1.2128e-03
12.750  17.500  1.3959e-03
12.750  17.750  1.3916e-03
12.750  18.000  1.3974e-03
12.750  18.250  1.4231e-03
12.750  18.500  1.4756e-03
12.750  18.750  1.5653e-03
12.750  19.000  1.7004e-03
12.750  19.250  1.8979e-03
12.750  19.500  2.1714e-03
12.750  19.750  2.5517e-03
12.750  20.000  3.0688e-03
12.750  20.250  3.7951e-03
12.750  20.500  4.7875e-03
12.750  20.750  6.1583e-03
12.750  21.000  8.1407e-03
12.750  21.250  1.1018e-02
12.750  21.500  1.5031e-02
12.750  21.750  2.1210e-02
12.750  22.000  2.7522e-02
12.750  22.250  3.2493e-02
12.750  22.500  3.5847e-02
12.750  22.750  3.7776e-02
12.750  23.000  3.8444e-02
12.750  23.250  3.8865e-02
12.750  23.500  3.9125e-02
12.750  23.750  3.9263e-02
12.750  24.000  3.9356e-02
13.000  17.000  1.0132e-04
13.000  17.250  2.4436e-04
13.000  17.500  9.0436e-04
13.000  17.750  1.3734e-03
13.000  18.000  1.3960e-03
13.000  18.250  1.4063e-03
13.000  18.500  1.4338e-03
13.000  18.750  1.4900e-03
13.000  19.000  1.5821e-03
13.000  19.250  1.7206e-03
13.000  19.500  1.9166e-03
13.000  19.750  2.1907e-03
13.000  20.000  2.5693e-03
13.000  20.250  3.0857e-03
13.000  20.500  3.8126e-03
13.000  20.750  4.8239e-03
13.000  21.000  6.2400e-03
13.000  21.250  8.2838e-03
13.000  21.500  1.1133e-02
13.000  21.750  1.5506e-02
13.000  22.000  2.1919e-02
13.000  22.250  2.8199e-02
13.000  22.500  3.3035e-02
13.000  22.750  3.6111e-02
13.000  23.000  3.7810e-02
13.000  23.250  3.8432e-02
13.000  23.500  3.8836e-02
13.000  23.750  3.9093e-02
13.000  24.000  3.9237e-02
13.250  17.000  6.0576e-05
13.250  17.250  1.1498e-04
13.250  17.500  2.8601e-04
13.250  17.750  6.8576e-04
13.250  18.000  1.0667e-03
13.250  18.250  1.4020e-03
13.250  18.500  1.4133e-03
13.250  18.750  1.4426e-03
13.250  19.000  1.4996e-03
13.250  19.250  1.5942e-03
13.250  19.500  1.7324e-03
13.250  19.750  1.9276e-03
13.250  20.000  2.1983e-03
13.250  20.250  2.5752e-03
13.250  20.500  3.0923e-03
13.250  20.750  3.8134e-03
13.250  21.000  4.8418e-03
13.250  21.250  6.2813e-03
13.250  21.500  8.2357e-03
13.250  21.750  1.1251e-02
13.250  22.000  1.5910e-02
13.250  22.250  2.2636e-02
13.250  22.500  2.8592e-02
13.250  22.750  3.3056e-02
13.250  23.000  3.6038e-02
13.250  23.250  3.7785e-02
13.250  23.500  3.8397e-02
13.250  23.750  3.8798e-02
13.250  24.000  3.9052e-02
13.500  17.000  3.6296e-05
13.500  17.250  7.1934e-05
13.500  17.500  1.6305e-04
13.500  17.750  3.6905e-04
13.500  18.000  8.1366e-04
13.500  18.250  1.1356e-03
13.500  18.500  1.4067e-03
13.500  18.750  1.4179e-03
13.500  19.000  1.4480e-03
13.500  19.250  1.5053e-03
13.500  19.500  1.5997e-03
13.500  19.750  1.7358e-03
13.500  20.000  1.9286e-03
13.500  20.250  2.1957e-03
13.500  20.500  2.5685e-03
13.500  20.750  3.0796e-03
13.500  21.000  3.7963e-03
13.500  21.250  4.8139e-03
13.500  21.500  6.1565e-03
13.500  21.750  8.1788e-03
13.500  22.000  1.1232e-02
13.500  22.250  1.6102e-02
13.500  22.500  2.3110e-02
13.500  22.750  2.8708e-02
13.500  23.000  3.2937e-02
13.500  23.250  3.5920e-02
13.500  23.500  3.7708e-02
13.500  23.750  3.8325e-02
13.500  24.000  3.8734e-02
13.750  17.000  2.2140e-05
13.750  17.250  4.4774e-05
13.750  17.500  9.7695e-05
13.750  17.750  1.9416e-04
13.750  18.000  4.6872e-04
13.750  18.250  9.3786e-04
13.750  18.500  1.1651e-03
13.750  18.750  1.4099e-03
13.750  19.000  1.4207e-03
13.750  19.250  1.4507e-03
13.750  19.500  1.5082e-03
13.750  19.750  1.6000e-03
13.750  20.000  1.7336e-03
13.750  20.250  1.9210e-03
13.750  20.500  2.1818e-03
13.750  20.750  2.5426e-03
13.750  21.000  3.0394e-03
13.750  21.250  3.7353e-03
13.750  21.500  4.6599e-03
13.750  21.750  5.9802e-03
13.750  22.000  7.8306e-03
13.750  22.250  1.0758e-02
13.750  22.500  1.6145e-02
13.750  22.750  2.3637e-02
13.750  23.000  2.8671e-02
13.750  23.250  3.2747e-02
13.750  23.500  3.5685e-02
13.750  23.750  3.7554e-02
13.750  24.000  3.8201e-02
14.000  17.000  1.3416e-05
14.000  17.250  2.6420e-05
14.000  17.500  5.9259e-05
14.000  17.750  1.1918e-04
14.000  18.000  2.4214e-04
14.000  18.250  5.6008e-04
14.000  18.500  9.9951e-04
14.000  18.750  1.2970e-03
14.000  19.000  1.4112e-03
14.000  19.250  1.4212e-03
14.000  19.500  1.4500e-03
14.000  19.750  1.5058e-03
14.000  20.000  1.5952e-03
14.000  20.250  1.7230e-03
14.000  20.500  1.9028e-03
14.000  20.750  2.1523e-03
14.000  21.000  2.4965e-03
14.000  21.250  2.9691e-03
14.000  21.500  3.5818e-03
14.000  21.750  4.4398e-03
14.000  22.000  5.5512e-03
14.000  22.250  7.1424e-03
14.000  22.500  1.0154e-02
14.000  22.750  1.6385e-02
14.000  23.000  2.3895e-02
14.000  23.250  2.8692e-02
14.000  23.500  3.2537e-02
14.000  23.750  3.5479e-02
14.000  24.000  3.7278e-02
