nFnu 913.000A  relative to Inci 1215.00A scaled to 1215A.
Hden   Phi(H)  Eq_Width (A)
7.000  17.000  7.2141e-02
7.000  17.250  6.9156e-02
7.000  17.500  6.9021e-02
7.000  17.750  6.4249e-02
7.000  18.000  5.7927e-02
7.000  18.250  5.2384e-02
7.000  18.500  4.8376e-02
7.000  18.750  4.6217e-02
7.000  19.000  4.5068e-02
7.000  19.250  4.4404e-02
7.000  19.500  4.4119e-02
7.000  19.750  4.3998e-02
7.000  20.000  4.3945e-02
7.000  20.250  4.3920e-02
7.000  20.500  4.3907e-02
7.000  20.750  4.3901e-02
7.000  21.000  4.3897e-02
7.000  21.250  4.3896e-02
7.000  21.500  4.3895e-02
7.000  21.750  4.3894e-02
7.000  22.000  4.3895e-02
7.000  22.250  4.3895e-02
7.000  22.500  4.3895e-02
7.000  22.750  4.3896e-02
7.000  23.000  4.3895e-02
7.000  23.250  4.3895e-02
7.000  23.500  4.3895e-02
7.000  23.750  4.3895e-02
7.000  24.000  4.3895e-02
7.250  17.000  5.5534e-02
7.250  17.250  6.8896e-02
7.250  17.500  6.7679e-02
7.250  17.750  6.8505e-02
7.250  18.000  6.4012e-02
7.250  18.250  5.7802e-02
7.250  18.500  5.2319e-02
7.250  18.750  4.8353e-02
7.250  19.000  4.6208e-02
7.250  19.250  4.5065e-02
7.250  19.500  4.4403e-02
7.250  19.750  4.4119e-02
7.250  20.000  4.3998e-02
7.250  20.250  4.3945e-02
7.250  20.500  4.3920e-02
7.250  20.750  4.3907e-02
7.250  21.000  4.3901e-02
7.250  21.250  4.3897e-02
7.250  21.500  4.3895e-02
7.250  21.750  4.3894e-02
7.250  22.000  4.3894e-02
7.250  22.250  4.3894e-02
7.250  22.500  4.3893e-02
7.250  22.750  4.3894e-02
7.250  23.000  4.3894e-02
7.250  23.250  4.3894e-02
7.250  23.500  4.3894e-02
7.250  23.750  4.3894e-02
7.250  24.000  4.3894e-02
7.500  17.000  3.7564e-02
7.500  17.250  5.1968e-02
7.500  17.500  6.5673e-02
7.500  17.750  6.6591e-02
7.500  18.000  6.8230e-02
7.500  18.250  6.3901e-02
7.500  18.500  5.7733e-02
7.500  18.750  5.2280e-02
7.500  19.000  4.8338e-02
7.500  19.250  4.6201e-02
7.500  19.500  4.5063e-02
7.500  19.750  4.4402e-02
7.500  20.000  4.4119e-02
7.500  20.250  4.3998e-02
7.500  20.500  4.3945e-02
7.500  20.750  4.3920e-02
7.500  21.000  4.3907e-02
7.500  21.250  4.3901e-02
7.500  21.500  4.3897e-02
7.500  21.750  4.3895e-02
7.500  22.000  4.3894e-02
7.500  22.250  4.3894e-02
7.500  22.500  4.3893e-02
7.500  22.750  4.3893e-02
7.500  23.000  4.3893e-02
7.500  23.250  4.3893e-02
7.500  23.500  4.3896e-02
7.500  23.750  4.3893e-02
7.500  24.000  4.3893e-02
7.750  17.000  2.4955e-02
7.750  17.250  3.3949e-02
7.750  17.500  4.8929e-02
7.750  17.750  6.2967e-02
7.750  18.000  6.5749e-02
7.750  18.250  6.8105e-02
7.750  18.500  6.3873e-02
7.750  18.750  5.7702e-02
7.750  19.000  5.2257e-02
7.750  19.250  4.8329e-02
7.750  19.500  4.6198e-02
7.750  19.750  4.5061e-02
7.750  20.000  4.4402e-02
7.750  20.250  4.4119e-02
7.750  20.500  4.3998e-02
7.750  20.750  4.3945e-02
7.750  21.000  4.3920e-02
7.750  21.250  4.3907e-02
7.750  21.500  4.3901e-02
7.750  21.750  4.3897e-02
7.750  22.000  4.3895e-02
7.750  22.250  4.3894e-02
7.750  22.500  4.3893e-02
7.750  22.750  4.3893e-02
7.750  23.000  4.3893e-02
7.750  23.250  4.3893e-02
7.750  23.500  4.3893e-02
7.750  23.750  4.3893e-02
7.750  24.000  4.3893e-02
8.000  17.000  1.7271e-02
8.000  17.250  2.1641e-02
8.000  17.500  3.0800e-02
8.000  17.750  4.6228e-02
8.000  18.000  6.0726e-02
8.000  18.250  6.5173e-02
8.000  18.500  6.8076e-02
8.000  18.750  6.3899e-02
8.000  19.000  5.7696e-02
8.000  19.250  5.2243e-02
8.000  19.500  4.8323e-02
8.000  19.750  4.6195e-02
8.000  20.000  4.5060e-02
8.000  20.250  4.4402e-02
8.000  20.500  4.4119e-02
8.000  20.750  4.3998e-02
8.000  21.000  4.3945e-02
8.000  21.250  4.3920e-02
8.000  21.500  4.3907e-02
8.000  21.750  4.3901e-02
8.000  22.000  4.3897e-02
8.000  22.250  4.3895e-02
8.000  22.500  4.3894e-02
8.000  22.750  4.3894e-02
8.000  23.000  4.3893e-02
8.000  23.250  4.3894e-02
8.000  23.500  4.3893e-02
8.000  23.750  4.3893e-02
8.000  24.000  4.3893e-02
8.250  17.000  1.2703e-02
8.250  17.250  1.4847e-02
8.250  17.500  1.9484e-02
8.250  17.750  2.8845e-02
8.250  18.000  4.4619e-02
8.250  18.250  5.9367e-02
8.250  18.500  6.4814e-02
8.250  18.750  6.8104e-02
8.250  19.000  6.3966e-02
8.250  19.250  5.7706e-02
8.250  19.500  5.2235e-02
8.250  19.750  4.8319e-02
8.250  20.000  4.6194e-02
8.250  20.250  4.5060e-02
8.250  20.500  4.4402e-02
8.250  20.750  4.4119e-02
8.250  21.000  4.3998e-02
8.250  21.250  4.3945e-02
8.250  21.500  4.3920e-02
8.250  21.750  4.3907e-02
8.250  22.000  4.3901e-02
8.250  22.250  4.3897e-02
8.250  22.500  4.3895e-02
8.250  22.750  4.3894e-02
8.250  23.000  4.3893e-02
8.250  23.250  4.3893e-02
8.250  23.500  4.3893e-02
8.250  23.750  4.3893e-02
8.250  24.000  4.3893e-02
8.500  17.000  9.7858e-03
8.500  17.250  1.0852e-02
8.500  17.500  1.3246e-02
8.500  17.750  1.8038e-02
8.500  18.000  2.7720e-02
8.500  18.250  4.3795e-02
8.500  18.500  5.8514e-02
8.500  18.750  6.4606e-02
8.500  19.000  6.8170e-02
8.500  19.250  6.4064e-02
8.500  19.500  5.7727e-02
8.500  19.750  5.2232e-02
8.500  20.000  4.8317e-02
8.500  20.250  4.6193e-02
8.500  20.500  4.5060e-02
8.500  20.750  4.4402e-02
8.500  21.000  4.4119e-02
8.500  21.250  4.3998e-02
8.500  21.500  4.3945e-02
8.500  21.750  4.3920e-02
8.500  22.000  4.3907e-02
8.500  22.250  4.3901e-02
8.500  22.500  4.3897e-02
8.500  22.750  4.3895e-02
8.500  23.000  4.3894e-02
8.500  23.250  4.3894e-02
8.500  23.500  4.3893e-02
8.500  23.750  4.3893e-02
8.500  24.000  4.3893e-02
8.750  17.000  7.9270e-03
8.750  17.250  8.4333e-03
8.750  17.500  9.6993e-03
8.750  17.750  1.2249e-02
8.750  18.000  1.7308e-02
8.750  18.250  2.7420e-02
8.750  18.500  4.3758e-02
8.750  18.750  5.7937e-02
8.750  19.000  6.4485e-02
8.750  19.250  6.8254e-02
8.750  19.500  6.4183e-02
8.750  19.750  5.7755e-02
8.750  20.000  5.2231e-02
8.750  20.250  4.8315e-02
8.750  20.500  4.6193e-02
8.750  20.750  4.5060e-02
8.750  21.000  4.4402e-02
8.750  21.250  4.4119e-02
8.750  21.500  4.3998e-02
8.750  21.750  4.3945e-02
8.750  22.000  4.3920e-02
8.750  22.250  4.3907e-02
8.750  22.500  4.3901e-02
8.750  22.750  4.3897e-02
8.750  23.000  4.3895e-02
8.750  23.250  4.3894e-02
8.750  23.500  4.3894e-02
8.750  23.750  4.3893e-02
8.750  24.000  4.3893e-02
9.000  17.000  6.7249e-03
9.000  17.250  6.9482e-03
9.000  17.500  7.6169e-03
9.000  17.750  9.0272e-03
9.000  18.000  1.1798e-02
9.000  18.250  1.7311e-02
9.000  18.500  2.8433e-02
9.000  18.750  4.5281e-02
9.000  19.000  5.7556e-02
9.000  19.250  6.4393e-02
9.000  19.500  6.8338e-02
9.000  19.750  6.4308e-02
9.000  20.000  5.7785e-02
9.000  20.250  5.2230e-02
9.000  20.500  4.8314e-02
9.000  20.750  4.6192e-02
9.000  21.000  4.5059e-02
9.000  21.250  4.4402e-02
9.000  21.500  4.4119e-02
9.000  21.750  4.3998e-02
9.000  22.000  4.3945e-02
9.000  22.250  4.3920e-02
9.000  22.500  4.3907e-02
9.000  22.750  4.3901e-02
9.000  23.000  4.3897e-02
9.000  23.250  4.3895e-02
9.000  23.500  4.3894e-02
9.000  23.750  4.3893e-02
9.000  24.000  4.3893e-02
9.250  17.000  5.9270e-03
9.250  17.250  5.9992e-03
9.250  17.500  6.3733e-03
9.250  17.750  7.1959e-03
9.250  18.000  8.8749e-03
9.250  18.250  1.2072e-02
9.250  18.500  1.8443e-02
9.250  18.750  3.1118e-02
9.250  19.000  4.7943e-02
9.250  19.250  5.7292e-02
9.250  19.500  6.4296e-02
9.250  19.750  6.8403e-02
9.250  20.000  6.4427e-02
9.250  20.250  5.7815e-02
9.250  20.500  5.2229e-02
9.250  20.750  4.8313e-02
9.250  21.000  4.6192e-02
9.250  21.250  4.5059e-02
9.250  21.500  4.4393e-02
9.250  21.750  4.4106e-02
9.250  22.000  4.3984e-02
9.250  22.250  4.3932e-02
9.250  22.500  4.3919e-02
9.250  22.750  4.3907e-02
9.250  23.000  4.3900e-02
9.250  23.250  4.3897e-02
9.250  23.500  4.3895e-02
9.250  23.750  4.3894e-02
9.250  24.000  4.3893e-02
9.500  17.000  5.3780e-03
9.500  17.250  5.3583e-03
9.500  17.500  5.5928e-03
9.500  17.750  6.1556e-03
9.500  18.000  7.2398e-03
9.500  18.250  9.2409e-03
9.500  18.500  1.3063e-02
9.500  18.750  2.0693e-02
9.500  19.000  3.5007e-02
9.500  19.250  5.0217e-02
9.500  19.500  5.7073e-02
9.500  19.750  6.4161e-02
9.500  20.000  6.8433e-02
9.500  20.250  6.4528e-02
9.500  20.500  5.7844e-02
9.500  20.750  5.2229e-02
9.500  21.000  4.8303e-02
9.500  21.250  4.6179e-02
9.500  21.500  4.5045e-02
9.500  21.750  4.4385e-02
9.500  22.000  4.4095e-02
9.500  22.250  4.3975e-02
9.500  22.500  4.3922e-02
9.500  22.750  4.3896e-02
9.500  23.000  4.3884e-02
9.500  23.250  4.3877e-02
9.500  23.500  4.3879e-02
9.500  23.750  4.3877e-02
9.500  24.000  4.3876e-02
9.750  17.000  5.0382e-03
9.750  17.250  4.9045e-03
9.750  17.500  5.0496e-03
9.750  17.750  5.4863e-03
9.750  18.000  6.3023e-03
9.750  18.250  7.7028e-03
9.750  18.500  1.0183e-02
9.750  18.750  1.4880e-02
9.750  19.000  2.4230e-02
9.750  19.250  3.9926e-02
9.750  19.500  5.2023e-02
9.750  19.750  5.6900e-02
9.750  20.000  6.4003e-02
9.750  20.250  6.8423e-02
9.750  20.500  6.4603e-02
9.750  20.750  5.7867e-02
9.750  21.000  5.2230e-02
9.750  21.250  4.8308e-02
9.750  21.500  4.6181e-02
9.750  21.750  4.5046e-02
9.750  22.000  4.4387e-02
9.750  22.250  4.4099e-02
9.750  22.500  4.3974e-02
9.750  22.750  4.3922e-02
9.750  23.000  4.3897e-02
9.750  23.250  4.3884e-02
9.750  23.500  4.3877e-02
9.750  23.750  4.3873e-02
9.750  24.000  4.3871e-02
10.000  17.000  4.8844e-03
10.000  17.250  4.6012e-03
10.000  17.500  4.6212e-03
10.000  17.750  4.9758e-03
10.000  18.000  5.7107e-03
10.000  18.250  6.8290e-03
10.000  18.500  8.6045e-03
10.000  18.750  1.1751e-02
10.000  19.000  1.7827e-02
10.000  19.250  2.9583e-02
10.000  19.500  4.4871e-02
10.000  19.750  5.2109e-02
10.000  20.000  5.6787e-02
10.000  20.250  6.3837e-02
10.000  20.500  6.8384e-02
10.000  20.750  6.4659e-02
10.000  21.000  5.7886e-02
10.000  21.250  5.2231e-02
10.000  21.500  4.8310e-02
10.000  21.750  4.6187e-02
10.000  22.000  4.5047e-02
10.000  22.250  4.4388e-02
10.000  22.500  4.4101e-02
10.000  22.750  4.3976e-02
10.000  23.000  4.3921e-02
10.000  23.250  4.3896e-02
10.000  23.500  4.3884e-02
10.000  23.750  4.3878e-02
10.000  24.000  4.3874e-02
10.250  17.000  4.9128e-03
10.250  17.250  4.4668e-03
10.250  17.500  4.3432e-03
10.250  17.750  4.5964e-03
10.250  18.000  5.2683e-03
10.250  18.250  6.2613e-03
10.250  18.500  7.6891e-03
10.250  18.750  1.0051e-02
10.250  19.000  1.4380e-02
10.250  19.250  2.2221e-02
10.250  19.500  3.4829e-02
10.250  19.750  4.7047e-02
10.250  20.000  5.2012e-02
10.250  20.250  5.6786e-02
10.250  20.500  6.3807e-02
10.250  20.750  6.8349e-02
10.250  21.000  6.4694e-02
10.250  21.250  5.7899e-02
10.250  21.500  5.2231e-02
10.250  21.750  4.8310e-02
10.250  22.000  4.6190e-02
10.250  22.250  4.5052e-02
10.250  22.500  4.4389e-02
10.250  22.750  4.4103e-02
10.250  23.000  4.3980e-02
10.250  23.250  4.3923e-02
10.250  23.500  4.3897e-02
10.250  23.750  4.3883e-02
10.250  24.000  4.3877e-02
10.500  17.000  5.0686e-03
10.500  17.250  4.4993e-03
10.500  17.500  4.2287e-03
10.500  17.750  4.3648e-03
10.500  18.000  4.9203e-03
10.500  18.250  5.8187e-03
10.500  18.500  7.0459e-03
10.500  18.750  8.8133e-03
10.500  19.000  1.1573e-02
10.500  19.250  1.6303e-02
10.500  19.500  2.4877e-02
10.500  19.750  3.8156e-02
10.500  20.000  4.8374e-02
10.500  20.250  5.2298e-02
10.500  20.500  5.7066e-02
10.500  20.750  6.4046e-02
10.500  21.000  6.8365e-02
10.500  21.250  6.4710e-02
10.500  21.500  5.7906e-02
10.500  21.750  5.2231e-02
10.500  22.000  4.8309e-02
10.500  22.250  4.6191e-02
10.500  22.500  4.5057e-02
10.500  22.750  4.4389e-02
10.500  23.000  4.4105e-02
10.500  23.250  4.3982e-02
10.500  23.500  4.3927e-02
10.500  23.750  4.3900e-02
10.500  24.000  4.3886e-02
10.750  17.000  5.2886e-03
10.750  17.250  4.6523e-03
10.750  17.500  4.2827e-03
10.750  17.750  4.3026e-03
10.750  18.000  4.6917e-03
10.750  18.250  5.3873e-03
10.750  18.500  6.3875e-03
10.750  18.750  7.6661e-03
10.750  19.000  9.4956e-03
10.750  19.250  1.2502e-02
10.750  19.500  1.7856e-02
10.750  19.750  2.7410e-02
10.750  20.000  4.1064e-02
10.750  20.250  4.9072e-02
10.750  20.500  5.2784e-02
10.750  20.750  5.7667e-02
10.750  21.000  6.4727e-02
10.750  21.250  6.8518e-02
10.750  21.500  6.4720e-02
10.750  21.750  5.7907e-02
10.750  22.000  5.2229e-02
10.750  22.250  4.8308e-02
10.750  22.500  4.6192e-02
10.750  22.750  4.5059e-02
10.750  23.000  4.4391e-02
10.750  23.250  4.4105e-02
10.750  23.500  4.3984e-02
10.750  23.750  4.3929e-02
10.750  24.000  4.3903e-02
11.000  17.000  5.5108e-03
11.000  17.250  4.8654e-03
11.000  17.500  4.4493e-03
11.000  17.750  4.3824e-03
11.000  18.000  4.6099e-03
11.000  18.250  5.0485e-03
11.000  18.500  5.7256e-03
11.000  18.750  6.6912e-03
11.000  19.000  7.9988e-03
11.000  19.250  9.9468e-03
11.000  19.500  1.3355e-02
11.000  19.750  1.9319e-02
11.000  20.000  2.9711e-02
11.000  20.250  4.3427e-02
11.000  20.500  4.9719e-02
11.000  20.750  5.3599e-02
11.000  21.000  5.8926e-02
11.000  21.250  6.6173e-02
11.000  21.500  6.8873e-02
11.000  21.750  6.4742e-02
11.000  22.000  5.7900e-02
11.000  22.250  5.2229e-02
11.000  22.500  4.8307e-02
11.000  22.750  4.6192e-02
11.000  23.000  4.5060e-02
11.000  23.250  4.4398e-02
11.000  23.500  4.4106e-02
11.000  23.750  4.3985e-02
11.000  24.000  4.3931e-02
11.250  17.000  5.6332e-03
11.250  17.250  5.0646e-03
11.250  17.500  4.6447e-03
11.250  17.750  4.5328e-03
11.250  18.000  4.6408e-03
11.250  18.250  4.8471e-03
11.250  18.500  4.6484e-03
11.250  18.750  4.3512e-03
11.250  19.000  4.5067e-03
11.250  19.250  5.6663e-03
11.250  19.500  8.3813e-03
11.250  19.750  1.3203e-02
11.250  20.000  2.0683e-02
11.250  20.250  3.1862e-02
11.250  20.500  4.5504e-02
11.250  20.750  5.0577e-02
11.250  21.000  5.5054e-02
11.250  21.250  6.1091e-02
11.250  21.500  6.8640e-02
11.250  21.750  6.9530e-02
11.250  22.000  6.4801e-02
11.250  22.250  5.7887e-02
11.250  22.500  5.2227e-02
11.250  22.750  4.8306e-02
11.250  23.000  4.6192e-02
11.250  23.250  4.5060e-02
11.250  23.500  4.4401e-02
11.250  23.750  4.4108e-02
11.250  24.000  4.3985e-02
11.500  17.000  5.5420e-03
11.500  17.250  5.1598e-03
11.500  17.500  4.7972e-03
11.500  17.750  4.6737e-03
11.500  18.000  4.7026e-03
11.500  18.250  4.0350e-03
11.500  18.500  2.8443e-03
11.500  18.750  1.6259e-03
11.500  19.000  8.7527e-04
11.500  19.250  1.0876e-03
11.500  19.500  2.7583e-03
11.500  19.750  6.3828e-03
11.500  20.000  1.2456e-02
11.500  20.250  2.1474e-02
11.500  20.500  3.3932e-02
11.500  20.750  4.7171e-02
11.500  21.000  5.2131e-02
11.500  21.250  5.7638e-02
11.500  21.500  6.4749e-02
11.500  21.750  7.2151e-02
11.500  22.000  7.0401e-02
11.500  22.250  6.4923e-02
11.500  22.500  5.7870e-02
11.500  22.750  5.2225e-02
11.500  23.000  4.8305e-02
11.500  23.250  4.6191e-02
11.500  23.500  4.5061e-02
11.500  23.750  4.4402e-02
11.500  24.000  4.4114e-02
11.750  17.000  4.8891e-03
11.750  17.250  4.9753e-03
11.750  17.500  5.2355e-03
11.750  17.750  5.7286e-03
11.750  18.000  6.4847e-03
11.750  18.250  7.5338e-03
11.750  18.500  8.9062e-03
11.750  18.750  1.0632e-02
11.750  19.000  1.2741e-02
11.750  19.250  1.5263e-02
11.750  19.500  1.8229e-02
11.750  19.750  2.1669e-02
11.750  20.000  2.5612e-02
11.750  20.250  3.0090e-02
11.750  20.500  3.5131e-02
11.750  20.750  4.0766e-02
11.750  21.000  4.7026e-02
11.750  21.250  5.3940e-02
11.750  21.500  6.1538e-02
11.750  21.750  6.9791e-02
11.750  22.000  7.5746e-02
11.750  22.250  7.1375e-02
11.750  22.500  6.5119e-02
11.750  22.750  5.7850e-02
11.750  23.000  5.2223e-02
11.750  23.250  4.8303e-02
11.750  23.500  4.6191e-02
11.750  23.750  4.5061e-02
11.750  24.000  4.4402e-02
12.000  17.000  4.1335e-03
12.000  17.250  4.2792e-03
12.000  17.500  4.3610e-03
12.000  17.750  4.5624e-03
12.000  18.000  4.6952e-03
12.000  18.250  4.7240e-03
12.000  18.500  4.6905e-03
12.000  18.750  4.6871e-03
12.000  19.000  4.8291e-03
12.000  19.250  5.2025e-03
12.000  19.500  5.9161e-03
12.000  19.750  7.0215e-03
12.000  20.000  8.7094e-03
12.000  20.250  1.1462e-02
12.000  20.500  1.6114e-02
12.000  20.750  2.4276e-02
12.000  21.000  3.8380e-02
12.000  21.250  5.1797e-02
12.000  21.500  5.8382e-02
12.000  21.750  6.6988e-02
12.000  22.000  7.5553e-02
12.000  22.250  7.8775e-02
12.000  22.500  7.2563e-02
12.000  22.750  6.5390e-02
12.000  23.000  5.7829e-02
12.000  23.250  5.2219e-02
12.000  23.500  4.8301e-02
12.000  23.750  4.6190e-02
12.000  24.000  4.5061e-02
12.250  17.000  3.2625e-03
12.250  17.250  3.6201e-03
12.250  17.500  3.8558e-03
12.250  17.750  4.0918e-03
12.250  18.000  4.2467e-03
12.250  18.250  4.4604e-03
12.250  18.500  4.4798e-03
12.250  18.750  4.4761e-03
12.250  19.000  4.5300e-03
12.250  19.250  4.7043e-03
12.250  19.500  5.1203e-03
12.250  19.750  5.8753e-03
12.250  20.000  7.0367e-03
12.250  20.250  8.8340e-03
12.250  20.500  1.1772e-02
12.250  20.750  1.6728e-02
12.250  21.000  2.5624e-02
12.250  21.250  4.1509e-02
12.250  21.500  5.5642e-02
12.250  21.750  6.3473e-02
12.250  22.000  7.3705e-02
12.250  22.250  8.1898e-02
12.250  22.500  8.1857e-02
12.250  22.750  7.3872e-02
12.250  23.000  6.5693e-02
12.250  23.250  5.7813e-02
12.250  23.500  5.2216e-02
12.250  23.750  4.8299e-02
12.250  24.000  4.6189e-02
12.500  17.000  2.4923e-03
12.500  17.250  2.9220e-03
12.500  17.500  3.3104e-03
12.500  17.750  3.6260e-03
12.500  18.000  3.8068e-03
12.500  18.250  3.8835e-03
12.500  18.500  3.9187e-03
12.500  18.750  4.1049e-03
12.500  19.000  4.2331e-03
12.500  19.250  4.3572e-03
12.500  19.500  4.5810e-03
12.500  19.750  5.0357e-03
12.500  20.000  5.8304e-03
12.500  20.250  7.0531e-03
12.500  20.500  8.9854e-03
12.500  20.750  1.2162e-02
12.500  21.000  1.7607e-02
12.500  21.250  2.7601e-02
12.500  21.500  4.5419e-02
12.500  21.750  6.0625e-02
12.500  22.000  7.0010e-02
12.500  22.250  8.1323e-02
12.500  22.500  8.8104e-02
12.500  22.750  8.5149e-02
12.500  23.000  7.5367e-02
12.500  23.250  6.6002e-02
12.500  23.500  5.7807e-02
12.500  23.750  5.2212e-02
12.500  24.000  4.8295e-02
12.750  17.000  1.9465e-03
12.750  17.250  2.3272e-03
12.750  17.500  2.6648e-03
12.750  17.750  2.9287e-03
12.750  18.000  3.1537e-03
12.750  18.250  3.3477e-03
12.750  18.500  3.5016e-03
12.750  18.750  3.6286e-03
12.750  19.000  3.7401e-03
12.750  19.250  3.9612e-03
12.750  19.500  4.1855e-03
12.750  19.750  4.4551e-03
12.750  20.000  4.9368e-03
12.750  20.250  5.7910e-03
12.750  20.500  7.0985e-03
12.750  20.750  9.1930e-03
12.750  21.000  1.2713e-02
12.750  21.250  1.8843e-02
12.750  21.500  2.9710e-02
12.750  21.750  5.1051e-02
12.750  22.000  6.6799e-02
12.750  22.250  7.7562e-02
12.750  22.500  8.9647e-02
12.750  22.750  9.4447e-02
12.750  23.000  8.8249e-02
12.750  23.250  7.6892e-02
12.750  23.500  6.6429e-02
12.750  23.750  5.7821e-02
12.750  24.000  5.2209e-02
13.000  17.000  2.1137e-03
13.000  17.250  1.8986e-03
13.000  17.500  2.0388e-03
13.000  17.750  2.2661e-03
13.000  18.000  2.5156e-03
13.000  18.250  2.7753e-03
13.000  18.500  3.0152e-03
13.000  18.750  3.2237e-03
13.000  19.000  3.4044e-03
13.000  19.250  3.5576e-03
13.000  19.500  3.6900e-03
13.000  19.750  3.9933e-03
13.000  20.000  4.3142e-03
13.000  20.250  4.8339e-03
13.000  20.500  5.7455e-03
13.000  20.750  7.2000e-03
13.000  21.000  9.5569e-03
13.000  21.250  1.3646e-02
13.000  21.500  2.0525e-02
13.000  21.750  3.2722e-02
13.000  22.000  5.7150e-02
13.000  22.250  7.3458e-02
13.000  22.500  8.5427e-02
13.000  22.750  9.7567e-02
13.000  23.000  1.0077e-01
13.000  23.250  9.1777e-02
13.000  23.500  7.8675e-02
13.000  23.750  6.6816e-02
13.000  24.000  5.7851e-02
13.250  17.000  1.8423e-03
13.250  17.250  1.9011e-03
13.250  17.500  2.4523e-03
13.250  17.750  3.5706e-03
13.250  18.000  5.2262e-03
13.250  18.250  7.3893e-03
13.250  18.500  1.0030e-02
13.250  18.750  1.3119e-02
13.250  19.000  1.6626e-02
13.250  19.250  2.0521e-02
13.250  19.500  2.4775e-02
13.250  19.750  2.9358e-02
13.250  20.000  3.4240e-02
13.250  20.250  3.9391e-02
13.250  20.500  4.4782e-02
13.250  20.750  5.0382e-02
13.250  21.000  5.6163e-02
13.250  21.250  6.2093e-02
13.250  21.500  6.8144e-02
13.250  21.750  7.4286e-02
13.250  22.000  8.0488e-02
13.250  22.250  8.6721e-02
13.250  22.500  9.2956e-02
13.250  22.750  9.9162e-02
13.250  23.000  1.0531e-01
13.250  23.250  1.0764e-01
13.250  23.500  9.5136e-02
13.250  23.750  8.0056e-02
13.250  24.000  6.6996e-02
13.500  17.000  1.6783e-03
13.500  17.250  1.6614e-03
13.500  17.500  2.2066e-03
13.500  17.750  3.3955e-03
13.500  18.000  5.1895e-03
13.500  18.250  7.5501e-03
13.500  18.500  1.0439e-02
13.500  18.750  1.3817e-02
13.500  19.000  1.7646e-02
13.500  19.250  2.1887e-02
13.500  19.500  2.6502e-02
13.500  19.750  3.1453e-02
13.500  20.000  3.6700e-02
13.500  20.250  4.2205e-02
13.500  20.500  4.7930e-02
13.500  20.750  5.3836e-02
13.500  21.000  5.9884e-02
13.500  21.250  6.6036e-02
13.500  21.500  7.2254e-02
13.500  21.750  7.8499e-02
13.500  22.000  8.4731e-02
13.500  22.250  9.0914e-02
13.500  22.500  9.7008e-02
13.500  22.750  1.0297e-01
13.500  23.000  1.0877e-01
13.500  23.250  1.1437e-01
13.500  23.500  1.1516e-01
13.500  23.750  9.8486e-02
13.500  24.000  8.1264e-02
13.750  17.000  1.5776e-03
13.750  17.250  1.5434e-03
13.750  17.500  2.2609e-03
13.750  17.750  3.8286e-03
13.750  18.000  6.1816e-03
13.750  18.250  9.2552e-03
13.750  18.500  1.2984e-02
13.750  18.750  1.7304e-02
13.750  19.000  2.2150e-02
13.750  19.250  2.7457e-02
13.750  19.500  3.3161e-02
13.750  19.750  3.9196e-02
13.750  20.000  4.5497e-02
13.750  20.250  5.2000e-02
13.750  20.500  5.8640e-02
13.750  20.750  6.5353e-02
13.750  21.000  7.2072e-02
13.750  21.250  7.8734e-02
13.750  21.500  8.5273e-02
13.750  21.750  9.1626e-02
13.750  22.000  9.7726e-02
13.750  22.250  1.0351e-01
13.750  22.500  1.0891e-01
13.750  22.750  1.1386e-01
13.750  23.000  1.1831e-01
13.750  23.250  1.2217e-01
13.750  23.500  1.2540e-01
13.750  23.750  1.2322e-01
13.750  24.000  1.0161e-01
14.000  17.000  1.5177e-03
14.000  17.250  1.5244e-03
14.000  17.500  1.2255e-03
14.000  17.750  1.1769e-03
14.000  18.000  1.2485e-03
14.000  18.250  1.3588e-03
14.000  18.500  1.5037e-03
14.000  18.750  1.6792e-03
14.000  19.000  1.8811e-03
14.000  19.250  2.1055e-03
14.000  19.500  2.3481e-03
14.000  19.750  2.5711e-03
14.000  20.000  2.7910e-03
14.000  20.250  3.6146e-03
14.000  20.500  5.2964e-03
14.000  20.750  7.9550e-03
14.000  21.000  1.1709e-02
14.000  21.250  1.6678e-02
14.000  21.500  2.2980e-02
14.000  21.750  3.0734e-02
14.000  22.000  4.0058e-02
14.000  22.250  5.1072e-02
14.000  22.500  6.3894e-02
14.000  22.750  7.8643e-02
14.000  23.000  9.5438e-02
14.000  23.250  1.1374e-01
14.000  23.500  1.3042e-01
14.000  23.750  1.3922e-01
14.000  24.000  1.3074e-01
