InwC 1064.34A  relative to Inci 1215.00A scaled to 1215A.
Hden   Phi(H)  Eq_Width (A)
7.000  17.000  4.1685e-02
7.000  17.250  4.2913e-02
7.000  17.500  4.4090e-02
7.000  17.750  4.4109e-02
7.000  18.000  4.4130e-02
7.000  18.250  4.4154e-02
7.000  18.500  4.4167e-02
7.000  18.750  4.4172e-02
7.000  19.000  4.4177e-02
7.000  19.250  4.4181e-02
7.000  19.500  4.4183e-02
7.000  19.750  4.4183e-02
7.000  20.000  4.4184e-02
7.000  20.250  4.4184e-02
7.000  20.500  4.4184e-02
7.000  20.750  4.4184e-02
7.000  21.000  4.4184e-02
7.000  21.250  4.4184e-02
7.000  21.500  4.4185e-02
7.000  21.750  4.4185e-02
7.000  22.000  4.4186e-02
7.000  22.250  4.4186e-02
7.000  22.500  4.4186e-02
7.000  22.750  4.4187e-02
7.000  23.000  4.4187e-02
7.000  23.250  4.4187e-02
7.000  23.500  4.4187e-02
7.000  23.750  4.4187e-02
7.000  24.000  4.4187e-02
7.250  17.000  3.6446e-02
7.250  17.250  4.1611e-02
7.250  17.500  4.2923e-02
7.250  17.750  4.4090e-02
7.250  18.000  4.4109e-02
7.250  18.250  4.4130e-02
7.250  18.500  4.4154e-02
7.250  18.750  4.4167e-02
7.250  19.000  4.4172e-02
7.250  19.250  4.4177e-02
7.250  19.500  4.4181e-02
7.250  19.750  4.4183e-02
7.250  20.000  4.4183e-02
7.250  20.250  4.4184e-02
7.250  20.500  4.4184e-02
7.250  20.750  4.4184e-02
7.250  21.000  4.4184e-02
7.250  21.250  4.4184e-02
7.250  21.500  4.4184e-02
7.250  21.750  4.4184e-02
7.250  22.000  4.4184e-02
7.250  22.250  4.4184e-02
7.250  22.500  4.4185e-02
7.250  22.750  4.4185e-02
7.250  23.000  4.4185e-02
7.250  23.250  4.4185e-02
7.250  23.500  4.4185e-02
7.250  23.750  4.4185e-02
7.250  24.000  4.4186e-02
7.500  17.000  2.4805e-02
7.500  17.250  3.6153e-02
7.500  17.500  4.1556e-02
7.500  17.750  4.2932e-02
7.500  18.000  4.4090e-02
7.500  18.250  4.4110e-02
7.500  18.500  4.4130e-02
7.500  18.750  4.4154e-02
7.500  19.000  4.4167e-02
7.500  19.250  4.4172e-02
7.500  19.500  4.4177e-02
7.500  19.750  4.4181e-02
7.500  20.000  4.4183e-02
7.500  20.250  4.4183e-02
7.500  20.500  4.4184e-02
7.500  20.750  4.4184e-02
7.500  21.000  4.4184e-02
7.500  21.250  4.4184e-02
7.500  21.500  4.4184e-02
7.500  21.750  4.4184e-02
7.500  22.000  4.4184e-02
7.500  22.250  4.4184e-02
7.500  22.500  4.4184e-02
7.500  22.750  4.4184e-02
7.500  23.000  4.4184e-02
7.500  23.250  4.4184e-02
7.500  23.500  4.4187e-02
7.500  23.750  4.4184e-02
7.500  24.000  4.4184e-02
7.750  17.000  1.6167e-02
7.750  17.250  2.4268e-02
7.750  17.500  3.5935e-02
7.750  17.750  4.1514e-02
7.750  18.000  4.2942e-02
7.750  18.250  4.4090e-02
7.750  18.500  4.4110e-02
7.750  18.750  4.4130e-02
7.750  19.000  4.4154e-02
7.750  19.250  4.4167e-02
7.750  19.500  4.4172e-02
7.750  19.750  4.4177e-02
7.750  20.000  4.4181e-02
7.750  20.250  4.4183e-02
7.750  20.500  4.4183e-02
7.750  20.750  4.4184e-02
7.750  21.000  4.4184e-02
7.750  21.250  4.4184e-02
7.750  21.500  4.4184e-02
7.750  21.750  4.4184e-02
7.750  22.000  4.4184e-02
7.750  22.250  4.4184e-02
7.750  22.500  4.4184e-02
7.750  22.750  4.4184e-02
7.750  23.000  4.4184e-02
7.750  23.250  4.4184e-02
7.750  23.500  4.4184e-02
7.750  23.750  4.4184e-02
7.750  24.000  4.4184e-02
8.000  17.000  1.1216e-02
8.000  17.250  1.5578e-02
8.000  17.500  2.3585e-02
8.000  17.750  3.5515e-02
8.000  18.000  4.1560e-02
8.000  18.250  4.2939e-02
8.000  18.500  4.4090e-02
8.000  18.750  4.4110e-02
8.000  19.000  4.4130e-02
8.000  19.250  4.4155e-02
8.000  19.500  4.4167e-02
8.000  19.750  4.4172e-02
8.000  20.000  4.4177e-02
8.000  20.250  4.4181e-02
8.000  20.500  4.4183e-02
8.000  20.750  4.4183e-02
8.000  21.000  4.4184e-02
8.000  21.250  4.4184e-02
8.000  21.500  4.4184e-02
8.000  21.750  4.4184e-02
8.000  22.000  4.4184e-02
8.000  22.250  4.4184e-02
8.000  22.500  4.4184e-02
8.000  22.750  4.4184e-02
8.000  23.000  4.4184e-02
8.000  23.250  4.4185e-02
8.000  23.500  4.4184e-02
8.000  23.750  4.4184e-02
8.000  24.000  4.4184e-02
8.250  17.000  8.7026e-03
8.250  17.250  1.0877e-02
8.250  17.500  1.5189e-02
8.250  17.750  2.3216e-02
8.250  18.000  3.5280e-02
8.250  18.250  4.1508e-02
8.250  18.500  4.2947e-02
8.250  18.750  4.4090e-02
8.250  19.000  4.4110e-02
8.250  19.250  4.4130e-02
8.250  19.500  4.4154e-02
8.250  19.750  4.4167e-02
8.250  20.000  4.4172e-02
8.250  20.250  4.4177e-02
8.250  20.500  4.4181e-02
8.250  20.750  4.4183e-02
8.250  21.000  4.4183e-02
8.250  21.250  4.4184e-02
8.250  21.500  4.4184e-02
8.250  21.750  4.4184e-02
8.250  22.000  4.4184e-02
8.250  22.250  4.4184e-02
8.250  22.500  4.4184e-02
8.250  22.750  4.4184e-02
8.250  23.000  4.4184e-02
8.250  23.250  4.4184e-02
8.250  23.500  4.4184e-02
8.250  23.750  4.4184e-02
8.250  24.000  4.4184e-02
8.500  17.000  7.4448e-03
8.500  17.250  8.4253e-03
8.500  17.500  1.0591e-02
8.500  17.750  1.4839e-02
8.500  18.000  2.2936e-02
8.500  18.250  3.5141e-02
8.500  18.500  4.1407e-02
8.500  18.750  4.2954e-02
8.500  19.000  4.4090e-02
8.500  19.250  4.4110e-02
8.500  19.500  4.4131e-02
8.500  19.750  4.4154e-02
8.500  20.000  4.4167e-02
8.500  20.250  4.4172e-02
8.500  20.500  4.4177e-02
8.500  20.750  4.4181e-02
8.500  21.000  4.4183e-02
8.500  21.250  4.4183e-02
8.500  21.500  4.4184e-02
8.500  21.750  4.4184e-02
8.500  22.000  4.4184e-02
8.500  22.250  4.4184e-02
8.500  22.500  4.4184e-02
8.500  22.750  4.4184e-02
8.500  23.000  4.4184e-02
8.500  23.250  4.4184e-02
8.500  23.500  4.4184e-02
8.500  23.750  4.4184e-02
8.500  24.000  4.4184e-02
8.750  17.000  6.8863e-03
8.750  17.250  7.1960e-03
8.750  17.500  8.1995e-03
8.750  17.750  1.0353e-02
8.750  18.000  1.4669e-02
8.750  18.250  2.3033e-02
8.750  18.500  3.5253e-02
8.750  18.750  4.1337e-02
8.750  19.000  4.2960e-02
8.750  19.250  4.4090e-02
8.750  19.500  4.4111e-02
8.750  19.750  4.4131e-02
8.750  20.000  4.4155e-02
8.750  20.250  4.4167e-02
8.750  20.500  4.4172e-02
8.750  20.750  4.4177e-02
8.750  21.000  4.4181e-02
8.750  21.250  4.4183e-02
8.750  21.500  4.4183e-02
8.750  21.750  4.4184e-02
8.750  22.000  4.4184e-02
8.750  22.250  4.4184e-02
8.750  22.500  4.4184e-02
8.750  22.750  4.4184e-02
8.750  23.000  4.4184e-02
8.750  23.250  4.4184e-02
8.750  23.500  4.4184e-02
8.750  23.750  4.4184e-02
8.750  24.000  4.4184e-02
9.000  17.000  6.7381e-03
9.000  17.250  6.6431e-03
9.000  17.500  6.9909e-03
9.000  17.750  8.0277e-03
9.000  18.000  1.0277e-02
9.000  18.250  1.4920e-02
9.000  18.500  2.4053e-02
9.000  18.750  3.6571e-02
9.000  19.000  4.1332e-02
9.000  19.250  4.2963e-02
9.000  19.500  4.4090e-02
9.000  19.750  4.4111e-02
9.000  20.000  4.4131e-02
9.000  20.250  4.4155e-02
9.000  20.500  4.4167e-02
9.000  20.750  4.4172e-02
9.000  21.000  4.4177e-02
9.000  21.250  4.4181e-02
9.000  21.500  4.4183e-02
9.000  21.750  4.4183e-02
9.000  22.000  4.4183e-02
9.000  22.250  4.4184e-02
9.000  22.500  4.4184e-02
9.000  22.750  4.4184e-02
9.000  23.000  4.4184e-02
9.000  23.250  4.4184e-02
9.000  23.500  4.4184e-02
9.000  23.750  4.4184e-02
9.000  24.000  4.4184e-02
9.250  17.000  6.8526e-03
9.250  17.250  6.4834e-03
9.250  17.500  6.4440e-03
9.250  17.750  6.8779e-03
9.250  18.000  8.1387e-03
9.250  18.250  1.0763e-02
9.250  18.500  1.6126e-02
9.250  18.750  2.6425e-02
9.250  19.000  3.8387e-02
9.250  19.250  4.1326e-02
9.250  19.500  4.2960e-02
9.250  19.750  4.4089e-02
9.250  20.000  4.4111e-02
9.250  20.250  4.4131e-02
9.250  20.500  4.4154e-02
9.250  20.750  4.4167e-02
9.250  21.000  4.4172e-02
9.250  21.250  4.4177e-02
9.250  21.500  4.4173e-02
9.250  21.750  4.4170e-02
9.250  22.000  4.4169e-02
9.250  22.250  4.4171e-02
9.250  22.500  4.4183e-02
9.250  22.750  4.4183e-02
9.250  23.000  4.4184e-02
9.250  23.250  4.4184e-02
9.250  23.500  4.4184e-02
9.250  23.750  4.4184e-02
9.250  24.000  4.4184e-02
9.500  17.000  7.1288e-03
9.500  17.250  6.5748e-03
9.500  17.500  6.2893e-03
9.500  17.750  6.4091e-03
9.500  18.000  7.0981e-03
9.500  18.250  8.2672e-03
9.500  18.500  9.8384e-03
9.500  18.750  1.1756e-02
9.500  19.000  1.3964e-02
9.500  19.250  1.6407e-02
9.500  19.500  1.9029e-02
9.500  19.750  2.1774e-02
9.500  20.000  2.4587e-02
9.500  20.250  2.7411e-02
9.500  20.500  3.0192e-02
9.500  20.750  3.2872e-02
9.500  21.000  3.5398e-02
9.500  21.250  3.7711e-02
9.500  21.500  3.9758e-02
9.500  21.750  4.1482e-02
9.500  22.000  4.2828e-02
9.500  22.250  4.3739e-02
9.500  22.500  4.4160e-02
9.500  22.750  4.4160e-02
9.500  23.000  4.4160e-02
9.500  23.250  4.4160e-02
9.500  23.500  4.4166e-02
9.500  23.750  4.4166e-02
9.500  24.000  4.4166e-02
9.750  17.000  7.5087e-03
9.750  17.250  6.8212e-03
9.750  17.500  6.3676e-03
9.750  17.750  6.2787e-03
9.750  18.000  6.6720e-03
9.750  18.250  7.6770e-03
9.750  18.500  9.2076e-03
9.750  18.750  1.1176e-02
9.750  19.000  1.3510e-02
9.750  19.250  1.6137e-02
9.750  19.500  1.8985e-02
9.750  19.750  2.1981e-02
9.750  20.000  2.5053e-02
9.750  20.250  2.8128e-02
9.750  20.500  3.1134e-02
9.750  20.750  3.3999e-02
9.750  21.000  3.6650e-02
9.750  21.250  3.9015e-02
9.750  21.500  4.1021e-02
9.750  21.750  4.2596e-02
9.750  22.000  4.3667e-02
9.750  22.250  4.4162e-02
9.750  22.500  4.4159e-02
9.750  22.750  4.4160e-02
9.750  23.000  4.4161e-02
9.750  23.250  4.4161e-02
9.750  23.500  4.4160e-02
9.750  23.750  4.4160e-02
9.750  24.000  4.4160e-02
10.000  17.000  7.9300e-03
10.000  17.250  7.1477e-03
10.000  17.500  6.5572e-03
10.000  17.750  5.9380e-03
10.000  18.000  5.6165e-03
10.000  18.250  6.0924e-03
10.000  18.500  7.8654e-03
10.000  18.750  1.1435e-02
10.000  19.000  1.6728e-02
10.000  19.250  2.1873e-02
10.000  19.500  2.6404e-02
10.000  19.750  3.0350e-02
10.000  20.000  3.3736e-02
10.000  20.250  3.6593e-02
10.000  20.500  3.8948e-02
10.000  20.750  4.0828e-02
10.000  21.000  4.2262e-02
10.000  21.250  4.3279e-02
10.000  21.500  4.3904e-02
10.000  21.750  4.4168e-02
10.000  22.000  4.4165e-02
10.000  22.250  4.4167e-02
10.000  22.500  4.4165e-02
10.000  22.750  4.4162e-02
10.000  23.000  4.4159e-02
10.000  23.250  4.4160e-02
10.000  23.500  4.4160e-02
10.000  23.750  4.4161e-02
10.000  24.000  4.4161e-02
10.250  17.000  8.3463e-03
10.250  17.250  7.5137e-03
10.250  17.500  6.8460e-03
10.250  17.750  6.0481e-03
10.250  18.000  5.4206e-03
10.250  18.250  5.4536e-03
10.250  18.500  6.6371e-03
10.250  18.750  9.4612e-03
10.250  19.000  1.4416e-02
10.250  19.250  2.1307e-02
10.250  19.500  2.7798e-02
10.250  19.750  3.3258e-02
10.250  20.000  3.7651e-02
10.250  20.250  4.0942e-02
10.250  20.500  4.3096e-02
10.250  20.750  4.4077e-02
10.250  21.000  4.4109e-02
10.250  21.250  4.4131e-02
10.250  21.500  4.4154e-02
10.250  21.750  4.4166e-02
10.250  22.000  4.4171e-02
10.250  22.250  4.4170e-02
10.250  22.500  4.4168e-02
10.250  22.750  4.4167e-02
10.250  23.000  4.4165e-02
10.250  23.250  4.4162e-02
10.250  23.500  4.4160e-02
10.250  23.750  4.4160e-02
10.250  24.000  4.4160e-02
10.500  17.000  8.6969e-03
10.500  17.250  7.8612e-03
10.500  17.500  7.1650e-03
10.500  17.750  6.2689e-03
10.500  18.000  5.4092e-03
10.500  18.250  5.0079e-03
10.500  18.500  5.4866e-03
10.500  18.750  7.2673e-03
10.500  19.000  1.0772e-02
10.500  19.250  1.6422e-02
10.500  19.500  2.3855e-02
10.500  19.750  3.0317e-02
10.500  20.000  3.5259e-02
10.500  20.250  3.8879e-02
10.500  20.500  4.1376e-02
10.500  20.750  4.2947e-02
10.500  21.000  4.3791e-02
10.500  21.250  4.4107e-02
10.500  21.500  4.4130e-02
10.500  21.750  4.4154e-02
10.500  22.000  4.4167e-02
10.500  22.250  4.4172e-02
10.500  22.500  4.4175e-02
10.500  22.750  4.4168e-02
10.500  23.000  4.4169e-02
10.500  23.250  4.4167e-02
10.500  23.500  4.4165e-02
10.500  23.750  4.4164e-02
10.500  24.000  4.4163e-02
10.750  17.000  8.9135e-03
10.750  17.250  8.1338e-03
10.750  17.500  7.4566e-03
10.750  17.750  6.4347e-03
10.750  18.000  5.2658e-03
10.750  18.250  4.3563e-03
10.750  18.500  4.1125e-03
10.750  18.750  4.9410e-03
10.750  19.000  7.2479e-03
10.750  19.250  1.1440e-02
10.750  19.500  1.7923e-02
10.750  19.750  2.6137e-02
10.750  20.000  3.2647e-02
10.750  20.250  3.7023e-02
10.750  20.500  3.9829e-02
10.750  20.750  4.1629e-02
10.750  21.000  4.2985e-02
10.750  21.250  4.4065e-02
10.750  21.500  4.4105e-02
10.750  21.750  4.4129e-02
10.750  22.000  4.4154e-02
10.750  22.250  4.4167e-02
10.750  22.500  4.4172e-02
10.750  22.750  4.4177e-02
10.750  23.000  4.4171e-02
10.750  23.250  4.4169e-02
10.750  23.500  4.4169e-02
10.750  23.750  4.4168e-02
10.750  24.000  4.4167e-02
11.000  17.000  8.9115e-03
11.000  17.250  8.2690e-03
11.000  17.500  7.6519e-03
11.000  17.750  6.5693e-03
11.000  18.000  5.1911e-03
11.000  18.250  3.8975e-03
11.000  18.500  3.0690e-03
11.000  18.750  3.0858e-03
11.000  19.000  4.3285e-03
11.000  19.250  7.1774e-03
11.000  19.500  1.2013e-02
11.000  19.750  1.9215e-02
11.000  20.000  2.8016e-02
11.000  20.250  3.4319e-02
11.000  20.500  3.7940e-02
11.000  20.750  3.9962e-02
11.000  21.000  4.1467e-02
11.000  21.250  4.3113e-02
11.000  21.500  4.4057e-02
11.000  21.750  4.4102e-02
11.000  22.000  4.4128e-02
11.000  22.250  4.4153e-02
11.000  22.500  4.4166e-02
11.000  22.750  4.4172e-02
11.000  23.000  4.4177e-02
11.000  23.250  4.4177e-02
11.000  23.500  4.4170e-02
11.000  23.750  4.4170e-02
11.000  24.000  4.4169e-02
11.250  17.000  8.5472e-03
11.250  17.250  8.1710e-03
11.250  17.500  7.6643e-03
11.250  17.750  6.6039e-03
11.250  18.000  5.1536e-03
11.250  18.250  3.6529e-03
11.250  18.500  2.4416e-03
11.250  18.750  1.8593e-03
11.250  19.000  2.2458e-03
11.250  19.250  3.9408e-03
11.250  19.500  7.2838e-03
11.250  19.750  1.2615e-02
11.250  20.000  2.0273e-02
11.250  20.250  2.9484e-02
11.250  20.500  3.6215e-02
11.250  20.750  4.0117e-02
11.250  21.000  4.2042e-02
11.250  21.250  4.2843e-02
11.250  21.500  4.3370e-02
11.250  21.750  4.4046e-02
11.250  22.000  4.4098e-02
11.250  22.250  4.4127e-02
11.250  22.500  4.4152e-02
11.250  22.750  4.4166e-02
11.250  23.000  4.4172e-02
11.250  23.250  4.4177e-02
11.250  23.500  4.4180e-02
11.250  23.750  4.4172e-02
11.250  24.000  4.4170e-02
11.500  17.000  7.7440e-03
11.500  17.250  7.7319e-03
11.500  17.500  7.4145e-03
11.500  17.750  7.2573e-03
11.500  18.000  6.5039e-03
11.500  18.250  5.2137e-03
11.500  18.500  3.7657e-03
11.500  18.750  2.5388e-03
11.500  19.000  1.9120e-03
11.500  19.250  2.2642e-03
11.500  19.500  3.9743e-03
11.500  19.750  7.4214e-03
11.500  20.000  1.2984e-02
11.500  20.250  2.1042e-02
11.500  20.500  3.0588e-02
11.500  20.750  3.6685e-02
11.500  21.000  3.9452e-02
11.500  21.250  4.0620e-02
11.500  21.500  4.1869e-02
11.500  21.750  4.3716e-02
11.500  22.000  4.4033e-02
11.500  22.250  4.4094e-02
11.500  22.500  4.4125e-02
11.500  22.750  4.4152e-02
11.500  23.000  4.4166e-02
11.500  23.250  4.4172e-02
11.500  23.500  4.4177e-02
11.500  23.750  4.4181e-02
11.500  24.000  4.4178e-02
11.750  17.000  6.4249e-03
11.750  17.250  6.8300e-03
11.750  17.500  6.8065e-03
11.750  17.750  6.7916e-03
11.750  18.000  6.9812e-03
11.750  18.250  7.1993e-03
11.750  18.500  7.3835e-03
11.750  18.750  7.5678e-03
11.750  19.000  7.8267e-03
11.750  19.250  8.2606e-03
11.750  19.500  8.9666e-03
11.750  19.750  1.0047e-02
11.750  20.000  1.1952e-02
11.750  20.250  1.5391e-02
11.750  20.500  2.1542e-02
11.750  20.750  3.1345e-02
11.750  21.000  3.7942e-02
11.750  21.250  3.9748e-02
11.750  21.500  4.0798e-02
11.750  21.750  4.2297e-02
11.750  22.000  4.3896e-02
11.750  22.250  4.4020e-02
11.750  22.500  4.4088e-02
11.750  22.750  4.4122e-02
11.750  23.000  4.4151e-02
11.750  23.250  4.4166e-02
11.750  23.500  4.4172e-02
11.750  23.750  4.4177e-02
11.750  24.000  4.4181e-02
12.000  17.000  4.7618e-03
12.000  17.250  5.4668e-03
12.000  17.500  5.7796e-03
12.000  17.750  6.0319e-03
12.000  18.000  6.3840e-03
12.000  18.250  6.6765e-03
12.000  18.500  6.8724e-03
12.000  18.750  7.0470e-03
12.000  19.000  7.2737e-03
12.000  19.250  7.5984e-03
12.000  19.500  8.0923e-03
12.000  19.750  8.8388e-03
12.000  20.000  9.9635e-03
12.000  20.250  1.1921e-02
12.000  20.500  1.5440e-02
12.000  20.750  2.1752e-02
12.000  21.000  3.1888e-02
12.000  21.250  3.8117e-02
12.000  21.500  3.9833e-02
12.000  21.750  4.1056e-02
12.000  22.000  4.2761e-02
12.000  22.250  4.3879e-02
12.000  22.500  4.4004e-02
12.000  22.750  4.4079e-02
12.000  23.000  4.4119e-02
12.000  23.250  4.4150e-02
12.000  23.500  4.4166e-02
12.000  23.750  4.4172e-02
12.000  24.000  4.4177e-02
12.250  17.000  3.1317e-03
12.250  17.250  3.9182e-03
12.250  17.500  4.5047e-03
12.250  17.750  5.0553e-03
12.250  18.000  5.5312e-03
12.250  18.250  5.8406e-03
12.250  18.500  6.0607e-03
12.250  18.750  6.3097e-03
12.250  19.000  6.6011e-03
12.250  19.250  6.9322e-03
12.250  19.500  7.3343e-03
12.250  19.750  7.8798e-03
12.250  20.000  8.6523e-03
12.250  20.250  9.7848e-03
12.250  20.500  1.1755e-02
12.250  20.750  1.5294e-02
12.250  21.000  2.1760e-02
12.250  21.250  3.2405e-02
12.250  21.500  3.8202e-02
12.250  21.750  3.9978e-02
12.250  22.000  4.1396e-02
12.250  22.250  4.3209e-02
12.250  22.500  4.3860e-02
12.250  22.750  4.3989e-02
12.250  23.000  4.4070e-02
12.250  23.250  4.4114e-02
12.250  23.500  4.4148e-02
12.250  23.750  4.4165e-02
12.250  24.000  4.4171e-02
12.500  17.000  1.9950e-03
12.500  17.250  2.6834e-03
12.500  17.500  3.3466e-03
12.500  17.750  3.9218e-03
12.500  18.000  4.3442e-03
12.500  18.250  4.6719e-03
12.500  18.500  4.9919e-03
12.500  18.750  5.3671e-03
12.500  19.000  5.7718e-03
12.500  19.250  6.1849e-03
12.500  19.500  6.6033e-03
12.500  19.750  7.0568e-03
12.500  20.000  7.6281e-03
12.500  20.250  8.3933e-03
12.500  20.500  9.5194e-03
12.500  20.750  1.1473e-02
12.500  21.000  1.5031e-02
12.500  21.250  2.1727e-02
12.500  21.500  3.2822e-02
12.500  21.750  3.8445e-02
12.500  22.000  4.0199e-02
12.500  22.250  4.1788e-02
12.500  22.500  4.3469e-02
12.500  22.750  4.3844e-02
12.500  23.000  4.3977e-02
12.500  23.250  4.4061e-02
12.500  23.500  4.4109e-02
12.500  23.750  4.4146e-02
12.500  24.000  4.4165e-02
12.750  17.000  1.3441e-03
12.750  17.250  1.8444e-03
12.750  17.500  2.3002e-03
12.750  17.750  2.6704e-03
12.750  18.000  3.0235e-03
12.750  18.250  3.4051e-03
12.750  18.500  3.8216e-03
12.750  18.750  4.2897e-03
12.750  19.000  4.8040e-03
12.750  19.250  5.3206e-03
12.750  19.500  5.8098e-03
12.750  19.750  6.2786e-03
12.750  20.000  6.7563e-03
12.750  20.250  7.3354e-03
12.750  20.500  8.0729e-03
12.750  20.750  9.1682e-03
12.750  21.000  1.1099e-02
12.750  21.250  1.4730e-02
12.750  21.500  2.1577e-02
12.750  21.750  3.3682e-02
12.750  22.000  3.8755e-02
12.750  22.250  4.0464e-02
12.750  22.500  4.2219e-02
12.750  22.750  4.3579e-02
12.750  23.000  4.3835e-02
12.750  23.250  4.3967e-02
12.750  23.500  4.4051e-02
12.750  23.750  4.4104e-02
12.750  24.000  4.4143e-02
13.000  17.000  8.4263e-04
13.000  17.250  1.1597e-03
13.000  17.500  1.4163e-03
13.000  17.750  1.6599e-03
13.000  18.000  1.9494e-03
13.000  18.250  2.3024e-03
13.000  18.500  2.7199e-03
13.000  18.750  3.2053e-03
13.000  19.000  3.7578e-03
13.000  19.250  4.3434e-03
13.000  19.500  4.9144e-03
13.000  19.750  5.4453e-03
13.000  20.000  5.9353e-03
13.000  20.250  6.4252e-03
13.000  20.500  6.9881e-03
13.000  20.750  7.6979e-03
13.000  21.000  8.7597e-03
13.000  21.250  1.0707e-02
13.000  21.500  1.4417e-02
13.000  21.750  2.1717e-02
13.000  22.000  3.4604e-02
13.000  22.250  3.9019e-02
13.000  22.500  4.0751e-02
13.000  22.750  4.2512e-02
13.000  23.000  4.3615e-02
13.000  23.250  4.3829e-02
13.000  23.500  4.3959e-02
13.000  23.750  4.4042e-02
13.000  24.000  4.4096e-02
13.250  17.000  5.3786e-04
13.250  17.250  7.3959e-04
13.250  17.500  9.0848e-04
13.250  17.750  1.0310e-03
13.250  18.000  1.2157e-03
13.250  18.250  1.4746e-03
13.250  18.500  1.8134e-03
13.250  18.750  2.2342e-03
13.250  19.000  2.7444e-03
13.250  19.250  3.3291e-03
13.250  19.500  3.9433e-03
13.250  19.750  4.5433e-03
13.250  20.000  5.0942e-03
13.250  20.250  5.5853e-03
13.250  20.500  6.0584e-03
13.250  20.750  6.5879e-03
13.250  21.000  7.2555e-03
13.250  21.250  8.3007e-03
13.250  21.500  1.0208e-02
13.250  21.750  1.3984e-02
13.250  22.000  2.2074e-02
13.250  22.250  3.5588e-02
13.250  22.500  3.9169e-02
13.250  22.750  4.0810e-02
13.250  23.000  4.2463e-02
13.250  23.250  4.3611e-02
13.250  23.500  4.3821e-02
13.250  23.750  4.3948e-02
13.250  24.000  4.4032e-02
13.500  17.000  3.5844e-04
13.500  17.250  4.7959e-04
13.500  17.500  5.8370e-04
13.500  17.750  6.5959e-04
13.500  18.000  7.6173e-04
13.500  18.250  9.2716e-04
13.500  18.500  1.1597e-03
13.500  18.750  1.4733e-03
13.500  19.000  1.8790e-03
13.500  19.250  2.3808e-03
13.500  19.500  2.9547e-03
13.500  19.750  3.5624e-03
13.500  20.000  4.1518e-03
13.500  20.250  4.6966e-03
13.500  20.500  5.1747e-03
13.500  20.750  5.6288e-03
13.500  21.000  6.1263e-03
13.500  21.250  6.7495e-03
13.500  21.500  7.7658e-03
13.500  21.750  9.6712e-03
13.500  22.000  1.3727e-02
13.500  22.250  2.2774e-02
13.500  22.500  3.6258e-02
13.500  22.750  3.9210e-02
13.500  23.000  4.0733e-02
13.500  23.250  4.2430e-02
13.500  23.500  4.3598e-02
13.500  23.750  4.3804e-02
13.500  24.000  4.3934e-02
13.750  17.000  2.5177e-04
13.750  17.250  3.2790e-04
13.750  17.500  3.9218e-04
13.750  17.750  4.3992e-04
13.750  18.000  4.9753e-04
13.750  18.250  5.9292e-04
13.750  18.500  7.3835e-04
13.750  18.750  9.4272e-04
13.750  19.000  1.2268e-03
13.750  19.250  1.6030e-03
13.750  19.500  2.0742e-03
13.750  19.750  2.6175e-03
13.750  20.000  3.1964e-03
13.750  20.250  3.7609e-03
13.750  20.500  4.2807e-03
13.750  20.750  4.7401e-03
13.750  21.000  5.1618e-03
13.750  21.250  5.6200e-03
13.750  21.500  6.2297e-03
13.750  21.750  7.1937e-03
13.750  22.000  9.1380e-03
13.750  22.250  1.3617e-02
13.750  22.500  2.4231e-02
13.750  22.750  3.6827e-02
13.750  23.000  3.9175e-02
13.750  23.250  4.0671e-02
13.750  23.500  4.2336e-02
13.750  23.750  4.3569e-02
13.750  24.000  4.3778e-02
14.000  17.000  1.8461e-04
14.000  17.250  2.3687e-04
14.000  17.500  2.7926e-04
14.000  17.750  3.0823e-04
14.000  18.000  3.4305e-04
14.000  18.250  3.9737e-04
14.000  18.500  4.8189e-04
14.000  18.750  6.0716e-04
14.000  19.000  7.8667e-04
14.000  19.250  1.0400e-03
14.000  19.500  1.3813e-03
14.000  19.750  1.8116e-03
14.000  20.000  2.3133e-03
14.000  20.250  2.8519e-03
14.000  20.500  3.3785e-03
14.000  20.750  3.8624e-03
14.000  21.000  4.2875e-03
14.000  21.250  4.6833e-03
14.000  21.500  5.1402e-03
14.000  21.750  5.6709e-03
14.000  22.000  6.6393e-03
14.000  22.250  8.8232e-03
14.000  22.500  1.4160e-02
14.000  22.750  2.6674e-02
14.000  23.000  3.7226e-02
14.000  23.250  3.9194e-02
14.000  23.500  4.0683e-02
14.000  23.750  4.2430e-02
14.000  24.000  4.3512e-02
