InwC 1035.92A  relative to Inci 1215.00A scaled to 1215A.
Hden   Phi(H)  Eq_Width (A)
7.000  17.000  4.1384e-02
7.000  17.250  4.2888e-02
7.000  17.500  4.4061e-02
7.000  17.750  4.4081e-02
7.000  18.000  4.4101e-02
7.000  18.250  4.4126e-02
7.000  18.500  4.4138e-02
7.000  18.750  4.4143e-02
7.000  19.000  4.4149e-02
7.000  19.250  4.4153e-02
7.000  19.500  4.4154e-02
7.000  19.750  4.4155e-02
7.000  20.000  4.4155e-02
7.000  20.250  4.4155e-02
7.000  20.500  4.4155e-02
7.000  20.750  4.4155e-02
7.000  21.000  4.4155e-02
7.000  21.250  4.4156e-02
7.000  21.500  4.4156e-02
7.000  21.750  4.4156e-02
7.000  22.000  4.4157e-02
7.000  22.250  4.4157e-02
7.000  22.500  4.4157e-02
7.000  22.750  4.4158e-02
7.000  23.000  4.4158e-02
7.000  23.250  4.4158e-02
7.000  23.500  4.4158e-02
7.000  23.750  4.4158e-02
7.000  24.000  4.4158e-02
7.250  17.000  3.3467e-02
7.250  17.250  4.1380e-02
7.250  17.500  4.2898e-02
7.250  17.750  4.4061e-02
7.250  18.000  4.4081e-02
7.250  18.250  4.4101e-02
7.250  18.500  4.4125e-02
7.250  18.750  4.4138e-02
7.250  19.000  4.4143e-02
7.250  19.250  4.4149e-02
7.250  19.500  4.4153e-02
7.250  19.750  4.4154e-02
7.250  20.000  4.4155e-02
7.250  20.250  4.4155e-02
7.250  20.500  4.4155e-02
7.250  20.750  4.4155e-02
7.250  21.000  4.4155e-02
7.250  21.250  4.4155e-02
7.250  21.500  4.4155e-02
7.250  21.750  4.4155e-02
7.250  22.000  4.4156e-02
7.250  22.250  4.4156e-02
7.250  22.500  4.4156e-02
7.250  22.750  4.4156e-02
7.250  23.000  4.4156e-02
7.250  23.250  4.4157e-02
7.250  23.500  4.4157e-02
7.250  23.750  4.4157e-02
7.250  24.000  4.4157e-02
7.500  17.000  2.2004e-02
7.500  17.250  3.3330e-02
7.500  17.500  4.1377e-02
7.500  17.750  4.2907e-02
7.500  18.000  4.4061e-02
7.500  18.250  4.4081e-02
7.500  18.500  4.4101e-02
7.500  18.750  4.4126e-02
7.500  19.000  4.4138e-02
7.500  19.250  4.4143e-02
7.500  19.500  4.4149e-02
7.500  19.750  4.4153e-02
7.500  20.000  4.4154e-02
7.500  20.250  4.4155e-02
7.500  20.500  4.4155e-02
7.500  20.750  4.4155e-02
7.500  21.000  4.4155e-02
7.500  21.250  4.4155e-02
7.500  21.500  4.4155e-02
7.500  21.750  4.4155e-02
7.500  22.000  4.4155e-02
7.500  22.250  4.4155e-02
7.500  22.500  4.4155e-02
7.500  22.750  4.4155e-02
7.500  23.000  4.4155e-02
7.500  23.250  4.4156e-02
7.500  23.500  4.4158e-02
7.500  23.750  4.4156e-02
7.500  24.000  4.4156e-02
7.750  17.000  1.3948e-02
7.750  17.250  2.1651e-02
7.750  17.500  3.3236e-02
7.750  17.750  4.1374e-02
7.750  18.000  4.2917e-02
7.750  18.250  4.4061e-02
7.750  18.500  4.4081e-02
7.750  18.750  4.4101e-02
7.750  19.000  4.4126e-02
7.750  19.250  4.4138e-02
7.750  19.500  4.4143e-02
7.750  19.750  4.4149e-02
7.750  20.000  4.4153e-02
7.750  20.250  4.4154e-02
7.750  20.500  4.4155e-02
7.750  20.750  4.4155e-02
7.750  21.000  4.4155e-02
7.750  21.250  4.4155e-02
7.750  21.500  4.4155e-02
7.750  21.750  4.4155e-02
7.750  22.000  4.4155e-02
7.750  22.250  4.4155e-02
7.750  22.500  4.4155e-02
7.750  22.750  4.4155e-02
7.750  23.000  4.4155e-02
7.750  23.250  4.4155e-02
7.750  23.500  4.4155e-02
7.750  23.750  4.4155e-02
7.750  24.000  4.4155e-02
8.000  17.000  9.3481e-03
8.000  17.250  1.3511e-02
8.000  17.500  2.1143e-02
8.000  17.750  3.2922e-02
8.000  18.000  4.1372e-02
8.000  18.250  4.2915e-02
8.000  18.500  4.4062e-02
8.000  18.750  4.4081e-02
8.000  19.000  4.4102e-02
8.000  19.250  4.4126e-02
8.000  19.500  4.4138e-02
8.000  19.750  4.4143e-02
8.000  20.000  4.4149e-02
8.000  20.250  4.4153e-02
8.000  20.500  4.4154e-02
8.000  20.750  4.4155e-02
8.000  21.000  4.4155e-02
8.000  21.250  4.4155e-02
8.000  21.500  4.4155e-02
8.000  21.750  4.4155e-02
8.000  22.000  4.4155e-02
8.000  22.250  4.4155e-02
8.000  22.500  4.4155e-02
8.000  22.750  4.4155e-02
8.000  23.000  4.4155e-02
8.000  23.250  4.4156e-02
8.000  23.500  4.4155e-02
8.000  23.750  4.4155e-02
8.000  24.000  4.4155e-02
8.250  17.000  6.9788e-03
8.250  17.250  9.1149e-03
8.250  17.500  1.3252e-02
8.250  17.750  2.0927e-02
8.250  18.000  3.2848e-02
8.250  18.250  4.1365e-02
8.250  18.500  4.2922e-02
8.250  18.750  4.4062e-02
8.250  19.000  4.4081e-02
8.250  19.250  4.4102e-02
8.250  19.500  4.4125e-02
8.250  19.750  4.4138e-02
8.250  20.000  4.4143e-02
8.250  20.250  4.4149e-02
8.250  20.500  4.4153e-02
8.250  20.750  4.4154e-02
8.250  21.000  4.4155e-02
8.250  21.250  4.4155e-02
8.250  21.500  4.4155e-02
8.250  21.750  4.4155e-02
8.250  22.000  4.4155e-02
8.250  22.250  4.4155e-02
8.250  22.500  4.4155e-02
8.250  22.750  4.4155e-02
8.250  23.000  4.4155e-02
8.250  23.250  4.4155e-02
8.250  23.500  4.4155e-02
8.250  23.750  4.4155e-02
8.250  24.000  4.4155e-02
8.500  17.000  5.7524e-03
8.500  17.250  6.7881e-03
8.500  17.500  8.9243e-03
8.500  17.750  1.3033e-02
8.500  18.000  2.0822e-02
8.500  18.250  3.2918e-02
8.500  18.500  4.1347e-02
8.500  18.750  4.2929e-02
8.500  19.000  4.4061e-02
8.500  19.250  4.4082e-02
8.500  19.500  4.4102e-02
8.500  19.750  4.4126e-02
8.500  20.000  4.4138e-02
8.500  20.250  4.4143e-02
8.500  20.500  4.4149e-02
8.500  20.750  4.4153e-02
8.500  21.000  4.4154e-02
8.500  21.250  4.4155e-02
8.500  21.500  4.4155e-02
8.500  21.750  4.4155e-02
8.500  22.000  4.4155e-02
8.500  22.250  4.4155e-02
8.500  22.500  4.4155e-02
8.500  22.750  4.4155e-02
8.500  23.000  4.4155e-02
8.500  23.250  4.4155e-02
8.500  23.500  4.4155e-02
8.500  23.750  4.4155e-02
8.500  24.000  4.4155e-02
8.750  17.000  5.1587e-03
8.750  17.250  5.5820e-03
8.750  17.500  6.6402e-03
8.750  17.750  8.7832e-03
8.750  18.000  1.2989e-02
8.750  18.250  2.1096e-02
8.750  18.500  3.3372e-02
8.750  18.750  4.1322e-02
8.750  19.000  4.2935e-02
8.750  19.250  4.4061e-02
8.750  19.500  4.4082e-02
8.750  19.750  4.4102e-02
8.750  20.000  4.4126e-02
8.750  20.250  4.4138e-02
8.750  20.500  4.4143e-02
8.750  20.750  4.4149e-02
8.750  21.000  4.4153e-02
8.750  21.250  4.4154e-02
8.750  21.500  4.4155e-02
8.750  21.750  4.4155e-02
8.750  22.000  4.4155e-02
8.750  22.250  4.4155e-02
8.750  22.500  4.4155e-02
8.750  22.750  4.4155e-02
8.750  23.000  4.4155e-02
8.750  23.250  4.4155e-02
8.750  23.500  4.4155e-02
8.750  23.750  4.4155e-02
8.750  24.000  4.4155e-02
9.000  17.000  4.9319e-03
9.000  17.250  4.9921e-03
9.000  17.500  5.4486e-03
9.000  17.750  6.5457e-03
9.000  18.000  8.7956e-03
9.000  18.250  1.3340e-02
9.000  18.500  2.2258e-02
9.000  18.750  3.4903e-02
9.000  19.000  4.1319e-02
9.000  19.250  4.2938e-02
9.000  19.500  4.4061e-02
9.000  19.750  4.4082e-02
9.000  20.000  4.4102e-02
9.000  20.250  4.4126e-02
9.000  20.500  4.4138e-02
9.000  20.750  4.4143e-02
9.000  21.000  4.4149e-02
9.000  21.250  4.4153e-02
9.000  21.500  4.4154e-02
9.000  21.750  4.4154e-02
9.000  22.000  4.4155e-02
9.000  22.250  4.4155e-02
9.000  22.500  4.4155e-02
9.000  22.750  4.4155e-02
9.000  23.000  4.4155e-02
9.000  23.250  4.4155e-02
9.000  23.500  4.4155e-02
9.000  23.750  4.4155e-02
9.000  24.000  4.4155e-02
9.250  17.000  4.9351e-03
9.250  17.250  4.7568e-03
9.250  17.500  4.8628e-03
9.250  17.750  5.3970e-03
9.250  18.000  6.6924e-03
9.250  18.250  9.2997e-03
9.250  18.500  1.4567e-02
9.250  18.750  2.4732e-02
9.250  19.000  3.7208e-02
9.250  19.250  4.1315e-02
9.250  19.500  4.2936e-02
9.250  19.750  4.4060e-02
9.250  20.000  4.4082e-02
9.250  20.250  4.4102e-02
9.250  20.500  4.4125e-02
9.250  20.750  4.4138e-02
9.250  21.000  4.4143e-02
9.250  21.250  4.4149e-02
9.250  21.500  4.4144e-02
9.250  21.750  4.4141e-02
9.250  22.000  4.4141e-02
9.250  22.250  4.4142e-02
9.250  22.500  4.4154e-02
9.250  22.750  4.4154e-02
9.250  23.000  4.4155e-02
9.250  23.250  4.4155e-02
9.250  23.500  4.4155e-02
9.250  23.750  4.4155e-02
9.250  24.000  4.4155e-02
9.500  17.000  5.0795e-03
9.500  17.250  4.7440e-03
9.500  17.500  4.6309e-03
9.500  17.750  4.8657e-03
9.500  18.000  5.6166e-03
9.500  18.250  7.1954e-03
9.500  18.500  1.0352e-02
9.500  18.750  1.6698e-02
9.500  19.000  2.8236e-02
9.500  19.250  3.9064e-02
9.500  19.500  4.1312e-02
9.500  19.750  4.2926e-02
9.500  20.000  4.4059e-02
9.500  20.250  4.4082e-02
9.500  20.500  4.4102e-02
9.500  20.750  4.4124e-02
9.500  21.000  4.4128e-02
9.500  21.250  4.4131e-02
9.500  21.500  4.4135e-02
9.500  21.750  4.4136e-02
9.500  22.000  4.4131e-02
9.500  22.250  4.4132e-02
9.500  22.500  4.4131e-02
9.500  22.750  4.4131e-02
9.500  23.000  4.4131e-02
9.500  23.250  4.4131e-02
9.500  23.500  4.4137e-02
9.500  23.750  4.4137e-02
9.500  24.000  4.4137e-02
9.750  17.000  5.3133e-03
9.750  17.250  4.8665e-03
9.750  17.500  4.6071e-03
9.750  17.750  4.6477e-03
9.750  18.000  5.1109e-03
9.750  18.250  6.1479e-03
9.750  18.500  7.7905e-03
9.750  18.750  9.9646e-03
9.750  19.000  1.2577e-02
9.750  19.250  1.5534e-02
9.750  19.500  1.8743e-02
9.750  19.750  2.2111e-02
9.750  20.000  2.5543e-02
9.750  20.250  2.8946e-02
9.750  20.500  3.2229e-02
9.750  20.750  3.5296e-02
9.750  21.000  3.8054e-02
9.750  21.250  4.0411e-02
9.750  21.500  4.2273e-02
9.750  21.750  4.3546e-02
9.750  22.000  4.4138e-02
9.750  22.250  4.4134e-02
9.750  22.500  4.4131e-02
9.750  22.750  4.4132e-02
9.750  23.000  4.4132e-02
9.750  23.250  4.4132e-02
9.750  23.500  4.4132e-02
9.750  23.750  4.4131e-02
9.750  24.000  4.4131e-02
10.000  17.000  5.5871e-03
10.000  17.250  5.0621e-03
10.000  17.500  4.6886e-03
10.000  17.750  4.5995e-03
10.000  18.000  4.9270e-03
10.000  18.250  5.6736e-03
10.000  18.500  6.8748e-03
10.000  18.750  8.4962e-03
10.000  19.000  1.0480e-02
10.000  19.250  1.2767e-02
10.000  19.500  1.5300e-02
10.000  19.750  1.8021e-02
10.000  20.000  2.0870e-02
10.000  20.250  2.3792e-02
10.000  20.500  2.6726e-02
10.000  20.750  2.9616e-02
10.000  21.000  3.2402e-02
10.000  21.250  3.5027e-02
10.000  21.500  3.7432e-02
10.000  21.750  3.9560e-02
10.000  22.000  4.1352e-02
10.000  22.250  4.2751e-02
10.000  22.500  4.3697e-02
10.000  22.750  4.4133e-02
10.000  23.000  4.4131e-02
10.000  23.250  4.4131e-02
10.000  23.500  4.4132e-02
10.000  23.750  4.4132e-02
10.000  24.000  4.4132e-02
10.250  17.000  5.8653e-03
10.250  17.250  5.2969e-03
10.250  17.500  4.8570e-03
10.250  17.750  4.2150e-03
10.250  18.000  3.6653e-03
10.250  18.250  3.6997e-03
10.250  18.500  4.8102e-03
10.250  18.750  7.4883e-03
10.250  19.000  1.2226e-02
10.250  19.250  1.8863e-02
10.250  19.500  2.5198e-02
10.250  19.750  3.0649e-02
10.250  20.000  3.5199e-02
10.250  20.250  3.8833e-02
10.250  20.500  4.1535e-02
10.250  20.750  4.3289e-02
10.250  21.000  4.4080e-02
10.250  21.250  4.4102e-02
10.250  21.500  4.4125e-02
10.250  21.750  4.4138e-02
10.250  22.000  4.4142e-02
10.250  22.250  4.4141e-02
10.250  22.500  4.4139e-02
10.250  22.750  4.4139e-02
10.250  23.000  4.4136e-02
10.250  23.250  4.4133e-02
10.250  23.500  4.4132e-02
10.250  23.750  4.4131e-02
10.250  24.000  4.4131e-02
10.500  17.000  6.1031e-03
10.500  17.250  5.5266e-03
10.500  17.500  5.0584e-03
10.500  17.750  4.3143e-03
10.500  18.000  3.5272e-03
10.500  18.250  3.1271e-03
10.500  18.500  3.5444e-03
10.500  18.750  5.2092e-03
10.500  19.000  8.5517e-03
10.500  19.250  1.4002e-02
10.500  19.500  2.1264e-02
10.500  19.750  2.7809e-02
10.500  20.000  3.3074e-02
10.500  20.250  3.7171e-02
10.500  20.500  4.0209e-02
10.500  20.750  4.2299e-02
10.500  21.000  4.3552e-02
10.500  21.250  4.4079e-02
10.500  21.500  4.4102e-02
10.500  21.750  4.4125e-02
10.500  22.000  4.4138e-02
10.500  22.250  4.4143e-02
10.500  22.500  4.4146e-02
10.500  22.750  4.4140e-02
10.500  23.000  4.4140e-02
10.500  23.250  4.4139e-02
10.500  23.500  4.4137e-02
10.500  23.750  4.4135e-02
10.500  24.000  4.4134e-02
10.750  17.000  6.2517e-03
10.750  17.250  5.7095e-03
10.750  17.500  5.2484e-03
10.750  17.750  4.3878e-03
10.750  18.000  3.3193e-03
10.750  18.250  2.4507e-03
10.750  18.500  2.1904e-03
10.750  18.750  2.9462e-03
10.750  19.000  5.1264e-03
10.750  19.250  9.1390e-03
10.750  19.500  1.5392e-02
10.750  19.750  2.3467e-02
10.750  20.000  3.0432e-02
10.750  20.250  3.5704e-02
10.750  20.500  3.9491e-02
10.750  20.750  4.2003e-02
10.750  21.000  4.3449e-02
10.750  21.250  4.4038e-02
10.750  21.500  4.4077e-02
10.750  21.750  4.4101e-02
10.750  22.000  4.4125e-02
10.750  22.250  4.4138e-02
10.750  22.500  4.4143e-02
10.750  22.750  4.4148e-02
10.750  23.000  4.4142e-02
10.750  23.250  4.4141e-02
10.750  23.500  4.4140e-02
10.750  23.750  4.4139e-02
10.750  24.000  4.4138e-02
11.000  17.000  6.2506e-03
11.000  17.250  5.8006e-03
11.000  17.500  5.3765e-03
11.000  17.750  4.4511e-03
11.000  18.000  3.1839e-03
11.000  18.250  1.9544e-03
11.000  18.500  1.1418e-03
11.000  18.750  1.1257e-03
11.000  19.000  2.2854e-03
11.000  19.250  5.0005e-03
11.000  19.500  9.6502e-03
11.000  19.750  1.6614e-02
11.000  20.000  2.5344e-02
11.000  20.250  3.2509e-02
11.000  20.500  3.7556e-02
11.000  20.750  4.0859e-02
11.000  21.000  4.2790e-02
11.000  21.250  4.3723e-02
11.000  21.500  4.4031e-02
11.000  21.750  4.4074e-02
11.000  22.000  4.4100e-02
11.000  22.250  4.4125e-02
11.000  22.500  4.4138e-02
11.000  22.750  4.4143e-02
11.000  23.000  4.4148e-02
11.000  23.250  4.4148e-02
11.000  23.500  4.4141e-02
11.000  23.750  4.4141e-02
11.000  24.000  4.4140e-02
11.250  17.000  5.9983e-03
11.250  17.250  5.7317e-03
11.250  17.500  5.3808e-03
11.250  17.750  5.2339e-03
11.250  18.000  5.3428e-03
11.250  18.250  5.5319e-03
11.250  18.500  5.7507e-03
11.250  18.750  6.0924e-03
11.250  19.000  6.6817e-03
11.250  19.250  7.6141e-03
11.250  19.500  9.2501e-03
11.250  19.750  1.2224e-02
11.250  20.000  1.5735e-02
11.250  20.250  1.9444e-02
11.250  20.500  2.3245e-02
11.250  20.750  2.7031e-02
11.250  21.000  3.0694e-02
11.250  21.250  3.4129e-02
11.250  21.500  3.7228e-02
11.250  21.750  3.9884e-02
11.250  22.000  4.1990e-02
11.250  22.250  4.3439e-02
11.250  22.500  4.4124e-02
11.250  22.750  4.4138e-02
11.250  23.000  4.4143e-02
11.250  23.250  4.4149e-02
11.250  23.500  4.4151e-02
11.250  23.750  4.4143e-02
11.250  24.000  4.4142e-02
11.500  17.000  5.4398e-03
11.500  17.250  5.4265e-03
11.500  17.500  5.2050e-03
11.500  17.750  4.3058e-03
11.500  18.000  2.8685e-03
11.500  18.250  1.2127e-03
11.500  18.500  -3.4209e-04
11.500  18.750  -1.4763e-03
11.500  19.000  -1.8703e-03
11.500  19.250  -1.2046e-03
11.500  19.500  8.4029e-04
11.500  19.750  4.5840e-03
11.500  20.000  1.0346e-02
11.500  20.250  1.8446e-02
11.500  20.500  2.8147e-02
11.500  20.750  3.5593e-02
11.500  21.000  4.0294e-02
11.500  21.250  4.2869e-02
11.500  21.500  4.3935e-02
11.500  21.750  4.4109e-02
11.500  22.000  4.4008e-02
11.500  22.250  4.4067e-02
11.500  22.500  4.4097e-02
11.500  22.750  4.4123e-02
11.500  23.000  4.4137e-02
11.500  23.250  4.4143e-02
11.500  23.500  4.4149e-02
11.500  23.750  4.4152e-02
11.500  24.000  4.4149e-02
11.750  17.000  4.5187e-03
11.750  17.250  4.7983e-03
11.750  17.500  4.7806e-03
11.750  17.750  4.7740e-03
11.750  18.000  4.9147e-03
11.750  18.250  5.0804e-03
11.750  18.500  5.2329e-03
11.750  18.750  5.4027e-03
11.750  19.000  5.6514e-03
11.750  19.250  6.0645e-03
11.750  19.500  6.7386e-03
11.750  19.750  7.7943e-03
11.750  20.000  9.6459e-03
11.750  20.250  1.2988e-02
11.750  20.500  1.9043e-02
11.750  20.750  2.9149e-02
11.750  21.000  3.7978e-02
11.750  21.250  3.9779e-02
11.750  21.500  4.0804e-02
11.750  21.750  4.2289e-02
11.750  22.000  4.3878e-02
11.750  22.250  4.3996e-02
11.750  22.500  4.4061e-02
11.750  22.750  4.4094e-02
11.750  23.000  4.4122e-02
11.750  23.250  4.4137e-02
11.750  23.500  4.4143e-02
11.750  23.750  4.4149e-02
11.750  24.000  4.4152e-02
12.000  17.000  3.3537e-03
12.000  17.250  3.8452e-03
12.000  17.500  4.0624e-03
12.000  17.750  4.2386e-03
12.000  18.000  4.4858e-03
12.000  18.250  4.6947e-03
12.000  18.500  4.8440e-03
12.000  18.750  4.9909e-03
12.000  19.000  5.1925e-03
12.000  19.250  5.4905e-03
12.000  19.500  5.9513e-03
12.000  19.750  6.6620e-03
12.000  20.000  7.7634e-03
12.000  20.250  9.6788e-03
12.000  20.500  1.3133e-02
12.000  20.750  1.9420e-02
12.000  21.000  3.0008e-02
12.000  21.250  3.8067e-02
12.000  21.500  3.9866e-02
12.000  21.750  4.1062e-02
12.000  22.000  4.2756e-02
12.000  22.250  4.3863e-02
12.000  22.500  4.3981e-02
12.000  22.750  4.4053e-02
12.000  23.000  4.4091e-02
12.000  23.250  4.4121e-02
12.000  23.500  4.4137e-02
12.000  23.750  4.4143e-02
12.000  24.000  4.4148e-02
12.250  17.000  2.2082e-03
12.250  17.250  2.7590e-03
12.250  17.500  3.1677e-03
12.250  17.750  3.5501e-03
12.250  18.000  3.8800e-03
12.250  18.250  4.0959e-03
12.250  18.500  4.2553e-03
12.250  18.750  4.4435e-03
12.250  19.000  4.6735e-03
12.250  19.250  4.9501e-03
12.250  19.500  5.3051e-03
12.250  19.750  5.8062e-03
12.250  20.000  6.5412e-03
12.250  20.250  7.6595e-03
12.250  20.500  9.6077e-03
12.250  20.750  1.3128e-02
12.250  21.000  1.9659e-02
12.250  21.250  3.0885e-02
12.250  21.500  3.8290e-02
12.250  21.750  4.0011e-02
12.250  22.000  4.1404e-02
12.250  22.250  4.3205e-02
12.250  22.500  4.3845e-02
12.250  22.750  4.3967e-02
12.250  23.000  4.4044e-02
12.250  23.250  4.4087e-02
12.250  23.500  4.4120e-02
12.250  23.750  4.4136e-02
12.250  24.000  4.4143e-02
12.500  17.000  1.4066e-03
12.500  17.250  1.8895e-03
12.500  17.500  2.3528e-03
12.500  17.750  2.7530e-03
12.500  18.000  3.0454e-03
12.500  18.250  3.2733e-03
12.500  18.500  3.4988e-03
12.500  18.750  3.7681e-03
12.500  19.000  4.0655e-03
12.500  19.250  4.3811e-03
12.500  19.500  4.7194e-03
12.500  19.750  5.1117e-03
12.500  20.000  5.6333e-03
12.500  20.250  6.3675e-03
12.500  20.500  7.4910e-03
12.500  20.750  9.4520e-03
12.500  21.000  1.3049e-02
12.500  21.250  1.9899e-02
12.500  21.500  3.1587e-02
12.500  21.750  3.8530e-02
12.500  22.000  4.0232e-02
12.500  22.250  4.1798e-02
12.500  22.500  4.3466e-02
12.500  22.750  4.3830e-02
12.500  23.000  4.3955e-02
12.500  23.250  4.4035e-02
12.500  23.500  4.4082e-02
12.500  23.750  4.4118e-02
12.500  24.000  4.4136e-02
12.750  17.000  9.4741e-04
12.750  17.250  1.2988e-03
12.750  17.500  1.6182e-03
12.750  17.750  1.8765e-03
12.750  18.000  2.1226e-03
12.750  18.250  2.3887e-03
12.750  18.500  2.6803e-03
12.750  18.750  3.0102e-03
12.750  19.000  3.3764e-03
12.750  19.250  3.7516e-03
12.750  19.500  4.1199e-03
12.750  19.750  4.4932e-03
12.750  20.000  4.9025e-03
12.750  20.250  5.4309e-03
12.750  20.500  6.1495e-03
12.750  20.750  7.2612e-03
12.750  21.000  9.2353e-03
12.750  21.250  1.2960e-02
12.750  21.500  1.9981e-02
12.750  21.750  3.2805e-02
12.750  22.000  3.8836e-02
12.750  22.250  4.0496e-02
12.750  22.500  4.2232e-02
12.750  22.750  4.3577e-02
12.750  23.000  4.3821e-02
12.750  23.250  4.3947e-02
12.750  23.500  4.4026e-02
12.750  23.750  4.4077e-02
12.750  24.000  4.4115e-02
13.000  17.000  5.9424e-04
13.000  17.250  8.1778e-04
13.000  17.500  9.9811e-04
13.000  17.750  1.1691e-03
13.000  18.000  1.3719e-03
13.000  18.250  1.6193e-03
13.000  18.500  1.9120e-03
13.000  18.750  2.2527e-03
13.000  19.000  2.6416e-03
13.000  19.250  3.0575e-03
13.000  19.500  3.4702e-03
13.000  19.750  3.8670e-03
13.000  20.000  4.2544e-03
13.000  20.250  4.6722e-03
13.000  20.500  5.1906e-03
13.000  20.750  5.8947e-03
13.000  21.000  6.9973e-03
13.000  21.250  9.0228e-03
13.000  21.500  1.2845e-02
13.000  21.750  2.0404e-02
13.000  22.000  3.4055e-02
13.000  22.250  3.9094e-02
13.000  22.500  4.0784e-02
13.000  22.750  4.2526e-02
13.000  23.000  4.3613e-02
13.000  23.250  4.3816e-02
13.000  23.500  4.3939e-02
13.000  23.750  4.4018e-02
13.000  24.000  4.4069e-02
13.250  17.000  3.7951e-04
13.250  17.250  5.2214e-04
13.250  17.500  6.4132e-04
13.250  17.750  7.2749e-04
13.250  18.000  8.5753e-04
13.250  18.250  1.0398e-03
13.250  18.500  1.2783e-03
13.250  18.750  1.5741e-03
13.250  19.000  1.9330e-03
13.250  19.250  2.3450e-03
13.250  19.500  2.7808e-03
13.250  19.750  3.2136e-03
13.250  20.000  3.6240e-03
13.250  20.250  4.0116e-03
13.250  20.500  4.4176e-03
13.250  20.750  4.9142e-03
13.250  21.000  5.5946e-03
13.250  21.250  6.7024e-03
13.250  21.500  8.6962e-03
13.250  21.750  1.2653e-02
13.250  22.000  2.1025e-02
13.250  22.250  3.5345e-02
13.250  22.500  3.9241e-02
13.250  22.750  4.0844e-02
13.250  23.000  4.2478e-02
13.250  23.250  4.3610e-02
13.250  23.500  4.3808e-02
13.250  23.750  4.3929e-02
13.250  24.000  4.4008e-02
13.500  17.000  2.5284e-04
13.500  17.250  3.3877e-04
13.500  17.500  4.1243e-04
13.500  17.750  4.6593e-04
13.500  18.000  5.3802e-04
13.500  18.250  6.5498e-04
13.500  18.500  8.1926e-04
13.500  18.750  1.0407e-03
13.500  19.000  1.3267e-03
13.500  19.250  1.6804e-03
13.500  19.500  2.0855e-03
13.500  19.750  2.5172e-03
13.500  20.000  2.9426e-03
13.500  20.250  3.3485e-03
13.500  20.500  3.7270e-03
13.500  20.750  4.1198e-03
13.500  21.000  4.5945e-03
13.500  21.250  5.2491e-03
13.500  21.500  6.3280e-03
13.500  21.750  8.3694e-03
13.500  22.000  1.2639e-02
13.500  22.250  2.1973e-02
13.500  22.500  3.6240e-02
13.500  22.750  3.9282e-02
13.500  23.000  4.0766e-02
13.500  23.250  4.2445e-02
13.500  23.500  4.3597e-02
13.500  23.750  4.3792e-02
13.500  24.000  4.3915e-02
13.750  17.000  1.7745e-04
13.750  17.250  2.3152e-04
13.750  17.500  2.7720e-04
13.750  17.750  3.1086e-04
13.750  18.000  3.5160e-04
13.750  18.250  4.1918e-04
13.750  18.500  5.2230e-04
13.750  18.750  6.6708e-04
13.750  19.000  8.6815e-04
13.750  19.250  1.1342e-03
13.750  19.500  1.4671e-03
13.750  19.750  1.8514e-03
13.750  20.000  2.2635e-03
13.750  20.250  2.6719e-03
13.750  20.500  3.0606e-03
13.750  20.750  3.4261e-03
13.750  21.000  3.7969e-03
13.750  21.250  4.2453e-03
13.750  21.500  4.8852e-03
13.750  21.750  5.9491e-03
13.750  22.000  8.0568e-03
13.750  22.250  1.2759e-02
13.750  22.500  2.3671e-02
13.750  22.750  3.6923e-02
13.750  23.000  3.9245e-02
13.750  23.250  4.0705e-02
13.750  23.500  4.2352e-02
13.750  23.750  4.3570e-02
13.750  24.000  4.3768e-02
14.000  17.000  1.2996e-04
14.000  17.250  1.6716e-04
14.000  17.500  1.9737e-04
14.000  17.750  2.1786e-04
14.000  18.000  2.4247e-04
14.000  18.250  2.8099e-04
14.000  18.500  3.4107e-04
14.000  18.750  4.2996e-04
14.000  19.000  5.5745e-04
14.000  19.250  7.3720e-04
14.000  19.500  9.7909e-04
14.000  19.750  1.2839e-03
14.000  20.000  1.6398e-03
14.000  20.250  2.0245e-03
14.000  20.500  2.4072e-03
14.000  20.750  2.7712e-03
14.000  21.000  3.1137e-03
14.000  21.250  3.4679e-03
14.000  21.500  3.9142e-03
14.000  21.750  4.5107e-03
14.000  22.000  5.6030e-03
14.000  22.250  7.9658e-03
14.000  22.500  1.3525e-02
14.000  22.750  2.6362e-02
14.000  23.000  3.7342e-02
14.000  23.250  3.9264e-02
14.000  23.500  4.0722e-02
14.000  23.750  4.2450e-02
14.000  24.000  4.3515e-02
