InwC 1585.12A  relative to Inci 1215.00A scaled to 1215A.
Hden   Phi(H)  Eq_Width (A)
7.000  17.000  4.0000e-02
7.000  17.250  4.2033e-02
7.000  17.500  4.3252e-02
7.000  17.750  4.3271e-02
7.000  18.000  4.3292e-02
7.000  18.250  4.3316e-02
7.000  18.500  4.3328e-02
7.000  18.750  4.3333e-02
7.000  19.000  4.3338e-02
7.000  19.250  4.3342e-02
7.000  19.500  4.3344e-02
7.000  19.750  4.3344e-02
7.000  20.000  4.3345e-02
7.000  20.250  4.3345e-02
7.000  20.500  4.3345e-02
7.000  20.750  4.3345e-02
7.000  21.000  4.3345e-02
7.000  21.250  4.3345e-02
7.000  21.500  4.3345e-02
7.000  21.750  4.3346e-02
7.000  22.000  4.3346e-02
7.000  22.250  4.3347e-02
7.000  22.500  4.3347e-02
7.000  22.750  4.3348e-02
7.000  23.000  4.3348e-02
7.000  23.250  4.3347e-02
7.000  23.500  4.3347e-02
7.000  23.750  4.3347e-02
7.000  24.000  4.3347e-02
7.250  17.000  3.4597e-02
7.250  17.250  4.0071e-02
7.250  17.500  4.2044e-02
7.250  17.750  4.3252e-02
7.250  18.000  4.3272e-02
7.250  18.250  4.3292e-02
7.250  18.500  4.3315e-02
7.250  18.750  4.3328e-02
7.250  19.000  4.3333e-02
7.250  19.250  4.3338e-02
7.250  19.500  4.3342e-02
7.250  19.750  4.3344e-02
7.250  20.000  4.3344e-02
7.250  20.250  4.3345e-02
7.250  20.500  4.3345e-02
7.250  20.750  4.3345e-02
7.250  21.000  4.3345e-02
7.250  21.250  4.3345e-02
7.250  21.500  4.3345e-02
7.250  21.750  4.3345e-02
7.250  22.000  4.3345e-02
7.250  22.250  4.3345e-02
7.250  22.500  4.3345e-02
7.250  22.750  4.3346e-02
7.250  23.000  4.3346e-02
7.250  23.250  4.3346e-02
7.250  23.500  4.3346e-02
7.250  23.750  4.3346e-02
7.250  24.000  4.3347e-02
7.500  17.000  3.0942e-02
7.500  17.250  3.4741e-02
7.500  17.500  4.0124e-02
7.500  17.750  4.2053e-02
7.500  18.000  4.3252e-02
7.500  18.250  4.3272e-02
7.500  18.500  4.3292e-02
7.500  18.750  4.3316e-02
7.500  19.000  4.3328e-02
7.500  19.250  4.3333e-02
7.500  19.500  4.3338e-02
7.500  19.750  4.3342e-02
7.500  20.000  4.3344e-02
7.500  20.250  4.3344e-02
7.500  20.500  4.3345e-02
7.500  20.750  4.3345e-02
7.500  21.000  4.3345e-02
7.500  21.250  4.3345e-02
7.500  21.500  4.3345e-02
7.500  21.750  4.3345e-02
7.500  22.000  4.3345e-02
7.500  22.250  4.3345e-02
7.500  22.500  4.3345e-02
7.500  22.750  4.3345e-02
7.500  23.000  4.3345e-02
7.500  23.250  4.3345e-02
7.500  23.500  4.3348e-02
7.500  23.750  4.3345e-02
7.500  24.000  4.3345e-02
7.750  17.000  2.8212e-02
7.750  17.250  3.1097e-02
7.750  17.500  3.4850e-02
7.750  17.750  4.0164e-02
7.750  18.000  4.2064e-02
7.750  18.250  4.3252e-02
7.750  18.500  4.3272e-02
7.750  18.750  4.3292e-02
7.750  19.000  4.3316e-02
7.750  19.250  4.3328e-02
7.750  19.500  4.3333e-02
7.750  19.750  4.3338e-02
7.750  20.000  4.3342e-02
7.750  20.250  4.3344e-02
7.750  20.500  4.3344e-02
7.750  20.750  4.3344e-02
7.750  21.000  4.3345e-02
7.750  21.250  4.3345e-02
7.750  21.500  4.3345e-02
7.750  21.750  4.3345e-02
7.750  22.000  4.3345e-02
7.750  22.250  4.3345e-02
7.750  22.500  4.3345e-02
7.750  22.750  4.3345e-02
7.750  23.000  4.3345e-02
7.750  23.250  4.3345e-02
7.750  23.500  4.3345e-02
7.750  23.750  4.3345e-02
7.750  24.000  4.3345e-02
8.000  17.000  2.6291e-02
8.000  17.250  2.8291e-02
8.000  17.500  3.1199e-02
8.000  17.750  3.4871e-02
8.000  18.000  4.0111e-02
8.000  18.250  4.2061e-02
8.000  18.500  4.3252e-02
8.000  18.750  4.3272e-02
8.000  19.000  4.3292e-02
8.000  19.250  4.3316e-02
8.000  19.500  4.3328e-02
8.000  19.750  4.3333e-02
8.000  20.000  4.3338e-02
8.000  20.250  4.3342e-02
8.000  20.500  4.3344e-02
8.000  20.750  4.3344e-02
8.000  21.000  4.3344e-02
8.000  21.250  4.3345e-02
8.000  21.500  4.3345e-02
8.000  21.750  4.3345e-02
8.000  22.000  4.3345e-02
8.000  22.250  4.3345e-02
8.000  22.500  4.3345e-02
8.000  22.750  4.3345e-02
8.000  23.000  4.3345e-02
8.000  23.250  4.3346e-02
8.000  23.500  4.3345e-02
8.000  23.750  4.3345e-02
8.000  24.000  4.3345e-02
8.250  17.000  2.5054e-02
8.250  17.250  2.6348e-02
8.250  17.500  2.8408e-02
8.250  17.750  3.1348e-02
8.250  18.000  3.5016e-02
8.250  18.250  4.0145e-02
8.250  18.500  4.2069e-02
8.250  18.750  4.3252e-02
8.250  19.000  4.3272e-02
8.250  19.250  4.3292e-02
8.250  19.500  4.3315e-02
8.250  19.750  4.3328e-02
8.250  20.000  4.3333e-02
8.250  20.250  4.3338e-02
8.250  20.500  4.3342e-02
8.250  20.750  4.3344e-02
8.250  21.000  4.3344e-02
8.250  21.250  4.3345e-02
8.250  21.500  4.3345e-02
8.250  21.750  4.3345e-02
8.250  22.000  4.3345e-02
8.250  22.250  4.3345e-02
8.250  22.500  4.3345e-02
8.250  22.750  4.3345e-02
8.250  23.000  4.3345e-02
8.250  23.250  4.3345e-02
8.250  23.500  4.3345e-02
8.250  23.750  4.3345e-02
8.250  24.000  4.3345e-02
8.500  17.000  2.4244e-02
8.500  17.250  2.5078e-02
8.500  17.500  2.6411e-02
8.500  17.750  2.8550e-02
8.500  18.000  3.1594e-02
8.500  18.250  3.5219e-02
8.500  18.500  4.0208e-02
8.500  18.750  4.2075e-02
8.500  19.000  4.3252e-02
8.500  19.250  4.3272e-02
8.500  19.500  4.3292e-02
8.500  19.750  4.3316e-02
8.500  20.000  4.3328e-02
8.500  20.250  4.3333e-02
8.500  20.500  4.3338e-02
8.500  20.750  4.3342e-02
8.500  21.000  4.3344e-02
8.500  21.250  4.3344e-02
8.500  21.500  4.3345e-02
8.500  21.750  4.3345e-02
8.500  22.000  4.3345e-02
8.500  22.250  4.3345e-02
8.500  22.500  4.3345e-02
8.500  22.750  4.3345e-02
8.500  23.000  4.3345e-02
8.500  23.250  4.3345e-02
8.500  23.500  4.3345e-02
8.500  23.750  4.3345e-02
8.500  24.000  4.3345e-02
8.750  17.000  2.3680e-02
8.750  17.250  2.4234e-02
8.750  17.500  2.5090e-02
8.750  17.750  2.6501e-02
8.750  18.000  2.8781e-02
8.750  18.250  3.1962e-02
8.750  18.500  3.5636e-02
8.750  18.750  4.0218e-02
8.750  19.000  4.2080e-02
8.750  19.250  4.3251e-02
8.750  19.500  4.3272e-02
8.750  19.750  4.3292e-02
8.750  20.000  4.3316e-02
8.750  20.250  4.3328e-02
8.750  20.500  4.3333e-02
8.750  20.750  4.3338e-02
8.750  21.000  4.3342e-02
8.750  21.250  4.3344e-02
8.750  21.500  4.3344e-02
8.750  21.750  4.3345e-02
8.750  22.000  4.3345e-02
8.750  22.250  4.3345e-02
8.750  22.500  4.3345e-02
8.750  22.750  4.3345e-02
8.750  23.000  4.3345e-02
8.750  23.250  4.3345e-02
8.750  23.500  4.3345e-02
8.750  23.750  4.3345e-02
8.750  24.000  4.3345e-02
9.000  17.000  2.3279e-02
9.000  17.250  2.3645e-02
9.000  17.500  2.4206e-02
9.000  17.750  2.5109e-02
9.000  18.000  2.6650e-02
9.000  18.250  2.9168e-02
9.000  18.500  3.2482e-02
9.000  18.750  3.5995e-02
9.000  19.000  4.0199e-02
9.000  19.250  4.2078e-02
9.000  19.500  4.3249e-02
9.000  19.750  4.3272e-02
9.000  20.000  4.3293e-02
9.000  20.250  4.3316e-02
9.000  20.500  4.3328e-02
9.000  20.750  4.3333e-02
9.000  21.000  4.3338e-02
9.000  21.250  4.3342e-02
9.000  21.500  4.3344e-02
9.000  21.750  4.3344e-02
9.000  22.000  4.3344e-02
9.000  22.250  4.3345e-02
9.000  22.500  4.3345e-02
9.000  22.750  4.3345e-02
9.000  23.000  4.3345e-02
9.000  23.250  4.3345e-02
9.000  23.500  4.3345e-02
9.000  23.750  4.3345e-02
9.000  24.000  4.3345e-02
9.250  17.000  2.2989e-02
9.250  17.250  2.3221e-02
9.250  17.500  2.3580e-02
9.250  17.750  2.4163e-02
9.250  18.000  2.5181e-02
9.250  18.250  2.6964e-02
9.250  18.500  2.9723e-02
9.250  18.750  3.3124e-02
9.250  19.000  3.6810e-02
9.250  19.250  4.0174e-02
9.250  19.500  4.2069e-02
9.250  19.750  4.3247e-02
9.250  20.000  4.3272e-02
9.250  20.250  4.3293e-02
9.250  20.500  4.3315e-02
9.250  20.750  4.3328e-02
9.250  21.000  4.3333e-02
9.250  21.250  4.3338e-02
9.250  21.500  4.3334e-02
9.250  21.750  4.3331e-02
9.250  22.000  4.3330e-02
9.250  22.250  4.3332e-02
9.250  22.500  4.3344e-02
9.250  22.750  4.3344e-02
9.250  23.000  4.3344e-02
9.250  23.250  4.3345e-02
9.250  23.500  4.3345e-02
9.250  23.750  4.3345e-02
9.250  24.000  4.3345e-02
9.500  17.000  2.2777e-02
9.500  17.250  2.2915e-02
9.500  17.500  2.3127e-02
9.500  17.750  2.3487e-02
9.500  18.000  2.4161e-02
9.500  18.250  2.5377e-02
9.500  18.500  2.7372e-02
9.500  18.750  3.0239e-02
9.500  19.000  3.3638e-02
9.500  19.250  3.7622e-02
9.500  19.500  4.0153e-02
9.500  19.750  4.2047e-02
9.500  20.000  4.3243e-02
9.500  20.250  4.3271e-02
9.500  20.500  4.3293e-02
9.500  20.750  4.3314e-02
9.500  21.000  4.3318e-02
9.500  21.250  4.3321e-02
9.500  21.500  4.3325e-02
9.500  21.750  4.3326e-02
9.500  22.000  4.3321e-02
9.500  22.250  4.3322e-02
9.500  22.500  4.3322e-02
9.500  22.750  4.3321e-02
9.500  23.000  4.3321e-02
9.500  23.250  4.3321e-02
9.500  23.500  4.3327e-02
9.500  23.750  4.3327e-02
9.500  24.000  4.3327e-02
9.750  17.000  2.2622e-02
9.750  17.250  2.2688e-02
9.750  17.500  2.2795e-02
9.750  17.750  2.2992e-02
9.750  18.000  2.3405e-02
9.750  18.250  2.4198e-02
9.750  18.500  2.5529e-02
9.750  18.750  2.7607e-02
9.750  19.000  3.0574e-02
9.750  19.250  3.4391e-02
9.750  19.500  3.8698e-02
9.750  19.750  4.0150e-02
9.750  20.000  4.2018e-02
9.750  20.250  4.3236e-02
9.750  20.500  4.3270e-02
9.750  20.750  4.3292e-02
9.750  21.000  4.3315e-02
9.750  21.250  4.3324e-02
9.750  21.500  4.3323e-02
9.750  21.750  4.3326e-02
9.750  22.000  4.3327e-02
9.750  22.250  4.3324e-02
9.750  22.500  4.3321e-02
9.750  22.750  4.3322e-02
9.750  23.000  4.3322e-02
9.750  23.250  4.3322e-02
9.750  23.500  4.3322e-02
9.750  23.750  4.3321e-02
9.750  24.000  4.3321e-02
10.000  17.000  2.2507e-02
10.000  17.250  2.2525e-02
10.000  17.500  2.2556e-02
10.000  17.750  2.2628e-02
10.000  18.000  2.2835e-02
10.000  18.250  2.3277e-02
10.000  18.500  2.4076e-02
10.000  18.750  2.5420e-02
10.000  19.000  2.7624e-02
10.000  19.250  3.0853e-02
10.000  19.500  3.5394e-02
10.000  19.750  3.8802e-02
10.000  20.000  4.0158e-02
10.000  20.250  4.1989e-02
10.000  20.500  4.3226e-02
10.000  20.750  4.3268e-02
10.000  21.000  4.3292e-02
10.000  21.250  4.3315e-02
10.000  21.500  4.3327e-02
10.000  21.750  4.3329e-02
10.000  22.000  4.3327e-02
10.000  22.250  4.3329e-02
10.000  22.500  4.3327e-02
10.000  22.750  4.3323e-02
10.000  23.000  4.3321e-02
10.000  23.250  4.3322e-02
10.000  23.500  4.3322e-02
10.000  23.750  4.3322e-02
10.000  24.000  4.3322e-02
10.250  17.000  2.2422e-02
10.250  17.250  2.2405e-02
10.250  17.500  2.2379e-02
10.250  17.750  2.2357e-02
10.250  18.000  2.2381e-02
10.250  18.250  2.2540e-02
10.250  18.500  2.2909e-02
10.250  18.750  2.3660e-02
10.250  19.000  2.5011e-02
10.250  19.250  2.7508e-02
10.250  19.500  3.1480e-02
10.250  19.750  3.6433e-02
10.250  20.000  3.8876e-02
10.250  20.250  4.0161e-02
10.250  20.500  4.1970e-02
10.250  20.750  4.3212e-02
10.250  21.000  4.3265e-02
10.250  21.250  4.3290e-02
10.250  21.500  4.3315e-02
10.250  21.750  4.3327e-02
10.250  22.000  4.3332e-02
10.250  22.250  4.3331e-02
10.250  22.500  4.3329e-02
10.250  22.750  4.3329e-02
10.250  23.000  4.3326e-02
10.250  23.250  4.3323e-02
10.250  23.500  4.3322e-02
10.250  23.750  4.3321e-02
10.250  24.000  4.3321e-02
10.500  17.000  2.2353e-02
10.500  17.250  2.2314e-02
10.500  17.500  2.2246e-02
10.500  17.750  2.2145e-02
10.500  18.000  2.2020e-02
10.500  18.250  2.1941e-02
10.500  18.500  2.2006e-02
10.500  18.750  2.2398e-02
10.500  19.000  2.3395e-02
10.500  19.250  2.5258e-02
10.500  19.500  2.8123e-02
10.500  19.750  3.2390e-02
10.500  20.000  3.7314e-02
10.500  20.250  3.8954e-02
10.500  20.500  4.0175e-02
10.500  20.750  4.1969e-02
10.500  21.000  4.3197e-02
10.500  21.250  4.3260e-02
10.500  21.500  4.3289e-02
10.500  21.750  4.3314e-02
10.500  22.000  4.3327e-02
10.500  22.250  4.3333e-02
10.500  22.500  4.3336e-02
10.500  22.750  4.3330e-02
10.500  23.000  4.3330e-02
10.500  23.250  4.3329e-02
10.500  23.500  4.3327e-02
10.500  23.750  4.3325e-02
10.500  24.000  4.3324e-02
10.750  17.000  2.2288e-02
10.750  17.250  2.2236e-02
10.750  17.500  2.2135e-02
10.750  17.750  2.1957e-02
10.750  18.000  2.1718e-02
10.750  18.250  2.1490e-02
10.750  18.500  2.1381e-02
10.750  18.750  2.1603e-02
10.750  19.000  2.2351e-02
10.750  19.250  2.3644e-02
10.750  19.500  2.5641e-02
10.750  19.750  2.8668e-02
10.750  20.000  3.3178e-02
10.750  20.250  3.7702e-02
10.750  20.500  3.8952e-02
10.750  20.750  4.0200e-02
10.750  21.000  4.2001e-02
10.750  21.250  4.3179e-02
10.750  21.500  4.3253e-02
10.750  21.750  4.3286e-02
10.750  22.000  4.3313e-02
10.750  22.250  4.3327e-02
10.750  22.500  4.3333e-02
10.750  22.750  4.3338e-02
10.750  23.000  4.3332e-02
10.750  23.250  4.3331e-02
10.750  23.500  4.3330e-02
10.750  23.750  4.3329e-02
10.750  24.000  4.3328e-02
11.000  17.000  2.2209e-02
11.000  17.250  2.2155e-02
11.000  17.500  2.2021e-02
11.000  17.750  2.1786e-02
11.000  18.000  2.1463e-02
11.000  18.250  2.1136e-02
11.000  18.500  2.0934e-02
11.000  18.750  2.1082e-02
11.000  19.000  2.1618e-02
11.000  19.250  2.2491e-02
11.000  19.500  2.3843e-02
11.000  19.750  2.5903e-02
11.000  20.000  2.9049e-02
11.000  20.250  3.3757e-02
11.000  20.500  3.7749e-02
11.000  20.750  3.8941e-02
11.000  21.000  4.0243e-02
11.000  21.250  4.2101e-02
11.000  21.500  4.3159e-02
11.000  21.750  4.3244e-02
11.000  22.000  4.3282e-02
11.000  22.250  4.3312e-02
11.000  22.500  4.3327e-02
11.000  22.750  4.3333e-02
11.000  23.000  4.3338e-02
11.000  23.250  4.3338e-02
11.000  23.500  4.3331e-02
11.000  23.750  4.3331e-02
11.000  24.000  4.3330e-02
11.250  17.000  2.2117e-02
11.250  17.250  2.2053e-02
11.250  17.500  2.1895e-02
11.250  17.750  2.1613e-02
11.250  18.000  2.1220e-02
11.250  18.250  2.0822e-02
11.250  18.500  2.0598e-02
11.250  18.750  2.0692e-02
11.250  19.000  2.1057e-02
11.250  19.250  2.1665e-02
11.250  19.500  2.2567e-02
11.250  19.750  2.3932e-02
11.250  20.000  2.6002e-02
11.250  20.250  2.9251e-02
11.250  20.500  3.4237e-02
11.250  20.750  3.7614e-02
11.250  21.000  3.8971e-02
11.250  21.250  4.0337e-02
11.250  21.500  4.2318e-02
11.250  21.750  4.3128e-02
11.250  22.000  4.3234e-02
11.250  22.250  4.3277e-02
11.250  22.500  4.3310e-02
11.250  22.750  4.3327e-02
11.250  23.000  4.3333e-02
11.250  23.250  4.3338e-02
11.250  23.500  4.3341e-02
11.250  23.750  4.3333e-02
11.250  24.000  4.3331e-02
11.500  17.000  2.2032e-02
11.500  17.250  2.1928e-02
11.500  17.500  2.1743e-02
11.500  17.750  2.1413e-02
11.500  18.000  2.0953e-02
11.500  18.250  2.0528e-02
11.500  18.500  2.0345e-02
11.500  18.750  2.0409e-02
11.500  19.000  2.0643e-02
11.500  19.250  2.1052e-02
11.500  19.500  2.1661e-02
11.500  19.750  2.2565e-02
11.500  20.000  2.3929e-02
11.500  20.250  2.6017e-02
11.500  20.500  2.9385e-02
11.500  20.750  3.4531e-02
11.500  21.000  3.7576e-02
11.500  21.250  3.9032e-02
11.500  21.500  4.0570e-02
11.500  21.750  4.2620e-02
11.500  22.000  4.3092e-02
11.500  22.250  4.3223e-02
11.500  22.500  4.3272e-02
11.500  22.750  4.3308e-02
11.500  23.000  4.3326e-02
11.500  23.250  4.3332e-02
11.500  23.500  4.3338e-02
11.500  23.750  4.3342e-02
11.500  24.000  4.3339e-02
11.750  17.000  2.1970e-02
11.750  17.250  2.1803e-02
11.750  17.500  2.1565e-02
11.750  17.750  2.1172e-02
11.750  18.000  2.0658e-02
11.750  18.250  2.0279e-02
11.750  18.500  2.0157e-02
11.750  18.750  2.0196e-02
11.750  19.000  2.0346e-02
11.750  19.250  2.0604e-02
11.750  19.500  2.1022e-02
11.750  19.750  2.1625e-02
11.750  20.000  2.2515e-02
11.750  20.250  2.3859e-02
11.750  20.500  2.5992e-02
11.750  20.750  2.9486e-02
11.750  21.000  3.4664e-02
11.750  21.250  3.7541e-02
11.750  21.500  3.9178e-02
11.750  21.750  4.0941e-02
11.750  22.000  4.2766e-02
11.750  22.250  4.3054e-02
11.750  22.500  4.3205e-02
11.750  22.750  4.3266e-02
11.750  23.000  4.3305e-02
11.750  23.250  4.3325e-02
11.750  23.500  4.3332e-02
11.750  23.750  4.3338e-02
11.750  24.000  4.3342e-02
12.000  17.000  2.1934e-02
12.000  17.250  2.1696e-02
12.000  17.500  2.1367e-02
12.000  17.750  2.0899e-02
12.000  18.000  2.0396e-02
12.000  18.250  2.0112e-02
12.000  18.500  2.0018e-02
12.000  18.750  2.0029e-02
12.000  19.000  2.0114e-02
12.000  19.250  2.0277e-02
12.000  19.500  2.0549e-02
12.000  19.750  2.0963e-02
12.000  20.000  2.1553e-02
12.000  20.250  2.2427e-02
12.000  20.500  2.3769e-02
12.000  20.750  2.5942e-02
12.000  21.000  2.9637e-02
12.000  21.250  3.4431e-02
12.000  21.500  3.7568e-02
12.000  21.750  3.9399e-02
12.000  22.000  4.1340e-02
12.000  22.250  4.2716e-02
12.000  22.500  4.3011e-02
12.000  22.750  4.3182e-02
12.000  23.000  4.3257e-02
12.000  23.250  4.3302e-02
12.000  23.500  4.3324e-02
12.000  23.750  4.3332e-02
12.000  24.000  4.3338e-02
12.250  17.000  2.1893e-02
12.250  17.250  2.1600e-02
12.250  17.500  2.1182e-02
12.250  17.750  2.0663e-02
12.250  18.000  2.0234e-02
12.250  18.250  2.0004e-02
12.250  18.500  1.9916e-02
12.250  18.750  1.9886e-02
12.250  19.000  1.9920e-02
12.250  19.250  2.0021e-02
12.250  19.500  2.0202e-02
12.250  19.750  2.0480e-02
12.250  20.000  2.0888e-02
12.250  20.250  2.1461e-02
12.250  20.500  2.2315e-02
12.250  20.750  2.3657e-02
12.250  21.000  2.5930e-02
12.250  21.250  2.9896e-02
12.250  21.500  3.4709e-02
12.250  21.750  3.7692e-02
12.250  22.000  3.9688e-02
12.250  22.250  4.1728e-02
12.250  22.500  4.2661e-02
12.250  22.750  4.2970e-02
12.250  23.000  4.3156e-02
12.250  23.250  4.3245e-02
12.250  23.500  4.3298e-02
12.250  23.750  4.3323e-02
12.250  24.000  4.3331e-02
12.500  17.000  1.7000e-02
12.500  17.250  2.1513e-02
12.500  17.500  2.1080e-02
12.500  17.750  2.0601e-02
12.500  18.000  2.0211e-02
12.500  18.250  1.9971e-02
12.500  18.500  1.9837e-02
12.500  18.750  1.9761e-02
12.500  19.000  1.9750e-02
12.500  19.250  1.9809e-02
12.500  19.500  1.9931e-02
12.500  19.750  2.0123e-02
12.500  20.000  2.0401e-02
12.500  20.250  2.0797e-02
12.500  20.500  2.1348e-02
12.500  20.750  2.2195e-02
12.500  21.000  2.3572e-02
12.500  21.250  2.6013e-02
12.500  21.500  3.0064e-02
12.500  21.750  3.4973e-02
12.500  22.000  3.7912e-02
12.500  22.250  4.0006e-02
12.500  22.500  4.1950e-02
12.500  22.750  4.2617e-02
12.500  23.000  4.2936e-02
12.500  23.250  4.3132e-02
12.500  23.500  4.3231e-02
12.500  23.750  4.3293e-02
12.500  24.000  4.3322e-02
12.750  17.000  9.3841e-03
12.750  17.250  1.8504e-02
12.750  17.500  2.1072e-02
12.750  17.750  2.0587e-02
12.750  18.000  2.0166e-02
12.750  18.250  1.9913e-02
12.750  18.500  1.9746e-02
12.750  18.750  1.9647e-02
12.750  19.000  1.9607e-02
12.750  19.250  1.9624e-02
12.750  19.500  1.9702e-02
12.750  19.750  1.9837e-02
12.750  20.000  2.0028e-02
12.750  20.250  2.0300e-02
12.750  20.500  2.0672e-02
12.750  20.750  2.1195e-02
12.750  21.000  2.2040e-02
12.750  21.250  2.3489e-02
12.750  21.500  2.5980e-02
12.750  21.750  3.0573e-02
12.750  22.000  3.5346e-02
12.750  22.250  3.8173e-02
12.750  22.500  4.0350e-02
12.750  22.750  4.2041e-02
12.750  23.000  4.2593e-02
12.750  23.250  4.2911e-02
12.750  23.500  4.3106e-02
12.750  23.750  4.3216e-02
12.750  24.000  4.3285e-02
13.000  17.000  1.5514e-03
13.000  17.250  3.7377e-03
13.000  17.500  1.3493e-02
13.000  17.750  1.9955e-02
13.000  18.000  2.0020e-02
13.000  18.250  1.9774e-02
13.000  18.500  1.9598e-02
13.000  18.750  1.9500e-02
13.000  19.000  1.9459e-02
13.000  19.250  1.9462e-02
13.000  19.500  1.9503e-02
13.000  19.750  1.9593e-02
13.000  20.000  1.9730e-02
13.000  20.250  1.9912e-02
13.000  20.500  2.0161e-02
13.000  20.750  2.0507e-02
13.000  21.000  2.1009e-02
13.000  21.250  2.1851e-02
13.000  21.500  2.3311e-02
13.000  21.750  2.6172e-02
13.000  22.000  3.1154e-02
13.000  22.250  3.5717e-02
13.000  22.500  3.8434e-02
13.000  22.750  4.0587e-02
13.000  23.000  4.2073e-02
13.000  23.250  4.2579e-02
13.000  23.500  4.2890e-02
13.000  23.750  4.3083e-02
13.000  24.000  4.3195e-02
13.250  17.000  9.2823e-04
13.250  17.250  1.7590e-03
13.250  17.500  4.3597e-03
13.250  17.750  1.0170e-02
13.250  18.000  1.5322e-02
13.250  18.250  1.9568e-02
13.250  18.500  1.9388e-02
13.250  18.750  1.9290e-02
13.250  19.000  1.9272e-02
13.250  19.250  1.9284e-02
13.250  19.500  1.9320e-02
13.250  19.750  1.9380e-02
13.250  20.000  1.9470e-02
13.250  20.250  1.9595e-02
13.250  20.500  1.9753e-02
13.250  20.750  1.9957e-02
13.250  21.000  2.0253e-02
13.250  21.250  2.0697e-02
13.250  21.500  2.1471e-02
13.250  21.750  2.3021e-02
13.250  22.000  2.6295e-02
13.250  22.250  3.1781e-02
13.250  22.500  3.5938e-02
13.250  22.750  3.8468e-02
13.250  23.000  4.0543e-02
13.250  23.250  4.2065e-02
13.250  23.500  4.2559e-02
13.250  23.750  4.2866e-02
13.250  24.000  4.3059e-02
13.500  17.000  5.5679e-04
13.500  17.250  1.1029e-03
13.500  17.500  2.4923e-03
13.500  17.750  5.5495e-03
13.500  18.000  1.1737e-02
13.500  18.250  1.5862e-02
13.500  18.500  1.9157e-02
13.500  18.750  1.9051e-02
13.500  19.000  1.9025e-02
13.500  19.250  1.9062e-02
13.500  19.500  1.9115e-02
13.500  19.750  1.9173e-02
13.500  20.000  1.9239e-02
13.500  20.250  1.9316e-02
13.500  20.500  1.9410e-02
13.500  20.750  1.9520e-02
13.500  21.000  1.9650e-02
13.500  21.250  1.9845e-02
13.500  21.500  2.0166e-02
13.500  21.750  2.0838e-02
13.500  22.000  2.2456e-02
13.500  22.250  2.6262e-02
13.500  22.500  3.2265e-02
13.500  22.750  3.6008e-02
13.500  23.000  3.8418e-02
13.500  23.250  4.0501e-02
13.500  23.500  4.2039e-02
13.500  23.750  4.2524e-02
13.500  24.000  4.2833e-02
13.750  17.000  3.4049e-04
13.750  17.250  6.8765e-04
13.750  17.500  1.4965e-03
13.750  17.750  2.9452e-03
13.750  18.000  6.8968e-03
13.750  18.250  1.3146e-02
13.750  18.500  1.5915e-02
13.750  18.750  1.8807e-02
13.750  19.000  1.8759e-02
13.750  19.250  1.8786e-02
13.750  19.500  1.8862e-02
13.750  19.750  1.8940e-02
13.750  20.000  1.9006e-02
13.750  20.250  1.9063e-02
13.750  20.500  1.9112e-02
13.750  20.750  1.9148e-02
13.750  21.000  1.9165e-02
13.750  21.250  1.9165e-02
13.750  21.500  1.9198e-02
13.750  21.750  1.9261e-02
13.750  22.000  1.9646e-02
13.750  22.250  2.1310e-02
13.750  22.500  2.6138e-02
13.750  22.750  3.2793e-02
13.750  23.000  3.6053e-02
13.750  23.250  3.8342e-02
13.750  23.500  4.0391e-02
13.750  23.750  4.1980e-02
13.750  24.000  4.2468e-02
14.000  17.000  2.0650e-04
14.000  17.250  4.0568e-04
14.000  17.500  9.0905e-04
14.000  17.750  1.8173e-03
14.000  18.000  3.6250e-03
14.000  18.250  8.0606e-03
14.000  18.500  1.3707e-02
14.000  18.750  1.7248e-02
14.000  19.000  1.8517e-02
14.000  19.250  1.8504e-02
14.000  19.500  1.8570e-02
14.000  19.750  1.8669e-02
14.000  20.000  1.8749e-02
14.000  20.250  1.8807e-02
14.000  20.500  1.8833e-02
14.000  20.750  1.8826e-02
14.000  21.000  1.8763e-02
14.000  21.250  1.8620e-02
14.000  21.500  1.8427e-02
14.000  21.750  1.8088e-02
14.000  22.000  1.7677e-02
14.000  22.250  1.7710e-02
14.000  22.500  1.9829e-02
14.000  22.750  2.6299e-02
14.000  23.000  3.3136e-02
14.000  23.250  3.6073e-02
14.000  23.500  3.8264e-02
14.000  23.750  4.0381e-02
14.000  24.000  4.1860e-02
