InwT 10000.0A  relative to Inci 1215.00A scaled to 1215A.
Hden   Phi(H)  Eq_Width (A)
7.000  17.000  2.8205e-02
7.000  17.250  1.9878e-02
7.000  17.500  1.4297e-02
7.000  17.750  1.1023e-02
7.000  18.000  9.3865e-03
7.000  18.250  8.5584e-03
7.000  18.500  8.0958e-03
7.000  18.750  7.9019e-03
7.000  19.000  7.8047e-03
7.000  19.250  7.7506e-03
7.000  19.500  7.7298e-03
7.000  19.750  7.7215e-03
7.000  20.000  7.7180e-03
7.000  20.250  7.7164e-03
7.000  20.500  7.7156e-03
7.000  20.750  7.7152e-03
7.000  21.000  7.7151e-03
7.000  21.250  7.7150e-03
7.000  21.500  7.7149e-03
7.000  21.750  7.7149e-03
7.000  22.000  7.7150e-03
7.000  22.250  7.7151e-03
7.000  22.500  7.7151e-03
7.000  22.750  7.7152e-03
7.000  23.000  7.7152e-03
7.000  23.250  7.7151e-03
7.000  23.500  7.7151e-03
7.000  23.750  7.7151e-03
7.000  24.000  7.7151e-03
7.250  17.000  2.9582e-02
7.250  17.250  2.8289e-02
7.250  17.500  1.9863e-02
7.250  17.750  1.4289e-02
7.250  18.000  1.1019e-02
7.250  18.250  9.3853e-03
7.250  18.500  8.5583e-03
7.250  18.750  8.0957e-03
7.250  19.000  7.9019e-03
7.250  19.250  7.8047e-03
7.250  19.500  7.7506e-03
7.250  19.750  7.7298e-03
7.250  20.000  7.7208e-03
7.250  20.250  7.7167e-03
7.250  20.500  7.7156e-03
7.250  20.750  7.7156e-03
7.250  21.000  7.7152e-03
7.250  21.250  7.7150e-03
7.250  21.500  7.7149e-03
7.250  21.750  7.7148e-03
7.250  22.000  7.7148e-03
7.250  22.250  7.7148e-03
7.250  22.500  7.7148e-03
7.250  22.750  7.7149e-03
7.250  23.000  7.7149e-03
7.250  23.250  7.7150e-03
7.250  23.500  7.7150e-03
7.250  23.750  7.7150e-03
7.250  24.000  7.7150e-03
7.500  17.000  3.0969e-02
7.500  17.250  2.9981e-02
7.500  17.500  2.8348e-02
7.500  17.750  1.9851e-02
7.500  18.000  1.4282e-02
7.500  18.250  1.1014e-02
7.500  18.500  9.3839e-03
7.500  18.750  8.5582e-03
7.500  19.000  8.0957e-03
7.500  19.250  7.9019e-03
7.500  19.500  7.8046e-03
7.500  19.750  7.7506e-03
7.500  20.000  7.7298e-03
7.500  20.250  7.7215e-03
7.500  20.500  7.7176e-03
7.500  20.750  7.7160e-03
7.500  21.000  7.7156e-03
7.500  21.250  7.7152e-03
7.500  21.500  7.7150e-03
7.500  21.750  7.7149e-03
7.500  22.000  7.7148e-03
7.500  22.250  7.7148e-03
7.500  22.500  7.7147e-03
7.500  22.750  7.7147e-03
7.500  23.000  7.7147e-03
7.500  23.250  7.7148e-03
7.500  23.500  7.7152e-03
7.500  23.750  7.7148e-03
7.500  24.000  7.7148e-03
7.750  17.000  3.1194e-02
7.750  17.250  3.1650e-02
7.750  17.500  3.0314e-02
7.750  17.750  2.8390e-02
7.750  18.000  1.9841e-02
7.750  18.250  1.4275e-02
7.750  18.500  1.1009e-02
7.750  18.750  9.3821e-03
7.750  19.000  8.5579e-03
7.750  19.250  8.0956e-03
7.750  19.500  7.9019e-03
7.750  19.750  7.8047e-03
7.750  20.000  7.7506e-03
7.750  20.250  7.7298e-03
7.750  20.500  7.7215e-03
7.750  20.750  7.7180e-03
7.750  21.000  7.7164e-03
7.750  21.250  7.7156e-03
7.750  21.500  7.7152e-03
7.750  21.750  7.7150e-03
7.750  22.000  7.7148e-03
7.750  22.250  7.7148e-03
7.750  22.500  7.7147e-03
7.750  22.750  7.7147e-03
7.750  23.000  7.7147e-03
7.750  23.250  7.7147e-03
7.750  23.500  7.7147e-03
7.750  23.750  7.7147e-03
7.750  24.000  7.7147e-03
8.000  17.000  3.0642e-02
8.000  17.250  3.1645e-02
8.000  17.500  3.2131e-02
8.000  17.750  3.0419e-02
8.000  18.000  2.8260e-02
8.000  18.250  1.9826e-02
8.000  18.500  1.4268e-02
8.000  18.750  1.1003e-02
8.000  19.000  9.3798e-03
8.000  19.250  8.5577e-03
8.000  19.500  8.0956e-03
8.000  19.750  7.9019e-03
8.000  20.000  7.8046e-03
8.000  20.250  7.7506e-03
8.000  20.500  7.7298e-03
8.000  20.750  7.7215e-03
8.000  21.000  7.7180e-03
8.000  21.250  7.7164e-03
8.000  21.500  7.7156e-03
8.000  21.750  7.7152e-03
8.000  22.000  7.7150e-03
8.000  22.250  7.7148e-03
8.000  22.500  7.7148e-03
8.000  22.750  7.7148e-03
8.000  23.000  7.7147e-03
8.000  23.250  7.7149e-03
8.000  23.500  7.7147e-03
8.000  23.750  7.7147e-03
8.000  24.000  7.7147e-03
8.250  17.000  3.0703e-02
8.250  17.250  3.1367e-02
8.250  17.500  3.2582e-02
8.250  17.750  3.3048e-02
8.250  18.000  3.0987e-02
8.250  18.250  2.8327e-02
8.250  18.500  1.9823e-02
8.250  18.750  1.4262e-02
8.250  19.000  1.0996e-02
8.250  19.250  9.3773e-03
8.250  19.500  8.5574e-03
8.250  19.750  8.0955e-03
8.250  20.000  7.9018e-03
8.250  20.250  7.8047e-03
8.250  20.500  7.7506e-03
8.250  20.750  7.7298e-03
8.250  21.000  7.7215e-03
8.250  21.250  7.7180e-03
8.250  21.500  7.7164e-03
8.250  21.750  7.7156e-03
8.250  22.000  7.7152e-03
8.250  22.250  7.7150e-03
8.250  22.500  7.7148e-03
8.250  22.750  7.7147e-03
8.250  23.000  7.7147e-03
8.250  23.250  7.7147e-03
8.250  23.500  7.7147e-03
8.250  23.750  7.7147e-03
8.250  24.000  7.7147e-03
8.500  17.000  3.1098e-02
8.500  17.250  3.1445e-02
8.500  17.500  3.2385e-02
8.500  17.750  3.4023e-02
8.500  18.000  3.4682e-02
8.500  18.250  3.1895e-02
8.500  18.500  2.8473e-02
8.500  18.750  1.9822e-02
8.500  19.000  1.4255e-02
8.500  19.250  1.0989e-02
8.500  19.500  9.3743e-03
8.500  19.750  8.5570e-03
8.500  20.000  8.0954e-03
8.500  20.250  7.9018e-03
8.500  20.500  7.8046e-03
8.500  20.750  7.7506e-03
8.500  21.000  7.7298e-03
8.500  21.250  7.7215e-03
8.500  21.500  7.7180e-03
8.500  21.750  7.7164e-03
8.500  22.000  7.7156e-03
8.500  22.250  7.7152e-03
8.500  22.500  7.7150e-03
8.500  22.750  7.7148e-03
8.500  23.000  7.7148e-03
8.500  23.250  7.7147e-03
8.500  23.500  7.7147e-03
8.500  23.750  7.7147e-03
8.500  24.000  7.7147e-03
8.750  17.000  3.1633e-02
8.750  17.250  3.1887e-02
8.750  17.500  3.2591e-02
8.750  17.750  3.4194e-02
8.750  18.000  3.6656e-02
8.750  18.250  3.7445e-02
8.750  18.500  3.3749e-02
8.750  18.750  2.8540e-02
8.750  19.000  1.9821e-02
8.750  19.250  1.4248e-02
8.750  19.500  1.0980e-02
8.750  19.750  9.3711e-03
8.750  20.000  8.5565e-03
8.750  20.250  8.0953e-03
8.750  20.500  7.9018e-03
8.750  20.750  7.8047e-03
8.750  21.000  7.7506e-03
8.750  21.250  7.7297e-03
8.750  21.500  7.7215e-03
8.750  21.750  7.7180e-03
8.750  22.000  7.7164e-03
8.750  22.250  7.7156e-03
8.750  22.500  7.7152e-03
8.750  22.750  7.7150e-03
8.750  23.000  7.7148e-03
8.750  23.250  7.7148e-03
8.750  23.500  7.7148e-03
8.750  23.750  7.7147e-03
8.750  24.000  7.7147e-03
9.000  17.000  3.2201e-02
9.000  17.250  3.2493e-02
9.000  17.500  3.3225e-02
9.000  17.750  3.4733e-02
9.000  18.000  3.7653e-02
9.000  18.250  4.1486e-02
9.000  18.500  4.1663e-02
9.000  18.750  3.5474e-02
9.000  19.000  2.8553e-02
9.000  19.250  1.9820e-02
9.000  19.500  1.4241e-02
9.000  19.750  1.0971e-02
9.000  20.000  9.3678e-03
9.000  20.250  8.5560e-03
9.000  20.500  8.0951e-03
9.000  20.750  7.9018e-03
9.000  21.000  7.8047e-03
9.000  21.250  7.7506e-03
9.000  21.500  7.7298e-03
9.000  21.750  7.7215e-03
9.000  22.000  7.7180e-03
9.000  22.250  7.7164e-03
9.000  22.500  7.7156e-03
9.000  22.750  7.7152e-03
9.000  23.000  7.7150e-03
9.000  23.250  7.7148e-03
9.000  23.500  7.7148e-03
9.000  23.750  7.7147e-03
9.000  24.000  7.7147e-03
9.250  17.000  3.2779e-02
9.250  17.250  3.3154e-02
9.250  17.500  3.4104e-02
9.250  17.750  3.5943e-02
9.250  18.000  3.9364e-02
9.250  18.250  4.4423e-02
9.250  18.500  4.8743e-02
9.250  18.750  4.6974e-02
9.250  19.000  3.8691e-02
9.250  19.250  2.8582e-02
9.250  19.500  1.9816e-02
9.250  19.750  1.4237e-02
9.250  20.000  1.0963e-02
9.250  20.250  9.3645e-03
9.250  20.500  8.5556e-03
9.250  20.750  8.0951e-03
9.250  21.000  7.9018e-03
9.250  21.250  7.8046e-03
9.250  21.500  7.7491e-03
9.250  21.750  7.7275e-03
9.250  22.000  7.7190e-03
9.250  22.250  7.7157e-03
9.250  22.500  7.7163e-03
9.250  22.750  7.7155e-03
9.250  23.000  7.7151e-03
9.250  23.250  7.7149e-03
9.250  23.500  7.7148e-03
9.250  23.750  7.7148e-03
9.250  24.000  7.7147e-03
9.500  17.000  3.3466e-02
9.500  17.250  3.3934e-02
9.500  17.500  3.5158e-02
9.500  17.750  3.7584e-02
9.500  18.000  4.2017e-02
9.500  18.250  4.8168e-02
9.500  18.500  5.4395e-02
9.500  18.750  5.7347e-02
9.500  19.000  5.1746e-02
9.500  19.250  4.1456e-02
9.500  19.500  2.8617e-02
9.500  19.750  1.9808e-02
9.500  20.000  1.4234e-02
9.500  20.250  1.0956e-02
9.500  20.500  9.3614e-03
9.500  20.750  8.5549e-03
9.500  21.000  8.0933e-03
9.500  21.250  7.8995e-03
9.500  21.500  7.8022e-03
9.500  21.750  7.7477e-03
9.500  22.000  7.7257e-03
9.500  22.250  7.7174e-03
9.500  22.500  7.7139e-03
9.500  22.750  7.7122e-03
9.500  23.000  7.7114e-03
9.500  23.250  7.7110e-03
9.500  23.500  7.7119e-03
9.500  23.750  7.7118e-03
9.500  24.000  7.7116e-03
9.750  17.000  3.4238e-02
9.750  17.250  3.4782e-02
9.750  17.500  3.6332e-02
9.750  17.750  3.9550e-02
9.750  18.000  4.5386e-02
9.750  18.250  5.3231e-02
9.750  18.500  6.0642e-02
9.750  18.750  6.5857e-02
9.750  19.000  6.6047e-02
9.750  19.250  5.7417e-02
9.750  19.500  4.4533e-02
9.750  19.750  2.8616e-02
9.750  20.000  1.9793e-02
9.750  20.250  1.4234e-02
9.750  20.500  1.0950e-02
9.750  20.750  9.3589e-03
9.750  21.000  8.5545e-03
9.750  21.250  8.0942e-03
9.750  21.500  7.8999e-03
9.750  21.750  7.8023e-03
9.750  22.000  7.7480e-03
9.750  22.250  7.7263e-03
9.750  22.500  7.7173e-03
9.750  22.750  7.7140e-03
9.750  23.000  7.7124e-03
9.750  23.250  7.7116e-03
9.750  23.500  7.7111e-03
9.750  23.750  7.7108e-03
9.750  24.000  7.7106e-03
10.000  17.000  3.5111e-02
10.000  17.250  3.5856e-02
10.000  17.500  3.7810e-02
10.000  17.750  4.2041e-02
10.000  18.000  4.9761e-02
10.000  18.250  5.9328e-02
10.000  18.500  6.7830e-02
10.000  18.750  7.4092e-02
10.000  19.000  7.7856e-02
10.000  19.250  7.4672e-02
10.000  19.500  6.3801e-02
10.000  19.750  4.4373e-02
10.000  20.000  2.8550e-02
10.000  20.250  1.9780e-02
10.000  20.500  1.4234e-02
10.000  20.750  1.0946e-02
10.000  21.000  9.3566e-03
10.000  21.250  8.5541e-03
10.000  21.500  8.0944e-03
10.000  21.750  7.9010e-03
10.000  22.000  7.8026e-03
10.000  22.250  7.7481e-03
10.000  22.500  7.7267e-03
10.000  22.750  7.7177e-03
10.000  23.000  7.7137e-03
10.000  23.250  7.7123e-03
10.000  23.500  7.7115e-03
10.000  23.750  7.7112e-03
10.000  24.000  7.7109e-03
10.250  17.000  3.6585e-02
10.250  17.250  3.7223e-02
10.250  17.500  3.9836e-02
10.250  17.750  4.5387e-02
10.250  18.000  5.4911e-02
10.250  18.250  6.6015e-02
10.250  18.500  7.5288e-02
10.250  18.750  8.2472e-02
10.250  19.000  8.7227e-02
10.250  19.250  8.8410e-02
10.250  19.500  8.2733e-02
10.250  19.750  6.8098e-02
10.250  20.000  4.4379e-02
10.250  20.250  2.8440e-02
10.250  20.500  1.9745e-02
10.250  20.750  1.4233e-02
10.250  21.000  1.0943e-02
10.250  21.250  9.3549e-03
10.250  21.500  8.5537e-03
10.250  21.750  8.0943e-03
10.250  22.000  7.9015e-03
10.250  22.250  7.8034e-03
10.250  22.500  7.7483e-03
10.250  22.750  7.7271e-03
10.250  23.000  7.7183e-03
10.250  23.250  7.7142e-03
10.250  23.500  7.7123e-03
10.250  23.750  7.7114e-03
10.250  24.000  7.7109e-03
10.500  17.000  3.8928e-02
10.500  17.250  3.9455e-02
10.500  17.500  4.2708e-02
10.500  17.750  5.0019e-02
10.500  18.000  6.1081e-02
10.500  18.250  7.3202e-02
10.500  18.500  8.2786e-02
10.500  18.750  9.0407e-02
10.500  19.000  9.5655e-02
10.500  19.250  9.8332e-02
10.500  19.500  9.7033e-02
10.500  19.750  8.9646e-02
10.500  20.000  7.1716e-02
10.500  20.250  4.4089e-02
10.500  20.500  2.8249e-02
10.500  20.750  1.9696e-02
10.500  21.000  1.4226e-02
10.500  21.250  1.0940e-02
10.500  21.500  9.3541e-03
10.500  21.750  8.5533e-03
10.500  22.000  8.0941e-03
10.500  22.250  7.9016e-03
10.500  22.500  7.8042e-03
10.500  22.750  7.7483e-03
10.500  23.000  7.7273e-03
10.500  23.250  7.7187e-03
10.500  23.500  7.7148e-03
10.500  23.750  7.7129e-03
10.500  24.000  7.7119e-03
10.750  17.000  4.2390e-02
10.750  17.250  4.2763e-02
10.750  17.500  4.7011e-02
10.750  17.750  5.5924e-02
10.750  18.000  6.8209e-02
10.750  18.250  8.0411e-02
10.750  18.500  9.0218e-02
10.750  18.750  9.8080e-02
10.750  19.000  1.0374e-01
10.750  19.250  1.0712e-01
10.750  19.500  1.0825e-01
10.750  19.750  1.0580e-01
10.750  20.000  9.7190e-02
10.750  20.250  7.4005e-02
10.750  20.500  4.3810e-02
10.750  20.750  2.8088e-02
10.750  21.000  1.9662e-02
10.750  21.250  1.4207e-02
10.750  21.500  1.0938e-02
10.750  21.750  9.3533e-03
10.750  22.000  8.5531e-03
10.750  22.250  8.0937e-03
10.750  22.500  7.9015e-03
10.750  22.750  7.8044e-03
10.750  23.000  7.7487e-03
10.750  23.250  7.7274e-03
10.750  23.500  7.7189e-03
10.750  23.750  7.7152e-03
10.750  24.000  7.7134e-03
11.000  17.000  4.7217e-02
11.000  17.250  4.7248e-02
11.000  17.500  5.2508e-02
11.000  17.750  6.2913e-02
11.000  18.000  7.5781e-02
11.000  18.250  8.7774e-02
11.000  18.500  9.7718e-02
11.000  18.750  1.0610e-01
11.000  19.000  1.1192e-01
11.000  19.250  1.1536e-01
11.000  19.500  1.1753e-01
11.000  19.750  1.1796e-01
11.000  20.000  1.1468e-01
11.000  20.250  1.0475e-01
11.000  20.500  7.3375e-02
11.000  20.750  4.3549e-02
11.000  21.000  2.7908e-02
11.000  21.250  1.9659e-02
11.000  21.500  1.4177e-02
11.000  21.750  1.0933e-02
11.000  22.000  9.3524e-03
11.000  22.250  8.5524e-03
11.000  22.500  8.0933e-03
11.000  22.750  7.9013e-03
11.000  23.000  7.8044e-03
11.000  23.250  7.7498e-03
11.000  23.500  7.7275e-03
11.000  23.750  7.7191e-03
11.000  24.000  7.7155e-03
11.250  17.000  5.3721e-02
11.250  17.250  5.2950e-02
11.250  17.500  5.8821e-02
11.250  17.750  7.0354e-02
11.250  18.000  8.3621e-02
11.250  18.250  9.5299e-02
11.250  18.500  1.0491e-01
11.250  18.750  1.1314e-01
11.250  19.000  1.1910e-01
11.250  19.250  1.2339e-01
11.250  19.500  1.2581e-01
11.250  19.750  1.2728e-01
11.250  20.000  1.2696e-01
11.250  20.250  1.2327e-01
11.250  20.500  1.1225e-01
11.250  20.750  7.3326e-02
11.250  21.000  4.3296e-02
11.250  21.250  2.7862e-02
11.250  21.500  1.9782e-02
11.250  21.750  1.4123e-02
11.250  22.000  1.0924e-02
11.250  22.250  9.3510e-03
11.250  22.500  8.5510e-03
11.250  22.750  8.0925e-03
11.250  23.000  7.9010e-03
11.250  23.250  7.8044e-03
11.250  23.500  7.7502e-03
11.250  23.750  7.7278e-03
11.250  24.000  7.7192e-03
11.500  17.000  6.2621e-02
11.500  17.250  6.0392e-02
11.500  17.500  6.6037e-02
11.500  17.750  7.7972e-02
11.500  18.000  9.1382e-02
11.500  18.250  1.0285e-01
11.500  18.500  1.1200e-01
11.500  18.750  1.2010e-01
11.500  19.000  1.2598e-01
11.500  19.250  1.3049e-01
11.500  19.500  1.3333e-01
11.500  19.750  1.3516e-01
11.500  20.000  1.3619e-01
11.500  20.250  1.3578e-01
11.500  20.500  1.3172e-01
11.500  20.750  1.1792e-01
11.500  21.000  7.2836e-02
11.500  21.250  4.3006e-02
11.500  21.500  2.8057e-02
11.500  21.750  1.9935e-02
11.500  22.000  1.4052e-02
11.500  22.250  1.0909e-02
11.500  22.500  9.3484e-03
11.500  22.750  8.5491e-03
11.500  23.000  8.0914e-03
11.500  23.250  7.9004e-03
11.500  23.500  7.8041e-03
11.500  23.750  7.7504e-03
11.500  24.000  7.7289e-03
11.750  17.000  7.4960e-02
11.750  17.250  7.0124e-02
11.750  17.500  7.4485e-02
11.750  17.750  8.5858e-02
11.750  18.000  9.8943e-02
11.750  18.250  1.1008e-01
11.750  18.500  1.1911e-01
11.750  18.750  1.2668e-01
11.750  19.000  1.3307e-01
11.750  19.250  1.3743e-01
11.750  19.500  1.4066e-01
11.750  19.750  1.4259e-01
11.750  20.000  1.4367e-01
11.750  20.250  1.4441e-01
11.750  20.500  1.4420e-01
11.750  20.750  1.3972e-01
11.750  21.000  1.2379e-01
11.750  21.250  7.2310e-02
11.750  21.500  4.3115e-02
11.750  21.750  2.8491e-02
11.750  22.000  1.9861e-02
11.750  22.250  1.3968e-02
11.750  22.500  1.0885e-02
11.750  22.750  9.3435e-03
11.750  23.000  8.5458e-03
11.750  23.250  8.0896e-03
11.750  23.500  7.8995e-03
11.750  23.750  7.8037e-03
11.750  24.000  7.7503e-03
12.000  17.000  9.0464e-02
12.000  17.250  8.2710e-02
12.000  17.500  8.4601e-02
12.000  17.750  9.4129e-02
12.000  18.000  1.0609e-01
12.000  18.250  1.1689e-01
12.000  18.500  1.2628e-01
12.000  18.750  1.3419e-01
12.000  19.000  1.4041e-01
12.000  19.250  1.4481e-01
12.000  19.500  1.4760e-01
12.000  19.750  1.4924e-01
12.000  20.000  1.5015e-01
12.000  20.250  1.5100e-01
12.000  20.500  1.5181e-01
12.000  20.750  1.5191e-01
12.000  21.000  1.4700e-01
12.000  21.250  1.2098e-01
12.000  21.500  7.2238e-02
12.000  21.750  4.3173e-02
12.000  22.000  2.8963e-02
12.000  22.250  1.9579e-02
12.000  22.500  1.3861e-02
12.000  22.750  1.0851e-02
12.000  23.000  9.3345e-03
12.000  23.250  8.5406e-03
12.000  23.500  8.0870e-03
12.000  23.750  7.8981e-03
12.000  24.000  7.8030e-03
12.250  17.000  1.1074e-01
12.250  17.250  9.8672e-02
12.250  17.500  9.6408e-02
12.250  17.750  1.0262e-01
12.250  18.000  1.1300e-01
12.250  18.250  1.2397e-01
12.250  18.500  1.3392e-01
12.250  18.750  1.4218e-01
12.250  19.000  1.4822e-01
12.250  19.250  1.5232e-01
12.250  19.500  1.5456e-01
12.250  19.750  1.5570e-01
12.250  20.000  1.5617e-01
12.250  20.250  1.5658e-01
12.250  20.500  1.5710e-01
12.250  20.750  1.5838e-01
12.250  21.000  1.5908e-01
12.250  21.250  1.5300e-01
12.250  21.500  1.2149e-01
12.250  21.750  7.1393e-02
12.250  22.000  4.3400e-02
12.250  22.250  2.9313e-02
12.250  22.500  1.9282e-02
12.250  22.750  1.3734e-02
12.250  23.000  1.0803e-02
12.250  23.250  9.3182e-03
12.250  23.500  8.5314e-03
12.250  23.750  8.0830e-03
12.250  24.000  7.8960e-03
12.500  17.000  1.2186e-01
12.500  17.250  1.1879e-01
12.500  17.500  1.1136e-01
12.500  17.750  1.0561e-01
12.500  18.000  1.0302e-01
12.500  18.250  1.0317e-01
12.500  18.500  1.0565e-01
12.500  18.750  1.1002e-01
12.500  19.000  1.1588e-01
12.500  19.250  1.2280e-01
12.500  19.500  1.3036e-01
12.500  19.750  1.3814e-01
12.500  20.000  1.4572e-01
12.500  20.250  1.5268e-01
12.500  20.500  1.5859e-01
12.500  20.750  1.6304e-01
12.500  21.000  1.6561e-01
12.500  21.250  1.6588e-01
12.500  21.500  1.5690e-01
12.500  21.750  1.1766e-01
12.500  22.000  7.0145e-02
12.500  22.250  4.3640e-02
12.500  22.500  2.9157e-02
12.500  22.750  1.8940e-02
12.500  23.000  1.3572e-02
12.500  23.250  1.0739e-02
12.500  23.500  9.2896e-03
12.500  23.750  8.5160e-03
12.500  24.000  8.0770e-03
12.750  17.000  1.1319e-01
12.750  17.250  1.3136e-01
12.750  17.500  1.2822e-01
12.750  17.750  1.2556e-01
12.750  18.000  1.2971e-01
12.750  18.250  1.3881e-01
12.750  18.500  1.4875e-01
12.750  18.750  1.5789e-01
12.750  19.000  1.6422e-01
12.750  19.250  1.6786e-01
12.750  19.500  1.6862e-01
12.750  19.750  1.6834e-01
12.750  20.000  1.6737e-01
12.750  20.250  1.6675e-01
12.750  20.500  1.6592e-01
12.750  20.750  1.6573e-01
12.750  21.000  1.6777e-01
12.750  21.250  1.7086e-01
12.750  21.500  1.7017e-01
12.750  21.750  1.5876e-01
12.750  22.000  1.1269e-01
12.750  22.250  6.8540e-02
12.750  22.500  4.3724e-02
12.750  22.750  2.8508e-02
12.750  23.000  1.8563e-02
12.750  23.250  1.3374e-02
12.750  23.500  1.0645e-02
12.750  23.750  9.2416e-03
12.750  24.000  8.4896e-03
13.000  17.000  6.4376e-02
13.000  17.250  8.2600e-02
13.000  17.500  1.2237e-01
13.000  17.750  1.3910e-01
13.000  18.000  1.4274e-01
13.000  18.250  1.4933e-01
13.000  18.500  1.5741e-01
13.000  18.750  1.6556e-01
13.000  19.000  1.7170e-01
13.000  19.250  1.7507e-01
13.000  19.500  1.7539e-01
13.000  19.750  1.7443e-01
13.000  20.000  1.7293e-01
13.000  20.250  1.7122e-01
13.000  20.500  1.7042e-01
13.000  20.750  1.7018e-01
13.000  21.000  1.7102e-01
13.000  21.250  1.7405e-01
13.000  21.500  1.7657e-01
13.000  21.750  1.7467e-01
13.000  22.000  1.5554e-01
13.000  22.250  1.0638e-01
13.000  22.500  6.6309e-02
13.000  22.750  4.2933e-02
13.000  23.000  2.7561e-02
13.000  23.250  1.8073e-02
13.000  23.500  1.3111e-02
13.000  23.750  1.0516e-02
13.000  24.000  9.1646e-03
13.250  17.000  6.3890e-02
13.250  17.250  7.3253e-02
13.250  17.500  9.5128e-02
13.250  17.750  1.2662e-01
13.250  18.000  1.4759e-01
13.250  18.250  1.6327e-01
13.250  18.500  1.6878e-01
13.250  18.750  1.7467e-01
13.250  19.000  1.7925e-01
13.250  19.250  1.8224e-01
13.250  19.500  1.8227e-01
13.250  19.750  1.8091e-01
13.250  20.000  1.7868e-01
13.250  20.250  1.7624e-01
13.250  20.500  1.7424e-01
13.250  20.750  1.7358e-01
13.250  21.000  1.7416e-01
13.250  21.250  1.7590e-01
13.250  21.500  1.7701e-01
13.250  21.750  1.8006e-01
13.250  22.000  1.7526e-01
13.250  22.250  1.4720e-01
13.250  22.500  9.7977e-02
13.250  22.750  6.2085e-02
13.250  23.000  4.0402e-02
13.250  23.250  2.6309e-02
13.250  23.500  1.7481e-02
13.250  23.750  1.2800e-02
13.250  24.000  1.0345e-02
13.500  17.000  6.3467e-02
13.500  17.250  7.3668e-02
13.500  17.500  9.2165e-02
13.500  17.750  1.1798e-01
13.500  18.000  1.5386e-01
13.500  18.250  1.7178e-01
13.500  18.500  1.8350e-01
13.500  18.750  1.8611e-01
13.500  19.000  1.8896e-01
13.500  19.250  1.8994e-01
13.500  19.500  1.8963e-01
13.500  19.750  1.8734e-01
13.500  20.000  1.8461e-01
13.500  20.250  1.8187e-01
13.500  20.500  1.7904e-01
13.500  20.750  1.7689e-01
13.500  21.000  1.7586e-01
13.500  21.250  1.7698e-01
13.500  21.500  1.7724e-01
13.500  21.750  1.8119e-01
13.500  22.000  1.8327e-01
13.500  22.250  1.6937e-01
13.500  22.500  1.3263e-01
13.500  22.750  8.7720e-02
13.500  23.000  5.6347e-02
13.500  23.250  3.7503e-02
13.500  23.500  2.4793e-02
13.500  23.750  1.6729e-02
13.500  24.000  1.2390e-02
13.750  17.000  6.3697e-02
13.750  17.250  7.4039e-02
13.750  17.500  9.1149e-02
13.750  17.750  1.1076e-01
13.750  18.000  1.4659e-01
13.750  18.250  1.8219e-01
13.750  18.500  1.9271e-01
13.750  18.750  2.0159e-01
13.750  19.000  2.0110e-01
13.750  19.250  2.0071e-01
13.750  19.500  1.9890e-01
13.750  19.750  1.9587e-01
13.750  20.000  1.9215e-01
13.750  20.250  1.8847e-01
13.750  20.500  1.8509e-01
13.750  20.750  1.8195e-01
13.750  21.000  1.7943e-01
13.750  21.250  1.7823e-01
13.750  21.500  1.7844e-01
13.750  21.750  1.8141e-01
13.750  22.000  1.8381e-01
13.750  22.250  1.7796e-01
13.750  22.500  1.5443e-01
13.750  22.750  1.1558e-01
13.750  23.000  7.6158e-02
13.750  23.250  5.0229e-02
13.750  23.500  3.3953e-02
13.750  23.750  2.2952e-02
13.750  24.000  1.5785e-02
14.000  17.000  6.3855e-02
14.000  17.250  7.2811e-02
14.000  17.500  9.0504e-02
14.000  17.750  1.0972e-01
14.000  18.000  1.3625e-01
14.000  18.250  1.7511e-01
14.000  18.500  2.0523e-01
14.000  18.750  2.1620e-01
14.000  19.000  2.1672e-01
14.000  19.250  2.1349e-01
14.000  19.500  2.1038e-01
14.000  19.750  2.0640e-01
14.000  20.000  2.0202e-01
14.000  20.250  1.9705e-01
14.000  20.500  1.9272e-01
14.000  20.750  1.8889e-01
14.000  21.000  1.8562e-01
14.000  21.250  1.8343e-01
14.000  21.500  1.8196e-01
14.000  21.750  1.8434e-01
14.000  22.000  1.8704e-01
14.000  22.250  1.8186e-01
14.000  22.500  1.6183e-01
14.000  22.750  1.3135e-01
14.000  23.000  9.6914e-02
14.000  23.250  6.5060e-02
14.000  23.500  4.3947e-02
14.000  23.750  3.0400e-02
14.000  24.000  2.0771e-02
