InwT 913.000A  relative to Inci 1215.00A scaled to 1215A.
Hden   Phi(H)  Eq_Width (A)
7.000  17.000  5.6952e-02
7.000  17.250  5.6084e-02
7.000  17.500  5.6577e-02
7.000  17.750  5.4161e-02
7.000  18.000  5.0966e-02
7.000  18.250  4.8173e-02
7.000  18.500  4.6152e-02
7.000  18.750  4.5062e-02
7.000  19.000  4.4484e-02
7.000  19.250  4.4150e-02
7.000  19.500  4.4007e-02
7.000  19.750  4.3946e-02
7.000  20.000  4.3919e-02
7.000  20.250  4.3906e-02
7.000  20.500  4.3900e-02
7.000  20.750  4.3897e-02
7.000  21.000  4.3895e-02
7.000  21.250  4.3894e-02
7.000  21.500  4.3894e-02
7.000  21.750  4.3894e-02
7.000  22.000  4.3894e-02
7.000  22.250  4.3895e-02
7.000  22.500  4.3895e-02
7.000  22.750  4.3896e-02
7.000  23.000  4.3895e-02
7.000  23.250  4.3895e-02
7.000  23.500  4.3895e-02
7.000  23.750  4.3895e-02
7.000  24.000  4.3895e-02
7.250  17.000  4.6522e-02
7.250  17.250  5.5284e-02
7.250  17.500  5.5345e-02
7.250  17.750  5.6316e-02
7.250  18.000  5.4041e-02
7.250  18.250  5.0902e-02
7.250  18.500  4.8140e-02
7.250  18.750  4.6140e-02
7.250  19.000  4.5058e-02
7.250  19.250  4.4482e-02
7.250  19.500  4.4149e-02
7.250  19.750  4.4006e-02
7.250  20.000  4.3946e-02
7.250  20.250  4.3919e-02
7.250  20.500  4.3906e-02
7.250  20.750  4.3900e-02
7.250  21.000  4.3897e-02
7.250  21.250  4.3895e-02
7.250  21.500  4.3894e-02
7.250  21.750  4.3894e-02
7.250  22.000  4.3893e-02
7.250  22.250  4.3893e-02
7.250  22.500  4.3893e-02
7.250  22.750  4.3894e-02
7.250  23.000  4.3894e-02
7.250  23.250  4.3894e-02
7.250  23.500  4.3894e-02
7.250  23.750  4.3894e-02
7.250  24.000  4.3894e-02
7.500  17.000  3.3273e-02
7.500  17.250  4.4403e-02
7.500  17.500  5.3640e-02
7.500  17.750  5.4802e-02
7.500  18.000  5.6177e-02
7.500  18.250  5.3985e-02
7.500  18.500  5.0868e-02
7.500  18.750  4.8120e-02
7.500  19.000  4.6133e-02
7.500  19.250  4.5055e-02
7.500  19.500  4.4481e-02
7.500  19.750  4.4149e-02
7.500  20.000  4.4006e-02
7.500  20.250  4.3946e-02
7.500  20.500  4.3919e-02
7.500  20.750  4.3906e-02
7.500  21.000  4.3900e-02
7.500  21.250  4.3897e-02
7.500  21.500  4.3895e-02
7.500  21.750  4.3894e-02
7.500  22.000  4.3893e-02
7.500  22.250  4.3893e-02
7.500  22.500  4.3893e-02
7.500  22.750  4.3893e-02
7.500  23.000  4.3893e-02
7.500  23.250  4.3893e-02
7.500  23.500  4.3896e-02
7.500  23.750  4.3893e-02
7.500  24.000  4.3893e-02
7.750  17.000  2.3287e-02
7.750  17.250  3.0686e-02
7.750  17.500  4.2576e-02
7.750  17.750  5.2264e-02
7.750  18.000  5.4384e-02
7.750  18.250  5.6114e-02
7.750  18.500  5.3971e-02
7.750  18.750  5.0852e-02
7.750  19.000  4.8109e-02
7.750  19.250  4.6128e-02
7.750  19.500  4.5053e-02
7.750  19.750  4.4480e-02
7.750  20.000  4.4149e-02
7.750  20.250  4.4006e-02
7.750  20.500  4.3946e-02
7.750  20.750  4.3919e-02
7.750  21.000  4.3906e-02
7.750  21.250  4.3900e-02
7.750  21.500  4.3897e-02
7.750  21.750  4.3895e-02
7.750  22.000  4.3894e-02
7.750  22.250  4.3893e-02
7.750  22.500  4.3893e-02
7.750  22.750  4.3893e-02
7.750  23.000  4.3893e-02
7.750  23.250  4.3893e-02
7.750  23.500  4.3893e-02
7.750  23.750  4.3893e-02
7.750  24.000  4.3893e-02
8.000  17.000  1.6576e-02
8.000  17.250  2.0541e-02
8.000  17.500  2.8338e-02
8.000  17.750  4.0867e-02
8.000  18.000  5.1151e-02
8.000  18.250  5.4094e-02
8.000  18.500  5.6099e-02
8.000  18.750  5.3984e-02
8.000  19.000  5.0849e-02
8.000  19.250  4.8102e-02
8.000  19.500  4.6125e-02
8.000  19.750  4.5052e-02
8.000  20.000  4.4480e-02
8.000  20.250  4.4149e-02
8.000  20.500  4.4006e-02
8.000  20.750  4.3946e-02
8.000  21.000  4.3919e-02
8.000  21.250  4.3906e-02
8.000  21.500  4.3900e-02
8.000  21.750  4.3897e-02
8.000  22.000  4.3895e-02
8.000  22.250  4.3894e-02
8.000  22.500  4.3893e-02
8.000  22.750  4.3893e-02
8.000  23.000  4.3893e-02
8.000  23.250  4.3894e-02
8.000  23.500  4.3893e-02
8.000  23.750  4.3893e-02
8.000  24.000  4.3893e-02
8.250  17.000  1.2338e-02
8.250  17.250  1.4410e-02
8.250  17.500  1.8709e-02
8.250  17.750  2.6861e-02
8.250  18.000  3.9884e-02
8.250  18.250  5.0452e-02
8.250  18.500  5.3917e-02
8.250  18.750  5.6114e-02
8.250  19.000  5.4018e-02
8.250  19.250  5.0854e-02
8.250  19.500  4.8097e-02
8.250  19.750  4.6123e-02
8.250  20.000  4.5051e-02
8.250  20.250  4.4480e-02
8.250  20.500  4.4149e-02
8.250  20.750  4.4006e-02
8.250  21.000  4.3946e-02
8.250  21.250  4.3919e-02
8.250  21.500  4.3906e-02
8.250  21.750  4.3900e-02
8.250  22.000  4.3897e-02
8.250  22.250  4.3895e-02
8.250  22.500  4.3894e-02
8.250  22.750  4.3893e-02
8.250  23.000  4.3893e-02
8.250  23.250  4.3893e-02
8.250  23.500  4.3893e-02
8.250  23.750  4.3893e-02
8.250  24.000  4.3893e-02
8.500  17.000  9.5592e-03
8.500  17.250  1.0625e-02
8.500  17.500  1.2950e-02
8.500  17.750  1.7453e-02
8.500  18.000  2.6011e-02
8.500  18.250  3.9395e-02
8.500  18.500  4.9995e-02
8.500  18.750  5.3816e-02
8.500  19.000  5.6148e-02
8.500  19.250  5.4068e-02
8.500  19.500  5.0865e-02
8.500  19.750  4.8096e-02
8.500  20.000  4.6122e-02
8.500  20.250  4.5050e-02
8.500  20.500  4.4480e-02
8.500  20.750  4.4149e-02
8.500  21.000  4.4006e-02
8.500  21.250  4.3946e-02
8.500  21.500  4.3919e-02
8.500  21.750  4.3906e-02
8.500  22.000  4.3900e-02
8.500  22.250  4.3897e-02
8.500  22.500  4.3895e-02
8.500  22.750  4.3894e-02
8.500  23.000  4.3893e-02
8.500  23.250  4.3893e-02
8.500  23.500  4.3893e-02
8.500  23.750  4.3893e-02
8.500  24.000  4.3893e-02
8.750  17.000  7.7607e-03
8.750  17.250  8.2860e-03
8.750  17.500  9.5431e-03
8.750  17.750  1.2031e-02
8.750  18.000  1.6815e-02
8.750  18.250  2.5812e-02
8.750  18.500  3.9485e-02
8.750  18.750  4.9685e-02
8.750  19.000  5.3758e-02
8.750  19.250  5.6190e-02
8.750  19.500  5.4128e-02
8.750  19.750  5.0879e-02
8.750  20.000  4.8095e-02
8.750  20.250  4.6121e-02
8.750  20.500  4.5050e-02
8.750  20.750  4.4480e-02
8.750  21.000  4.4149e-02
8.750  21.250  4.4006e-02
8.750  21.500  4.3946e-02
8.750  21.750  4.3919e-02
8.750  22.000  4.3906e-02
8.750  22.250  4.3900e-02
8.750  22.500  4.3897e-02
8.750  22.750  4.3895e-02
8.750  23.000  4.3894e-02
8.750  23.250  4.3893e-02
8.750  23.500  4.3893e-02
8.750  23.750  4.3893e-02
8.750  24.000  4.3893e-02
9.000  17.000  6.5830e-03
9.000  17.250  6.8327e-03
9.000  17.500  7.5107e-03
9.000  17.750  8.9104e-03
9.000  18.000  1.1612e-02
9.000  18.250  1.6824e-02
9.000  18.500  2.6716e-02
9.000  18.750  4.0838e-02
9.000  19.000  4.9493e-02
9.000  19.250  5.3713e-02
9.000  19.500  5.6233e-02
9.000  19.750  5.4191e-02
9.000  20.000  5.0894e-02
9.000  20.250  4.8095e-02
9.000  20.500  4.6120e-02
9.000  20.750  4.5050e-02
9.000  21.000  4.4480e-02
9.000  21.250  4.4149e-02
9.000  21.500  4.4006e-02
9.000  21.750  4.3946e-02
9.000  22.000  4.3919e-02
9.000  22.250  4.3906e-02
9.000  22.500  4.3900e-02
9.000  22.750  4.3897e-02
9.000  23.000  4.3895e-02
9.000  23.250  4.3894e-02
9.000  23.500  4.3893e-02
9.000  23.750  4.3893e-02
9.000  24.000  4.3893e-02
9.250  17.000  5.7888e-03
9.250  17.250  5.8936e-03
9.250  17.500  6.2855e-03
9.250  17.750  7.1133e-03
9.250  18.000  8.7712e-03
9.250  18.250  1.1880e-02
9.250  18.500  1.7866e-02
9.250  18.750  2.9066e-02
9.250  19.000  4.3093e-02
9.250  19.250  4.9359e-02
9.250  19.500  5.3664e-02
9.250  19.750  5.6266e-02
9.250  20.000  5.4251e-02
9.250  20.250  5.0910e-02
9.250  20.500  4.8095e-02
9.250  20.750  4.6120e-02
9.250  21.000  4.5050e-02
9.250  21.250  4.4479e-02
9.250  21.500  4.4140e-02
9.250  21.750  4.3993e-02
9.250  22.000  4.3932e-02
9.250  22.250  4.3906e-02
9.250  22.500  4.3906e-02
9.250  22.750  4.3899e-02
9.250  23.000  4.3896e-02
9.250  23.250  4.3895e-02
9.250  23.500  4.3894e-02
9.250  23.750  4.3893e-02
9.250  24.000  4.3893e-02
9.500  17.000  5.2301e-03
9.500  17.250  5.2496e-03
9.500  17.500  5.5080e-03
9.500  17.750  6.0832e-03
9.500  18.000  7.1626e-03
9.500  18.250  9.1310e-03
9.500  18.500  1.2822e-02
9.500  18.750  1.9920e-02
9.500  19.000  3.2540e-02
9.500  19.250  4.4959e-02
9.500  19.500  4.9247e-02
9.500  19.750  5.3591e-02
9.500  20.000  5.6281e-02
9.500  20.250  5.4302e-02
9.500  20.500  5.0924e-02
9.500  20.750  4.8094e-02
9.500  21.000  4.6110e-02
9.500  21.250  4.5037e-02
9.500  21.500  4.4466e-02
9.500  21.750  4.4132e-02
9.500  22.000  4.3983e-02
9.500  22.250  4.3923e-02
9.500  22.500  4.3896e-02
9.500  22.750  4.3882e-02
9.500  23.000  4.3876e-02
9.500  23.250  4.3873e-02
9.500  23.500  4.3877e-02
9.500  23.750  4.3876e-02
9.500  24.000  4.3875e-02
9.750  17.000  4.8700e-03
9.750  17.250  4.7837e-03
9.750  17.500  4.9587e-03
9.750  17.750  5.4128e-03
9.750  18.000  6.2340e-03
9.750  18.250  7.6187e-03
9.750  18.500  1.0039e-02
9.750  18.750  1.4530e-02
9.750  19.000  2.3119e-02
9.750  19.250  3.6858e-02
9.750  19.500  4.6231e-02
9.750  19.750  4.9162e-02
9.750  20.000  5.3504e-02
9.750  20.250  5.6275e-02
9.750  20.500  5.4340e-02
9.750  20.750  5.0935e-02
9.750  21.000  4.8095e-02
9.750  21.250  4.6116e-02
9.750  21.500  4.5039e-02
9.750  21.750  4.4466e-02
9.750  22.000  4.4134e-02
9.750  22.250  4.3986e-02
9.750  22.500  4.3922e-02
9.750  22.750  4.3896e-02
9.750  23.000  4.3884e-02
9.750  23.250  4.3877e-02
9.750  23.500  4.3873e-02
9.750  23.750  4.3871e-02
9.750  24.000  4.3870e-02
10.000  17.000  4.6862e-03
10.000  17.250  4.4603e-03
10.000  17.500  4.5172e-03
10.000  17.750  4.8942e-03
10.000  18.000  5.6393e-03
10.000  18.250  6.7512e-03
10.000  18.500  8.4928e-03
10.000  18.750  1.1534e-02
10.000  19.000  1.7242e-02
10.000  19.250  2.7902e-02
10.000  19.500  4.1126e-02
10.000  19.750  4.6287e-02
10.000  20.000  4.9107e-02
10.000  20.250  5.3413e-02
10.000  20.500  5.6254e-02
10.000  20.750  5.4368e-02
10.000  21.000  5.0945e-02
10.000  21.250  4.8095e-02
10.000  21.500  4.6118e-02
10.000  21.750  4.5045e-02
10.000  22.000  4.4467e-02
10.000  22.250  4.4135e-02
10.000  22.500  4.3989e-02
10.000  22.750  4.3924e-02
10.000  23.000  4.3895e-02
10.000  23.250  4.3883e-02
10.000  23.500  4.3877e-02
10.000  23.750  4.3874e-02
10.000  24.000  4.3872e-02
10.250  17.000  4.6746e-03
10.250  17.250  4.2982e-03
10.250  17.500  4.2198e-03
10.250  17.750  4.5013e-03
10.250  18.000  5.1877e-03
10.250  18.250  6.1791e-03
10.250  18.500  7.5853e-03
10.250  18.750  9.8746e-03
10.250  19.000  1.3987e-02
10.250  19.250  2.1229e-02
10.250  19.500  3.2602e-02
10.250  19.750  4.3017e-02
10.250  20.000  4.6262e-02
10.250  20.250  4.9111e-02
10.250  20.500  5.3396e-02
10.250  20.750  5.6234e-02
10.250  21.000  5.4386e-02
10.250  21.250  5.0952e-02
10.250  21.500  4.8095e-02
10.250  21.750  4.6118e-02
10.250  22.000  4.5048e-02
10.250  22.250  4.4472e-02
10.250  22.500  4.4136e-02
10.250  22.750  4.3991e-02
10.250  23.000  4.3927e-02
10.250  23.250  4.3898e-02
10.250  23.500  4.3883e-02
10.250  23.750  4.3876e-02
10.250  24.000  4.3873e-02
10.500  17.000  4.7807e-03
10.500  17.250  4.2938e-03
10.500  17.500  4.0784e-03
10.500  17.750  4.2492e-03
10.500  18.000  4.8237e-03
10.500  18.250  5.7243e-03
10.500  18.500  6.9363e-03
10.500  18.750  8.6511e-03
10.500  19.000  1.1281e-02
10.500  19.250  1.5744e-02
10.500  19.500  2.3679e-02
10.500  19.750  3.2748e-02
10.500  20.000  4.0891e-02
10.500  20.250  4.6424e-02
10.500  20.500  4.9262e-02
10.500  20.750  5.3525e-02
10.500  21.000  5.6240e-02
10.500  21.250  5.4393e-02
10.500  21.500  5.0955e-02
10.500  21.750  4.8095e-02
10.500  22.000  4.6118e-02
10.500  22.250  4.5049e-02
10.500  22.500  4.4477e-02
10.500  22.750  4.4136e-02
10.500  23.000  4.3992e-02
10.500  23.250  4.3930e-02
10.500  23.500  4.3901e-02
10.500  23.750  4.3886e-02
10.500  24.000  4.3879e-02
10.750  17.000  4.9435e-03
10.750  17.250  4.4012e-03
10.750  17.500  4.0968e-03
10.750  17.750  4.1586e-03
10.750  18.000  4.5714e-03
10.750  18.250  5.2724e-03
10.750  18.500  6.2638e-03
10.750  18.750  7.5058e-03
10.750  19.000  9.2663e-03
10.750  19.250  1.2144e-02
10.750  19.500  1.7201e-02
10.750  19.750  2.6016e-02
10.750  20.000  3.4808e-02
10.750  20.250  4.1924e-02
10.750  20.500  4.6679e-02
10.750  20.750  4.9582e-02
10.750  21.000  5.3896e-02
10.750  21.250  5.6315e-02
10.750  21.500  5.4398e-02
10.750  21.750  5.0955e-02
10.750  22.000  4.8094e-02
10.750  22.250  4.6117e-02
10.750  22.500  4.5049e-02
10.750  22.750  4.4479e-02
10.750  23.000  4.4138e-02
10.750  23.250  4.3993e-02
10.750  23.500  4.3931e-02
10.750  23.750  4.3903e-02
10.750  24.000  4.3889e-02
11.000  17.000  5.1086e-03
11.000  17.250  4.5615e-03
11.000  17.500  4.2187e-03
11.000  17.750  4.2012e-03
11.000  18.000  4.4567e-03
11.000  18.250  4.9037e-03
11.000  18.500  5.5749e-03
11.000  18.750  6.5101e-03
11.000  19.000  7.7884e-03
11.000  19.250  9.7240e-03
11.000  19.500  1.2948e-02
11.000  19.750  1.8557e-02
11.000  20.000  2.8116e-02
11.000  20.250  3.8088e-02
11.000  20.500  4.4837e-02
11.000  20.750  4.7106e-02
11.000  21.000  5.0250e-02
11.000  21.250  5.4692e-02
11.000  21.500  5.6491e-02
11.000  21.750  5.4407e-02
11.000  22.000  5.0951e-02
11.000  22.250  4.8094e-02
11.000  22.500  4.6117e-02
11.000  22.750  4.5050e-02
11.000  23.000  4.4480e-02
11.000  23.250  4.4145e-02
11.000  23.500  4.3993e-02
11.000  23.750  4.3932e-02
11.000  24.000  4.3905e-02
11.250  17.000  5.1915e-03
11.250  17.250  4.7083e-03
11.250  17.500  4.3638e-03
11.250  17.750  4.3060e-03
11.250  18.000  4.4450e-03
11.250  18.250  4.6633e-03
11.250  18.500  5.0314e-03
11.250  18.750  5.6716e-03
11.250  19.000  6.4829e-03
11.250  19.250  7.7870e-03
11.250  19.500  1.0035e-02
11.250  19.750  1.3678e-02
11.250  20.000  1.9808e-02
11.250  20.250  3.0003e-02
11.250  20.500  3.9312e-02
11.250  20.750  4.5268e-02
11.250  21.000  4.7869e-02
11.250  21.250  5.1413e-02
11.250  21.500  5.6067e-02
11.250  21.750  5.6817e-02
11.250  22.000  5.4436e-02
11.250  22.250  5.0944e-02
11.250  22.500  4.8093e-02
11.250  22.750  4.6116e-02
11.250  23.000  4.5050e-02
11.250  23.250  4.4480e-02
11.250  23.500  4.4148e-02
11.250  23.750  4.3996e-02
11.250  24.000  4.3933e-02
11.500  17.000  5.1277e-03
11.500  17.250  4.7745e-03
11.500  17.500  4.4704e-03
11.500  17.750  4.3982e-03
11.500  18.000  4.4585e-03
11.500  18.250  4.5336e-03
11.500  18.500  4.1241e-03
11.500  18.750  3.4740e-03
11.500  19.000  3.0551e-03
11.500  19.250  3.3392e-03
11.500  19.500  4.7981e-03
11.500  19.750  7.9037e-03
11.500  20.000  1.3128e-02
11.500  20.250  2.0942e-02
11.500  20.500  3.1746e-02
11.500  20.750  4.2875e-02
11.500  21.000  4.6069e-02
11.500  21.250  4.9229e-02
11.500  21.500  5.3403e-02
11.500  21.750  5.8012e-02
11.500  22.000  5.7252e-02
11.500  22.250  5.4495e-02
11.500  22.500  5.0935e-02
11.500  22.750  4.8092e-02
11.500  23.000  4.6115e-02
11.500  23.250  4.5049e-02
11.500  23.500  4.4480e-02
11.500  23.750  4.4149e-02
11.500  24.000  4.4002e-02
11.750  17.000  4.7923e-03
11.750  17.250  4.6649e-03
11.750  17.500  4.4700e-03
11.750  17.750  4.8083e-03
11.750  18.000  5.7899e-03
11.750  18.250  7.3490e-03
11.750  18.500  9.4203e-03
11.750  18.750  1.1938e-02
11.750  19.000  1.4837e-02
11.750  19.250  1.8052e-02
11.750  19.500  2.1517e-02
11.750  19.750  2.5166e-02
11.750  20.000  2.8934e-02
11.750  20.250  3.2756e-02
11.750  20.500  3.6566e-02
11.750  20.750  4.0298e-02
11.750  21.000  4.3887e-02
11.750  21.250  4.7378e-02
11.750  21.500  5.1300e-02
11.750  21.750  5.6169e-02
11.750  22.000  5.9915e-02
11.750  22.250  5.7738e-02
11.750  22.500  5.4591e-02
11.750  22.750  5.0924e-02
11.750  23.000  4.8090e-02
11.750  23.250  4.6115e-02
11.750  23.500  4.5049e-02
11.750  23.750  4.4480e-02
11.750  24.000  4.4149e-02
12.000  17.000  4.1319e-03
12.000  17.250  4.2779e-03
12.000  17.500  4.2759e-03
12.000  17.750  4.3333e-03
12.000  18.000  4.4208e-03
12.000  18.250  4.4352e-03
12.000  18.500  4.4053e-03
12.000  18.750  4.4182e-03
12.000  19.000  4.5709e-03
12.000  19.250  4.9709e-03
12.000  19.500  5.7001e-03
12.000  19.750  6.8070e-03
12.000  20.000  8.4666e-03
12.000  20.250  1.1126e-02
12.000  20.500  1.5515e-02
12.000  20.750  2.2973e-02
12.000  21.000  3.5213e-02
12.000  21.250  4.5290e-02
12.000  21.500  4.9328e-02
12.000  21.750  5.4195e-02
12.000  22.000  5.9316e-02
12.000  22.250  6.1437e-02
12.000  22.500  5.8331e-02
12.000  22.750  5.4724e-02
12.000  23.000  5.0912e-02
12.000  23.250  4.8088e-02
12.000  23.500  4.6114e-02
12.000  23.750  4.5049e-02
12.000  24.000  4.4480e-02
12.250  17.000  3.2607e-03
12.250  17.250  3.6186e-03
12.250  17.500  3.8546e-03
12.250  17.750  4.0908e-03
12.250  18.000  4.2447e-03
12.250  18.250  4.2626e-03
12.250  18.500  4.2201e-03
12.250  18.750  4.2063e-03
12.250  19.000  4.2620e-03
12.250  19.250  4.4556e-03
12.250  19.500  4.8915e-03
12.250  19.750  5.6612e-03
12.250  20.000  6.8249e-03
12.250  20.250  8.5930e-03
12.250  20.500  1.1426e-02
12.250  20.750  1.6085e-02
12.250  21.000  2.4120e-02
12.250  21.250  3.7479e-02
12.250  21.500  4.7347e-02
12.250  21.750  5.1997e-02
12.250  22.000  5.7770e-02
12.250  22.250  6.2747e-02
12.250  22.500  6.2984e-02
12.250  22.750  5.8986e-02
12.250  23.000  5.4873e-02
12.250  23.250  5.0902e-02
12.250  23.500  4.8086e-02
12.250  23.750  4.6112e-02
12.250  24.000  4.5048e-02
12.500  17.000  2.4902e-03
12.500  17.250  2.9202e-03
12.500  17.500  3.3089e-03
12.500  17.750  3.6247e-03
12.500  18.000  3.8058e-03
12.500  18.250  3.8826e-03
12.500  18.500  3.9179e-03
12.500  18.750  3.9570e-03
12.500  19.000  4.0111e-03
12.500  19.250  4.1142e-03
12.500  19.500  4.3441e-03
12.500  19.750  4.8144e-03
12.500  20.000  5.6226e-03
12.500  20.250  6.8475e-03
12.500  20.500  8.7464e-03
12.500  20.750  1.1809e-02
12.500  21.000  1.6905e-02
12.500  21.250  2.5788e-02
12.500  21.500  4.0139e-02
12.500  21.750  5.0011e-02
12.500  22.000  5.5432e-02
12.500  22.250  6.1827e-02
12.500  22.500  6.6012e-02
12.500  22.750  6.4640e-02
12.500  23.000  5.9736e-02
12.500  23.250  5.5025e-02
12.500  23.500  5.0897e-02
12.500  23.750  4.8083e-02
12.500  24.000  4.6110e-02
12.750  17.000  1.9430e-03
12.750  17.250  2.3252e-03
12.750  17.500  2.6631e-03
12.750  17.750  2.9272e-03
12.750  18.000  3.1524e-03
12.750  18.250  3.3467e-03
12.750  18.500  3.5008e-03
12.750  18.750  3.6278e-03
12.750  19.000  3.7394e-03
12.750  19.250  3.8450e-03
12.750  19.500  3.9805e-03
12.750  19.750  4.2353e-03
12.750  20.000  4.7297e-03
12.750  20.250  5.5910e-03
12.750  20.500  6.8981e-03
12.750  20.750  8.9561e-03
12.750  21.000  1.2359e-02
12.750  21.250  1.8079e-02
12.750  21.500  2.7576e-02
12.750  21.750  4.3861e-02
12.750  22.000  5.3303e-02
12.750  22.250  5.9399e-02
12.750  22.500  6.6256e-02
12.750  22.750  6.9269e-02
12.750  23.000  6.6203e-02
12.750  23.250  6.0501e-02
12.750  23.500  5.5235e-02
12.750  23.750  5.0902e-02
12.750  24.000  4.8080e-02
13.000  17.000  1.4995e-03
13.000  17.250  1.7980e-03
13.000  17.500  2.0366e-03
13.000  17.750  2.2646e-03
13.000  18.000  2.5143e-03
13.000  18.250  2.7742e-03
13.000  18.500  3.0142e-03
13.000  18.750  3.2229e-03
13.000  19.000  3.4036e-03
13.000  19.250  3.5570e-03
13.000  19.500  3.6895e-03
13.000  19.750  3.8467e-03
13.000  20.000  4.1178e-03
13.000  20.250  4.6384e-03
13.000  20.500  5.5573e-03
13.000  20.750  7.0075e-03
13.000  21.000  9.3309e-03
13.000  21.250  1.3285e-02
13.000  21.500  1.9685e-02
13.000  21.750  3.0136e-02
13.000  22.000  4.7597e-02
13.000  22.250  5.6815e-02
13.000  22.500  6.3530e-02
13.000  22.750  7.0415e-02
13.000  23.000  7.2476e-02
13.000  23.250  6.7980e-02
13.000  23.500  6.1395e-02
13.000  23.750  5.5426e-02
13.000  24.000  5.0914e-02
13.250  17.000  1.2283e-03
13.250  17.250  1.4428e-03
13.250  17.500  1.6374e-03
13.250  17.750  1.7995e-03
13.250  18.000  2.0121e-03
13.250  18.250  2.2656e-03
13.250  18.500  2.5287e-03
13.250  18.750  2.7782e-03
13.250  19.000  3.0098e-03
13.250  19.250  3.2186e-03
13.250  19.500  3.3962e-03
13.250  19.750  3.5554e-03
13.250  20.000  3.7309e-03
13.250  20.250  4.0044e-03
13.250  20.500  4.5249e-03
13.250  20.750  5.5035e-03
13.250  21.000  7.0954e-03
13.250  21.250  9.7317e-03
13.250  21.500  1.3684e-02
13.250  21.750  2.0528e-02
13.250  22.000  3.2769e-02
13.250  22.250  5.1713e-02
13.250  22.500  6.0227e-02
13.250  22.750  6.7370e-02
13.250  23.000  7.4308e-02
13.250  23.250  7.5933e-02
13.250  23.500  6.9670e-02
13.250  23.750  6.2086e-02
13.250  24.000  5.5513e-02
13.500  17.000  1.0519e-03
13.500  17.250  1.2105e-03
13.500  17.500  1.3610e-03
13.500  17.750  1.4954e-03
13.500  18.000  1.6621e-03
13.500  18.250  1.8771e-03
13.500  18.500  2.1146e-03
13.500  18.750  2.3574e-03
13.500  19.000  2.5995e-03
13.500  19.250  2.8344e-03
13.500  19.500  3.0507e-03
13.500  19.750  3.2415e-03
13.500  20.000  3.4119e-03
13.500  20.250  3.6011e-03
13.500  20.500  3.8765e-03
13.500  20.750  4.4017e-03
13.500  21.000  5.3514e-03
13.500  21.250  7.0420e-03
13.500  21.500  9.5916e-03
13.500  21.750  1.4049e-02
13.500  22.000  2.1928e-02
13.500  22.250  3.5572e-02
13.500  22.500  5.5475e-02
13.500  22.750  6.4039e-02
13.500  23.000  7.1814e-02
13.500  23.250  7.8866e-02
13.500  23.500  7.9714e-02
13.500  23.750  7.1350e-02
13.500  24.000  6.2688e-02
13.750  17.000  9.3580e-04
13.750  17.250  1.0608e-03
13.750  17.500  1.1820e-03
13.750  17.750  1.2954e-03
13.750  18.000  1.4323e-03
13.750  18.250  1.6067e-03
13.750  18.500  1.8045e-03
13.750  18.750  2.0118e-03
13.750  19.000  2.2296e-03
13.750  19.250  2.4570e-03
13.750  19.500  2.6868e-03
13.750  19.750  2.9048e-03
13.750  20.000  3.1045e-03
13.750  20.250  3.2905e-03
13.750  20.500  3.4956e-03
13.750  20.750  3.7909e-03
13.750  21.000  4.3140e-03
13.750  21.250  5.2427e-03
13.750  21.500  6.8844e-03
13.750  21.750  9.6168e-03
13.750  22.000  1.4260e-02
13.750  22.250  2.2905e-02
13.750  22.500  3.9630e-02
13.750  22.750  6.0435e-02
13.750  23.000  6.9051e-02
13.750  23.250  7.7672e-02
13.750  23.500  8.4373e-02
13.750  23.750  8.3747e-02
13.750  24.000  7.2910e-02
14.000  17.000  8.5399e-04
14.000  17.250  9.5860e-04
14.000  17.500  1.0651e-03
14.000  17.750  1.1622e-03
14.000  18.000  1.2789e-03
14.000  18.250  1.4239e-03
14.000  18.500  1.5867e-03
14.000  18.750  1.7573e-03
14.000  19.000  1.9364e-03
14.000  19.250  2.1325e-03
14.000  19.500  2.3467e-03
14.000  19.750  2.5702e-03
14.000  20.000  2.7900e-03
14.000  20.250  3.0000e-03
14.000  20.500  3.2076e-03
14.000  20.750  3.4444e-03
14.000  21.000  3.7826e-03
14.000  21.250  4.3611e-03
14.000  21.500  5.3419e-03
14.000  21.750  7.0560e-03
14.000  22.000  1.0007e-02
14.000  22.250  1.5387e-02
14.000  22.500  2.5844e-02
14.000  22.750  4.6680e-02
14.000  23.000  6.7371e-02
14.000  23.250  7.7252e-02
14.000  23.500  8.6219e-02
14.000  23.750  9.1378e-02
14.000  24.000  8.7499e-02
