nFnu 399.153A  relative to Inci 1215.00A scaled to 1215A.
Hden   Phi(H)  Eq_Width (A)
7.000  17.000  2.9523e-02
7.000  17.250  6.1091e-02
7.000  17.500  7.2355e-02
7.000  17.750  7.6363e-02
7.000  18.000  6.8962e-02
7.000  18.250  5.7195e-02
7.000  18.500  4.7538e-02
7.000  18.750  4.3036e-02
7.000  19.000  4.0770e-02
7.000  19.250  3.9513e-02
7.000  19.500  3.8978e-02
7.000  19.750  3.8745e-02
7.000  20.000  3.8641e-02
7.000  20.250  3.8591e-02
7.000  20.500  3.8566e-02
7.000  20.750  3.8553e-02
7.000  21.000  3.8545e-02
7.000  21.250  3.8542e-02
7.000  21.500  3.8540e-02
7.000  21.750  3.8539e-02
7.000  22.000  3.8538e-02
7.000  22.250  3.8538e-02
7.000  22.500  3.8538e-02
7.000  22.750  3.8539e-02
7.000  23.000  3.8539e-02
7.000  23.250  3.8538e-02
7.000  23.500  3.8538e-02
7.000  23.750  3.8538e-02
7.000  24.000  3.8538e-02
7.250  17.000  1.7857e-02
7.250  17.250  2.8070e-02
7.250  17.500  5.7791e-02
7.250  17.750  6.9811e-02
7.250  18.000  7.5181e-02
7.250  18.250  6.8358e-02
7.250  18.500  5.6892e-02
7.250  18.750  4.7429e-02
7.250  19.000  4.2992e-02
7.250  19.250  4.0754e-02
7.250  19.500  3.9510e-02
7.250  19.750  3.8977e-02
7.250  20.000  3.8745e-02
7.250  20.250  3.8640e-02
7.250  20.500  3.8591e-02
7.250  20.750  3.8566e-02
7.250  21.000  3.8552e-02
7.250  21.250  3.8545e-02
7.250  21.500  3.8541e-02
7.250  21.750  3.8539e-02
7.250  22.000  3.8538e-02
7.250  22.250  3.8537e-02
7.250  22.500  3.8537e-02
7.250  22.750  3.8537e-02
7.250  23.000  3.8537e-02
7.250  23.250  3.8538e-02
7.250  23.500  3.8537e-02
7.250  23.750  3.8537e-02
7.250  24.000  3.8538e-02
7.500  17.000  1.2088e-02
7.500  17.250  1.7049e-02
7.500  17.500  2.7260e-02
7.500  17.750  5.6037e-02
7.500  18.000  6.8380e-02
7.500  18.250  7.4579e-02
7.500  18.500  6.8015e-02
7.500  18.750  5.6705e-02
7.500  19.000  4.7358e-02
7.500  19.250  4.2962e-02
7.500  19.500  4.0744e-02
7.500  19.750  3.9508e-02
7.500  20.000  3.8977e-02
7.500  20.250  3.8745e-02
7.500  20.500  3.8640e-02
7.500  20.750  3.8591e-02
7.500  21.000  3.8566e-02
7.500  21.250  3.8552e-02
7.500  21.500  3.8545e-02
7.500  21.750  3.8541e-02
7.500  22.000  3.8539e-02
7.500  22.250  3.8538e-02
7.500  22.500  3.8537e-02
7.500  22.750  3.8537e-02
7.500  23.000  3.8537e-02
7.500  23.250  3.8537e-02
7.500  23.500  3.8539e-02
7.500  23.750  3.8537e-02
7.500  24.000  3.8537e-02
7.750  17.000  8.9475e-03
7.750  17.250  1.1652e-02
7.750  17.500  1.6582e-02
7.750  17.750  2.6817e-02
7.750  18.000  5.5009e-02
7.750  18.250  6.7653e-02
7.750  18.500  7.4353e-02
7.750  18.750  6.7846e-02
7.750  19.000  5.6592e-02
7.750  19.250  4.7314e-02
7.750  19.500  4.2944e-02
7.750  19.750  4.0737e-02
7.750  20.000  3.9507e-02
7.750  20.250  3.8976e-02
7.750  20.500  3.8745e-02
7.750  20.750  3.8640e-02
7.750  21.000  3.8591e-02
7.750  21.250  3.8566e-02
7.750  21.500  3.8552e-02
7.750  21.750  3.8545e-02
7.750  22.000  3.8541e-02
7.750  22.250  3.8539e-02
7.750  22.500  3.8538e-02
7.750  22.750  3.8537e-02
7.750  23.000  3.8537e-02
7.750  23.250  3.8536e-02
7.750  23.500  3.8536e-02
7.750  23.750  3.8536e-02
7.750  24.000  3.8536e-02
8.000  17.000  7.0946e-03
8.000  17.250  8.6693e-03
8.000  17.500  1.1346e-02
8.000  17.750  1.6281e-02
8.000  18.000  2.6464e-02
8.000  18.250  5.4398e-02
8.000  18.500  6.7367e-02
8.000  18.750  7.4370e-02
8.000  19.000  6.7790e-02
8.000  19.250  5.6527e-02
8.000  19.500  4.7287e-02
8.000  19.750  4.2934e-02
8.000  20.000  4.0733e-02
8.000  20.250  3.9506e-02
8.000  20.500  3.8976e-02
8.000  20.750  3.8745e-02
8.000  21.000  3.8640e-02
8.000  21.250  3.8591e-02
8.000  21.500  3.8566e-02
8.000  21.750  3.8552e-02
8.000  22.000  3.8545e-02
8.000  22.250  3.8541e-02
8.000  22.500  3.8539e-02
8.000  22.750  3.8538e-02
8.000  23.000  3.8537e-02
8.000  23.250  3.8537e-02
8.000  23.500  3.8536e-02
8.000  23.750  3.8536e-02
8.000  24.000  3.8536e-02
8.250  17.000  5.9889e-03
8.250  17.250  6.9641e-03
8.250  17.500  8.5287e-03
8.250  17.750  1.1202e-02
8.250  18.000  1.6145e-02
8.250  18.250  2.6339e-02
8.250  18.500  5.4075e-02
8.250  18.750  6.7348e-02
8.250  19.000  7.4559e-02
8.250  19.250  6.7803e-02
8.250  19.500  5.6489e-02
8.250  19.750  4.7271e-02
8.250  20.000  4.2927e-02
8.250  20.250  4.0731e-02
8.250  20.500  3.9506e-02
8.250  20.750  3.8976e-02
8.250  21.000  3.8745e-02
8.250  21.250  3.8640e-02
8.250  21.500  3.8591e-02
8.250  21.750  3.8566e-02
8.250  22.000  3.8552e-02
8.250  22.250  3.8545e-02
8.250  22.500  3.8541e-02
8.250  22.750  3.8539e-02
8.250  23.000  3.8538e-02
8.250  23.250  3.8537e-02
8.250  23.500  3.8537e-02
8.250  23.750  3.8536e-02
8.250  24.000  3.8536e-02
8.500  17.000  5.2584e-03
8.500  17.250  5.9201e-03
8.500  17.500  6.8920e-03
8.500  17.750  8.4485e-03
8.500  18.000  1.1136e-02
8.500  18.250  1.6069e-02
8.500  18.500  2.6294e-02
8.500  18.750  5.3923e-02
8.500  19.000  6.7502e-02
8.500  19.250  7.4872e-02
8.500  19.500  6.7865e-02
8.500  19.750  5.6470e-02
8.500  20.000  4.7262e-02
8.500  20.250  4.2924e-02
8.500  20.500  4.0730e-02
8.500  20.750  3.9505e-02
8.500  21.000  3.8976e-02
8.500  21.250  3.8745e-02
8.500  21.500  3.8640e-02
8.500  21.750  3.8591e-02
8.500  22.000  3.8566e-02
8.500  22.250  3.8552e-02
8.500  22.500  3.8545e-02
8.500  22.750  3.8541e-02
8.500  23.000  3.8539e-02
8.500  23.250  3.8538e-02
8.500  23.500  3.8537e-02
8.500  23.750  3.8537e-02
8.500  24.000  3.8536e-02
8.750  17.000  4.7034e-03
8.750  17.250  5.2313e-03
8.750  17.500  5.8908e-03
8.750  17.750  6.8626e-03
8.750  18.000  8.4332e-03
8.750  18.250  1.1151e-02
8.750  18.500  1.6130e-02
8.750  18.750  2.6498e-02
8.750  19.000  5.3871e-02
8.750  19.250  6.7749e-02
8.750  19.500  7.5271e-02
8.750  19.750  6.7954e-02
8.750  20.000  5.6460e-02
8.750  20.250  4.7256e-02
8.750  20.500  4.2922e-02
8.750  20.750  4.0729e-02
8.750  21.000  3.9505e-02
8.750  21.250  3.8976e-02
8.750  21.500  3.8744e-02
8.750  21.750  3.8640e-02
8.750  22.000  3.8591e-02
8.750  22.250  3.8566e-02
8.750  22.500  3.8552e-02
8.750  22.750  3.8545e-02
8.750  23.000  3.8541e-02
8.750  23.250  3.8539e-02
8.750  23.500  3.8538e-02
8.750  23.750  3.8537e-02
8.750  24.000  3.8537e-02
9.000  17.000  4.2117e-03
9.000  17.250  4.7221e-03
9.000  17.500  5.2506e-03
9.000  17.750  5.9187e-03
9.000  18.000  6.9019e-03
9.000  18.250  8.4982e-03
9.000  18.500  1.1259e-02
9.000  18.750  1.6396e-02
9.000  19.000  2.8697e-02
9.000  19.250  5.3888e-02
9.000  19.500  6.8023e-02
9.000  19.750  7.5703e-02
9.000  20.000  6.8056e-02
9.000  20.250  5.6456e-02
9.000  20.500  4.7252e-02
9.000  20.750  4.2921e-02
9.000  21.000  4.0729e-02
9.000  21.250  3.9505e-02
9.000  21.500  3.8976e-02
9.000  21.750  3.8744e-02
9.000  22.000  3.8640e-02
9.000  22.250  3.8591e-02
9.000  22.500  3.8566e-02
9.000  22.750  3.8552e-02
9.000  23.000  3.8545e-02
9.000  23.250  3.8541e-02
9.000  23.500  3.8539e-02
9.000  23.750  3.8538e-02
9.000  24.000  3.8537e-02
9.250  17.000  3.6945e-03
9.250  17.250  4.2701e-03
9.250  17.500  4.8041e-03
9.250  17.750  5.3505e-03
9.250  18.000  6.0253e-03
9.250  18.250  7.0273e-03
9.250  18.500  8.6830e-03
9.250  18.750  1.1624e-02
9.250  19.000  1.7138e-02
9.250  19.250  3.3088e-02
9.250  19.500  5.4010e-02
9.250  19.750  6.8266e-02
9.250  20.000  7.6117e-02
9.250  20.250  6.8161e-02
9.250  20.500  5.6454e-02
9.250  20.750  4.7249e-02
9.250  21.000  4.2920e-02
9.250  21.250  4.0729e-02
9.250  21.500  3.9497e-02
9.250  21.750  3.8965e-02
9.250  22.000  3.8732e-02
9.250  22.250  3.8629e-02
9.250  22.500  3.8590e-02
9.250  22.750  3.8565e-02
9.250  23.000  3.8552e-02
9.250  23.250  3.8545e-02
9.250  23.500  3.8541e-02
9.250  23.750  3.8539e-02
9.250  24.000  3.8538e-02
9.500  17.000  3.1044e-03
9.500  17.250  3.7869e-03
9.500  17.500  4.4148e-03
9.500  17.750  4.9867e-03
9.500  18.000  5.5452e-03
9.500  18.250  6.2366e-03
9.500  18.500  7.3000e-03
9.500  18.750  9.1402e-03
9.500  19.000  1.2403e-02
9.500  19.250  1.8480e-02
9.500  19.500  3.8088e-02
9.500  19.750  5.4296e-02
9.500  20.000  6.8428e-02
9.500  20.250  7.6474e-02
9.500  20.500  6.8260e-02
9.500  20.750  5.6453e-02
9.500  21.000  4.7236e-02
9.500  21.250  4.2907e-02
9.500  21.500  4.0716e-02
9.500  21.750  3.9490e-02
9.500  22.000  3.8955e-02
9.500  22.250  3.8724e-02
9.500  22.500  3.8620e-02
9.500  22.750  3.8570e-02
9.500  23.000  3.8545e-02
9.500  23.250  3.8532e-02
9.500  23.500  3.8529e-02
9.500  23.750  3.8526e-02
9.500  24.000  3.8523e-02
9.750  17.000  2.4026e-03
9.750  17.250  3.2055e-03
9.750  17.500  3.9710e-03
9.750  17.750  4.6687e-03
9.750  18.000  5.2679e-03
9.750  18.250  5.8595e-03
9.750  18.500  6.6335e-03
9.750  18.750  7.8703e-03
9.750  19.000  1.0018e-02
9.750  19.250  1.3763e-02
9.750  19.500  2.0423e-02
9.750  19.750  4.2035e-02
9.750  20.000  5.4871e-02
9.750  20.250  6.8497e-02
9.750  20.500  7.6747e-02
9.750  20.750  6.8343e-02
9.750  21.000  5.6456e-02
9.750  21.250  4.7242e-02
9.750  21.500  4.2910e-02
9.750  21.750  4.0716e-02
9.750  22.000  3.9491e-02
9.750  22.250  3.8958e-02
9.750  22.500  3.8723e-02
9.750  22.750  3.8620e-02
9.750  23.000  3.8571e-02
9.750  23.250  3.8545e-02
9.750  23.500  3.8532e-02
9.750  23.750  3.8524e-02
9.750  24.000  3.8520e-02
10.000  17.000  1.5942e-03
10.000  17.250  2.4873e-03
10.000  17.500  3.3943e-03
10.000  17.750  4.2529e-03
10.000  18.000  5.0235e-03
10.000  18.250  5.6888e-03
10.000  18.500  6.3639e-03
10.000  18.750  7.2975e-03
10.000  19.000  8.8035e-03
10.000  19.250  1.1305e-02
10.000  19.500  1.5527e-02
10.000  19.750  2.6524e-02
10.000  20.000  4.5258e-02
10.000  20.250  5.5758e-02
10.000  20.500  6.8556e-02
10.000  20.750  7.6962e-02
10.000  21.000  6.8416e-02
10.000  21.250  5.6460e-02
10.000  21.500  4.7242e-02
10.000  21.750  4.2916e-02
10.000  22.000  4.0718e-02
10.000  22.250  3.9493e-02
10.000  22.500  3.8961e-02
10.000  22.750  3.8725e-02
10.000  23.000  3.8619e-02
10.000  23.250  3.8570e-02
10.000  23.500  3.8545e-02
10.000  23.750  3.8532e-02
10.000  24.000  3.8525e-02
10.250  17.000  9.8798e-04
10.250  17.250  1.6509e-03
10.250  17.500  2.6453e-03
10.250  17.750  3.6588e-03
10.250  18.000  4.6301e-03
10.250  18.250  5.5151e-03
10.250  18.500  6.2808e-03
10.250  18.750  7.1226e-03
10.250  19.000  8.2565e-03
10.250  19.250  1.0029e-02
10.250  19.500  1.2895e-02
10.250  19.750  1.7649e-02
10.250  20.000  3.7083e-02
10.250  20.250  4.8412e-02
10.250  20.500  5.6823e-02
10.250  20.750  6.8644e-02
10.250  21.000  7.7117e-02
10.250  21.250  6.8479e-02
10.250  21.500  5.6464e-02
10.250  21.750  4.7242e-02
10.250  22.000  4.2920e-02
10.250  22.250  4.0722e-02
10.250  22.500  3.9493e-02
10.250  22.750  3.8963e-02
10.250  23.000  3.8728e-02
10.250  23.250  3.8622e-02
10.250  23.500  3.8571e-02
10.250  23.750  3.8545e-02
10.250  24.000  3.8531e-02
10.500  17.000  5.9383e-04
10.500  17.250  1.0111e-03
10.500  17.500  1.7498e-03
10.500  17.750  2.8630e-03
10.500  18.000  4.0105e-03
10.500  18.250  5.1146e-03
10.500  18.500  6.1164e-03
10.500  18.750  7.0369e-03
10.500  19.000  8.0389e-03
10.500  19.250  9.4019e-03
10.500  19.500  1.1484e-02
10.500  19.750  1.4754e-02
10.500  20.000  2.0026e-02
10.500  20.250  4.2431e-02
10.500  20.500  5.1972e-02
10.500  20.750  5.8160e-02
10.500  21.000  6.8911e-02
10.500  21.250  7.7233e-02
10.500  21.500  6.8523e-02
10.500  21.750  5.6471e-02
10.500  22.000  4.7241e-02
10.500  22.250  4.2921e-02
10.500  22.500  4.0728e-02
10.500  22.750  3.9494e-02
10.500  23.000  3.8964e-02
10.500  23.250  3.8730e-02
10.500  23.500  3.8624e-02
10.500  23.750  3.8573e-02
10.500  24.000  3.8547e-02
10.750  17.000  3.7235e-04
10.750  17.250  5.9679e-04
10.750  17.500  1.0576e-03
10.750  17.750  1.9202e-03
10.750  18.000  3.1410e-03
10.750  18.250  4.4510e-03
10.750  18.500  5.6821e-03
10.750  18.750  6.8121e-03
10.750  19.000  7.8830e-03
10.750  19.250  9.0933e-03
10.750  19.500  1.0743e-02
10.750  19.750  1.3187e-02
10.750  20.000  1.6901e-02
10.750  20.250  2.2425e-02
10.750  20.500  4.8013e-02
10.750  20.750  5.5952e-02
10.750  21.000  5.9678e-02
10.750  21.250  6.9503e-02
10.750  21.500  7.7351e-02
10.750  21.750  6.8559e-02
10.750  22.000  5.6481e-02
10.750  22.250  4.7241e-02
10.750  22.500  4.2923e-02
10.750  22.750  4.0730e-02
10.750  23.000  3.9496e-02
10.750  23.250  3.8964e-02
10.750  23.500  3.8732e-02
10.750  23.750  3.8627e-02
10.750  24.000  3.8576e-02
11.000  17.000  2.4905e-04
11.000  17.250  3.6494e-04
11.000  17.500  6.0519e-04
11.000  17.750  1.1287e-03
11.000  18.000  2.1008e-03
11.000  18.250  3.4430e-03
11.000  18.500  4.9095e-03
11.000  18.750  6.2933e-03
11.000  19.000  7.5585e-03
11.000  19.250  8.8292e-03
11.000  19.500  1.0304e-02
11.000  19.750  1.2287e-02
11.000  20.000  1.5097e-02
11.000  20.250  1.9207e-02
11.000  20.500  2.7662e-02
11.000  20.750  5.3766e-02
11.000  21.000  6.0377e-02
11.000  21.250  6.1453e-02
11.000  21.500  7.0556e-02
11.000  21.750  7.7529e-02
11.000  22.000  6.8587e-02
11.000  22.250  5.6497e-02
11.000  22.500  4.7242e-02
11.000  22.750  4.2925e-02
11.000  23.000  4.0732e-02
11.000  23.250  3.9502e-02
11.000  23.500  3.8965e-02
11.000  23.750  3.8733e-02
11.000  24.000  3.8628e-02
11.250  17.000  1.7210e-04
11.250  17.250  2.3597e-04
11.250  17.500  3.5580e-04
11.250  17.750  6.1490e-04
11.250  18.000  1.1902e-03
11.250  18.250  2.2642e-03
11.250  18.500  3.7562e-03
11.250  18.750  5.3969e-03
11.250  19.000  6.9201e-03
11.250  19.250  8.3737e-03
11.250  19.500  9.9058e-03
11.250  19.750  1.1699e-02
11.250  20.000  1.4025e-02
11.250  20.250  1.7192e-02
11.250  20.500  2.1691e-02
11.250  20.750  3.4320e-02
11.250  21.000  5.9708e-02
11.250  21.250  6.4498e-02
11.250  21.500  6.2847e-02
11.250  21.750  7.2244e-02
11.250  22.000  7.7835e-02
11.250  22.250  6.8617e-02
11.250  22.500  5.6523e-02
11.250  22.750  4.7244e-02
11.250  23.000  4.2927e-02
11.250  23.250  4.0734e-02
11.250  23.500  3.9505e-02
11.250  23.750  3.8967e-02
11.250  24.000  3.8733e-02
11.500  17.000  1.2099e-04
11.500  17.250  1.5852e-04
11.500  17.500  2.2165e-04
11.500  17.750  3.4305e-04
11.500  18.000  6.1432e-04
11.500  18.250  1.2419e-03
11.500  18.500  2.4301e-03
11.500  18.750  4.0987e-03
11.500  19.000  5.9230e-03
11.500  19.250  7.6038e-03
11.500  19.500  9.2809e-03
11.500  19.750  1.1145e-02
11.500  20.000  1.3296e-02
11.500  20.250  1.5942e-02
11.500  20.500  1.9400e-02
11.500  20.750  2.4160e-02
11.500  21.000  4.1408e-02
11.500  21.250  6.6220e-02
11.500  21.500  6.8126e-02
11.500  21.750  6.3811e-02
11.500  22.000  7.4597e-02
11.500  22.250  7.8341e-02
11.500  22.500  6.8645e-02
11.500  22.750  5.6559e-02
11.500  23.000  4.7248e-02
11.500  23.250  4.2930e-02
11.500  23.500  4.0736e-02
11.500  23.750  3.9506e-02
11.500  24.000  3.8972e-02
11.750  17.000  8.5432e-05
11.750  17.250  1.0856e-04
11.750  17.500  1.4469e-04
11.750  17.750  2.0576e-04
11.750  18.000  3.2700e-04
11.750  18.250  6.1588e-04
11.750  18.500  1.3088e-03
11.750  18.750  2.6339e-03
11.750  19.000  4.4990e-03
11.750  19.250  6.5032e-03
11.750  19.500  8.3750e-03
11.750  19.750  1.0334e-02
11.750  20.000  1.2565e-02
11.750  20.250  1.5082e-02
11.750  20.500  1.8048e-02
11.750  20.750  2.1721e-02
11.750  21.000  2.6326e-02
11.750  21.250  4.7087e-02
11.750  21.500  7.1329e-02
11.750  21.750  7.0185e-02
11.750  22.000  6.6843e-02
11.750  22.250  7.7307e-02
11.750  22.500  7.9091e-02
11.750  22.750  6.8661e-02
11.750  23.000  5.6601e-02
11.750  23.250  4.7254e-02
11.750  23.500  4.2933e-02
11.750  23.750  4.0738e-02
11.750  24.000  3.9506e-02
12.000  17.000  6.0823e-05
12.000  17.250  7.5720e-05
12.000  17.500  9.7613e-05
12.000  17.750  1.3218e-04
12.000  18.000  1.9251e-04
12.000  18.250  3.2049e-04
12.000  18.500  6.3761e-04
12.000  18.750  1.4139e-03
12.000  19.000  2.9067e-03
12.000  19.250  4.9895e-03
12.000  19.500  7.1883e-03
12.000  19.750  9.2805e-03
12.000  20.000  1.1586e-02
12.000  20.250  1.4216e-02
12.000  20.500  1.7084e-02
12.000  20.750  2.0266e-02
12.000  21.000  2.3905e-02
12.000  21.250  2.8347e-02
12.000  21.500  5.1204e-02
12.000  21.750  7.6882e-02
12.000  22.000  7.1037e-02
12.000  22.250  7.2560e-02
12.000  22.500  8.0671e-02
12.000  22.750  8.0068e-02
12.000  23.000  6.8671e-02
12.000  23.250  5.6641e-02
12.000  23.500  4.7262e-02
12.000  23.750  4.2937e-02
12.000  24.000  4.0740e-02
12.250  17.000  4.3868e-05
12.250  17.250  5.3992e-05
12.250  17.500  6.7819e-05
12.250  17.750  8.9383e-05
12.250  18.000  1.2453e-04
12.250  18.250  1.9053e-04
12.250  18.500  3.3580e-04
12.250  18.750  6.9926e-04
12.250  19.000  1.5769e-03
12.250  19.250  3.2725e-03
12.250  19.500  5.5891e-03
12.250  19.750  8.0100e-03
12.250  20.000  1.0383e-02
12.250  20.250  1.3077e-02
12.250  20.500  1.6056e-02
12.250  20.750  1.9157e-02
12.250  21.000  2.2406e-02
12.250  21.250  2.5882e-02
12.250  21.500  3.0062e-02
12.250  21.750  5.6195e-02
12.250  22.000  8.1775e-02
12.250  22.250  7.1256e-02
12.250  22.500  7.9072e-02
12.250  22.750  8.4622e-02
12.250  23.000  8.1141e-02
12.250  23.250  6.8687e-02
12.250  23.500  5.6680e-02
12.250  23.750  4.7267e-02
12.250  24.000  4.2940e-02
12.500  17.000  3.1852e-05
12.500  17.250  3.9506e-05
12.500  17.500  4.8889e-05
12.500  17.750  6.3045e-05
12.500  18.000  8.6337e-05
12.500  18.250  1.2782e-04
12.500  18.500  2.0996e-04
12.500  18.750  3.8774e-04
12.500  19.000  8.1663e-04
12.500  19.250  1.8362e-03
12.500  19.500  3.7644e-03
12.500  19.750  6.3454e-03
12.500  20.000  9.0016e-03
12.500  20.250  1.1705e-02
12.500  20.500  1.4780e-02
12.500  20.750  1.8000e-02
12.500  21.000  2.1151e-02
12.500  21.250  2.4111e-02
12.500  21.500  2.7176e-02
12.500  21.750  3.2171e-02
12.500  22.000  6.3483e-02
12.500  22.250  8.5840e-02
12.500  22.500  7.4311e-02
12.500  22.750  8.6563e-02
12.500  23.000  8.9149e-02
12.500  23.250  8.2245e-02
12.500  23.500  6.8719e-02
12.500  23.750  5.6712e-02
12.500  24.000  4.7268e-02
12.750  17.000  2.3292e-05
12.750  17.250  2.9136e-05
12.750  17.500  3.6379e-05
12.750  17.750  4.6667e-05
12.750  18.000  6.3374e-05
12.750  18.250  9.3580e-05
12.750  18.500  1.5193e-04
12.750  18.750  2.6420e-04
12.750  19.000  4.9218e-04
12.750  19.250  1.0137e-03
12.750  19.500  2.2021e-03
12.750  19.750  4.3605e-03
12.750  20.000  7.1672e-03
12.750  20.250  1.0120e-02
12.750  20.500  1.3175e-02
12.750  20.750  1.6506e-02
12.750  21.000  1.9914e-02
12.750  21.250  2.3038e-02
12.750  21.500  2.5845e-02
12.750  21.750  2.8876e-02
12.750  22.000  3.4863e-02
12.750  22.250  7.2836e-02
12.750  22.500  8.8859e-02
12.750  22.750  8.1314e-02
12.750  23.000  9.4482e-02
12.750  23.250  9.3814e-02
12.750  23.500  8.3703e-02
12.750  23.750  6.8798e-02
12.750  24.000  5.6735e-02
13.000  17.000  1.7284e-05
13.000  17.250  2.1811e-05
13.000  17.500  2.7490e-05
13.000  17.750  3.5556e-05
13.000  18.000  4.8724e-05
13.000  18.250  7.3004e-05
13.000  18.500  1.2115e-04
13.000  18.750  2.1177e-04
13.000  19.000  3.7185e-04
13.000  19.250  6.7029e-04
13.000  19.500  1.2903e-03
13.000  19.750  2.6218e-03
13.000  20.000  4.9968e-03
13.000  20.250  8.0421e-03
13.000  20.500  1.1277e-02
13.000  20.750  1.4652e-02
13.000  21.000  1.8165e-02
13.000  21.250  2.1577e-02
13.000  21.500  2.4492e-02
13.000  21.750  2.7425e-02
13.000  22.000  3.1663e-02
13.000  22.250  3.9720e-02
13.000  22.500  8.6377e-02
13.000  22.750  9.2027e-02
13.000  23.000  9.1187e-02
13.000  23.250  1.0339e-01
13.000  23.500  9.9181e-02
13.000  23.750  8.5028e-02
13.000  24.000  6.8923e-02
13.250  17.000  1.2757e-05
13.250  17.250  1.6543e-05
13.250  17.500  2.1152e-05
13.250  17.750  2.7901e-05
13.250  18.000  3.9259e-05
13.250  18.250  6.0247e-05
13.250  18.500  1.0255e-04
13.250  18.750  1.8535e-04
13.250  19.000  3.2757e-04
13.250  19.250  5.5695e-04
13.250  19.500  9.4593e-04
13.250  19.750  1.6863e-03
13.250  20.000  3.1581e-03
13.250  20.250  5.6318e-03
13.250  20.500  8.8706e-03
13.250  20.750  1.2528e-02
13.250  21.000  1.6147e-02
13.250  21.250  1.9994e-02
13.250  21.500  2.3256e-02
13.250  21.750  2.7254e-02
13.250  22.000  3.1065e-02
13.250  22.250  3.5441e-02
13.250  22.500  5.2295e-02
13.250  22.750  1.0342e-01
13.250  23.000  1.0653e-01
13.250  23.250  1.0373e-01
13.250  23.500  1.1251e-01
13.250  23.750  1.0365e-01
13.250  24.000  8.5663e-02
13.500  17.000  9.3827e-06
13.500  17.250  1.2510e-05
13.500  17.500  1.6543e-05
13.500  17.750  2.2469e-05
13.500  18.000  3.2922e-05
13.500  18.250  5.2757e-05
13.500  18.500  9.1440e-05
13.500  18.750  1.6881e-04
13.500  19.000  3.0774e-04
13.500  19.250  5.2477e-04
13.500  19.500  8.5251e-04
13.500  19.750  1.3721e-03
13.500  20.000  2.2616e-03
13.500  20.250  3.8719e-03
13.500  20.500  6.4571e-03
13.500  20.750  9.9852e-03
13.500  21.000  1.3879e-02
13.500  21.250  1.8057e-02
13.500  21.500  2.2184e-02
13.500  21.750  2.7256e-02
13.500  22.000  3.2170e-02
13.500  22.250  3.6906e-02
13.500  22.500  4.3473e-02
13.500  22.750  7.4147e-02
13.500  23.000  1.3155e-01
13.500  23.250  1.2419e-01
13.500  23.500  1.1873e-01
13.500  23.750  1.2190e-01
13.500  24.000  1.0768e-01
13.750  17.000  6.9959e-06
13.750  17.250  9.4650e-06
13.750  17.500  1.3086e-05
13.750  17.750  1.8519e-05
13.750  18.000  2.8395e-05
13.750  18.250  4.7819e-05
13.750  18.500  8.5844e-05
13.750  18.750  1.5909e-04
13.750  19.000  2.9202e-04
13.750  19.250  5.1111e-04
13.750  19.500  8.3432e-04
13.750  19.750  1.3037e-03
13.750  20.000  2.0118e-03
13.750  20.250  3.1316e-03
13.750  20.500  4.9509e-03
13.750  20.750  7.7639e-03
13.750  21.000  1.1562e-02
13.750  21.250  1.6018e-02
13.750  21.500  2.0701e-02
13.750  21.750  2.6171e-02
13.750  22.000  3.2180e-02
13.750  22.250  3.8640e-02
13.750  22.500  4.5398e-02
13.750  22.750  5.3865e-02
13.750  23.000  1.0762e-01
13.750  23.250  1.6662e-01
13.750  23.500  1.4972e-01
13.750  23.750  1.3661e-01
13.750  24.000  1.3131e-01
14.000  17.000  5.1852e-06
14.000  17.250  7.2428e-06
14.000  17.500  1.0123e-05
14.000  17.750  1.5473e-05
14.000  18.000  2.5021e-05
14.000  18.250  4.4115e-05
14.000  18.500  8.1646e-05
14.000  18.750  1.5292e-04
14.000  19.000  2.7992e-04
14.000  19.250  4.9103e-04
14.000  19.500  8.1737e-04
14.000  19.750  1.2856e-03
14.000  20.000  1.9475e-03
14.000  20.250  2.9062e-03
14.000  20.500  4.3305e-03
14.000  20.750  6.4635e-03
14.000  21.000  9.5916e-03
14.000  21.250  1.3866e-02
14.000  21.500  1.8871e-02
14.000  21.750  2.4663e-02
14.000  22.000  3.1190e-02
14.000  22.250  3.8457e-02
14.000  22.500  4.6590e-02
14.000  22.750  5.5790e-02
14.000  23.000  6.9761e-02
14.000  23.250  1.6292e-01
14.000  23.500  2.0702e-01
14.000  23.750  1.6854e-01
14.000  24.000  1.5570e-01
