nFnu 1035.92A  relative to Inci 1215.00A scaled to 1215A.
Hden   Phi(H)  Eq_Width (A)
7.000  17.000  7.6330e-02
7.000  17.250  7.5418e-02
7.000  17.500  7.4414e-02
7.000  17.750  6.6305e-02
7.000  18.000  5.8349e-02
7.000  18.250  5.2334e-02
7.000  18.500  4.8308e-02
7.000  18.750  4.6289e-02
7.000  19.000  4.5228e-02
7.000  19.250  4.4618e-02
7.000  19.500  4.4359e-02
7.000  19.750  4.4250e-02
7.000  20.000  4.4202e-02
7.000  20.250  4.4180e-02
7.000  20.500  4.4168e-02
7.000  20.750  4.4163e-02
7.000  21.000  4.4160e-02
7.000  21.250  4.4158e-02
7.000  21.500  4.4157e-02
7.000  21.750  4.4157e-02
7.000  22.000  4.4157e-02
7.000  22.250  4.4157e-02
7.000  22.500  4.4158e-02
7.000  22.750  4.4158e-02
7.000  23.000  4.4158e-02
7.000  23.250  4.4158e-02
7.000  23.500  4.4158e-02
7.000  23.750  4.4158e-02
7.000  24.000  4.4158e-02
7.250  17.000  5.8755e-02
7.250  17.250  7.3869e-02
7.250  17.500  7.4344e-02
7.250  17.750  7.4043e-02
7.250  18.000  6.6126e-02
7.250  18.250  5.8253e-02
7.250  18.500  5.2285e-02
7.250  18.750  4.8291e-02
7.250  19.000  4.6282e-02
7.250  19.250  4.5225e-02
7.250  19.500  4.4618e-02
7.250  19.750  4.4359e-02
7.250  20.000  4.4250e-02
7.250  20.250  4.4202e-02
7.250  20.500  4.4180e-02
7.250  20.750  4.4168e-02
7.250  21.000  4.4162e-02
7.250  21.250  4.4159e-02
7.250  21.500  4.4158e-02
7.250  21.750  4.4157e-02
7.250  22.000  4.4156e-02
7.250  22.250  4.4156e-02
7.250  22.500  4.4156e-02
7.250  22.750  4.4156e-02
7.250  23.000  4.4157e-02
7.250  23.250  4.4157e-02
7.250  23.500  4.4157e-02
7.250  23.750  4.4157e-02
7.250  24.000  4.4157e-02
7.500  17.000  3.9926e-02
7.500  17.250  5.5902e-02
7.500  17.500  7.1384e-02
7.500  17.750  7.3550e-02
7.500  18.000  7.3850e-02
7.500  18.250  6.6041e-02
7.500  18.500  5.8198e-02
7.500  18.750  5.2255e-02
7.500  19.000  4.8280e-02
7.500  19.250  4.6277e-02
7.500  19.500  4.5224e-02
7.500  19.750  4.4617e-02
7.500  20.000  4.4359e-02
7.500  20.250  4.4250e-02
7.500  20.500  4.4202e-02
7.500  20.750  4.4180e-02
7.500  21.000  4.4168e-02
7.500  21.250  4.4162e-02
7.500  21.500  4.4159e-02
7.500  21.750  4.4157e-02
7.500  22.000  4.4156e-02
7.500  22.250  4.4156e-02
7.500  22.500  4.4156e-02
7.500  22.750  4.4156e-02
7.500  23.000  4.4156e-02
7.500  23.250  4.4156e-02
7.500  23.500  4.4158e-02
7.500  23.750  4.4156e-02
7.500  24.000  4.4156e-02
7.750  17.000  2.6879e-02
7.750  17.250  3.6902e-02
7.750  17.500  5.3474e-02
7.750  17.750  6.9286e-02
7.750  18.000  7.2938e-02
7.750  18.250  7.3768e-02
7.750  18.500  6.6017e-02
7.750  18.750  5.8170e-02
7.750  19.000  5.2237e-02
7.750  19.250  4.8273e-02
7.750  19.500  4.6275e-02
7.750  19.750  4.5223e-02
7.750  20.000  4.4617e-02
7.750  20.250  4.4359e-02
7.750  20.500  4.4250e-02
7.750  20.750  4.4202e-02
7.750  21.000  4.4180e-02
7.750  21.250  4.4168e-02
7.750  21.500  4.4162e-02
7.750  21.750  4.4159e-02
7.750  22.000  4.4157e-02
7.750  22.250  4.4156e-02
7.750  22.500  4.4156e-02
7.750  22.750  4.4155e-02
7.750  23.000  4.4156e-02
7.750  23.250  4.4155e-02
7.750  23.500  4.4155e-02
7.750  23.750  4.4155e-02
7.750  24.000  4.4155e-02
8.000  17.000  1.9059e-02
8.000  17.250  2.4004e-02
8.000  17.500  3.4164e-02
8.000  17.750  5.1196e-02
8.000  18.000  6.7471e-02
8.000  18.250  7.2501e-02
8.000  18.500  7.3756e-02
8.000  18.750  6.6035e-02
8.000  19.000  5.8161e-02
8.000  19.250  5.2227e-02
8.000  19.500  4.8268e-02
8.000  19.750  4.6273e-02
8.000  20.000  4.5222e-02
8.000  20.250  4.4617e-02
8.000  20.500  4.4359e-02
8.000  20.750  4.4250e-02
8.000  21.000  4.4202e-02
8.000  21.250  4.4180e-02
8.000  21.500  4.4168e-02
8.000  21.750  4.4162e-02
8.000  22.000  4.4159e-02
8.000  22.250  4.4157e-02
8.000  22.500  4.4156e-02
8.000  22.750  4.4156e-02
8.000  23.000  4.4156e-02
8.000  23.250  4.4156e-02
8.000  23.500  4.4155e-02
8.000  23.750  4.4155e-02
8.000  24.000  4.4155e-02
8.250  17.000  1.4551e-02
8.250  17.250  1.6988e-02
8.250  17.500  2.2162e-02
8.250  17.750  3.2531e-02
8.250  18.000  4.9904e-02
8.250  18.250  6.6426e-02
8.250  18.500  7.2250e-02
8.250  18.750  7.3786e-02
8.250  19.000  6.6082e-02
8.250  19.250  5.8162e-02
8.250  19.500  5.2219e-02
8.250  19.750  4.8265e-02
8.250  20.000  4.6272e-02
8.250  20.250  4.5222e-02
8.250  20.500  4.4617e-02
8.250  20.750  4.4359e-02
8.250  21.000  4.4250e-02
8.250  21.250  4.4202e-02
8.250  21.500  4.4180e-02
8.250  21.750  4.4168e-02
8.250  22.000  4.4162e-02
8.250  22.250  4.4159e-02
8.250  22.500  4.4157e-02
8.250  22.750  4.4156e-02
8.250  23.000  4.4156e-02
8.250  23.250  4.4156e-02
8.250  23.500  4.4155e-02
8.250  23.750  4.4155e-02
8.250  24.000  4.4155e-02
8.500  17.000  1.1800e-02
8.500  17.250  1.2946e-02
8.500  17.500  1.5614e-02
8.500  17.750  2.0925e-02
8.500  18.000  3.1599e-02
8.500  18.250  4.9305e-02
8.500  18.500  6.5790e-02
8.500  18.750  7.2111e-02
8.500  19.000  7.3844e-02
8.500  19.250  6.6151e-02
8.500  19.500  5.8171e-02
8.500  19.750  5.2216e-02
8.500  20.000  4.8263e-02
8.500  20.250  4.6271e-02
8.500  20.500  4.5221e-02
8.500  20.750  4.4617e-02
8.500  21.000  4.4359e-02
8.500  21.250  4.4250e-02
8.500  21.500  4.4202e-02
8.500  21.750  4.4180e-02
8.500  22.000  4.4168e-02
8.500  22.250  4.4162e-02
8.500  22.500  4.4159e-02
8.500  22.750  4.4157e-02
8.500  23.000  4.4156e-02
8.500  23.250  4.4156e-02
8.500  23.500  4.4155e-02
8.500  23.750  4.4155e-02
8.500  24.000  4.4155e-02
8.750  17.000  1.0201e-02
8.750  17.250  1.0597e-02
8.750  17.500  1.1946e-02
8.750  17.750  1.4764e-02
8.750  18.000  2.0328e-02
8.750  18.250  3.1485e-02
8.750  18.500  4.9483e-02
8.750  18.750  6.5350e-02
8.750  19.000  7.2035e-02
8.750  19.250  7.3914e-02
8.750  19.500  6.6236e-02
8.750  19.750  5.8184e-02
8.750  20.000  5.2214e-02
8.750  20.250  4.8262e-02
8.750  20.500  4.6271e-02
8.750  20.750  4.5221e-02
8.750  21.000  4.4617e-02
8.750  21.250  4.4359e-02
8.750  21.500  4.4250e-02
8.750  21.750  4.4202e-02
8.750  22.000  4.4180e-02
8.750  22.250  4.4168e-02
8.750  22.500  4.4162e-02
8.750  22.750  4.4159e-02
8.750  23.000  4.4157e-02
8.750  23.250  4.4156e-02
8.750  23.500  4.4156e-02
8.750  23.750  4.4156e-02
8.750  24.000  4.4155e-02
9.000  17.000  9.3728e-03
9.000  17.250  9.2961e-03
9.000  17.500  9.8752e-03
9.000  17.750  1.1376e-02
9.000  18.000  1.4423e-02
9.000  18.250  2.0485e-02
9.000  18.500  3.2757e-02
9.000  18.750  5.1265e-02
9.000  19.000  6.5002e-02
9.000  19.250  7.1968e-02
9.000  19.500  7.3980e-02
9.000  19.750  6.6324e-02
9.000  20.000  5.8199e-02
9.000  20.250  5.2212e-02
9.000  20.500  4.8261e-02
9.000  20.750  4.6270e-02
9.000  21.000  4.5221e-02
9.000  21.250  4.4617e-02
9.000  21.500  4.4359e-02
9.000  21.750  4.4250e-02
9.000  22.000  4.4202e-02
9.000  22.250  4.4180e-02
9.000  22.500  4.4168e-02
9.000  22.750  4.4162e-02
9.000  23.000  4.4159e-02
9.000  23.250  4.4157e-02
9.000  23.500  4.4156e-02
9.000  23.750  4.4156e-02
9.000  24.000  4.4156e-02
9.250  17.000  9.0966e-03
9.250  17.250  8.6644e-03
9.250  17.500  8.7774e-03
9.250  17.750  9.5368e-03
9.250  18.000  1.1338e-02
9.250  18.250  1.4851e-02
9.250  18.500  2.1860e-02
9.250  18.750  3.5836e-02
9.250  19.000  5.4258e-02
9.250  19.250  6.4686e-02
9.250  19.500  7.1880e-02
9.250  19.750  7.4029e-02
9.250  20.000  6.6408e-02
9.250  20.250  5.8215e-02
9.250  20.500  5.2210e-02
9.250  20.750  4.8260e-02
9.250  21.000  4.6270e-02
9.250  21.250  4.5221e-02
9.250  21.500  4.4608e-02
9.250  21.750  4.4346e-02
9.250  22.000  4.4236e-02
9.250  22.250  4.4189e-02
9.250  22.500  4.4179e-02
9.250  22.750  4.4168e-02
9.250  23.000  4.4162e-02
9.250  23.250  4.4159e-02
9.250  23.500  4.4157e-02
9.250  23.750  4.4156e-02
9.250  24.000  4.4156e-02
9.500  17.000  9.2342e-03
9.500  17.250  8.4976e-03
9.500  17.500  8.2868e-03
9.500  17.750  8.6421e-03
9.500  18.000  9.7230e-03
9.500  18.250  1.1891e-02
9.500  18.500  1.6079e-02
9.500  18.750  2.4458e-02
9.500  19.000  4.0132e-02
9.500  19.250  5.6847e-02
9.500  19.500  6.4370e-02
9.500  19.750  7.1736e-02
9.500  20.000  7.4048e-02
9.500  20.250  6.6478e-02
9.500  20.500  5.8228e-02
9.500  20.750  5.2209e-02
9.500  21.000  4.8249e-02
9.500  21.250  4.6257e-02
9.500  21.500  4.5207e-02
9.500  21.750  4.4600e-02
9.500  22.000  4.4336e-02
9.500  22.250  4.4227e-02
9.500  22.500  4.4179e-02
9.500  22.750  4.4155e-02
9.500  23.000  4.4144e-02
9.500  23.250  4.4139e-02
9.500  23.500  4.4141e-02
9.500  23.750  4.4140e-02
9.500  24.000  4.4138e-02
9.750  17.000  9.7519e-03
9.750  17.250  8.6810e-03
9.750  17.500  8.1886e-03
9.750  17.750  8.2756e-03
9.750  18.000  8.9857e-03
9.750  18.250  1.0441e-02
9.750  18.500  1.3117e-02
9.750  18.750  1.8240e-02
9.750  19.000  2.8485e-02
9.750  19.250  4.5601e-02
9.750  19.500  5.9038e-02
9.750  19.750  6.4127e-02
9.750  20.000  7.1563e-02
9.750  20.250  7.4031e-02
9.750  20.500  6.6529e-02
9.750  20.750  5.8240e-02
9.750  21.000  5.2208e-02
9.750  21.250  4.8254e-02
9.750  21.500  4.6259e-02
9.750  21.750  4.5208e-02
9.750  22.000  4.4601e-02
9.750  22.250  4.4339e-02
9.750  22.500  4.4226e-02
9.750  22.750  4.4179e-02
9.750  23.000  4.4157e-02
9.750  23.250  4.4145e-02
9.750  23.500  4.4139e-02
9.750  23.750  4.4135e-02
9.750  24.000  4.4133e-02
10.000  17.000  1.0639e-02
10.000  17.250  9.1899e-03
10.000  17.500  8.3740e-03
10.000  17.750  8.2364e-03
10.000  18.000  8.7826e-03
10.000  18.250  9.8688e-03
10.000  18.500  1.1715e-02
10.000  18.750  1.5088e-02
10.000  19.000  2.1776e-02
10.000  19.250  3.4628e-02
10.000  19.500  5.1157e-02
10.000  19.750  5.9354e-02
10.000  20.000  6.4041e-02
10.000  20.250  7.1370e-02
10.000  20.500  7.3989e-02
10.000  20.750  6.6567e-02
10.000  21.000  5.8250e-02
10.000  21.250  5.2208e-02
10.000  21.500  4.8256e-02
10.000  21.750  4.6265e-02
10.000  22.000  4.5209e-02
10.000  22.250  4.4603e-02
10.000  22.500  4.4342e-02
10.000  22.750  4.4228e-02
10.000  23.000  4.4178e-02
10.000  23.250  4.4156e-02
10.000  23.500  4.4145e-02
10.000  23.750  4.4139e-02
10.000  24.000  4.4136e-02
10.250  17.000  1.1951e-02
10.250  17.250  1.0064e-02
10.250  17.500  9.8393e-03
10.250  17.750  1.1387e-02
10.250  18.000  1.4429e-02
10.250  18.250  1.8686e-02
10.250  18.500  2.3882e-02
10.250  18.750  2.9737e-02
10.250  19.000  3.5974e-02
10.250  19.250  4.2315e-02
10.250  19.500  4.8480e-02
10.250  19.750  5.4193e-02
10.250  20.000  5.9175e-02
10.250  20.250  6.4159e-02
10.250  20.500  7.1385e-02
10.250  20.750  7.3953e-02
10.250  21.000  6.6590e-02
10.250  21.250  5.8256e-02
10.250  21.500  5.2208e-02
10.250  21.750  4.8256e-02
10.250  22.000  4.6268e-02
10.250  22.250  4.5214e-02
10.250  22.500  4.4603e-02
10.250  22.750  4.4344e-02
10.250  23.000  4.4232e-02
10.250  23.250  4.4181e-02
10.250  23.500  4.4156e-02
10.250  23.750  4.4144e-02
10.250  24.000  4.4138e-02
10.500  17.000  1.3673e-02
10.500  17.250  1.1361e-02
10.500  17.500  1.0123e-02
10.500  17.750  1.0101e-02
10.500  18.000  1.1208e-02
10.500  18.250  1.3354e-02
10.500  18.500  1.6450e-02
10.500  18.750  2.0408e-02
10.500  19.000  2.5137e-02
10.500  19.250  3.0551e-02
10.500  19.500  3.6559e-02
10.500  19.750  4.3072e-02
10.500  20.000  5.0002e-02
10.500  20.250  5.7260e-02
10.500  20.500  6.4756e-02
10.500  20.750  7.1760e-02
10.500  21.000  7.3969e-02
10.500  21.250  6.6600e-02
10.500  21.500  5.8260e-02
10.500  21.750  5.2207e-02
10.500  22.000  4.8255e-02
10.500  22.250  4.6269e-02
10.500  22.500  4.5219e-02
10.500  22.750  4.4604e-02
10.500  23.000  4.4345e-02
10.500  23.250  4.4234e-02
10.500  23.500  4.4184e-02
10.500  23.750  4.4160e-02
10.500  24.000  4.4147e-02
10.750  17.000  1.5744e-02
10.750  17.250  1.3064e-02
10.750  17.500  1.1346e-02
10.750  17.750  1.0729e-02
10.750  18.000  1.1151e-02
10.750  18.250  1.2545e-02
10.750  18.500  1.4847e-02
10.750  18.750  1.7993e-02
10.750  19.000  2.1918e-02
10.750  19.250  2.6557e-02
10.750  19.500  3.1845e-02
10.750  19.750  3.7718e-02
10.750  20.000  4.4111e-02
10.750  20.250  5.0959e-02
10.750  20.500  5.8199e-02
10.750  20.750  6.5764e-02
10.750  21.000  7.2689e-02
10.750  21.250  7.4116e-02
10.750  21.500  6.6607e-02
10.750  21.750  5.8261e-02
10.750  22.000  5.2207e-02
10.750  22.250  4.8254e-02
10.750  22.500  4.6270e-02
10.750  22.750  4.5221e-02
10.750  23.000  4.4606e-02
10.750  23.250  4.4346e-02
10.750  23.500  4.4236e-02
10.750  23.750  4.4186e-02
10.750  24.000  4.4163e-02
11.000  17.000  1.8012e-02
11.000  17.250  1.5089e-02
11.000  17.500  1.3000e-02
11.000  17.750  1.1879e-02
11.000  18.000  1.1689e-02
11.000  18.250  1.2389e-02
11.000  18.500  1.3941e-02
11.000  18.750  1.6305e-02
11.000  19.000  1.9443e-02
11.000  19.250  2.3315e-02
11.000  19.500  2.7882e-02
11.000  19.750  3.3105e-02
11.000  20.000  3.8944e-02
11.000  20.250  4.5362e-02
11.000  20.500  5.2317e-02
11.000  20.750  5.9773e-02
11.000  21.000  6.7688e-02
11.000  21.250  7.4587e-02
11.000  21.500  7.4446e-02
11.000  21.750  6.6624e-02
11.000  22.000  5.8258e-02
11.000  22.250  5.2207e-02
11.000  22.500  4.8253e-02
11.000  22.750  4.6270e-02
11.000  23.000  4.5222e-02
11.000  23.250  4.4612e-02
11.000  23.500  4.4346e-02
11.000  23.750  4.4236e-02
11.000  24.000  4.4188e-02
11.250  17.000  2.0060e-02
11.250  17.250  1.7215e-02
11.250  17.500  1.5021e-02
11.250  17.750  1.3835e-02
11.250  18.000  1.3286e-02
11.250  18.250  1.2920e-02
11.250  18.500  1.2712e-02
11.250  18.750  1.4098e-02
11.250  19.000  1.7191e-02
11.250  19.250  2.1653e-02
11.250  19.500  2.7146e-02
11.250  19.750  3.3331e-02
11.250  20.000  3.9870e-02
11.250  20.250  4.6425e-02
11.250  20.500  5.2657e-02
11.250  20.750  5.8462e-02
11.250  21.000  6.4343e-02
11.250  21.250  7.0737e-02
11.250  21.500  7.7745e-02
11.250  21.750  7.5047e-02
11.250  22.000  6.6669e-02
11.250  22.250  5.8252e-02
11.250  22.500  5.2207e-02
11.250  22.750  4.8252e-02
11.250  23.000  4.6270e-02
11.250  23.250  4.5222e-02
11.250  23.500  4.4615e-02
11.250  23.750  4.4348e-02
11.250  24.000  4.4237e-02
11.500  17.000  2.0946e-02
11.500  17.250  1.8976e-02
11.500  17.500  1.7032e-02
11.500  17.750  1.5872e-02
11.500  18.000  1.5169e-02
11.500  18.250  1.4496e-02
11.500  18.500  1.3801e-02
11.500  18.750  1.3472e-02
11.500  19.000  1.4911e-02
11.500  19.250  1.8170e-02
11.500  19.500  2.2871e-02
11.500  19.750  2.8638e-02
11.500  20.000  3.5095e-02
11.500  20.250  4.1864e-02
11.500  20.500  4.8568e-02
11.500  20.750  5.4831e-02
11.500  21.000  6.0892e-02
11.500  21.250  6.8259e-02
11.500  21.500  7.5761e-02
11.500  21.750  8.2136e-02
11.500  22.000  7.5821e-02
11.500  22.250  6.6761e-02
11.500  22.500  5.8244e-02
11.500  22.750  5.2207e-02
11.500  23.000  4.8251e-02
11.500  23.250  4.6269e-02
11.500  23.500  4.5223e-02
11.500  23.750  4.4616e-02
11.500  24.000  4.4354e-02
11.750  17.000  1.6496e-02
11.750  17.250  1.8814e-02
11.750  17.500  1.8209e-02
11.750  17.750  1.7496e-02
11.750  18.000  1.6894e-02
11.750  18.250  1.6130e-02
11.750  18.500  1.5176e-02
11.750  18.750  1.4285e-02
11.750  19.000  1.3755e-02
11.750  19.250  1.3491e-02
11.750  19.500  1.3462e-02
11.750  19.750  1.4330e-02
11.750  20.000  1.6928e-02
11.750  20.250  2.2090e-02
11.750  20.500  3.0649e-02
11.750  20.750  4.3441e-02
11.750  21.000  5.7885e-02
11.750  21.250  6.4728e-02
11.750  21.500  7.3869e-02
11.750  21.750  8.2527e-02
11.750  22.000  8.6263e-02
11.750  22.250  7.6654e-02
11.750  22.500  6.6906e-02
11.750  22.750  5.8234e-02
11.750  23.000  5.2208e-02
11.750  23.250  4.8249e-02
11.750  23.500  4.6269e-02
11.750  23.750  4.5223e-02
11.750  24.000  4.4617e-02
12.000  17.000  1.4837e-02
12.000  17.250  1.4289e-02
12.000  17.500  1.5072e-02
12.000  17.750  1.7090e-02
12.000  18.000  1.7570e-02
12.000  18.250  1.7290e-02
12.000  18.500  1.6464e-02
12.000  18.750  1.5373e-02
12.000  19.000  1.4512e-02
12.000  19.250  1.3723e-02
12.000  19.500  1.4866e-02
12.000  19.750  1.8156e-02
12.000  20.000  2.3212e-02
12.000  20.250  2.9653e-02
12.000  20.500  3.7097e-02
12.000  20.750  4.5161e-02
12.000  21.000  5.3464e-02
12.000  21.250  6.1624e-02
12.000  21.500  7.0245e-02
12.000  21.750  8.1579e-02
12.000  22.000  9.0059e-02
12.000  22.250  8.9278e-02
12.000  22.500  7.7640e-02
12.000  22.750  6.7101e-02
12.000  23.000  5.8222e-02
12.000  23.250  5.2208e-02
12.000  23.500  4.8247e-02
12.000  23.750  4.6268e-02
12.000  24.000  4.5223e-02
12.250  17.000  1.4007e-02
12.250  17.250  1.3919e-02
12.250  17.500  1.3911e-02
12.250  17.750  1.4063e-02
12.250  18.000  1.4042e-02
12.250  18.250  1.6435e-02
12.250  18.500  1.6713e-02
12.250  18.750  1.6030e-02
12.250  19.000  1.5186e-02
12.250  19.250  1.4179e-02
12.250  19.500  1.3563e-02
12.250  19.750  1.5043e-02
12.250  20.000  1.8750e-02
12.250  20.250  2.4319e-02
12.250  20.500  3.1388e-02
12.250  20.750  3.9593e-02
12.250  21.000  4.8571e-02
12.250  21.250  5.7959e-02
12.250  21.500  6.7393e-02
12.250  21.750  7.7661e-02
12.250  22.000  9.0893e-02
12.250  22.250  9.8036e-02
12.250  22.500  9.2201e-02
12.250  22.750  7.8684e-02
12.250  23.000  6.7310e-02
12.250  23.250  5.8213e-02
12.250  23.500  5.2208e-02
12.250  23.750  4.8244e-02
12.250  24.000  4.6267e-02
12.500  17.000  1.2994e-02
12.500  17.250  1.3222e-02
12.500  17.500  1.3557e-02
12.500  17.750  1.3931e-02
12.500  18.000  1.4038e-02
12.500  18.250  1.3798e-02
12.500  18.500  1.4356e-02
12.500  18.750  1.5953e-02
12.500  19.000  1.8507e-02
12.500  19.250  2.1936e-02
12.500  19.500  2.6157e-02
12.500  19.750  3.1088e-02
12.500  20.000  3.6647e-02
12.500  20.250  4.2751e-02
12.500  20.500  4.9317e-02
12.500  20.750  5.6263e-02
12.500  21.000  6.3507e-02
12.500  21.250  7.0967e-02
12.500  21.500  7.8559e-02
12.500  21.750  8.6202e-02
12.500  22.000  9.3813e-02
12.500  22.250  1.0131e-01
12.500  22.500  1.0531e-01
12.500  22.750  9.5210e-02
12.500  23.000  7.9861e-02
12.500  23.250  6.7515e-02
12.500  23.500  5.8207e-02
12.500  23.750  5.2207e-02
12.500  24.000  4.8239e-02
12.750  17.000  1.2141e-02
12.750  17.250  1.2541e-02
12.750  17.500  1.2956e-02
12.750  17.750  1.3319e-02
12.750  18.000  1.3560e-02
12.750  18.250  1.3584e-02
12.750  18.500  1.3345e-02
12.750  18.750  1.2887e-02
12.750  19.000  1.2256e-02
12.750  19.250  1.3023e-02
12.750  19.500  1.3552e-02
12.750  19.750  1.4660e-02
12.750  20.000  1.6790e-02
12.750  20.250  2.0040e-02
12.750  20.500  2.4509e-02
12.750  20.750  3.0294e-02
12.750  21.000  3.7493e-02
12.750  21.250  4.6204e-02
12.750  21.500  5.6526e-02
12.750  21.750  6.8555e-02
12.750  22.000  8.2391e-02
12.750  22.250  9.8131e-02
12.750  22.500  1.1249e-01
12.750  22.750  1.1229e-01
12.750  23.000  9.7891e-02
12.750  23.250  8.1040e-02
12.750  23.500  6.7802e-02
12.750  23.750  5.8210e-02
12.750  24.000  5.2204e-02
13.000  17.000  2.1798e-02
13.000  17.250  1.3447e-02
13.000  17.500  7.3888e-03
13.000  17.750  3.7517e-03
13.000  18.000  2.1231e-03
13.000  18.250  2.0903e-03
13.000  18.500  3.2406e-03
13.000  18.750  5.1612e-03
13.000  19.000  7.4394e-03
13.000  19.250  9.6626e-03
13.000  19.500  1.1418e-02
13.000  19.750  1.2293e-02
13.000  20.000  1.2540e-02
13.000  20.250  1.4451e-02
13.000  20.500  1.8495e-02
13.000  20.750  2.4521e-02
13.000  21.000  3.2378e-02
13.000  21.250  4.1913e-02
13.000  21.500  5.2975e-02
13.000  21.750  6.5412e-02
13.000  22.000  7.9073e-02
13.000  22.250  9.3807e-02
13.000  22.500  1.0946e-01
13.000  22.750  1.2234e-01
13.000  23.000  1.1879e-01
13.000  23.250  1.0095e-01
13.000  23.500  8.2428e-02
13.000  23.750  6.8049e-02
13.000  24.000  5.8219e-02
13.250  17.000  2.0893e-02
13.250  17.250  1.8929e-02
13.250  17.500  1.8246e-02
13.250  17.750  1.8995e-02
13.250  18.000  2.1043e-02
13.250  18.250  2.4257e-02
13.250  18.500  2.8506e-02
13.250  18.750  3.3657e-02
13.250  19.000  3.9577e-02
13.250  19.250  4.6135e-02
13.250  19.500  5.3197e-02
13.250  19.750  6.0632e-02
13.250  20.000  6.8306e-02
13.250  20.250  7.6089e-02
13.250  20.500  8.3846e-02
13.250  20.750  9.1446e-02
13.250  21.000  9.8757e-02
13.250  21.250  1.0565e-01
13.250  21.500  1.1198e-01
13.250  21.750  1.1763e-01
13.250  22.000  1.2246e-01
13.250  22.250  1.2633e-01
13.250  22.500  1.2913e-01
13.250  22.750  1.3070e-01
13.250  23.000  1.3093e-01
13.250  23.250  1.2558e-01
13.250  23.500  1.0375e-01
13.250  23.750  8.3424e-02
13.250  24.000  6.8136e-02
13.500  17.000  1.9948e-02
13.500  17.250  1.7894e-02
13.500  17.500  1.7252e-02
13.500  17.750  1.8186e-02
13.500  18.000  2.0551e-02
13.500  18.250  2.4199e-02
13.500  18.500  2.8983e-02
13.500  18.750  3.4757e-02
13.500  19.000  4.1375e-02
13.500  19.250  4.8690e-02
13.500  19.500  5.6554e-02
13.500  19.750  6.4821e-02
13.500  20.000  7.3345e-02
13.500  20.250  8.1979e-02
13.500  20.500  9.0576e-02
13.500  20.750  9.8990e-02
13.500  21.000  1.0707e-01
13.500  21.250  1.1468e-01
13.500  21.500  1.2166e-01
13.500  21.750  1.2788e-01
13.500  22.000  1.3317e-01
13.500  22.250  1.3740e-01
13.500  22.500  1.4042e-01
13.500  22.750  1.4209e-01
13.500  23.000  1.4225e-01
13.500  23.250  1.4076e-01
13.500  23.500  1.3274e-01
13.500  23.750  1.0647e-01
13.500  24.000  8.4258e-02
13.750  17.000  1.8749e-02
13.750  17.250  1.7342e-02
13.750  17.500  1.7544e-02
13.750  17.750  1.9534e-02
13.750  18.000  2.3137e-02
13.750  18.250  2.8174e-02
13.750  18.500  3.4470e-02
13.750  18.750  4.1848e-02
13.750  19.000  5.0131e-02
13.750  19.250  5.9141e-02
13.750  19.500  6.8703e-02
13.750  19.750  7.8639e-02
13.750  20.000  8.8773e-02
13.750  20.250  9.8927e-02
13.750  20.500  1.0893e-01
13.750  20.750  1.1859e-01
13.750  21.000  1.2775e-01
13.750  21.250  1.3622e-01
13.750  21.500  1.4382e-01
13.750  21.750  1.5039e-01
13.750  22.000  1.5574e-01
13.750  22.250  1.5969e-01
13.750  22.500  1.6207e-01
13.750  22.750  1.6271e-01
13.750  23.000  1.6142e-01
13.750  23.250  1.5804e-01
13.750  23.500  1.5237e-01
13.750  23.750  1.4007e-01
13.750  24.000  1.0889e-01
14.000  17.000  1.7142e-02
14.000  17.250  1.7231e-02
14.000  17.500  1.1305e-02
14.000  17.750  9.4296e-03
14.000  18.000  9.2927e-03
14.000  18.250  9.4158e-03
14.000  18.500  9.7152e-03
14.000  18.750  1.0107e-02
14.000  19.000  1.0508e-02
14.000  19.250  1.0833e-02
14.000  19.500  1.1000e-02
14.000  19.750  1.0924e-02
14.000  20.000  1.0521e-02
14.000  20.250  1.0178e-02
14.000  20.500  1.1688e-02
14.000  20.750  1.5424e-02
14.000  21.000  2.1290e-02
14.000  21.250  2.9186e-02
14.000  21.500  3.9015e-02
14.000  21.750  5.0679e-02
14.000  22.000  6.4080e-02
14.000  22.250  7.9119e-02
14.000  22.500  9.5699e-02
14.000  22.750  1.1372e-01
14.000  23.000  1.3309e-01
14.000  23.250  1.5248e-01
14.000  23.500  1.6625e-01
14.000  23.750  1.6721e-01
14.000  24.000  1.4650e-01
