InwC 3704.34A  relative to Inci 1215.00A scaled to 1215A.
Hden   Phi(H)  Eq_Width (A)
7.000  17.000  2.9254e-02
7.000  17.250  3.0584e-02
7.000  17.500  3.1361e-02
7.000  17.750  3.1375e-02
7.000  18.000  3.1389e-02
7.000  18.250  3.1407e-02
7.000  18.500  3.1415e-02
7.000  18.750  3.1419e-02
7.000  19.000  3.1423e-02
7.000  19.250  3.1426e-02
7.000  19.500  3.1427e-02
7.000  19.750  3.1427e-02
7.000  20.000  3.1427e-02
7.000  20.250  3.1427e-02
7.000  20.500  3.1428e-02
7.000  20.750  3.1428e-02
7.000  21.000  3.1428e-02
7.000  21.250  3.1428e-02
7.000  21.500  3.1428e-02
7.000  21.750  3.1428e-02
7.000  22.000  3.1429e-02
7.000  22.250  3.1429e-02
7.000  22.500  3.1429e-02
7.000  22.750  3.1430e-02
7.000  23.000  3.1430e-02
7.000  23.250  3.1429e-02
7.000  23.500  3.1429e-02
7.000  23.750  3.1429e-02
7.000  24.000  3.1429e-02
7.250  17.000  2.1802e-02
7.250  17.250  2.9359e-02
7.250  17.500  3.0590e-02
7.250  17.750  3.1361e-02
7.250  18.000  3.1375e-02
7.250  18.250  3.1389e-02
7.250  18.500  3.1406e-02
7.250  18.750  3.1415e-02
7.250  19.000  3.1419e-02
7.250  19.250  3.1423e-02
7.250  19.500  3.1426e-02
7.250  19.750  3.1427e-02
7.250  20.000  3.1427e-02
7.250  20.250  3.1427e-02
7.250  20.500  3.1427e-02
7.250  20.750  3.1428e-02
7.250  21.000  3.1428e-02
7.250  21.250  3.1428e-02
7.250  21.500  3.1428e-02
7.250  21.750  3.1428e-02
7.250  22.000  3.1428e-02
7.250  22.250  3.1428e-02
7.250  22.500  3.1428e-02
7.250  22.750  3.1428e-02
7.250  23.000  3.1428e-02
7.250  23.250  3.1429e-02
7.250  23.500  3.1429e-02
7.250  23.750  3.1429e-02
7.250  24.000  3.1429e-02
7.500  17.000  1.6086e-02
7.500  17.250  2.2078e-02
7.500  17.500  2.9438e-02
7.500  17.750  3.0596e-02
7.500  18.000  3.1361e-02
7.500  18.250  3.1375e-02
7.500  18.500  3.1389e-02
7.500  18.750  3.1407e-02
7.500  19.000  3.1415e-02
7.500  19.250  3.1419e-02
7.500  19.500  3.1423e-02
7.500  19.750  3.1426e-02
7.500  20.000  3.1427e-02
7.500  20.250  3.1427e-02
7.500  20.500  3.1427e-02
7.500  20.750  3.1427e-02
7.500  21.000  3.1427e-02
7.500  21.250  3.1427e-02
7.500  21.500  3.1428e-02
7.500  21.750  3.1428e-02
7.500  22.000  3.1428e-02
7.500  22.250  3.1428e-02
7.500  22.500  3.1428e-02
7.500  22.750  3.1428e-02
7.500  23.000  3.1428e-02
7.500  23.250  3.1428e-02
7.500  23.500  3.1430e-02
7.500  23.750  3.1428e-02
7.500  24.000  3.1428e-02
7.750  17.000  1.1347e-02
7.750  17.250  1.6417e-02
7.750  17.500  2.2302e-02
7.750  17.750  2.9497e-02
7.750  18.000  3.0601e-02
7.750  18.250  3.1361e-02
7.750  18.500  3.1375e-02
7.750  18.750  3.1389e-02
7.750  19.000  3.1407e-02
7.750  19.250  3.1415e-02
7.750  19.500  3.1419e-02
7.750  19.750  3.1423e-02
7.750  20.000  3.1426e-02
7.750  20.250  3.1427e-02
7.750  20.500  3.1427e-02
7.750  20.750  3.1427e-02
7.750  21.000  3.1427e-02
7.750  21.250  3.1427e-02
7.750  21.500  3.1427e-02
7.750  21.750  3.1428e-02
7.750  22.000  3.1428e-02
7.750  22.250  3.1428e-02
7.750  22.500  3.1427e-02
7.750  22.750  3.1428e-02
7.750  23.000  3.1428e-02
7.750  23.250  3.1428e-02
7.750  23.500  3.1428e-02
7.750  23.750  3.1428e-02
7.750  24.000  3.1428e-02
8.000  17.000  7.7916e-03
8.000  17.250  1.1554e-02
8.000  17.500  1.6686e-02
8.000  17.750  2.2405e-02
8.000  18.000  2.9420e-02
8.000  18.250  3.0599e-02
8.000  18.500  3.1361e-02
8.000  18.750  3.1375e-02
8.000  19.000  3.1389e-02
8.000  19.250  3.1407e-02
8.000  19.500  3.1415e-02
8.000  19.750  3.1419e-02
8.000  20.000  3.1423e-02
8.000  20.250  3.1426e-02
8.000  20.500  3.1427e-02
8.000  20.750  3.1427e-02
8.000  21.000  3.1427e-02
8.000  21.250  3.1427e-02
8.000  21.500  3.1427e-02
8.000  21.750  3.1427e-02
8.000  22.000  3.1427e-02
8.000  22.250  3.1427e-02
8.000  22.500  3.1427e-02
8.000  22.750  3.1428e-02
8.000  23.000  3.1428e-02
8.000  23.250  3.1428e-02
8.000  23.500  3.1427e-02
8.000  23.750  3.1427e-02
8.000  24.000  3.1428e-02
8.250  17.000  5.4353e-03
8.250  17.250  7.9784e-03
8.250  17.500  1.1872e-02
8.250  17.750  1.7077e-02
8.250  18.000  2.2752e-02
8.250  18.250  2.9486e-02
8.250  18.500  3.0604e-02
8.250  18.750  3.1361e-02
8.250  19.000  3.1375e-02
8.250  19.250  3.1389e-02
8.250  19.500  3.1406e-02
8.250  19.750  3.1415e-02
8.250  20.000  3.1419e-02
8.250  20.250  3.1423e-02
8.250  20.500  3.1426e-02
8.250  20.750  3.1427e-02
8.250  21.000  3.1427e-02
8.250  21.250  3.1427e-02
8.250  21.500  3.1427e-02
8.250  21.750  3.1427e-02
8.250  22.000  3.1427e-02
8.250  22.250  3.1427e-02
8.250  22.500  3.1427e-02
8.250  22.750  3.1427e-02
8.250  23.000  3.1427e-02
8.250  23.250  3.1428e-02
8.250  23.500  3.1427e-02
8.250  23.750  3.1428e-02
8.250  24.000  3.1427e-02
8.500  17.000  3.8595e-03
8.500  17.250  5.5727e-03
8.500  17.500  8.2263e-03
8.500  17.750  1.2322e-02
8.500  18.000  1.7736e-02
8.500  18.250  2.3259e-02
8.500  18.500  2.9604e-02
8.500  18.750  3.0608e-02
8.500  19.000  3.1361e-02
8.500  19.250  3.1375e-02
8.500  19.500  3.1390e-02
8.500  19.750  3.1407e-02
8.500  20.000  3.1415e-02
8.500  20.250  3.1419e-02
8.500  20.500  3.1423e-02
8.500  20.750  3.1426e-02
8.500  21.000  3.1427e-02
8.500  21.250  3.1427e-02
8.500  21.500  3.1427e-02
8.500  21.750  3.1427e-02
8.500  22.000  3.1427e-02
8.500  22.250  3.1427e-02
8.500  22.500  3.1427e-02
8.500  22.750  3.1427e-02
8.500  23.000  3.1427e-02
8.500  23.250  3.1428e-02
8.500  23.500  3.1427e-02
8.500  23.750  3.1427e-02
8.500  24.000  3.1427e-02
8.750  17.000  2.7720e-03
8.750  17.250  3.9584e-03
8.750  17.500  5.7660e-03
8.750  17.750  8.6394e-03
8.750  18.000  1.3077e-02
8.750  18.250  1.8755e-02
8.750  18.500  2.4246e-02
8.750  18.750  2.9664e-02
8.750  19.000  3.0611e-02
8.750  19.250  3.1361e-02
8.750  19.500  3.1376e-02
8.750  19.750  3.1390e-02
8.750  20.000  3.1407e-02
8.750  20.250  3.1415e-02
8.750  20.500  3.1419e-02
8.750  20.750  3.1423e-02
8.750  21.000  3.1426e-02
8.750  21.250  3.1427e-02
8.750  21.500  3.1427e-02
8.750  21.750  3.1427e-02
8.750  22.000  3.1427e-02
8.750  22.250  3.1427e-02
8.750  22.500  3.1427e-02
8.750  22.750  3.1427e-02
8.750  23.000  3.1427e-02
8.750  23.250  3.1427e-02
8.750  23.500  3.1428e-02
8.750  23.750  3.1428e-02
8.750  24.000  3.1427e-02
9.000  17.000  2.0099e-03
9.000  17.250  2.8448e-03
9.000  17.500  4.1109e-03
9.000  17.750  6.0966e-03
9.000  18.000  9.3416e-03
9.000  18.250  1.4322e-02
9.000  18.500  2.0164e-02
9.000  18.750  2.5027e-02
9.000  19.000  2.9659e-02
9.000  19.250  3.0612e-02
9.000  19.500  3.1361e-02
9.000  19.750  3.1376e-02
9.000  20.000  3.1390e-02
9.000  20.250  3.1407e-02
9.000  20.500  3.1415e-02
9.000  20.750  3.1419e-02
9.000  21.000  3.1423e-02
9.000  21.250  3.1426e-02
9.000  21.500  3.1427e-02
9.000  21.750  3.1427e-02
9.000  22.000  3.1427e-02
9.000  22.250  3.1427e-02
9.000  22.500  3.1427e-02
9.000  22.750  3.1427e-02
9.000  23.000  3.1427e-02
9.000  23.250  3.1427e-02
9.000  23.500  3.1428e-02
9.000  23.750  3.1427e-02
9.000  24.000  3.1428e-02
9.250  17.000  1.4712e-03
9.250  17.250  2.0623e-03
9.250  17.500  2.9639e-03
9.250  17.750  4.3858e-03
9.250  18.000  6.7459e-03
9.250  18.250  1.0562e-02
9.250  18.500  1.5974e-02
9.250  18.750  2.1766e-02
9.250  19.000  2.6493e-02
9.250  19.250  2.9648e-02
9.250  19.500  3.0610e-02
9.250  19.750  3.1361e-02
9.250  20.000  3.1376e-02
9.250  20.250  3.1390e-02
9.250  20.500  3.1406e-02
9.250  20.750  3.1415e-02
9.250  21.000  3.1419e-02
9.250  21.250  3.1423e-02
9.250  21.500  3.1420e-02
9.250  21.750  3.1417e-02
9.250  22.000  3.1417e-02
9.250  22.250  3.1418e-02
9.250  22.500  3.1427e-02
9.250  22.750  3.1427e-02
9.250  23.000  3.1427e-02
9.250  23.250  3.1427e-02
9.250  23.500  3.1427e-02
9.250  23.750  3.1428e-02
9.250  24.000  3.1428e-02
9.500  17.000  1.0888e-03
9.500  17.250  1.5104e-03
9.500  17.500  2.1556e-03
9.500  17.750  3.1928e-03
9.500  18.000  4.9552e-03
9.500  18.250  7.8234e-03
9.500  18.500  1.2137e-02
9.500  18.750  1.7706e-02
9.500  19.000  2.3042e-02
9.500  19.250  2.7707e-02
9.500  19.500  2.9630e-02
9.500  19.750  3.0601e-02
9.500  20.000  3.1361e-02
9.500  20.250  3.1376e-02
9.500  20.500  3.1390e-02
9.500  20.750  3.1406e-02
9.500  21.000  3.1408e-02
9.500  21.250  3.1410e-02
9.500  21.500  3.1413e-02
9.500  21.750  3.1414e-02
9.500  22.000  3.1410e-02
9.500  22.250  3.1411e-02
9.500  22.500  3.1411e-02
9.500  22.750  3.1410e-02
9.500  23.000  3.1411e-02
9.500  23.250  3.1411e-02
9.500  23.500  3.1415e-02
9.500  23.750  3.1415e-02
9.500  24.000  3.1415e-02
9.750  17.000  8.1712e-04
9.750  17.250  1.1169e-03
9.750  17.500  1.5807e-03
9.750  17.750  2.3427e-03
9.750  18.000  3.6597e-03
9.750  18.250  5.8619e-03
9.750  18.500  9.1592e-03
9.750  18.750  1.3715e-02
9.750  19.000  1.9251e-02
9.750  19.250  2.4507e-02
9.750  19.500  2.9045e-02
9.750  19.750  2.9607e-02
9.750  20.000  3.0588e-02
9.750  20.250  3.1360e-02
9.750  20.500  3.1376e-02
9.750  20.750  3.1390e-02
9.750  21.000  3.1406e-02
9.750  21.250  3.1413e-02
9.750  21.500  3.1412e-02
9.750  21.750  3.1414e-02
9.750  22.000  3.1415e-02
9.750  22.250  3.1412e-02
9.750  22.500  3.1410e-02
9.750  22.750  3.1411e-02
9.750  23.000  3.1411e-02
9.750  23.250  3.1411e-02
9.750  23.500  3.1411e-02
9.750  23.750  3.1411e-02
9.750  24.000  3.1410e-02
10.000  17.000  6.2313e-04
10.000  17.250  8.3802e-04
10.000  17.500  1.1721e-03
10.000  17.750  1.7341e-03
10.000  18.000  2.7354e-03
10.000  18.250  4.4113e-03
10.000  18.500  6.9160e-03
10.000  18.750  1.0423e-02
10.000  19.000  1.5187e-02
10.000  19.250  2.0605e-02
10.000  19.500  2.6093e-02
10.000  19.750  2.9057e-02
10.000  20.000  2.9583e-02
10.000  20.250  3.0566e-02
10.000  20.500  3.1358e-02
10.000  20.750  3.1376e-02
10.000  21.000  3.1390e-02
10.000  21.250  3.1406e-02
10.000  21.500  3.1414e-02
10.000  21.750  3.1416e-02
10.000  22.000  3.1414e-02
10.000  22.250  3.1416e-02
10.000  22.500  3.1414e-02
10.000  22.750  3.1412e-02
10.000  23.000  3.1410e-02
10.000  23.250  3.1411e-02
10.000  23.500  3.1411e-02
10.000  23.750  3.1411e-02
10.000  24.000  3.1411e-02
10.250  17.000  4.8527e-04
10.250  17.250  6.3942e-04
10.250  17.500  8.8181e-04
10.250  17.750  1.2986e-03
10.250  18.000  2.0537e-03
10.250  18.250  3.3179e-03
10.250  18.500  5.1800e-03
10.250  18.750  7.8458e-03
10.250  19.000  1.1509e-02
10.250  19.250  1.6297e-02
10.250  19.500  2.1859e-02
10.250  19.750  2.7200e-02
10.250  20.000  2.9026e-02
10.250  20.250  2.9556e-02
10.250  20.500  3.0551e-02
10.250  20.750  3.1354e-02
10.250  21.000  3.1375e-02
10.250  21.250  3.1390e-02
10.250  21.500  3.1406e-02
10.250  21.750  3.1415e-02
10.250  22.000  3.1418e-02
10.250  22.250  3.1418e-02
10.250  22.500  3.1416e-02
10.250  22.750  3.1416e-02
10.250  23.000  3.1414e-02
10.250  23.250  3.1412e-02
10.250  23.500  3.1411e-02
10.250  23.750  3.1410e-02
10.250  24.000  3.1410e-02
10.500  17.000  3.8765e-04
10.500  17.250  4.9835e-04
10.500  17.500  6.7539e-04
10.500  17.750  9.8683e-04
10.500  18.000  1.5527e-03
10.500  18.250  2.4939e-03
10.500  18.500  3.8585e-03
10.500  18.750  5.8334e-03
10.500  19.000  8.5684e-03
10.500  19.250  1.2294e-02
10.500  19.500  1.7119e-02
10.500  19.750  2.2881e-02
10.500  20.000  2.8176e-02
10.500  20.250  2.9004e-02
10.500  20.500  2.9550e-02
10.500  20.750  3.0555e-02
10.500  21.000  3.1347e-02
10.500  21.250  3.1373e-02
10.500  21.500  3.1390e-02
10.500  21.750  3.1406e-02
10.500  22.000  3.1415e-02
10.500  22.250  3.1419e-02
10.500  22.500  3.1421e-02
10.500  22.750  3.1417e-02
10.500  23.000  3.1417e-02
10.500  23.250  3.1416e-02
10.500  23.500  3.1414e-02
10.500  23.750  3.1413e-02
10.500  24.000  3.1412e-02
10.750  17.000  3.1819e-04
10.750  17.250  3.9794e-04
10.750  17.500  5.2798e-04
10.750  17.750  7.6041e-04
10.750  18.000  1.1806e-03
10.750  18.250  1.8628e-03
10.750  18.500  2.8574e-03
10.750  18.750  4.2938e-03
10.750  19.000  6.3072e-03
10.750  19.250  9.0947e-03
10.750  19.500  1.2912e-02
10.750  19.750  1.7917e-02
10.750  20.000  2.3950e-02
10.750  20.250  2.8656e-02
10.750  20.500  2.8989e-02
10.750  20.750  2.9543e-02
10.750  21.000  3.0586e-02
10.750  21.250  3.1339e-02
10.750  21.500  3.1371e-02
10.750  21.750  3.1389e-02
10.750  22.000  3.1406e-02
10.750  22.250  3.1415e-02
10.750  22.500  3.1419e-02
10.750  22.750  3.1422e-02
10.750  23.000  3.1418e-02
10.750  23.250  3.1417e-02
10.750  23.500  3.1417e-02
10.750  23.750  3.1416e-02
10.750  24.000  3.1415e-02
11.000  17.000  2.6848e-04
11.000  17.250  3.2576e-04
11.000  17.500  4.2123e-04
11.000  17.750  5.9342e-04
11.000  18.000  9.0099e-04
11.000  18.250  1.3893e-03
11.000  18.500  2.1100e-03
11.000  18.750  3.1689e-03
11.000  19.000  4.6333e-03
11.000  19.250  6.6502e-03
11.000  19.500  9.5143e-03
11.000  19.750  1.3489e-02
11.000  20.000  1.8703e-02
11.000  20.250  2.4977e-02
11.000  20.500  2.8642e-02
11.000  20.750  2.8983e-02
11.000  21.000  2.9572e-02
11.000  21.250  3.0674e-02
11.000  21.500  3.1331e-02
11.000  21.750  3.1367e-02
11.000  22.000  3.1387e-02
11.000  22.250  3.1405e-02
11.000  22.500  3.1415e-02
11.000  22.750  3.1419e-02
11.000  23.000  3.1423e-02
11.000  23.250  3.1423e-02
11.000  23.500  3.1418e-02
11.000  23.750  3.1418e-02
11.000  24.000  3.1417e-02
11.250  17.000  2.3284e-04
11.250  17.250  2.7358e-04
11.250  17.500  3.4280e-04
11.250  17.750  4.6914e-04
11.250  18.000  6.9086e-04
11.250  18.250  1.0375e-03
11.250  18.500  1.5467e-03
11.250  18.750  2.3010e-03
11.250  19.000  3.3537e-03
11.250  19.250  4.8421e-03
11.250  19.500  6.9189e-03
11.250  19.750  9.8869e-03
11.250  20.000  1.3989e-02
11.250  20.250  1.9454e-02
11.250  20.500  2.5998e-02
11.250  20.750  2.8616e-02
11.250  21.000  2.8994e-02
11.250  21.250  2.9655e-02
11.250  21.500  3.0858e-02
11.250  21.750  3.1324e-02
11.250  22.000  3.1361e-02
11.250  22.250  3.1384e-02
11.250  22.500  3.1403e-02
11.250  22.750  3.1414e-02
11.250  23.000  3.1419e-02
11.250  23.250  3.1423e-02
11.250  23.500  3.1425e-02
11.250  23.750  3.1419e-02
11.250  24.000  3.1418e-02
11.500  17.000  2.0782e-04
11.500  17.250  2.3630e-04
11.500  17.500  2.8576e-04
11.500  17.750  3.7638e-04
11.500  18.000  5.3333e-04
11.500  18.250  7.7811e-04
11.500  18.500  1.1365e-03
11.500  18.750  1.6721e-03
11.500  19.000  2.4188e-03
11.500  19.250  3.4891e-03
11.500  19.500  4.9951e-03
11.500  19.750  7.1470e-03
11.500  20.000  1.0215e-02
11.500  20.250  1.4500e-02
11.500  20.500  2.0218e-02
11.500  20.750  2.6804e-02
11.500  21.000  2.8606e-02
11.500  21.250  2.9048e-02
11.500  21.500  2.9844e-02
11.500  21.750  3.1105e-02
11.500  22.000  3.1313e-02
11.500  22.250  3.1355e-02
11.500  22.500  3.1379e-02
11.500  22.750  3.1401e-02
11.500  23.000  3.1413e-02
11.500  23.250  3.1418e-02
11.500  23.500  3.1422e-02
11.500  23.750  3.1425e-02
11.500  24.000  3.1423e-02
11.750  17.000  1.9070e-04
11.750  17.250  2.0988e-04
11.750  17.500  2.4444e-04
11.750  17.750  3.0782e-04
11.750  18.000  4.1671e-04
11.750  18.250  5.8650e-04
11.750  18.500  8.3802e-04
11.750  18.750  1.2079e-03
11.750  19.000  1.7491e-03
11.750  19.250  2.5096e-03
11.750  19.500  3.6034e-03
11.750  19.750  5.1527e-03
11.750  20.000  7.3612e-03
11.750  20.250  1.0530e-02
11.750  20.500  1.5030e-02
11.750  20.750  2.1007e-02
11.750  21.000  2.7705e-02
11.750  21.250  2.8612e-02
11.750  21.500  2.9161e-02
11.750  21.750  3.0142e-02
11.750  22.000  3.1230e-02
11.750  22.250  3.1300e-02
11.750  22.500  3.1347e-02
11.750  22.750  3.1373e-02
11.750  23.000  3.1397e-02
11.750  23.250  3.1412e-02
11.750  23.500  3.1418e-02
11.750  23.750  3.1422e-02
11.750  24.000  3.1425e-02
12.000  17.000  1.7852e-04
12.000  17.250  1.9144e-04
12.000  17.500  2.1490e-04
12.000  17.750  2.5778e-04
12.000  18.000  3.3128e-04
12.000  18.250  4.4691e-04
12.000  18.500  6.2321e-04
12.000  18.750  8.8502e-04
12.000  19.000  1.2688e-03
12.000  19.250  1.8133e-03
12.000  19.500  2.5909e-03
12.000  19.750  3.6972e-03
12.000  20.000  5.2733e-03
12.000  20.250  7.5562e-03
12.000  20.500  1.0853e-02
12.000  20.750  1.5567e-02
12.000  21.000  2.1826e-02
12.000  21.250  2.7576e-02
12.000  21.500  2.8630e-02
12.000  21.750  2.9319e-02
12.000  22.000  3.0464e-02
12.000  22.250  3.1214e-02
12.000  22.500  3.1286e-02
12.000  22.750  3.1336e-02
12.000  23.000  3.1365e-02
12.000  23.250  3.1393e-02
12.000  23.500  3.1411e-02
12.000  23.750  3.1417e-02
12.000  24.000  3.1422e-02
12.250  17.000  1.7045e-04
12.250  17.250  1.7893e-04
12.250  17.500  1.9399e-04
12.250  17.750  2.2173e-04
12.250  18.000  2.7045e-04
12.250  18.250  3.4971e-04
12.250  18.500  4.7276e-04
12.250  18.750  6.5761e-04
12.250  19.000  9.2872e-04
12.250  19.250  1.3192e-03
12.250  19.500  1.8699e-03
12.250  19.750  2.6547e-03
12.250  20.000  3.7807e-03
12.250  20.250  5.4000e-03
12.250  20.500  7.7384e-03
12.250  20.750  1.1179e-02
12.250  21.000  1.6147e-02
12.250  21.250  2.2665e-02
12.250  21.500  2.7812e-02
12.250  21.750  2.8656e-02
12.250  22.000  2.9524e-02
12.250  22.250  3.0764e-02
12.250  22.500  3.1189e-02
12.250  22.750  3.1266e-02
12.250  23.000  3.1321e-02
12.250  23.250  3.1354e-02
12.250  23.500  3.1386e-02
12.250  23.750  3.1408e-02
12.250  24.000  3.1415e-02
12.500  17.000  1.2996e-04
12.500  17.250  1.7095e-04
12.500  17.500  1.8074e-04
12.500  17.750  1.9811e-04
12.500  18.000  2.2897e-04
12.500  18.250  2.8156e-04
12.500  18.500  3.6683e-04
12.500  18.750  4.9720e-04
12.500  19.000  6.8872e-04
12.500  19.250  9.6477e-04
12.500  19.500  1.3593e-03
12.500  19.750  1.9179e-03
12.500  20.000  2.7147e-03
12.500  20.250  3.8673e-03
12.500  20.500  5.5078e-03
12.500  20.750  7.9427e-03
12.500  21.000  1.1561e-02
12.500  21.250  1.6807e-02
12.500  21.500  2.3205e-02
12.500  21.750  2.7735e-02
12.500  22.000  2.8689e-02
12.500  22.250  2.9749e-02
12.500  22.500  3.0911e-02
12.500  22.750  3.1154e-02
12.500  23.000  3.1239e-02
12.500  23.250  3.1298e-02
12.500  23.500  3.1336e-02
12.500  23.750  3.1375e-02
12.500  24.000  3.1405e-02
12.750  17.000  7.1605e-05
12.750  17.250  1.4362e-04
12.750  17.500  1.7210e-04
12.750  17.750  1.8321e-04
12.750  18.000  2.0239e-04
12.750  18.250  2.3671e-04
12.750  18.500  2.9366e-04
12.750  18.750  3.8395e-04
12.750  19.000  5.1835e-04
12.750  19.250  7.1531e-04
12.750  19.500  9.9366e-04
12.750  19.750  1.3909e-03
12.750  20.000  1.9509e-03
12.750  20.250  2.7659e-03
12.750  20.500  3.9282e-03
12.750  20.750  5.6136e-03
12.750  21.000  8.1726e-03
12.750  21.250  1.1999e-02
12.750  21.500  1.7230e-02
12.750  21.750  2.3921e-02
12.750  22.000  2.7608e-02
12.750  22.250  2.8707e-02
12.750  22.500  2.9958e-02
12.750  22.750  3.0920e-02
12.750  23.000  3.1101e-02
12.750  23.250  3.1199e-02
12.750  23.500  3.1266e-02
12.750  23.750  3.1310e-02
12.750  24.000  3.1359e-02
13.000  17.000  1.2675e-05
13.000  17.250  3.0370e-05
13.000  17.500  1.0864e-04
13.000  17.750  1.7012e-04
13.000  18.000  1.8560e-04
13.000  18.250  2.0765e-04
13.000  18.500  2.4486e-04
13.000  18.750  3.0560e-04
13.000  19.000  3.9885e-04
13.000  19.250  5.3671e-04
13.000  19.500  7.3407e-04
13.000  19.750  1.0154e-03
13.000  20.000  1.4155e-03
13.000  20.250  1.9825e-03
13.000  20.500  2.8121e-03
13.000  20.750  4.0191e-03
13.000  21.000  5.7988e-03
13.000  21.250  8.4890e-03
13.000  21.500  1.2353e-02
13.000  21.750  1.7986e-02
13.000  22.000  2.4375e-02
13.000  22.250  2.7380e-02
13.000  22.500  2.8671e-02
13.000  22.750  2.9997e-02
13.000  23.000  3.0833e-02
13.000  23.250  3.1022e-02
13.000  23.500  3.1139e-02
13.000  23.750  3.1217e-02
13.000  24.000  3.1270e-02
13.250  17.000  7.4897e-06
13.250  17.250  1.4321e-05
13.250  17.500  3.5309e-05
13.250  17.750  8.4444e-05
13.250  18.000  1.3588e-04
13.250  18.250  1.8897e-04
13.250  18.500  2.1300e-04
13.250  18.750  2.5267e-04
13.250  19.000  3.1506e-04
13.250  19.250  4.1103e-04
13.250  19.500  5.4988e-04
13.250  19.750  7.4856e-04
13.250  20.000  1.0308e-03
13.250  20.250  1.4363e-03
13.250  20.500  2.0160e-03
13.250  20.750  2.8615e-03
13.250  21.000  4.1270e-03
13.250  21.250  6.0009e-03
13.250  21.500  8.6803e-03
13.250  21.750  1.2903e-02
13.250  22.000  1.8722e-02
13.250  22.250  2.4521e-02
13.250  22.500  2.6955e-02
13.250  22.750  2.8352e-02
13.250  23.000  2.9713e-02
13.250  23.250  3.0661e-02
13.250  23.500  3.0899e-02
13.250  23.750  3.1047e-02
13.250  24.000  3.1141e-02
13.500  17.000  4.4444e-06
13.500  17.250  8.8889e-06
13.500  17.500  2.0000e-05
13.500  17.750  4.5185e-05
13.500  18.000  1.0016e-04
13.500  18.250  1.4584e-04
13.500  18.500  1.9235e-04
13.500  18.750  2.1761e-04
13.500  19.000  2.5885e-04
13.500  19.250  3.2247e-04
13.500  19.500  4.1909e-04
13.500  19.750  5.5827e-04
13.500  20.000  7.5852e-04
13.500  20.250  1.0442e-03
13.500  20.500  1.4577e-03
13.500  20.750  2.0524e-03
13.500  21.000  2.9314e-03
13.500  21.250  4.2558e-03
13.500  21.500  6.1290e-03
13.500  21.750  9.1255e-03
13.500  22.000  1.3615e-02
13.500  22.250  1.9254e-02
13.500  22.500  2.4191e-02
13.500  22.750  2.6323e-02
13.500  23.000  2.7835e-02
13.500  23.250  2.9340e-02
13.500  23.500  3.0405e-02
13.500  23.750  3.0709e-02
13.500  24.000  3.0903e-02
13.750  17.000  2.7160e-06
13.750  17.250  5.4321e-06
13.750  17.500  1.1852e-05
13.750  17.750  2.3786e-05
13.750  18.000  5.7119e-05
13.750  18.250  1.1556e-04
13.750  18.500  1.5095e-04
13.750  18.750  1.9531e-04
13.750  19.000  2.2148e-04
13.750  19.250  2.6362e-04
13.750  19.500  3.2848e-04
13.750  19.750  4.2519e-04
13.750  20.000  5.6568e-04
13.750  20.250  7.6765e-04
13.750  20.500  1.0589e-03
13.750  20.750  1.4816e-03
13.750  21.000  2.0984e-03
13.750  21.250  3.0240e-03
13.750  21.500  4.3560e-03
13.750  21.750  6.4621e-03
13.750  22.000  9.6219e-03
13.750  22.250  1.4047e-02
13.750  22.500  1.9283e-02
13.750  22.750  2.3569e-02
13.750  23.000  2.5520e-02
13.750  23.250  2.7189e-02
13.750  23.500  2.8806e-02
13.750  23.750  3.0029e-02
13.750  24.000  3.0426e-02
14.000  17.000  1.6461e-06
14.000  17.250  3.2099e-06
14.000  17.500  7.1605e-06
14.000  17.750  1.4486e-05
14.000  18.000  2.9547e-05
14.000  18.250  6.8148e-05
14.000  18.500  1.2354e-04
14.000  18.750  1.6774e-04
14.000  19.000  1.9745e-04
14.000  19.250  2.2420e-04
14.000  19.500  2.6683e-04
14.000  19.750  3.3218e-04
14.000  20.000  4.3045e-04
14.000  20.250  5.7226e-04
14.000  20.500  7.7835e-04
14.000  20.750  1.0784e-03
14.000  21.000  1.5192e-03
14.000  21.250  2.1765e-03
14.000  21.500  3.1161e-03
14.000  21.750  4.6243e-03
14.000  22.000  6.8947e-03
14.000  22.250  9.9737e-03
14.000  22.500  1.3883e-02
14.000  22.750  1.8770e-02
14.000  23.000  2.2623e-02
14.000  23.250  2.4600e-02
14.000  23.500  2.6416e-02
14.000  23.750  2.8200e-02
14.000  24.000  2.9480e-02
