InwT 1.43649m  relative to Inci 1215.00A scaled to 1215A.
Hden   Phi(H)  Eq_Width (A)
7.000  17.000  2.0678e-02
7.000  17.250  1.2759e-02
7.000  17.500  7.7547e-03
7.000  17.750  5.1834e-03
7.000  18.000  3.9201e-03
7.000  18.250  3.2863e-03
7.000  18.500  2.9335e-03
7.000  18.750  2.7875e-03
7.000  19.000  2.7145e-03
7.000  19.250  2.6741e-03
7.000  19.500  2.6587e-03
7.000  19.750  2.6526e-03
7.000  20.000  2.6500e-03
7.000  20.250  2.6489e-03
7.000  20.500  2.6483e-03
7.000  20.750  2.6480e-03
7.000  21.000  2.6478e-03
7.000  21.250  2.6478e-03
7.000  21.500  2.6477e-03
7.000  21.750  2.6477e-03
7.000  22.000  2.6477e-03
7.000  22.250  2.6477e-03
7.000  22.500  2.6478e-03
7.000  22.750  2.6478e-03
7.000  23.000  2.6478e-03
7.000  23.250  2.6478e-03
7.000  23.500  2.6478e-03
7.000  23.750  2.6478e-03
7.000  24.000  2.6478e-03
7.250  17.000  2.3699e-02
7.250  17.250  2.0697e-02
7.250  17.500  1.2733e-02
7.250  17.750  7.7477e-03
7.250  18.000  5.1801e-03
7.250  18.250  3.9192e-03
7.250  18.500  3.2862e-03
7.250  18.750  2.9334e-03
7.250  19.000  2.7875e-03
7.250  19.250  2.7145e-03
7.250  19.500  2.6741e-03
7.250  19.750  2.6587e-03
7.250  20.000  2.6526e-03
7.250  20.250  2.6500e-03
7.250  20.500  2.6489e-03
7.250  20.750  2.6483e-03
7.250  21.000  2.6480e-03
7.250  21.250  2.6478e-03
7.250  21.500  2.6477e-03
7.250  21.750  2.6477e-03
7.250  22.000  2.6477e-03
7.250  22.250  2.6477e-03
7.250  22.500  2.6477e-03
7.250  22.750  2.6477e-03
7.250  23.000  2.6477e-03
7.250  23.250  2.6477e-03
7.250  23.500  2.6477e-03
7.250  23.750  2.6477e-03
7.250  24.000  2.6477e-03
7.500  17.000  2.6399e-02
7.500  17.250  2.4022e-02
7.500  17.500  2.0703e-02
7.500  17.750  1.2711e-02
7.500  18.000  7.7413e-03
7.500  18.250  5.1763e-03
7.500  18.500  3.9180e-03
7.500  18.750  3.2861e-03
7.500  19.000  2.9334e-03
7.500  19.250  2.7875e-03
7.500  19.500  2.7145e-03
7.500  19.750  2.6741e-03
7.500  20.000  2.6587e-03
7.500  20.250  2.6515e-03
7.500  20.500  2.6476e-03
7.500  20.750  2.6462e-03
7.500  21.000  2.6464e-03
7.500  21.250  2.6472e-03
7.500  21.500  2.6478e-03
7.500  21.750  2.6477e-03
7.500  22.000  2.6477e-03
7.500  22.250  2.6477e-03
7.500  22.500  2.6477e-03
7.500  22.750  2.6477e-03
7.500  23.000  2.6477e-03
7.500  23.250  2.6477e-03
7.500  23.500  2.6478e-03
7.500  23.750  2.6477e-03
7.500  24.000  2.6477e-03
7.750  17.000  2.7600e-02
7.750  17.250  2.7022e-02
7.750  17.500  2.4295e-02
7.750  17.750  2.0704e-02
7.750  18.000  1.2693e-02
7.750  18.250  7.7355e-03
7.750  18.500  5.1720e-03
7.750  18.750  3.9165e-03
7.750  19.000  3.2859e-03
7.750  19.250  2.9333e-03
7.750  19.500  2.7875e-03
7.750  19.750  2.7145e-03
7.750  20.000  2.6741e-03
7.750  20.250  2.6587e-03
7.750  20.500  2.6526e-03
7.750  20.750  2.6500e-03
7.750  21.000  2.6489e-03
7.750  21.250  2.6483e-03
7.750  21.500  2.6480e-03
7.750  21.750  2.6478e-03
7.750  22.000  2.6477e-03
7.750  22.250  2.6477e-03
7.750  22.500  2.6477e-03
7.750  22.750  2.6477e-03
7.750  23.000  2.6477e-03
7.750  23.250  2.6477e-03
7.750  23.500  2.6477e-03
7.750  23.750  2.6477e-03
7.750  24.000  2.6477e-03
8.000  17.000  2.7751e-02
8.000  17.250  2.8061e-02
8.000  17.500  2.7501e-02
8.000  17.750  2.4406e-02
8.000  18.000  2.0596e-02
8.000  18.250  1.2676e-02
8.000  18.500  7.7297e-03
8.000  18.750  5.1671e-03
8.000  19.000  3.9148e-03
8.000  19.250  3.2858e-03
8.000  19.500  2.9333e-03
8.000  19.750  2.7874e-03
8.000  20.000  2.7145e-03
8.000  20.250  2.6741e-03
8.000  20.500  2.6587e-03
8.000  20.750  2.6526e-03
8.000  21.000  2.6500e-03
8.000  21.250  2.6489e-03
8.000  21.500  2.6483e-03
8.000  21.750  2.6480e-03
8.000  22.000  2.6478e-03
8.000  22.250  2.6477e-03
8.000  22.500  2.6477e-03
8.000  22.750  2.6477e-03
8.000  23.000  2.6477e-03
8.000  23.250  2.6477e-03
8.000  23.500  2.6477e-03
8.000  23.750  2.6477e-03
8.000  24.000  2.6477e-03
8.250  17.000  2.8253e-02
8.250  17.250  2.8458e-02
8.250  17.500  2.8969e-02
8.250  17.750  2.8374e-02
8.250  18.000  2.4907e-02
8.250  18.250  2.0628e-02
8.250  18.500  1.2666e-02
8.250  18.750  7.7240e-03
8.250  19.000  5.1615e-03
8.250  19.250  3.9128e-03
8.250  19.500  3.2855e-03
8.250  19.750  2.9333e-03
8.250  20.000  2.7874e-03
8.250  20.250  2.7145e-03
8.250  20.500  2.6741e-03
8.250  20.750  2.6587e-03
8.250  21.000  2.6526e-03
8.250  21.250  2.6500e-03
8.250  21.500  2.6489e-03
8.250  21.750  2.6483e-03
8.250  22.000  2.6480e-03
8.250  22.250  2.6478e-03
8.250  22.500  2.6477e-03
8.250  22.750  2.6477e-03
8.250  23.000  2.6477e-03
8.250  23.250  2.6477e-03
8.250  23.500  2.6477e-03
8.250  23.750  2.6477e-03
8.250  24.000  2.6477e-03
8.500  17.000  2.8907e-02
8.500  17.250  2.8987e-02
8.500  17.500  2.9472e-02
8.500  17.750  3.0400e-02
8.500  18.000  2.9942e-02
8.500  18.250  2.5721e-02
8.500  18.500  2.0720e-02
8.500  18.750  1.2658e-02
8.500  19.000  7.7179e-03
8.500  19.250  5.1550e-03
8.500  19.500  3.9104e-03
8.500  19.750  3.2852e-03
8.500  20.000  2.9332e-03
8.500  20.250  2.7874e-03
8.500  20.500  2.7145e-03
8.500  20.750  2.6741e-03
8.500  21.000  2.6587e-03
8.500  21.250  2.6526e-03
8.500  21.500  2.6500e-03
8.500  21.750  2.6489e-03
8.500  22.000  2.6483e-03
8.500  22.250  2.6480e-03
8.500  22.500  2.6478e-03
8.500  22.750  2.6477e-03
8.500  23.000  2.6477e-03
8.500  23.250  2.6477e-03
8.500  23.500  2.6477e-03
8.500  23.750  2.6477e-03
8.500  24.000  2.6477e-03
8.750  17.000  2.9528e-02
8.750  17.250  2.9697e-02
8.750  17.500  3.0147e-02
8.750  17.750  3.1307e-02
8.750  18.000  3.3035e-02
8.750  18.250  3.2616e-02
8.750  18.500  2.7383e-02
8.750  18.750  2.0748e-02
8.750  19.000  1.2652e-02
8.750  19.250  7.7119e-03
8.750  19.500  5.1478e-03
8.750  19.750  3.9078e-03
8.750  20.000  3.2848e-03
8.750  20.250  2.9331e-03
8.750  20.500  2.7874e-03
8.750  20.750  2.7145e-03
8.750  21.000  2.6741e-03
8.750  21.250  2.6587e-03
8.750  21.500  2.6526e-03
8.750  21.750  2.6500e-03
8.750  22.000  2.6489e-03
8.750  22.250  2.6483e-03
8.750  22.500  2.6480e-03
8.750  22.750  2.6478e-03
8.750  23.000  2.6477e-03
8.750  23.250  2.6477e-03
8.750  23.500  2.6477e-03
8.750  23.750  2.6477e-03
8.750  24.000  2.6477e-03
9.000  17.000  2.9991e-02
9.000  17.250  3.0384e-02
9.000  17.500  3.1057e-02
9.000  17.750  3.2340e-02
9.000  18.000  3.4857e-02
9.000  18.250  3.7943e-02
9.000  18.500  3.6717e-02
9.000  18.750  2.8877e-02
9.000  19.000  2.0763e-02
9.000  19.250  1.2645e-02
9.000  19.500  7.7065e-03
9.000  19.750  5.1406e-03
9.000  20.000  3.9051e-03
9.000  20.250  3.2844e-03
9.000  20.500  2.9330e-03
9.000  20.750  2.7874e-03
9.000  21.000  2.7145e-03
9.000  21.250  2.6741e-03
9.000  21.500  2.6587e-03
9.000  21.750  2.6526e-03
9.000  22.000  2.6500e-03
9.000  22.250  2.6489e-03
9.000  22.500  2.6483e-03
9.000  22.750  2.6480e-03
9.000  23.000  2.6478e-03
9.000  23.250  2.6477e-03
9.000  23.500  2.6477e-03
9.000  23.750  2.6477e-03
9.000  24.000  2.6477e-03
9.250  17.000  3.0261e-02
9.250  17.250  3.0934e-02
9.250  17.500  3.2020e-02
9.250  17.750  3.3859e-02
9.250  18.000  3.7182e-02
9.250  18.250  4.1948e-02
9.250  18.500  4.5395e-02
9.250  18.750  4.1870e-02
9.250  19.000  3.1588e-02
9.250  19.250  2.0810e-02
9.250  19.500  1.2637e-02
9.250  19.750  7.7024e-03
9.250  20.000  5.1337e-03
9.250  20.250  3.9025e-03
9.250  20.500  3.2840e-03
9.250  20.750  2.9329e-03
9.250  21.000  2.7874e-03
9.250  21.250  2.7145e-03
9.250  21.500  2.6736e-03
9.250  21.750  2.6579e-03
9.250  22.000  2.6518e-03
9.250  22.250  2.6493e-03
9.250  22.500  2.6488e-03
9.250  22.750  2.6482e-03
9.250  23.000  2.6480e-03
9.250  23.250  2.6478e-03
9.250  23.500  2.6477e-03
9.250  23.750  2.6477e-03
9.250  24.000  2.6477e-03
9.500  17.000  3.0416e-02
9.500  17.250  3.1400e-02
9.500  17.500  3.2960e-02
9.500  17.750  3.5620e-02
9.500  18.000  4.0287e-02
9.500  18.250  4.6584e-02
9.500  18.500  5.2521e-02
9.500  18.750  5.4252e-02
9.500  19.000  4.6383e-02
9.500  19.250  3.3669e-02
9.500  19.500  2.0872e-02
9.500  19.750  1.2626e-02
9.500  20.000  7.7001e-03
9.500  20.250  5.1277e-03
9.500  20.500  3.9000e-03
9.500  20.750  3.2836e-03
9.500  21.000  2.9323e-03
9.500  21.250  2.7866e-03
9.500  21.500  2.7137e-03
9.500  21.750  2.6730e-03
9.500  22.000  2.6573e-03
9.500  22.250  2.6512e-03
9.500  22.500  2.6486e-03
9.500  22.750  2.6474e-03
9.500  23.000  2.6468e-03
9.500  23.250  2.6466e-03
9.500  23.500  2.6467e-03
9.500  23.750  2.6467e-03
9.500  24.000  2.6466e-03
9.750  17.000  3.0389e-02
9.750  17.250  3.1709e-02
9.750  17.500  3.3814e-02
9.750  17.750  3.7516e-02
9.750  18.000  4.3952e-02
9.750  18.250  5.2433e-02
9.750  18.500  6.0122e-02
9.750  18.750  6.4883e-02
9.750  19.000  6.3395e-02
9.750  19.250  5.1824e-02
9.750  19.500  3.5826e-02
9.750  19.750  2.0878e-02
9.750  20.000  1.2606e-02
9.750  20.250  7.6996e-03
9.750  20.500  5.1231e-03
9.750  20.750  3.8979e-03
9.750  21.000  3.2832e-03
9.750  21.250  2.9325e-03
9.750  21.500  2.7867e-03
9.750  21.750  2.7137e-03
9.750  22.000  2.6732e-03
9.750  22.250  2.6574e-03
9.750  22.500  2.6511e-03
9.750  22.750  2.6486e-03
9.750  23.000  2.6475e-03
9.750  23.250  2.6469e-03
9.750  23.500  2.6466e-03
9.750  23.750  2.6464e-03
9.750  24.000  2.6463e-03
10.000  17.000  3.0153e-02
10.000  17.250  3.1985e-02
10.000  17.500  3.4759e-02
10.000  17.750  3.9762e-02
10.000  18.000  4.8492e-02
10.000  18.250  5.9218e-02
10.000  18.500  6.8625e-02
10.000  18.750  7.5178e-02
10.000  19.000  7.8515e-02
10.000  19.250  7.3274e-02
10.000  19.500  5.8177e-02
10.000  19.750  3.5435e-02
10.000  20.000  2.0775e-02
10.000  20.250  1.2592e-02
10.000  20.500  7.6994e-03
10.000  20.750  5.1194e-03
10.000  21.000  3.8960e-03
10.000  21.250  3.2828e-03
10.000  21.500  2.9325e-03
10.000  21.750  2.7871e-03
10.000  22.000  2.7137e-03
10.000  22.250  2.6733e-03
10.000  22.500  2.6576e-03
10.000  22.750  2.6513e-03
10.000  23.000  2.6486e-03
10.000  23.250  2.6475e-03
10.000  23.500  2.6469e-03
10.000  23.750  2.6466e-03
10.000  24.000  2.6464e-03
10.250  17.000  3.0085e-02
10.250  17.250  3.2247e-02
10.250  17.500  3.6017e-02
10.250  17.750  4.2697e-02
10.250  18.000  5.3673e-02
10.250  18.250  6.6475e-02
10.250  18.500  7.7283e-02
10.250  18.750  8.5619e-02
10.250  19.000  9.1074e-02
10.250  19.250  9.1770e-02
10.250  19.500  8.2491e-02
10.250  19.750  6.0753e-02
10.250  20.000  3.5466e-02
10.250  20.250  2.0602e-02
10.250  20.500  1.2537e-02
10.250  20.750  7.6973e-03
10.250  21.000  5.1165e-03
10.250  21.250  3.8946e-03
10.250  21.500  3.2826e-03
10.250  21.750  2.9323e-03
10.250  22.000  2.7872e-03
10.250  22.250  2.7140e-03
10.250  22.500  2.6733e-03
10.250  22.750  2.6578e-03
10.250  23.000  2.6515e-03
10.250  23.250  2.6487e-03
10.250  23.500  2.6475e-03
10.250  23.750  2.6468e-03
10.250  24.000  2.6466e-03
10.500  17.000  3.0318e-02
10.500  17.250  3.2956e-02
10.500  17.500  3.7865e-02
10.500  17.750  4.6749e-02
10.500  18.000  5.9748e-02
10.500  18.250  7.4140e-02
10.500  18.500  8.5795e-02
10.500  18.750  9.5215e-02
10.500  19.000  1.0158e-01
10.500  19.250  1.0411e-01
10.500  19.500  1.0098e-01
10.500  19.750  8.8959e-02
10.500  20.000  6.2562e-02
10.500  20.250  3.4981e-02
10.500  20.500  2.0292e-02
10.500  20.750  1.2449e-02
10.500  21.000  7.6885e-03
10.500  21.250  5.1137e-03
10.500  21.500  3.8938e-03
10.500  21.750  3.2822e-03
10.500  22.000  2.9322e-03
10.500  22.250  2.7872e-03
10.500  22.500  2.7143e-03
10.500  22.750  2.6733e-03
10.500  23.000  2.6579e-03
10.500  23.250  2.6516e-03
10.500  23.500  2.6490e-03
10.500  23.750  2.6477e-03
10.500  24.000  2.6470e-03
10.750  17.000  3.0945e-02
10.750  17.250  3.4182e-02
10.750  17.500  4.0774e-02
10.750  17.750  5.1862e-02
10.750  18.000  6.6562e-02
10.750  18.250  8.1460e-02
10.750  18.500  9.3878e-02
10.750  18.750  1.0396e-01
10.750  19.000  1.1102e-01
10.750  19.250  1.1475e-01
10.750  19.500  1.1515e-01
10.750  19.750  1.1031e-01
10.750  20.000  9.6262e-02
10.750  20.250  6.4637e-02
10.750  20.500  3.4525e-02
10.750  20.750  2.0019e-02
10.750  21.000  1.2359e-02
10.750  21.250  7.6683e-03
10.750  21.500  5.1119e-03
10.750  21.750  3.8930e-03
10.750  22.000  3.2820e-03
10.750  22.250  2.9319e-03
10.750  22.500  2.7872e-03
10.750  22.750  2.7144e-03
10.750  23.000  2.6734e-03
10.750  23.250  2.6579e-03
10.750  23.500  2.6517e-03
10.750  23.750  2.6491e-03
10.750  24.000  2.6478e-03
11.000  17.000  3.2046e-02
11.000  17.250  3.5877e-02
11.000  17.500  4.4347e-02
11.000  17.750  5.7659e-02
11.000  18.000  7.3432e-02
11.000  18.250  8.8574e-02
11.000  18.500  1.0162e-01
11.000  18.750  1.1272e-01
11.000  19.000  1.2036e-01
11.000  19.250  1.2460e-01
11.000  19.500  1.2683e-01
11.000  19.750  1.2629e-01
11.000  20.000  1.2010e-01
11.000  20.250  1.0409e-01
11.000  20.500  6.3301e-02
11.000  20.750  3.4087e-02
11.000  21.000  1.9688e-02
11.000  21.250  1.2264e-02
11.000  21.500  7.6409e-03
11.000  21.750  5.1070e-03
11.000  22.000  3.8921e-03
11.000  22.250  3.2814e-03
11.000  22.500  2.9314e-03
11.000  22.750  2.7870e-03
11.000  23.000  2.7143e-03
11.000  23.250  2.6737e-03
11.000  23.500  2.6579e-03
11.000  23.750  2.6518e-03
11.000  24.000  2.6492e-03
11.250  17.000  3.3683e-02
11.250  17.250  3.7904e-02
11.250  17.500  4.7979e-02
11.250  17.750  6.3226e-02
11.250  18.000  8.0001e-02
11.250  18.250  9.5336e-02
11.250  18.500  1.0853e-01
11.250  18.750  1.1990e-01
11.250  19.000  1.2826e-01
11.250  19.250  1.3411e-01
11.250  19.500  1.3710e-01
11.250  19.750  1.3843e-01
11.250  20.000  1.3681e-01
11.250  20.250  1.2974e-01
11.250  20.500  1.1194e-01
11.250  20.750  6.3427e-02
11.250  21.000  3.3621e-02
11.250  21.250  1.9466e-02
11.250  21.500  1.2256e-02
11.250  21.750  7.5905e-03
11.250  22.000  5.0986e-03
11.250  22.250  3.8906e-03
11.250  22.500  3.2802e-03
11.250  22.750  2.9309e-03
11.250  23.000  2.7867e-03
11.250  23.250  2.7142e-03
11.250  23.500  2.6739e-03
11.250  23.750  2.6579e-03
11.250  24.000  2.6518e-03
11.500  17.000  3.6100e-02
11.500  17.250  4.0433e-02
11.500  17.500  5.1418e-02
11.500  17.750  6.7956e-02
11.500  18.000  8.5630e-02
11.500  18.250  1.0137e-01
11.500  18.500  1.1466e-01
11.500  18.750  1.2646e-01
11.500  19.000  1.3536e-01
11.500  19.250  1.4209e-01
11.500  19.500  1.4615e-01
11.500  19.750  1.4837e-01
11.500  20.000  1.4888e-01
11.500  20.250  1.4670e-01
11.500  20.500  1.3853e-01
11.500  20.750  1.1631e-01
11.500  21.000  6.2486e-02
11.500  21.250  3.2938e-02
11.500  21.500  1.9420e-02
11.500  21.750  1.2241e-02
11.500  22.000  7.5242e-03
11.500  22.250  5.0849e-03
11.500  22.500  3.8880e-03
11.500  22.750  3.2785e-03
11.500  23.000  2.9300e-03
11.500  23.250  2.7863e-03
11.500  23.500  2.7141e-03
11.500  23.750  2.6739e-03
11.500  24.000  2.6584e-03
11.750  17.000  3.9558e-02
11.750  17.250  4.3517e-02
11.750  17.500  5.4620e-02
11.750  17.750  7.1592e-02
11.750  18.000  8.9839e-02
11.750  18.250  1.0605e-01
11.750  18.500  1.1994e-01
11.750  18.750  1.3185e-01
11.750  19.000  1.4197e-01
11.750  19.250  1.4918e-01
11.750  19.500  1.5434e-01
11.750  19.750  1.5718e-01
11.750  20.000  1.5814e-01
11.750  20.250  1.5772e-01
11.750  20.500  1.5487e-01
11.750  20.750  1.4509e-01
11.750  21.000  1.2063e-01
11.750  21.250  6.1273e-02
11.750  21.500  3.2776e-02
11.750  21.750  1.9488e-02
11.750  22.000  1.2081e-02
11.750  22.250  7.4477e-03
11.750  22.500  5.0637e-03
11.750  22.750  3.8835e-03
11.750  23.000  3.2758e-03
11.750  23.250  2.9286e-03
11.750  23.500  2.7856e-03
11.750  23.750  2.7137e-03
11.750  24.000  2.6738e-03
12.000  17.000  4.3912e-02
12.000  17.250  4.7212e-02
12.000  17.500  5.7565e-02
12.000  17.750  7.3963e-02
12.000  18.000  9.2160e-02
12.000  18.250  1.0903e-01
12.000  18.500  1.2416e-01
12.000  18.750  1.3722e-01
12.000  19.000  1.4785e-01
12.000  19.250  1.5575e-01
12.000  19.500  1.6104e-01
12.000  19.750  1.6413e-01
12.000  20.000  1.6535e-01
12.000  20.250  1.6537e-01
12.000  20.500  1.6404e-01
12.000  20.750  1.6009e-01
12.000  21.000  1.4814e-01
12.000  21.250  1.1261e-01
12.000  21.500  6.1113e-02
12.000  21.750  3.2269e-02
12.000  22.000  1.9570e-02
12.000  22.250  1.1806e-02
12.000  22.500  7.3519e-03
12.000  22.750  5.0335e-03
12.000  23.000  3.8760e-03
12.000  23.250  3.2717e-03
12.000  23.500  2.9266e-03
12.000  23.750  2.7846e-03
12.000  24.000  2.7133e-03
12.250  17.000  4.9587e-02
12.250  17.250  5.1568e-02
12.250  17.500  6.0157e-02
12.250  17.750  7.4931e-02
12.250  18.000  9.2714e-02
12.250  18.250  1.1069e-01
12.250  18.500  1.2730e-01
12.250  18.750  1.4167e-01
12.250  19.000  1.5292e-01
12.250  19.250  1.6117e-01
12.250  19.500  1.6653e-01
12.250  19.750  1.6966e-01
12.250  20.000  1.7093e-01
12.250  20.250  1.7085e-01
12.250  20.500  1.6949e-01
12.250  20.750  1.6716e-01
12.250  21.000  1.6166e-01
12.250  21.250  1.4650e-01
12.250  21.500  1.1150e-01
12.250  21.750  5.8956e-02
12.250  22.000  3.1826e-02
12.250  22.250  1.9554e-02
12.250  22.500  1.1519e-02
12.250  22.750  7.2372e-03
12.250  23.000  4.9928e-03
12.250  23.250  3.8626e-03
12.250  23.500  3.2646e-03
12.250  23.750  2.9236e-03
12.250  24.000  2.7830e-03
12.500  17.000  5.1889e-02
12.500  17.250  5.6625e-02
12.500  17.500  6.2968e-02
12.500  17.750  7.5341e-02
12.500  18.000  9.2091e-02
12.500  18.250  1.1054e-01
12.500  18.500  1.2860e-01
12.500  18.750  1.4445e-01
12.500  19.000  1.5668e-01
12.500  19.250  1.6516e-01
12.500  19.500  1.7068e-01
12.500  19.750  1.7385e-01
12.500  20.000  1.7505e-01
12.500  20.250  1.7489e-01
12.500  20.500  1.7304e-01
12.500  20.750  1.7076e-01
12.500  21.000  1.6721e-01
12.500  21.250  1.5922e-01
12.500  21.500  1.4635e-01
12.500  21.750  1.0223e-01
12.500  22.000  5.5870e-02
12.500  22.250  3.1274e-02
12.500  22.500  1.9162e-02
12.500  22.750  1.1188e-02
12.500  23.000  7.0922e-03
12.500  23.250  4.9382e-03
12.500  23.500  3.8397e-03
12.500  23.750  3.2529e-03
12.500  24.000  2.9191e-03
12.750  17.000  4.7567e-02
12.750  17.250  5.8396e-02
12.750  17.500  6.5685e-02
12.750  17.750  7.6240e-02
12.750  18.000  9.1480e-02
12.750  18.250  1.0968e-01
12.750  18.500  1.2804e-01
12.750  18.750  1.4494e-01
12.750  19.000  1.5839e-01
12.750  19.250  1.6795e-01
12.750  19.500  1.7331e-01
12.750  19.750  1.7632e-01
12.750  20.000  1.7731e-01
12.750  20.250  1.7730e-01
12.750  20.500  1.7547e-01
12.750  20.750  1.7242e-01
12.750  21.000  1.6910e-01
12.750  21.250  1.6354e-01
12.750  21.500  1.5890e-01
12.750  21.750  1.3724e-01
12.750  22.000  9.1695e-02
12.750  22.250  5.2274e-02
12.750  22.500  3.0487e-02
12.750  22.750  1.8382e-02
12.750  23.000  1.0823e-02
12.750  23.250  6.9142e-03
12.750  23.500  4.8581e-03
12.750  23.750  3.8018e-03
12.750  24.000  3.2333e-03
13.000  17.000  3.1048e-02
13.000  17.250  4.1246e-02
13.000  17.500  6.1193e-02
13.000  17.750  7.7098e-02
13.000  18.000  9.1580e-02
13.000  18.250  1.0868e-01
13.000  18.500  1.2659e-01
13.000  18.750  1.4361e-01
13.000  19.000  1.5787e-01
13.000  19.250  1.6823e-01
13.000  19.500  1.7418e-01
13.000  19.750  1.7737e-01
13.000  20.000  1.7861e-01
13.000  20.250  1.7816e-01
13.000  20.500  1.7698e-01
13.000  20.750  1.7447e-01
13.000  21.000  1.7057e-01
13.000  21.250  1.6549e-01
13.000  21.500  1.6435e-01
13.000  21.750  1.5037e-01
13.000  22.000  1.2291e-01
13.000  22.250  8.0567e-02
13.000  22.500  4.7908e-02
13.000  22.750  2.9026e-02
13.000  23.000  1.7365e-02
13.000  23.250  1.0352e-02
13.000  23.500  6.6794e-03
13.000  23.750  4.7500e-03
13.000  24.000  3.7418e-03
13.250  17.000  2.9867e-02
13.250  17.250  3.6600e-02
13.250  17.500  4.9858e-02
13.250  17.750  6.9489e-02
13.250  18.000  8.8576e-02
13.250  18.250  1.0820e-01
13.250  18.500  1.2516e-01
13.250  18.750  1.4163e-01
13.250  19.000  1.5579e-01
13.250  19.250  1.6686e-01
13.250  19.500  1.7369e-01
13.250  19.750  1.7760e-01
13.250  20.000  1.7901e-01
13.250  20.250  1.7862e-01
13.250  20.500  1.7699e-01
13.250  20.750  1.7470e-01
13.250  21.000  1.7130e-01
13.250  21.250  1.6582e-01
13.250  21.500  1.6435e-01
13.250  21.750  1.5488e-01
13.250  22.000  1.3626e-01
13.250  22.250  1.0513e-01
13.250  22.500  6.8623e-02
13.250  22.750  4.2443e-02
13.250  23.000  2.6314e-02
13.250  23.250  1.6093e-02
13.250  23.500  9.7886e-03
13.250  23.750  6.4032e-03
13.250  24.000  4.6088e-03
13.500  17.000  2.8714e-02
13.500  17.250  3.5230e-02
13.500  17.500  4.6606e-02
13.500  17.750  6.3192e-02
13.500  18.000  8.6070e-02
13.500  18.250  1.0546e-01
13.500  18.500  1.2420e-01
13.500  18.750  1.3959e-01
13.500  19.000  1.5369e-01
13.500  19.250  1.6462e-01
13.500  19.500  1.7237e-01
13.500  19.750  1.7660e-01
13.500  20.000  1.7863e-01
13.500  20.250  1.7885e-01
13.500  20.500  1.7719e-01
13.500  20.750  1.7426e-01
13.500  21.000  1.7016e-01
13.500  21.250  1.6506e-01
13.500  21.500  1.6370e-01
13.500  21.750  1.5580e-01
13.500  22.000  1.4155e-01
13.500  22.250  1.1622e-01
13.500  22.500  8.5188e-02
13.500  22.750  5.6546e-02
13.500  23.000  3.6231e-02
13.500  23.250  2.3307e-02
13.500  23.500  1.4607e-02
13.500  23.750  9.0909e-03
13.500  24.000  6.0489e-03
13.750  17.000  2.7878e-02
13.750  17.250  3.3924e-02
13.750  17.500  4.4123e-02
13.750  17.750  5.7640e-02
13.750  18.000  7.9292e-02
13.750  18.250  1.0342e-01
13.750  18.500  1.2092e-01
13.750  18.750  1.3843e-01
13.750  19.000  1.5174e-01
13.750  19.250  1.6320e-01
13.750  19.500  1.7139e-01
13.750  19.750  1.7638e-01
13.750  20.000  1.7875e-01
13.750  20.250  1.7922e-01
13.750  20.500  1.7793e-01
13.750  20.750  1.7486e-01
13.750  21.000  1.7015e-01
13.750  21.250  1.6394e-01
13.750  21.500  1.6331e-01
13.750  21.750  1.5556e-01
13.750  22.000  1.4201e-01
13.750  22.250  1.1970e-01
13.750  22.500  9.1602e-02
13.750  22.750  6.6176e-02
13.750  23.000  4.5119e-02
13.750  23.250  3.0108e-02
13.750  23.500  1.9929e-02
13.750  23.750  1.2890e-02
13.750  24.000  8.2467e-03
14.000  17.000  2.7101e-02
14.000  17.250  3.2288e-02
14.000  17.500  4.1849e-02
14.000  17.750  5.4387e-02
14.000  18.000  7.1878e-02
14.000  18.250  9.5894e-02
14.000  18.500  1.1899e-01
14.000  18.750  1.3664e-01
14.000  19.000  1.5050e-01
14.000  19.250  1.6171e-01
14.000  19.500  1.7070e-01
14.000  19.750  1.7665e-01
14.000  20.000  1.7983e-01
14.000  20.250  1.8040e-01
14.000  20.500  1.7940e-01
14.000  20.750  1.7661e-01
14.000  21.000  1.7197e-01
14.000  21.250  1.6557e-01
14.000  21.500  1.6429e-01
14.000  21.750  1.5681e-01
14.000  22.000  1.4377e-01
14.000  22.250  1.2134e-01
14.000  22.500  9.2630e-02
14.000  22.750  6.9134e-02
14.000  23.000  4.8749e-02
14.000  23.250  3.4535e-02
14.000  23.500  2.4305e-02
14.000  23.750  1.6599e-02
14.000  24.000  1.0978e-02
