nFnu 960.000A  relative to Inci 1215.00A scaled to 1215A.
Hden   Phi(H)  Eq_Width (A)
7.000  17.000  7.3159e-02
7.000  17.250  7.1081e-02
7.000  17.500  7.0864e-02
7.000  17.750  6.5016e-02
7.000  18.000  5.8125e-02
7.000  18.250  5.2396e-02
7.000  18.500  4.8373e-02
7.000  18.750  4.6265e-02
7.000  19.000  4.5148e-02
7.000  19.250  4.4504e-02
7.000  19.500  4.4229e-02
7.000  19.750  4.4113e-02
7.000  20.000  4.4062e-02
7.000  20.250  4.4038e-02
7.000  20.500  4.4026e-02
7.000  20.750  4.4019e-02
7.000  21.000  4.4016e-02
7.000  21.250  4.4014e-02
7.000  21.500  4.4013e-02
7.000  21.750  4.4013e-02
7.000  22.000  4.4013e-02
7.000  22.250  4.4013e-02
7.000  22.500  4.4014e-02
7.000  22.750  4.4014e-02
7.000  23.000  4.4014e-02
7.000  23.250  4.4014e-02
7.000  23.500  4.4014e-02
7.000  23.750  4.4014e-02
7.000  24.000  4.4014e-02
7.250  17.000  5.6210e-02
7.250  17.250  7.0200e-02
7.250  17.500  6.9757e-02
7.250  17.750  7.0407e-02
7.250  18.000  6.4802e-02
7.250  18.250  5.8011e-02
7.250  18.500  5.2338e-02
7.250  18.750  4.8353e-02
7.250  19.000  4.6257e-02
7.250  19.250  4.5146e-02
7.250  19.500  4.4504e-02
7.250  19.750  4.4229e-02
7.250  20.000  4.4113e-02
7.250  20.250  4.4062e-02
7.250  20.500  4.4038e-02
7.250  20.750  4.4026e-02
7.250  21.000  4.4019e-02
7.250  21.250  4.4016e-02
7.250  21.500  4.4014e-02
7.250  21.750  4.4013e-02
7.250  22.000  4.4013e-02
7.250  22.250  4.4012e-02
7.250  22.500  4.4012e-02
7.250  22.750  4.4012e-02
7.250  23.000  4.4013e-02
7.250  23.250  4.4013e-02
7.250  23.500  4.4013e-02
7.250  23.750  4.4013e-02
7.250  24.000  4.4013e-02
7.500  17.000  3.7996e-02
7.500  17.250  5.2907e-02
7.500  17.500  6.7244e-02
7.500  17.750  6.8780e-02
7.500  18.000  7.0167e-02
7.500  18.250  6.4703e-02
7.500  18.500  5.7948e-02
7.500  18.750  5.2302e-02
7.500  19.000  4.8339e-02
7.500  19.250  4.6251e-02
7.500  19.500  4.5144e-02
7.500  19.750  4.4503e-02
7.500  20.000  4.4229e-02
7.500  20.250  4.4113e-02
7.500  20.500  4.4062e-02
7.500  20.750  4.4038e-02
7.500  21.000  4.4025e-02
7.500  21.250  4.4019e-02
7.500  21.500  4.4016e-02
7.500  21.750  4.4014e-02
7.500  22.000  4.4013e-02
7.500  22.250  4.4012e-02
7.500  22.500  4.4012e-02
7.500  22.750  4.4012e-02
7.500  23.000  4.4012e-02
7.500  23.250  4.4012e-02
7.500  23.500  4.4014e-02
7.500  23.750  4.4012e-02
7.500  24.000  4.4012e-02
7.750  17.000  2.5291e-02
7.750  17.250  3.4605e-02
7.750  17.500  5.0090e-02
7.750  17.750  6.4757e-02
7.750  18.000  6.8024e-02
7.750  18.250  7.0061e-02
7.750  18.500  6.4678e-02
7.750  18.750  5.7919e-02
7.750  19.000  5.2281e-02
7.750  19.250  4.8331e-02
7.750  19.500  4.6248e-02
7.750  19.750  4.5142e-02
7.750  20.000  4.4503e-02
7.750  20.250  4.4229e-02
7.750  20.500  4.4113e-02
7.750  20.750  4.4062e-02
7.750  21.000  4.4037e-02
7.750  21.250  4.4025e-02
7.750  21.500  4.4019e-02
7.750  21.750  4.4016e-02
7.750  22.000  4.4014e-02
7.750  22.250  4.4013e-02
7.750  22.500  4.4012e-02
7.750  22.750  4.4012e-02
7.750  23.000  4.4012e-02
7.750  23.250  4.4012e-02
7.750  23.500  4.4012e-02
7.750  23.750  4.4012e-02
7.750  24.000  4.4011e-02
8.000  17.000  1.7587e-02
8.000  17.250  2.2156e-02
8.000  17.500  3.1618e-02
8.000  17.750  4.7548e-02
8.000  18.000  6.2673e-02
8.000  18.250  6.7501e-02
8.000  18.500  7.0040e-02
8.000  18.750  6.4703e-02
8.000  19.000  5.7912e-02
8.000  19.250  5.2269e-02
8.000  19.500  4.8325e-02
8.000  19.750  4.6246e-02
8.000  20.000  4.5142e-02
8.000  20.250  4.4503e-02
8.000  20.500  4.4229e-02
8.000  20.750  4.4113e-02
8.000  21.000  4.4062e-02
8.000  21.250  4.4038e-02
8.000  21.500  4.4025e-02
8.000  21.750  4.4019e-02
8.000  22.000  4.4016e-02
8.000  22.250  4.4014e-02
8.000  22.500  4.4013e-02
8.000  22.750  4.4012e-02
8.000  23.000  4.4012e-02
8.000  23.250  4.4013e-02
8.000  23.500  4.4011e-02
8.000  23.750  4.4011e-02
8.000  24.000  4.4011e-02
8.250  17.000  1.3029e-02
8.250  17.250  1.5310e-02
8.250  17.500  2.0124e-02
8.250  17.750  2.9784e-02
8.250  18.000  4.6054e-02
8.250  18.250  6.1425e-02
8.250  18.500  6.7182e-02
8.250  18.750  7.0071e-02
8.250  19.000  6.4764e-02
8.250  19.250  5.7918e-02
8.250  19.500  5.2261e-02
8.250  19.750  4.8322e-02
8.250  20.000  4.6244e-02
8.250  20.250  4.5141e-02
8.250  20.500  4.4503e-02
8.250  20.750  4.4229e-02
8.250  21.000  4.4113e-02
8.250  21.250  4.4062e-02
8.250  21.500  4.4038e-02
8.250  21.750  4.4025e-02
8.250  22.000  4.4019e-02
8.250  22.250  4.4016e-02
8.250  22.500  4.4014e-02
8.250  22.750  4.4013e-02
8.250  23.000  4.4012e-02
8.250  23.250  4.4012e-02
8.250  23.500  4.4012e-02
8.250  23.750  4.4011e-02
8.250  24.000  4.4011e-02
8.500  17.000  1.0123e-02
8.500  17.250  1.1290e-02
8.500  17.500  1.3804e-02
8.500  17.750  1.8761e-02
8.500  18.000  2.8732e-02
8.500  18.250  4.5309e-02
8.500  18.500  6.0647e-02
8.500  18.750  6.6999e-02
8.500  19.000  7.0136e-02
8.500  19.250  6.4852e-02
8.500  19.500  5.7935e-02
8.500  19.750  5.2258e-02
8.500  20.000  4.8320e-02
8.500  20.250  4.6243e-02
8.500  20.500  4.5141e-02
8.500  20.750  4.4503e-02
8.500  21.000  4.4229e-02
8.500  21.250  4.4113e-02
8.500  21.500  4.4062e-02
8.500  21.750  4.4038e-02
8.500  22.000  4.4025e-02
8.500  22.250  4.4019e-02
8.500  22.500  4.4016e-02
8.500  22.750  4.4014e-02
8.500  23.000  4.4013e-02
8.500  23.250  4.4012e-02
8.500  23.500  4.4012e-02
8.500  23.750  4.4011e-02
8.500  24.000  4.4011e-02
8.750  17.000  8.2677e-03
8.750  17.250  8.8528e-03
8.750  17.500  1.0207e-02
8.750  17.750  1.2866e-02
8.750  18.000  1.8081e-02
8.750  18.250  2.8494e-02
8.750  18.500  4.5341e-02
8.750  18.750  6.0117e-02
8.750  19.000  6.6894e-02
8.750  19.250  7.0217e-02
8.750  19.500  6.4960e-02
8.750  19.750  5.7958e-02
8.750  20.000  5.2256e-02
8.750  20.250  4.8318e-02
8.750  20.500  4.6243e-02
8.750  20.750  4.5141e-02
8.750  21.000  4.4503e-02
8.750  21.250  4.4229e-02
8.750  21.500  4.4113e-02
8.750  21.750  4.4062e-02
8.750  22.000  4.4038e-02
8.750  22.250  4.4025e-02
8.750  22.500  4.4019e-02
8.750  22.750  4.4016e-02
8.750  23.000  4.4014e-02
8.750  23.250  4.4013e-02
8.750  23.500  4.4012e-02
8.750  23.750  4.4012e-02
8.750  24.000  4.4012e-02
9.000  17.000  7.0605e-03
9.000  17.250  7.3500e-03
9.000  17.500  8.0886e-03
9.000  17.750  9.5798e-03
9.000  18.000  1.2456e-02
9.000  18.250  1.8132e-02
9.000  18.500  2.9582e-02
9.000  18.750  4.6940e-02
9.000  19.000  5.9747e-02
9.000  19.250  6.6810e-02
9.000  19.500  7.0295e-02
9.000  19.750  6.5073e-02
9.000  20.000  5.7982e-02
9.000  20.250  5.2255e-02
9.000  20.500  4.8317e-02
9.000  20.750  4.6243e-02
9.000  21.000  4.5141e-02
9.000  21.250  4.4503e-02
9.000  21.500  4.4229e-02
9.000  21.750  4.4113e-02
9.000  22.000  4.4061e-02
9.000  22.250  4.4038e-02
9.000  22.500  4.4025e-02
9.000  22.750  4.4019e-02
9.000  23.000  4.4016e-02
9.000  23.250  4.4014e-02
9.000  23.500  4.4013e-02
9.000  23.750  4.4012e-02
9.000  24.000  4.4012e-02
9.250  17.000  6.2552e-03
9.250  17.250  6.3825e-03
9.250  17.500  6.8170e-03
9.250  17.750  7.7053e-03
9.250  18.000  9.4648e-03
9.250  18.250  1.2772e-02
9.250  18.500  1.9327e-02
9.250  18.750  3.2372e-02
9.250  19.000  4.9693e-02
9.250  19.250  5.9467e-02
9.250  19.500  6.6716e-02
9.250  19.750  7.0355e-02
9.250  20.000  6.5180e-02
9.250  20.250  5.8007e-02
9.250  20.500  5.2254e-02
9.250  20.750  4.8316e-02
9.250  21.000  4.6243e-02
9.250  21.250  4.5141e-02
9.250  21.500  4.4494e-02
9.250  21.750  4.4216e-02
9.250  22.000  4.4099e-02
9.250  22.250  4.4049e-02
9.250  22.500  4.4037e-02
9.250  22.750  4.4025e-02
9.250  23.000  4.4019e-02
9.250  23.250  4.4015e-02
9.250  23.500  4.4013e-02
9.250  23.750  4.4013e-02
9.250  24.000  4.4012e-02
9.500  17.000  5.7072e-03
9.500  17.250  5.7260e-03
9.500  17.500  6.0137e-03
9.500  17.750  6.6365e-03
9.500  18.000  7.7884e-03
9.500  18.250  9.8747e-03
9.500  18.500  1.3818e-02
9.500  18.750  2.1662e-02
9.500  19.000  3.6366e-02
9.500  19.250  5.2053e-02
9.500  19.500  5.9216e-02
9.500  19.750  6.6577e-02
9.500  20.000  7.0382e-02
9.500  20.250  6.5271e-02
9.500  20.500  5.8030e-02
9.500  20.750  5.2253e-02
9.500  21.000  4.8305e-02
9.500  21.250  4.6229e-02
9.500  21.500  4.5127e-02
9.500  21.750  4.4486e-02
9.500  22.000  4.4206e-02
9.500  22.250  4.4090e-02
9.500  22.500  4.4038e-02
9.500  22.750  4.4013e-02
9.500  23.000  4.4002e-02
9.500  23.250  4.3995e-02
9.500  23.500  4.3998e-02
9.500  23.750  4.3996e-02
9.500  24.000  4.3995e-02
9.750  17.000  5.3894e-03
9.750  17.250  5.2655e-03
9.750  17.500  5.4513e-03
9.750  17.750  5.9459e-03
9.750  18.000  6.8285e-03
9.750  18.250  8.3022e-03
9.750  18.500  1.0874e-02
9.750  18.750  1.5708e-02
9.750  19.000  2.5312e-02
9.750  19.250  4.1424e-02
9.750  19.500  5.3960e-02
9.750  19.750  5.9020e-02
9.750  20.000  6.6413e-02
9.750  20.250  7.0369e-02
9.750  20.500  6.5338e-02
9.750  20.750  5.8049e-02
9.750  21.000  5.2254e-02
9.750  21.250  4.8311e-02
9.750  21.500  4.6231e-02
9.750  21.750  4.5127e-02
9.750  22.000  4.4487e-02
9.750  22.250  4.4209e-02
9.750  22.500  4.4089e-02
9.750  22.750  4.4039e-02
9.750  23.000  4.4015e-02
9.750  23.250  4.4002e-02
9.750  23.500  4.3996e-02
9.750  23.750  4.3992e-02
9.750  24.000  4.3990e-02
10.000  17.000  5.2943e-03
10.000  17.250  4.9780e-03
10.000  17.500  5.0133e-03
10.000  17.750  5.4193e-03
10.000  18.000  6.2246e-03
10.000  18.250  7.4137e-03
10.000  18.500  9.2649e-03
10.000  18.750  1.2513e-02
10.000  19.000  1.8772e-02
10.000  19.250  3.0838e-02
10.000  19.500  4.6522e-02
10.000  19.750  5.4114e-02
10.000  20.000  5.8914e-02
10.000  20.250  6.6237e-02
10.000  20.500  7.0328e-02
10.000  20.750  6.5388e-02
10.000  21.000  5.8065e-02
10.000  21.250  5.2254e-02
10.000  21.500  4.8312e-02
10.000  21.750  4.6238e-02
10.000  22.000  4.5128e-02
10.000  22.250  4.4489e-02
10.000  22.500  4.4212e-02
10.000  22.750  4.4091e-02
10.000  23.000  4.4037e-02
10.000  23.250  4.4014e-02
10.000  23.500  4.4002e-02
10.000  23.750  4.3996e-02
10.000  24.000  4.3993e-02
10.250  17.000  5.4383e-03
10.250  17.250  4.8999e-03
10.250  17.500  4.7518e-03
10.250  17.750  5.0374e-03
10.250  18.000  5.7763e-03
10.250  18.250  6.8406e-03
10.250  18.500  8.3375e-03
10.250  18.750  1.0789e-02
10.250  19.000  1.5258e-02
10.250  19.250  2.3328e-02
10.250  19.500  3.6239e-02
10.250  19.750  4.8779e-02
10.250  20.000  5.3997e-02
10.250  20.250  5.8952e-02
10.250  20.500  6.6223e-02
10.250  20.750  7.0293e-02
10.250  21.000  6.5418e-02
10.250  21.250  5.8076e-02
10.250  21.500  5.2254e-02
10.250  21.750  4.8312e-02
10.250  22.000  4.6241e-02
10.250  22.250  4.5133e-02
10.250  22.500  4.4489e-02
10.250  22.750  4.4214e-02
10.250  23.000  4.4094e-02
10.250  23.250  4.4040e-02
10.250  23.500  4.4014e-02
10.250  23.750  4.4001e-02
10.250  24.000  4.3995e-02
10.500  17.000  5.7758e-03
10.500  17.250  5.0490e-03
10.500  17.500  4.7012e-03
10.500  17.750  4.8375e-03
10.500  18.000  5.4405e-03
10.500  18.250  6.4018e-03
10.500  18.500  7.6934e-03
10.500  18.750  9.5428e-03
10.500  19.000  1.2414e-02
10.500  19.250  1.7290e-02
10.500  19.500  2.6079e-02
10.500  19.750  3.9663e-02
10.500  20.000  5.0196e-02
10.500  20.250  5.4397e-02
10.500  20.500  5.9340e-02
10.500  20.750  6.6513e-02
10.500  21.000  7.0310e-02
10.500  21.250  6.5433e-02
10.500  21.500  5.8082e-02
10.500  21.750  5.2254e-02
10.500  22.000  4.8312e-02
10.500  22.250  4.6242e-02
10.500  22.500  4.5139e-02
10.500  22.750  4.4490e-02
10.500  23.000  4.4215e-02
10.500  23.250  4.4097e-02
10.500  23.500  4.4043e-02
10.500  23.750  4.4018e-02
10.500  24.000  4.4004e-02
10.750  17.000  6.2458e-03
10.750  17.250  5.3863e-03
10.750  17.500  4.8875e-03
10.750  17.750  4.8657e-03
10.750  18.000  5.2648e-03
10.750  18.250  5.9962e-03
10.750  18.500  7.0463e-03
10.750  18.750  8.3982e-03
10.750  19.000  1.0312e-02
10.750  19.250  1.3414e-02
10.750  19.500  1.8910e-02
10.750  19.750  2.8698e-02
10.750  20.000  4.2671e-02
10.750  20.250  5.0956e-02
10.750  20.500  5.5034e-02
10.750  20.750  6.0086e-02
10.750  21.000  6.7288e-02
10.750  21.250  7.0464e-02
10.750  21.500  6.5442e-02
10.750  21.750  5.8082e-02
10.750  22.000  5.2253e-02
10.750  22.250  4.8311e-02
10.750  22.500  4.6242e-02
10.750  22.750  4.5140e-02
10.750  23.000  4.4492e-02
10.750  23.250  4.4216e-02
10.750  23.500  4.4098e-02
10.750  23.750  4.4046e-02
10.750  24.000  4.4020e-02
11.000  17.000  6.7820e-03
11.000  17.250  5.8500e-03
11.000  17.500  5.2588e-03
11.000  17.750  5.1109e-03
11.000  18.000  5.3010e-03
11.000  18.250  5.7304e-03
11.000  18.500  6.4314e-03
11.000  18.750  7.4636e-03
11.000  19.000  8.8216e-03
11.000  19.250  1.0824e-02
11.000  19.500  1.4324e-02
11.000  19.750  2.0448e-02
11.000  20.000  3.1093e-02
11.000  20.250  4.5159e-02
11.000  20.500  5.1806e-02
11.000  20.750  5.6044e-02
11.000  21.000  6.1583e-02
11.000  21.250  6.8905e-02
11.000  21.500  7.0817e-02
11.000  21.750  6.5462e-02
11.000  22.000  5.8077e-02
11.000  22.250  5.2252e-02
11.000  22.500  4.8310e-02
11.000  22.750  4.6242e-02
11.000  23.000  4.5141e-02
11.000  23.250  4.4498e-02
11.000  23.500  4.4216e-02
11.000  23.750  4.4099e-02
11.000  24.000  4.4047e-02
11.250  17.000  7.2542e-03
11.250  17.250  6.3543e-03
11.250  17.500  5.8046e-03
11.250  17.750  5.6949e-03
11.250  18.000  6.0495e-03
11.250  18.250  6.8931e-03
11.250  18.500  8.2500e-03
11.250  18.750  1.0145e-02
11.250  19.000  1.2602e-02
11.250  19.250  1.5646e-02
11.250  19.500  1.9302e-02
11.250  19.750  2.3593e-02
11.250  20.000  2.8545e-02
11.250  20.250  3.4181e-02
11.250  20.500  4.0528e-02
11.250  20.750  4.7607e-02
11.250  21.000  5.5446e-02
11.250  21.250  6.4067e-02
11.250  21.500  7.1630e-02
11.250  21.750  7.1465e-02
11.250  22.000  6.5517e-02
11.250  22.250  5.8066e-02
11.250  22.500  5.2252e-02
11.250  22.750  4.8309e-02
11.250  23.000  4.6242e-02
11.250  23.250  4.5142e-02
11.250  23.500  4.4501e-02
11.250  23.750  4.4218e-02
11.250  24.000  4.4100e-02
11.500  17.000  7.4497e-03
11.500  17.250  6.7739e-03
11.500  17.500  6.3425e-03
11.500  17.750  6.2338e-03
11.500  18.000  6.4842e-03
11.500  18.250  7.1305e-03
11.500  18.500  8.2092e-03
11.500  18.750  9.7569e-03
11.500  19.000  1.1810e-02
11.500  19.250  1.4406e-02
11.500  19.500  1.7580e-02
11.500  19.750  2.1370e-02
11.500  20.000  2.5812e-02
11.500  20.250  3.0942e-02
11.500  20.500  3.6798e-02
11.500  20.750  4.3416e-02
11.500  21.000  5.0832e-02
11.500  21.250  5.9083e-02
11.500  21.500  6.8206e-02
11.500  21.750  7.5474e-02
11.500  22.000  7.2315e-02
11.500  22.250  6.5630e-02
11.500  22.500  5.8053e-02
11.500  22.750  5.2250e-02
11.500  23.000  4.8307e-02
11.500  23.250  4.6242e-02
11.500  23.500  4.5142e-02
11.500  23.750  4.4502e-02
11.500  24.000  4.4224e-02
11.750  17.000  6.4668e-03
11.750  17.250  6.7644e-03
11.750  17.500  6.4753e-03
11.750  17.750  6.2909e-03
11.750  18.000  6.1890e-03
11.750  18.250  6.0616e-03
11.750  18.500  6.8274e-03
11.750  18.750  8.6387e-03
11.750  19.000  1.1373e-02
11.750  19.250  1.4906e-02
11.750  19.500  1.9117e-02
11.750  19.750  2.3881e-02
11.750  20.000  2.9076e-02
11.750  20.250  3.4580e-02
11.750  20.500  4.0268e-02
11.750  20.750  4.6018e-02
11.750  21.000  5.1708e-02
11.750  21.250  5.7660e-02
11.750  21.500  6.5306e-02
11.750  21.750  7.3855e-02
11.750  22.000  7.9296e-02
11.750  22.250  7.3252e-02
11.750  22.500  6.5810e-02
11.750  22.750  5.8037e-02
11.750  23.000  5.2249e-02
11.750  23.250  4.8306e-02
11.750  23.500  4.6241e-02
11.750  23.750  4.5142e-02
11.750  24.000  4.4503e-02
12.000  17.000  5.7261e-03
12.000  17.250  5.6981e-03
12.000  17.500  5.8559e-03
12.000  17.750  6.2578e-03
12.000  18.000  6.3654e-03
12.000  18.250  6.2878e-03
12.000  18.500  6.6178e-03
12.000  18.750  7.5157e-03
12.000  19.000  9.0063e-03
12.000  19.250  1.1115e-02
12.000  19.500  1.3865e-02
12.000  19.750  1.7284e-02
12.000  20.000  2.1395e-02
12.000  20.250  2.6223e-02
12.000  20.500  3.1793e-02
12.000  20.750  3.8131e-02
12.000  21.000  4.5260e-02
12.000  21.250  5.3207e-02
12.000  21.500  6.1995e-02
12.000  21.750  7.1527e-02
12.000  22.000  8.0249e-02
12.000  22.250  8.2368e-02
12.000  22.500  7.4383e-02
12.000  22.750  6.6057e-02
12.000  23.000  5.8019e-02
12.000  23.250  5.2247e-02
12.000  23.500  4.8304e-02
12.000  23.750  4.6241e-02
12.000  24.000  4.5143e-02
12.250  17.000  4.9963e-03
12.250  17.250  5.2271e-03
12.250  17.500  5.3839e-03
12.250  17.750  5.5686e-03
12.250  18.000  5.6540e-03
12.250  18.250  6.1146e-03
12.250  18.500  6.0959e-03
12.250  18.750  5.9381e-03
12.250  19.000  5.8375e-03
12.250  19.250  5.8400e-03
12.250  19.500  6.1437e-03
12.250  19.750  6.8421e-03
12.250  20.000  7.9949e-03
12.250  20.250  9.8530e-03
12.250  20.500  1.2934e-02
12.250  20.750  1.8136e-02
12.250  21.000  2.7463e-02
12.250  21.250  4.4146e-02
12.250  21.500  5.9207e-02
12.250  21.750  6.7867e-02
12.250  22.000  7.9137e-02
12.250  22.250  8.7195e-02
12.250  22.500  8.5439e-02
12.250  22.750  7.5613e-02
12.250  23.000  6.6328e-02
12.250  23.250  5.8006e-02
12.250  23.500  5.2245e-02
12.250  23.750  4.8301e-02
12.250  24.000  4.6239e-02
12.500  17.000  4.2691e-03
12.500  17.250  4.6291e-03
12.500  17.500  4.9722e-03
12.500  17.750  5.2624e-03
12.500  18.000  5.3989e-03
12.500  18.250  5.3908e-03
12.500  18.500  5.3002e-03
12.500  18.750  5.5935e-03
12.500  19.000  5.6593e-03
12.500  19.250  5.6518e-03
12.500  19.500  5.7179e-03
12.500  19.750  6.0663e-03
12.500  20.000  6.8129e-03
12.500  20.250  8.0431e-03
12.500  20.500  1.0069e-02
12.500  20.750  1.3435e-02
12.500  21.000  1.9223e-02
12.500  21.250  2.9824e-02
12.500  21.500  4.8685e-02
12.500  21.750  6.5015e-02
12.500  22.000  7.5399e-02
12.500  22.250  8.7721e-02
12.500  22.500  9.3830e-02
12.500  22.750  8.8676e-02
12.500  23.000  7.7010e-02
12.500  23.250  6.6603e-02
12.500  23.500  5.8000e-02
12.500  23.750  5.2242e-02
12.500  24.000  4.8297e-02
12.750  17.000  3.7197e-03
12.750  17.250  4.0757e-03
12.750  17.500  4.4088e-03
12.750  17.750  4.6778e-03
12.750  18.000  4.8912e-03
12.750  18.250  5.0317e-03
12.750  18.500  5.0824e-03
12.750  18.750  5.0646e-03
12.750  19.000  5.0022e-03
12.750  19.250  5.2392e-03
12.750  19.500  5.4286e-03
12.750  19.750  5.5770e-03
12.750  20.000  5.9573e-03
12.750  20.250  6.7941e-03
12.750  20.500  8.1404e-03
12.750  20.750  1.0367e-02
12.750  21.000  1.4149e-02
12.750  21.250  2.0751e-02
12.750  21.500  3.2339e-02
12.750  21.750  5.5172e-02
12.750  22.000  7.2194e-02
12.750  22.250  8.4076e-02
12.750  22.500  9.7033e-02
12.750  22.750  1.0047e-01
12.750  23.000  9.1665e-02
12.750  23.250  7.8426e-02
12.750  23.500  6.6982e-02
12.750  23.750  5.8010e-02
12.750  24.000  5.2239e-02
13.000  17.000  5.5288e-03
13.000  17.250  3.9578e-03
13.000  17.500  3.8159e-03
13.000  17.750  4.0432e-03
13.000  18.000  4.2720e-03
13.000  18.250  4.4851e-03
13.000  18.500  4.6653e-03
13.000  18.750  4.7953e-03
13.000  19.000  4.8581e-03
13.000  19.250  4.8363e-03
13.000  19.500  4.7762e-03
13.000  19.750  5.1411e-03
13.000  20.000  6.8732e-03
13.000  20.250  1.0122e-02
13.000  20.500  1.4797e-02
13.000  20.750  2.0809e-02
13.000  21.000  2.8068e-02
13.000  21.250  3.6484e-02
13.000  21.500  4.5967e-02
13.000  21.750  5.6428e-02
13.000  22.000  6.7776e-02
13.000  22.250  7.9922e-02
13.000  22.500  9.3069e-02
13.000  22.750  1.0566e-01
13.000  23.000  1.0694e-01
13.000  23.250  9.5067e-02
13.000  23.500  8.0083e-02
13.000  23.750  6.7321e-02
13.000  24.000  5.8033e-02
13.250  17.000  5.2722e-03
13.250  17.250  4.9354e-03
13.250  17.500  4.5777e-03
13.250  17.750  4.2459e-03
13.250  18.000  4.0040e-03
13.250  18.250  3.9157e-03
13.250  18.500  4.0449e-03
13.250  18.750  4.4555e-03
13.250  19.000  5.2113e-03
13.250  19.250  6.3762e-03
13.250  19.500  8.0139e-03
13.250  19.750  1.0188e-02
13.250  20.000  1.2964e-02
13.250  20.250  1.6403e-02
13.250  20.500  2.0571e-02
13.250  20.750  2.5531e-02
13.250  21.000  3.1347e-02
13.250  21.250  3.8083e-02
13.250  21.500  4.5802e-02
13.250  21.750  5.4569e-02
13.250  22.000  6.4448e-02
13.250  22.250  7.5502e-02
13.250  22.500  8.7794e-02
13.250  22.750  1.0139e-01
13.250  23.000  1.1382e-01
13.250  23.250  1.1387e-01
13.250  23.500  9.8260e-02
13.250  23.750  8.1335e-02
13.250  24.000  6.7468e-02
13.500  17.000  5.1393e-03
13.500  17.250  4.6824e-03
13.500  17.500  5.0387e-03
13.500  17.750  6.3142e-03
13.500  18.000  8.4377e-03
13.500  18.250  1.1338e-02
13.500  18.500  1.4945e-02
13.500  18.750  1.9187e-02
13.500  19.000  2.3994e-02
13.500  19.250  2.9293e-02
13.500  19.500  3.5015e-02
13.500  19.750  4.1089e-02
13.500  20.000  4.7442e-02
13.500  20.250  5.4005e-02
13.500  20.500  6.0707e-02
13.500  20.750  6.7476e-02
13.500  21.000  7.4241e-02
13.500  21.250  8.0932e-02
13.500  21.500  8.7477e-02
13.500  21.750  9.3806e-02
13.500  22.000  9.9848e-02
13.500  22.250  1.0553e-01
13.500  22.500  1.1078e-01
13.500  22.750  1.1554e-01
13.500  23.000  1.1972e-01
13.500  23.250  1.2326e-01
13.500  23.500  1.2137e-01
13.500  23.750  1.0142e-01
13.500  24.000  8.2416e-02
13.750  17.000  5.0797e-03
13.750  17.250  4.6528e-03
13.750  17.500  5.2586e-03
13.750  17.750  7.0228e-03
13.750  18.000  9.8441e-03
13.750  18.250  1.3621e-02
13.750  18.500  1.8254e-02
13.750  18.750  2.3640e-02
13.750  19.000  2.9678e-02
13.750  19.250  3.6268e-02
13.750  19.500  4.3308e-02
13.750  19.750  5.0698e-02
13.750  20.000  5.8335e-02
13.750  20.250  6.6119e-02
13.750  20.500  7.3949e-02
13.750  20.750  8.1724e-02
13.750  21.000  8.9341e-02
13.750  21.250  9.6701e-02
13.750  21.500  1.0370e-01
13.750  21.750  1.1024e-01
13.750  22.000  1.1622e-01
13.750  22.250  1.2154e-01
13.750  22.500  1.2609e-01
13.750  22.750  1.2978e-01
13.750  23.000  1.3251e-01
13.750  23.250  1.3416e-01
13.750  23.500  1.3465e-01
13.750  23.750  1.2926e-01
13.750  24.000  1.0431e-01
14.000  17.000  5.0652e-03
14.000  17.250  4.8449e-03
14.000  17.500  4.9926e-03
14.000  17.750  5.5825e-03
14.000  18.000  6.6150e-03
14.000  18.250  8.0907e-03
14.000  18.500  1.0010e-02
14.000  18.750  1.2374e-02
14.000  19.000  1.5183e-02
14.000  19.250  1.8437e-02
14.000  19.500  2.2137e-02
14.000  19.750  2.6283e-02
14.000  20.000  3.0877e-02
14.000  20.250  3.5919e-02
14.000  20.500  4.1408e-02
14.000  20.750  4.7347e-02
14.000  21.000  5.3735e-02
14.000  21.250  6.0573e-02
14.000  21.500  6.7861e-02
14.000  21.750  7.5600e-02
14.000  22.000  8.3791e-02
14.000  22.250  9.2434e-02
14.000  22.500  1.0153e-01
14.000  22.750  1.1108e-01
14.000  23.000  1.2108e-01
14.000  23.250  1.3154e-01
14.000  23.500  1.4245e-01
14.000  23.750  1.4897e-01
14.000  24.000  1.3648e-01
