InwT 960.000A  relative to Inci 1215.00A scaled to 1215A.
Hden   Phi(H)  Eq_Width (A)
7.000  17.000  5.7523e-02
7.000  17.250  5.7118e-02
7.000  17.500  5.7567e-02
7.000  17.750  5.4607e-02
7.000  18.000  5.1124e-02
7.000  18.250  4.8238e-02
7.000  18.500  4.6209e-02
7.000  18.750  4.5145e-02
7.000  19.000  4.4583e-02
7.000  19.250  4.4259e-02
7.000  19.500  4.4121e-02
7.000  19.750  4.4062e-02
7.000  20.000  4.4037e-02
7.000  20.250  4.4025e-02
7.000  20.500  4.4019e-02
7.000  20.750  4.4015e-02
7.000  21.000  4.4014e-02
7.000  21.250  4.4013e-02
7.000  21.500  4.4013e-02
7.000  21.750  4.4013e-02
7.000  22.000  4.4013e-02
7.000  22.250  4.4013e-02
7.000  22.500  4.4014e-02
7.000  22.750  4.4014e-02
7.000  23.000  4.4014e-02
7.000  23.250  4.4014e-02
7.000  23.500  4.4014e-02
7.000  23.750  4.4014e-02
7.000  24.000  4.4014e-02
7.250  17.000  4.6952e-02
7.250  17.250  5.5999e-02
7.250  17.500  5.6456e-02
7.250  17.750  5.7336e-02
7.250  18.000  5.4499e-02
7.250  18.250  5.1066e-02
7.250  18.500  4.8208e-02
7.250  18.750  4.6199e-02
7.250  19.000  4.5141e-02
7.250  19.250  4.4582e-02
7.250  19.500  4.4259e-02
7.250  19.750  4.4121e-02
7.250  20.000  4.4062e-02
7.250  20.250  4.4037e-02
7.250  20.500  4.4025e-02
7.250  20.750  4.4018e-02
7.250  21.000  4.4015e-02
7.250  21.250  4.4014e-02
7.250  21.500  4.4013e-02
7.250  21.750  4.4012e-02
7.250  22.000  4.4012e-02
7.250  22.250  4.4012e-02
7.250  22.500  4.4012e-02
7.250  22.750  4.4012e-02
7.250  23.000  4.4013e-02
7.250  23.250  4.4013e-02
7.250  23.500  4.4013e-02
7.250  23.750  4.4013e-02
7.250  24.000  4.4013e-02
7.500  17.000  3.3588e-02
7.500  17.250  4.4991e-02
7.500  17.500  5.4490e-02
7.500  17.750  5.5969e-02
7.500  18.000  5.7214e-02
7.500  18.250  5.4448e-02
7.500  18.500  5.1035e-02
7.500  18.750  4.8190e-02
7.500  19.000  4.6192e-02
7.500  19.250  4.5138e-02
7.500  19.500  4.4581e-02
7.500  19.750  4.4259e-02
7.500  20.000  4.4121e-02
7.500  20.250  4.4062e-02
7.500  20.500  4.4037e-02
7.500  20.750  4.4025e-02
7.500  21.000  4.4018e-02
7.500  21.250  4.4015e-02
7.500  21.500  4.4013e-02
7.500  21.750  4.4013e-02
7.500  22.000  4.4012e-02
7.500  22.250  4.4012e-02
7.500  22.500  4.4012e-02
7.500  22.750  4.4012e-02
7.500  23.000  4.4012e-02
7.500  23.250  4.4012e-02
7.500  23.500  4.4014e-02
7.500  23.750  4.4012e-02
7.500  24.000  4.4012e-02
7.750  17.000  2.3560e-02
7.750  17.250  3.1169e-02
7.750  17.500  4.3299e-02
7.750  17.750  5.3223e-02
7.750  18.000  5.5594e-02
7.750  18.250  5.7161e-02
7.750  18.500  5.4436e-02
7.750  18.750  5.1020e-02
7.750  19.000  4.8180e-02
7.750  19.250  4.6187e-02
7.750  19.500  4.5137e-02
7.750  19.750  4.4580e-02
7.750  20.000  4.4259e-02
7.750  20.250  4.4121e-02
7.750  20.500  4.4062e-02
7.750  20.750  4.4037e-02
7.750  21.000  4.4024e-02
7.750  21.250  4.4018e-02
7.750  21.500  4.4015e-02
7.750  21.750  4.4013e-02
7.750  22.000  4.4013e-02
7.750  22.250  4.4012e-02
7.750  22.500  4.4012e-02
7.750  22.750  4.4012e-02
7.750  23.000  4.4012e-02
7.750  23.250  4.4012e-02
7.750  23.500  4.4011e-02
7.750  23.750  4.4012e-02
7.750  24.000  4.4011e-02
8.000  17.000  1.6847e-02
8.000  17.250  2.0973e-02
8.000  17.500  2.8949e-02
8.000  17.750  4.1687e-02
8.000  18.000  5.2191e-02
8.000  18.250  5.5330e-02
8.000  18.500  5.7151e-02
8.000  18.750  5.4448e-02
8.000  19.000  5.1016e-02
8.000  19.250  4.8173e-02
8.000  19.500  4.6185e-02
8.000  19.750  4.5135e-02
8.000  20.000  4.4580e-02
8.000  20.250  4.4259e-02
8.000  20.500  4.4121e-02
8.000  20.750  4.4062e-02
8.000  21.000  4.4037e-02
8.000  21.250  4.4025e-02
8.000  21.500  4.4018e-02
8.000  21.750  4.4015e-02
8.000  22.000  4.4013e-02
8.000  22.250  4.4013e-02
8.000  22.500  4.4012e-02
8.000  22.750  4.4012e-02
8.000  23.000  4.4012e-02
8.000  23.250  4.4012e-02
8.000  23.500  4.4011e-02
8.000  23.750  4.4011e-02
8.000  24.000  4.4011e-02
8.250  17.000  1.2624e-02
8.250  17.250  1.4821e-02
8.250  17.500  1.9257e-02
8.250  17.750  2.7566e-02
8.250  18.000  4.0774e-02
8.250  18.250  5.1547e-02
8.250  18.500  5.5174e-02
8.250  18.750  5.7166e-02
8.250  19.000  5.4479e-02
8.250  19.250  5.1020e-02
8.250  19.500  4.8169e-02
8.250  19.750  4.6183e-02
8.250  20.000  4.5135e-02
8.250  20.250  4.4580e-02
8.250  20.500  4.4259e-02
8.250  20.750  4.4121e-02
8.250  21.000  4.4062e-02
8.250  21.250  4.4037e-02
8.250  21.500  4.4025e-02
8.250  21.750  4.4018e-02
8.250  22.000  4.4015e-02
8.250  22.250  4.4013e-02
8.250  22.500  4.4012e-02
8.250  22.750  4.4012e-02
8.250  23.000  4.4012e-02
8.250  23.250  4.4012e-02
8.250  23.500  4.4011e-02
8.250  23.750  4.4011e-02
8.250  24.000  4.4011e-02
8.500  17.000  9.8537e-03
8.500  17.250  1.1021e-02
8.500  17.500  1.3454e-02
8.500  17.750  1.8078e-02
8.500  18.000  2.6774e-02
8.500  18.250  4.0329e-02
8.500  18.500  5.1126e-02
8.500  18.750  5.5085e-02
8.500  19.000  5.7200e-02
8.500  19.250  5.4524e-02
8.500  19.500  5.1028e-02
8.500  19.750  4.8168e-02
8.500  20.000  4.6182e-02
8.500  20.250  4.5134e-02
8.500  20.500  4.4579e-02
8.500  20.750  4.4259e-02
8.500  21.000  4.4121e-02
8.500  21.250  4.4062e-02
8.500  21.500  4.4037e-02
8.500  21.750  4.4024e-02
8.500  22.000  4.4018e-02
8.500  22.250  4.4015e-02
8.500  22.500  4.4013e-02
8.500  22.750  4.4012e-02
8.500  23.000  4.4012e-02
8.500  23.250  4.4012e-02
8.500  23.500  4.4011e-02
8.500  23.750  4.4011e-02
8.500  24.000  4.4011e-02
8.750  17.000  8.0515e-03
8.750  17.250  8.6631e-03
8.750  17.500  1.0009e-02
8.750  17.750  1.2594e-02
8.750  18.000  1.7488e-02
8.750  18.250  2.6615e-02
8.750  18.500  4.0450e-02
8.750  18.750  5.0838e-02
8.750  19.000  5.5036e-02
8.750  19.250  5.7240e-02
8.750  19.500  5.4579e-02
8.750  19.750  5.1040e-02
8.750  20.000  4.8167e-02
8.750  20.250  4.6181e-02
8.750  20.500  4.5134e-02
8.750  20.750  4.4579e-02
8.750  21.000  4.4259e-02
8.750  21.250  4.4121e-02
8.750  21.500  4.4062e-02
8.750  21.750  4.4037e-02
8.750  22.000  4.4025e-02
8.750  22.250  4.4018e-02
8.750  22.500  4.4015e-02
8.750  22.750  4.4013e-02
8.750  23.000  4.4013e-02
8.750  23.250  4.4012e-02
8.750  23.500  4.4012e-02
8.750  23.750  4.4012e-02
8.750  24.000  4.4011e-02
9.000  17.000  6.8562e-03
9.000  17.250  7.1862e-03
9.000  17.500  7.9412e-03
9.000  17.750  9.4217e-03
9.000  18.000  1.2214e-02
9.000  18.250  1.7530e-02
9.000  18.500  2.7547e-02
9.000  18.750  4.1822e-02
9.000  19.000  5.0651e-02
9.000  19.250  5.4995e-02
9.000  19.500  5.7280e-02
9.000  19.750  5.4636e-02
9.000  20.000  5.1052e-02
9.000  20.250  4.8167e-02
9.000  20.500  4.6181e-02
9.000  20.750  4.5134e-02
9.000  21.000  4.4579e-02
9.000  21.250  4.4259e-02
9.000  21.500  4.4121e-02
9.000  21.750  4.4062e-02
9.000  22.000  4.4037e-02
9.000  22.250  4.4024e-02
9.000  22.500  4.4018e-02
9.000  22.750  4.4015e-02
9.000  23.000  4.4013e-02
9.000  23.250  4.4013e-02
9.000  23.500  4.4012e-02
9.000  23.750  4.4012e-02
9.000  24.000  4.4012e-02
9.250  17.000  6.0359e-03
9.250  17.250  6.2173e-03
9.250  17.500  6.6829e-03
9.250  17.750  7.5825e-03
9.250  18.000  9.3174e-03
9.250  18.250  1.2515e-02
9.250  18.500  1.8602e-02
9.250  18.750  2.9922e-02
9.250  19.000  4.4089e-02
9.250  19.250  5.0508e-02
9.250  19.500  5.4946e-02
9.250  19.750  5.7310e-02
9.250  20.000  5.4690e-02
9.250  20.250  5.1065e-02
9.250  20.500  4.8166e-02
9.250  20.750  4.6180e-02
9.250  21.000  4.5134e-02
9.250  21.250  4.4579e-02
9.250  21.500  4.4250e-02
9.250  21.750  4.4108e-02
9.250  22.000  4.4048e-02
9.250  22.250  4.4024e-02
9.250  22.500  4.4024e-02
9.250  22.750  4.4018e-02
9.250  23.000  4.4015e-02
9.250  23.250  4.4013e-02
9.250  23.500  4.4012e-02
9.250  23.750  4.4012e-02
9.250  24.000  4.4012e-02
9.500  17.000  5.4513e-03
9.500  17.250  5.5400e-03
9.500  17.500  5.8715e-03
9.500  17.750  6.5184e-03
9.500  18.000  7.6686e-03
9.500  18.250  9.7125e-03
9.500  18.500  1.3489e-02
9.500  18.750  2.0683e-02
9.500  19.000  3.3415e-02
9.500  19.250  4.5965e-02
9.500  19.500  5.0381e-02
9.500  19.750  5.4872e-02
9.500  20.000  5.7323e-02
9.500  20.250  5.4736e-02
9.500  20.500  5.1076e-02
9.500  20.750  4.8165e-02
9.500  21.000  4.6170e-02
9.500  21.250  4.5121e-02
9.500  21.500  4.4566e-02
9.500  21.750  4.4242e-02
9.500  22.000  4.4098e-02
9.500  22.250  4.4039e-02
9.500  22.500  4.4013e-02
9.500  22.750  4.4000e-02
9.500  23.000  4.3995e-02
9.500  23.250  4.3992e-02
9.500  23.500  4.3996e-02
9.500  23.750  4.3995e-02
9.500  24.000  4.3994e-02
9.750  17.000  5.0756e-03
9.750  17.250  5.0416e-03
9.750  17.500  5.2860e-03
9.750  17.750  5.8160e-03
9.750  18.000  6.7121e-03
9.750  18.250  8.1668e-03
9.750  18.500  1.0657e-02
9.750  18.750  1.5226e-02
9.750  19.000  2.3907e-02
9.750  19.250  3.7752e-02
9.750  19.500  4.7247e-02
9.750  19.750  5.0283e-02
9.750  20.000  5.4781e-02
9.750  20.250  5.7316e-02
9.750  20.500  5.4769e-02
9.750  20.750  5.1086e-02
9.750  21.000  4.8165e-02
9.750  21.250  4.6176e-02
9.750  21.500  4.5123e-02
9.750  21.750  4.4566e-02
9.750  22.000  4.4243e-02
9.750  22.250  4.4101e-02
9.750  22.500  4.4038e-02
9.750  22.750  4.4014e-02
9.750  23.000  4.4002e-02
9.750  23.250  4.3995e-02
9.750  23.500  4.3992e-02
9.750  23.750  4.3990e-02
9.750  24.000  4.3989e-02
10.000  17.000  4.9002e-03
10.000  17.250  4.6983e-03
10.000  17.500  4.8101e-03
10.000  17.750  5.2643e-03
10.000  18.000  6.0937e-03
10.000  18.250  7.2784e-03
10.000  18.500  9.0807e-03
10.000  18.750  1.2184e-02
10.000  19.000  1.7966e-02
10.000  19.250  2.8716e-02
10.000  19.500  4.2038e-02
10.000  19.750  4.7337e-02
10.000  20.000  5.0233e-02
10.000  20.250  5.4685e-02
10.000  20.500  5.7294e-02
10.000  20.750  5.4794e-02
10.000  21.000  5.1094e-02
10.000  21.250  4.8166e-02
10.000  21.500  4.6178e-02
10.000  21.750  4.5129e-02
10.000  22.000  4.4567e-02
10.000  22.250  4.4245e-02
10.000  22.500  4.4104e-02
10.000  22.750  4.4041e-02
10.000  23.000  4.4013e-02
10.000  23.250  4.4001e-02
10.000  23.500  4.3995e-02
10.000  23.750  4.3992e-02
10.000  24.000  4.3991e-02
10.250  17.000  4.9366e-03
10.250  17.250  4.5436e-03
10.250  17.500  4.4942e-03
10.250  17.750  4.8437e-03
10.250  18.000  5.6179e-03
10.250  18.250  6.6866e-03
10.250  18.500  8.1525e-03
10.250  18.750  1.0494e-02
10.250  19.000  1.4665e-02
10.250  19.250  2.1979e-02
10.250  19.500  3.3439e-02
10.250  19.750  4.3950e-02
10.250  20.000  4.7303e-02
10.250  20.250  5.0255e-02
10.250  20.500  5.4675e-02
10.250  20.750  5.7274e-02
10.250  21.000  5.4809e-02
10.250  21.250  5.1099e-02
10.250  21.500  4.8166e-02
10.250  21.750  4.6178e-02
10.250  22.000  4.5132e-02
10.250  22.250  4.4572e-02
10.250  22.500  4.4245e-02
10.250  22.750  4.4106e-02
10.250  23.000  4.4044e-02
10.250  23.250  4.4015e-02
10.250  23.500  4.4001e-02
10.250  23.750  4.3994e-02
10.250  24.000  4.3991e-02
10.500  17.000  5.1340e-03
10.500  17.250  4.5905e-03
10.500  17.500  4.3690e-03
10.500  17.750  4.5880e-03
10.500  18.000  5.2384e-03
10.500  18.250  6.2115e-03
10.500  18.500  7.4826e-03
10.500  18.750  9.2463e-03
10.500  19.000  1.1924e-02
10.500  19.250  1.6447e-02
10.500  19.500  2.4457e-02
10.500  19.750  3.3629e-02
10.500  20.000  4.1888e-02
10.500  20.250  4.7524e-02
10.500  20.500  5.0461e-02
10.500  20.750  5.4829e-02
10.500  21.000  5.7280e-02
10.500  21.250  5.4816e-02
10.500  21.500  5.1102e-02
10.500  21.750  4.8165e-02
10.500  22.000  4.6178e-02
10.500  22.250  4.5133e-02
10.500  22.500  4.4577e-02
10.500  22.750  4.4246e-02
10.500  23.000  4.4107e-02
10.500  23.250  4.4046e-02
10.500  23.500  4.4018e-02
10.500  23.750  4.4005e-02
10.500  24.000  4.3997e-02
10.750  17.000  5.4285e-03
10.750  17.250  4.7951e-03
10.750  17.500  4.4554e-03
10.750  17.750  4.5385e-03
10.750  18.000  4.9991e-03
10.750  18.250  5.7496e-03
10.750  18.500  6.7905e-03
10.750  18.750  8.0790e-03
10.750  19.000  9.8832e-03
10.750  19.250  1.2811e-02
10.750  19.500  1.7932e-02
10.750  19.750  2.6827e-02
10.750  20.000  3.5736e-02
10.750  20.250  4.2985e-02
10.750  20.500  4.7855e-02
10.750  20.750  5.0854e-02
10.750  21.000  5.5248e-02
10.750  21.250  5.7355e-02
10.750  21.500  5.4820e-02
10.750  21.750  5.1102e-02
10.750  22.000  4.8165e-02
10.750  22.250  4.6177e-02
10.750  22.500  4.5134e-02
10.750  22.750  4.4579e-02
10.750  23.000  4.4248e-02
10.750  23.250  4.4108e-02
10.750  23.500  4.4048e-02
10.750  23.750  4.4021e-02
10.750  24.000  4.4007e-02
11.000  17.000  5.7650e-03
11.000  17.250  5.0955e-03
11.000  17.500  4.6976e-03
11.000  17.750  4.6803e-03
11.000  18.000  4.9463e-03
11.000  18.250  5.4024e-03
11.000  18.500  6.0973e-03
11.000  18.750  7.0683e-03
11.000  19.000  8.3842e-03
11.000  19.250  1.0362e-02
11.000  19.500  1.3641e-02
11.000  19.750  1.9325e-02
11.000  20.000  2.8972e-02
11.000  20.250  3.9033e-02
11.000  20.500  4.5919e-02
11.000  20.750  4.8380e-02
11.000  21.000  5.1642e-02
11.000  21.250  5.6129e-02
11.000  21.500  5.7529e-02
11.000  21.750  5.4828e-02
11.000  22.000  5.1099e-02
11.000  22.250  4.8164e-02
11.000  22.500  4.6177e-02
11.000  22.750  4.5134e-02
11.000  23.000  4.4579e-02
11.000  23.250  4.4254e-02
11.000  23.500  4.4108e-02
11.000  23.750  4.4049e-02
11.000  24.000  4.4022e-02
11.250  17.000  6.0560e-03
11.250  17.250  5.4202e-03
11.250  17.500  5.0080e-03
11.250  17.750  4.9387e-03
11.250  18.000  5.0550e-03
11.250  18.250  5.2347e-03
11.250  18.500  5.5820e-03
11.250  18.750  6.2300e-03
11.250  19.000  7.2265e-03
11.250  19.250  8.5294e-03
11.250  19.500  1.0686e-02
11.250  19.750  1.4407e-02
11.250  20.000  2.0628e-02
11.250  20.250  3.0924e-02
11.250  20.500  4.2796e-02
11.250  20.750  4.6432e-02
11.250  21.000  4.9287e-02
11.250  21.250  5.2966e-02
11.250  21.500  5.7633e-02
11.250  21.750  5.7851e-02
11.250  22.000  5.4855e-02
11.250  22.250  5.1093e-02
11.250  22.500  4.8164e-02
11.250  22.750  4.6176e-02
11.250  23.000  4.5134e-02
11.250  23.250  4.4580e-02
11.250  23.500  4.4257e-02
11.250  23.750  4.4110e-02
11.250  24.000  4.4049e-02
11.500  17.000  6.2338e-03
11.500  17.250  5.7020e-03
11.500  17.500  5.3182e-03
11.500  17.750  5.2253e-03
11.500  18.000  5.2385e-03
11.500  18.250  5.2346e-03
11.500  18.500  4.7613e-03
11.500  18.750  4.0738e-03
11.500  19.000  3.6431e-03
11.500  19.250  3.9406e-03
11.500  19.500  5.4372e-03
11.500  19.750  8.6042e-03
11.500  20.000  1.3913e-02
11.500  20.250  2.1834e-02
11.500  20.500  3.2755e-02
11.500  20.750  4.3989e-02
11.500  21.000  4.7389e-02
11.500  21.250  5.0878e-02
11.500  21.500  5.5198e-02
11.500  21.750  5.9744e-02
11.500  22.000  5.8274e-02
11.500  22.250  5.4909e-02
11.500  22.500  5.1085e-02
11.500  22.750  4.8163e-02
11.500  23.000  4.6175e-02
11.500  23.250  4.5134e-02
11.500  23.500  4.4580e-02
11.500  23.750  4.4258e-02
11.500  24.000  4.4116e-02
11.750  17.000  6.1542e-03
11.750  17.250  5.8376e-03
11.750  17.500  5.5515e-03
11.750  17.750  5.4686e-03
11.750  18.000  5.4436e-03
11.750  18.250  5.3616e-03
11.750  18.500  4.9381e-03
11.750  18.750  4.3651e-03
11.750  19.000  3.9770e-03
11.750  19.250  4.1083e-03
11.750  19.500  5.0931e-03
11.750  19.750  7.2660e-03
11.750  20.000  1.0961e-02
11.750  20.250  1.6513e-02
11.750  20.500  2.4256e-02
11.750  20.750  3.4525e-02
11.750  21.000  4.5139e-02
11.750  21.250  4.8927e-02
11.750  21.500  5.3245e-02
11.750  21.750  5.8269e-02
11.750  22.000  6.1758e-02
11.750  22.250  5.8740e-02
11.750  22.500  5.4997e-02
11.750  22.750  5.1076e-02
11.750  23.000  4.8162e-02
11.750  23.250  4.6175e-02
11.750  23.500  4.5133e-02
11.750  23.750  4.4580e-02
11.750  24.000  4.4259e-02
12.000  17.000  5.7196e-03
12.000  17.250  5.6932e-03
12.000  17.500  5.5983e-03
12.000  17.750  5.6067e-03
12.000  18.000  5.6154e-03
12.000  18.250  5.5153e-03
12.000  18.500  6.1260e-03
12.000  18.750  7.5915e-03
12.000  19.000  9.8095e-03
12.000  19.250  1.2678e-02
12.000  19.500  1.6094e-02
12.000  19.750  1.9957e-02
12.000  20.000  2.4163e-02
12.000  20.250  2.8610e-02
12.000  20.500  3.3197e-02
12.000  20.750  3.7821e-02
12.000  21.000  4.2380e-02
12.000  21.250  4.6771e-02
12.000  21.500  5.1185e-02
12.000  21.750  5.6530e-02
12.000  22.000  6.1733e-02
12.000  22.250  6.3300e-02
12.000  22.500  5.9304e-02
12.000  22.750  5.5117e-02
12.000  23.000  5.1066e-02
12.000  23.250  4.8160e-02
12.000  23.500  4.6173e-02
12.000  23.750  4.5133e-02
12.000  24.000  4.4580e-02
12.250  17.000  4.9876e-03
12.250  17.250  5.2206e-03
12.250  17.500  5.3788e-03
12.250  17.750  5.5649e-03
12.250  18.000  5.6477e-03
12.250  18.250  5.5592e-03
12.250  18.500  5.3809e-03
12.250  18.750  5.2137e-03
12.250  19.000  5.1178e-03
12.250  19.250  5.1729e-03
12.250  19.500  5.5894e-03
12.250  19.750  6.6104e-03
12.250  20.000  8.4793e-03
12.250  20.250  1.1439e-02
12.250  20.500  1.5733e-02
12.250  20.750  2.1605e-02
12.250  21.000  2.9298e-02
12.250  21.250  3.9054e-02
12.250  21.500  4.9157e-02
12.250  21.750  5.4253e-02
12.250  22.000  6.0555e-02
12.250  22.250  6.5463e-02
12.250  22.500  6.4840e-02
12.250  22.750  5.9918e-02
12.250  23.000  5.5250e-02
12.250  23.250  5.1057e-02
12.250  23.500  4.8159e-02
12.250  23.750  4.6172e-02
12.250  24.000  4.5132e-02
12.500  17.000  4.2580e-03
12.500  17.250  4.6202e-03
12.500  17.500  4.9655e-03
12.500  17.750  5.2571e-03
12.500  18.000  5.3949e-03
12.500  18.250  5.3875e-03
12.500  18.500  5.2973e-03
12.500  18.750  5.1797e-03
12.500  19.000  5.0612e-03
12.500  19.250  4.9982e-03
12.500  19.500  5.1016e-03
12.500  19.750  5.5085e-03
12.500  20.000  6.3109e-03
12.500  20.250  7.5802e-03
12.500  20.500  9.5869e-03
12.500  20.750  1.2827e-02
12.500  21.000  1.8183e-02
12.500  21.250  2.7413e-02
12.500  21.500  4.2092e-02
12.500  21.750  5.2248e-02
12.500  22.000  5.8193e-02
12.500  22.250  6.5096e-02
12.500  22.500  6.8942e-02
12.500  22.750  6.6466e-02
12.500  23.000  6.0617e-02
12.500  23.250  5.5384e-02
12.500  23.500  5.1052e-02
12.500  23.750  4.8156e-02
12.500  24.000  4.6170e-02
12.750  17.000  3.7015e-03
12.750  17.250  4.0651e-03
12.750  17.500  4.4004e-03
12.750  17.750  4.6709e-03
12.750  18.000  4.8858e-03
12.750  18.250  5.0273e-03
12.750  18.500  5.0789e-03
12.750  18.750  5.0616e-03
12.750  19.000  4.9999e-03
12.750  19.250  4.9200e-03
12.750  19.500  4.8824e-03
12.750  19.750  5.0101e-03
12.750  20.000  5.4458e-03
12.750  20.250  6.3173e-03
12.750  20.500  7.6947e-03
12.750  20.750  9.8982e-03
12.750  21.000  1.3555e-02
12.750  21.250  1.9649e-02
12.750  21.500  2.9553e-02
12.750  21.750  4.6287e-02
12.750  22.000  5.6056e-02
12.750  22.250  6.2731e-02
12.750  22.500  7.0019e-02
12.750  22.750  7.2347e-02
12.750  23.000  6.7972e-02
12.750  23.250  6.1326e-02
12.750  23.500  5.5570e-02
12.750  23.750  5.1054e-02
12.750  24.000  4.8154e-02
13.000  17.000  3.2032e-03
13.000  17.250  3.5441e-03
13.000  17.500  3.8043e-03
13.000  17.750  4.0612e-03
13.000  18.000  4.3291e-03
13.000  18.250  4.5746e-03
13.000  18.500  4.7488e-03
13.000  18.750  4.8402e-03
13.000  19.000  4.8632e-03
13.000  19.250  4.8338e-03
13.000  19.500  4.7741e-03
13.000  19.750  4.7586e-03
13.000  20.000  4.9072e-03
13.000  20.250  5.3782e-03
13.000  20.500  6.3302e-03
13.000  20.750  7.8951e-03
13.000  21.000  1.0435e-02
13.000  21.250  1.4772e-02
13.000  21.500  2.1661e-02
13.000  21.750  3.2561e-02
13.000  22.000  5.0438e-02
13.000  22.250  6.0117e-02
13.000  22.500  6.7428e-02
13.000  22.750  7.4533e-02
13.000  23.000  7.5626e-02
13.000  23.250  6.9683e-02
13.000  23.500  6.2156e-02
13.000  23.750  5.5736e-02
13.000  24.000  5.1063e-02
13.250  17.000  2.9177e-03
13.250  17.250  3.1657e-03
13.250  17.500  3.3947e-03
13.250  17.750  3.5976e-03
13.250  18.000  3.8507e-03
13.250  18.250  4.1245e-03
13.250  18.500  4.3622e-03
13.250  18.750  4.5326e-03
13.250  19.000  4.6365e-03
13.250  19.250  4.6816e-03
13.250  19.500  4.6737e-03
13.250  19.750  4.6454e-03
13.250  20.000  4.6538e-03
13.250  20.250  4.8088e-03
13.250  20.500  5.2871e-03
13.250  20.750  6.3291e-03
13.250  21.000  8.0856e-03
13.250  21.250  1.1023e-02
13.250  21.500  1.5328e-02
13.250  21.750  2.2688e-02
13.250  22.000  3.5557e-02
13.250  22.250  5.5008e-02
13.250  22.500  6.4014e-02
13.250  22.750  7.1672e-02
13.250  23.000  7.8627e-02
13.250  23.250  7.9113e-02
13.250  23.500  7.1289e-02
13.250  23.750  6.2782e-02
13.250  24.000  5.5806e-02
13.500  17.000  2.7205e-03
13.500  17.250  2.9171e-03
13.500  17.500  3.0973e-03
13.500  17.750  3.2686e-03
13.500  18.000  3.4847e-03
13.500  18.250  3.7411e-03
13.500  18.500  3.9874e-03
13.500  18.750  4.1901e-03
13.500  19.000  4.3435e-03
13.500  19.250  4.4463e-03
13.500  19.500  4.4998e-03
13.500  19.750  4.5111e-03
13.500  20.000  4.5035e-03
13.500  20.250  4.5374e-03
13.500  20.500  4.7027e-03
13.500  20.750  5.1974e-03
13.500  21.000  6.2106e-03
13.500  21.250  8.1057e-03
13.500  21.500  1.0913e-02
13.500  21.750  1.5818e-02
13.500  22.000  2.4357e-02
13.500  22.250  3.8637e-02
13.500  22.500  5.9180e-02
13.500  22.750  6.8356e-02
13.500  23.000  7.6541e-02
13.500  23.250  8.3377e-02
13.500  23.500  8.2874e-02
13.500  23.750  7.2870e-02
13.500  24.000  6.3319e-02
13.750  17.000  2.5895e-03
13.750  17.250  2.7523e-03
13.750  17.500  2.8961e-03
13.750  17.750  3.0351e-03
13.750  18.000  3.2180e-03
13.750  18.250  3.4432e-03
13.750  18.500  3.6700e-03
13.750  18.750  3.8690e-03
13.750  19.000  4.0356e-03
13.750  19.250  4.1707e-03
13.750  19.500  4.2717e-03
13.750  19.750  4.3346e-03
13.750  20.000  4.3678e-03
13.750  20.250  4.3925e-03
13.750  20.500  4.4601e-03
13.750  20.750  4.6637e-03
13.750  21.000  5.1688e-03
13.750  21.250  6.1660e-03
13.750  21.500  7.9887e-03
13.750  21.750  1.1024e-02
13.750  22.000  1.6122e-02
13.750  22.250  2.5466e-02
13.750  22.500  4.3113e-02
13.750  22.750  6.4976e-02
13.750  23.000  7.4080e-02
13.750  23.250  8.2946e-02
13.750  23.500  8.9057e-02
13.750  23.750  8.6821e-02
13.750  24.000  7.4314e-02
14.000  17.000  2.4957e-03
14.000  17.250  2.6360e-03
14.000  17.500  2.7658e-03
14.000  17.750  2.8738e-03
14.000  18.000  3.0246e-03
14.000  18.250  3.2177e-03
14.000  18.500  3.4186e-03
14.000  18.750  3.5996e-03
14.000  19.000  3.7555e-03
14.000  19.250  3.8950e-03
14.000  19.500  4.0200e-03
14.000  19.750  4.1247e-03
14.000  20.000  4.2040e-03
14.000  20.250  4.2657e-03
14.000  20.500  4.3360e-03
14.000  20.750  4.4630e-03
14.000  21.000  4.7412e-03
14.000  21.250  5.3351e-03
14.000  21.500  6.4032e-03
14.000  21.750  8.3325e-03
14.000  22.000  1.1635e-02
14.000  22.250  1.7591e-02
14.000  22.500  2.8950e-02
14.000  22.750  5.1129e-02
14.000  23.000  7.3279e-02
14.000  23.250  8.3570e-02
14.000  23.500  9.2288e-02
14.000  23.750  9.6298e-02
14.000  24.000  9.0411e-02
