FeKa 1.78000A  relative to Inci 1215.00A scaled to 1215A.
Hden   Phi(H)  Eq_Width (A)
7.000  17.000  1.6847e-03
7.000  17.250  1.7260e-03
7.000  17.500  1.7676e-03
7.000  17.750  1.7849e-03
7.000  18.000  1.8160e-03
7.000  18.250  1.8345e-03
7.000  18.500  1.8490e-03
7.000  18.750  1.7686e-03
7.000  19.000  1.1788e-03
7.000  19.250  2.6123e-04
7.000  19.500  2.9218e-05
7.000  19.750  2.7160e-06
7.000  20.000  1.0000e-07
7.000  20.250  1.0000e-07
7.000  20.500  1.0000e-07
7.000  20.750  1.0000e-07
7.000  21.000  1.0000e-07
7.000  21.250  1.0000e-07
7.000  21.500  1.0000e-07
7.000  21.750  1.0000e-07
7.000  22.000  1.0000e-07
7.000  22.250  1.0000e-07
7.000  22.500  1.0000e-07
7.000  22.750  1.0000e-07
7.000  23.000  1.0000e-07
7.000  23.250  1.0000e-07
7.000  23.500  1.0000e-07
7.000  23.750  1.0000e-07
7.000  24.000  1.0000e-07
7.250  17.000  1.6212e-03
7.250  17.250  1.6858e-03
7.250  17.500  1.7264e-03
7.250  17.750  1.7677e-03
7.250  18.000  1.7849e-03
7.250  18.250  1.8161e-03
7.250  18.500  1.8346e-03
7.250  18.750  1.8490e-03
7.250  19.000  1.7686e-03
7.250  19.250  1.1789e-03
7.250  19.500  2.6123e-04
7.250  19.750  2.9218e-05
7.250  20.000  2.7160e-06
7.250  20.250  1.0000e-07
7.250  20.500  1.0000e-07
7.250  20.750  1.0000e-07
7.250  21.000  1.0000e-07
7.250  21.250  1.0000e-07
7.250  21.500  1.0000e-07
7.250  21.750  1.0000e-07
7.250  22.000  1.0000e-07
7.250  22.250  1.0000e-07
7.250  22.500  1.0000e-07
7.250  22.750  1.0000e-07
7.250  23.000  1.0000e-07
7.250  23.250  1.0000e-07
7.250  23.500  1.0000e-07
7.250  23.750  1.0000e-07
7.250  24.000  1.0000e-07
7.500  17.000  1.5813e-03
7.500  17.250  1.6225e-03
7.500  17.500  1.6867e-03
7.500  17.750  1.7268e-03
7.500  18.000  1.7678e-03
7.500  18.250  1.7850e-03
7.500  18.500  1.8163e-03
7.500  18.750  1.8347e-03
7.500  19.000  1.8490e-03
7.500  19.250  1.7686e-03
7.500  19.500  1.1791e-03
7.500  19.750  2.6123e-04
7.500  20.000  2.9218e-05
7.500  20.250  2.7160e-06
7.500  20.500  1.0000e-07
7.500  20.750  1.0000e-07
7.500  21.000  1.0000e-07
7.500  21.250  1.0000e-07
7.500  21.500  1.0000e-07
7.500  21.750  1.0000e-07
7.500  22.000  1.0000e-07
7.500  22.250  1.0000e-07
7.500  22.500  1.0000e-07
7.500  22.750  1.0000e-07
7.500  23.000  1.0000e-07
7.500  23.250  1.0000e-07
7.500  23.500  1.0000e-07
7.500  23.750  1.0000e-07
7.500  24.000  1.0000e-07
7.750  17.000  1.5535e-03
7.750  17.250  1.5826e-03
7.750  17.500  1.6237e-03
7.750  17.750  1.6874e-03
7.750  18.000  1.7272e-03
7.750  18.250  1.7679e-03
7.750  18.500  1.7851e-03
7.750  18.750  1.8165e-03
7.750  19.000  1.8347e-03
7.750  19.250  1.8491e-03
7.750  19.500  1.7686e-03
7.750  19.750  1.1793e-03
7.750  20.000  2.6132e-04
7.750  20.250  2.9218e-05
7.750  20.500  2.7160e-06
7.750  20.750  1.0000e-07
7.750  21.000  1.0000e-07
7.750  21.250  1.0000e-07
7.750  21.500  1.0000e-07
7.750  21.750  1.0000e-07
7.750  22.000  1.0000e-07
7.750  22.250  1.0000e-07
7.750  22.500  1.0000e-07
7.750  22.750  1.0000e-07
7.750  23.000  1.0000e-07
7.750  23.250  1.0000e-07
7.750  23.500  1.0000e-07
7.750  23.750  1.0000e-07
7.750  24.000  1.0000e-07
8.000  17.000  1.5346e-03
8.000  17.250  1.5541e-03
8.000  17.500  1.5832e-03
8.000  17.750  1.6242e-03
8.000  18.000  1.6869e-03
8.000  18.250  1.7273e-03
8.000  18.500  1.7680e-03
8.000  18.750  1.7853e-03
8.000  19.000  1.8168e-03
8.000  19.250  1.8347e-03
8.000  19.500  1.8491e-03
8.000  19.750  1.7686e-03
8.000  20.000  1.1794e-03
8.000  20.250  2.6132e-04
8.000  20.500  2.9218e-05
8.000  20.750  2.7160e-06
8.000  21.000  1.0000e-07
8.000  21.250  1.0000e-07
8.000  21.500  1.0000e-07
8.000  21.750  1.0000e-07
8.000  22.000  1.0000e-07
8.000  22.250  1.0000e-07
8.000  22.500  1.0000e-07
8.000  22.750  1.0000e-07
8.000  23.000  1.0000e-07
8.000  23.250  1.0000e-07
8.000  23.500  1.0000e-07
8.000  23.750  1.0000e-07
8.000  24.000  1.0000e-07
8.250  17.000  1.5227e-03
8.250  17.250  1.5352e-03
8.250  17.500  1.5551e-03
8.250  17.750  1.5851e-03
8.250  18.000  1.6258e-03
8.250  18.250  1.6877e-03
8.250  18.500  1.7277e-03
8.250  18.750  1.7681e-03
8.250  19.000  1.7855e-03
8.250  19.250  1.8171e-03
8.250  19.500  1.8348e-03
8.250  19.750  1.8491e-03
8.250  20.000  1.7687e-03
8.250  20.250  1.1797e-03
8.250  20.500  2.6140e-04
8.250  20.750  2.9218e-05
8.250  21.000  2.7160e-06
8.250  21.250  1.0000e-07
8.250  21.500  1.0000e-07
8.250  21.750  1.0000e-07
8.250  22.000  1.0000e-07
8.250  22.250  1.0000e-07
8.250  22.500  1.0000e-07
8.250  22.750  1.0000e-07
8.250  23.000  1.0000e-07
8.250  23.250  1.0000e-07
8.250  23.500  1.0000e-07
8.250  23.750  1.0000e-07
8.250  24.000  1.0000e-07
8.500  17.000  1.5151e-03
8.500  17.250  1.5232e-03
8.500  17.500  1.5361e-03
8.500  17.750  1.5567e-03
8.500  18.000  1.5876e-03
8.500  18.250  1.6283e-03
8.500  18.500  1.6887e-03
8.500  18.750  1.7280e-03
8.500  19.000  1.7683e-03
8.500  19.250  1.7858e-03
8.500  19.500  1.8176e-03
8.500  19.750  1.8348e-03
8.500  20.000  1.8491e-03
8.500  20.250  1.7687e-03
8.500  20.500  1.1799e-03
8.500  20.750  2.6140e-04
8.500  21.000  2.9218e-05
8.500  21.250  2.7160e-06
8.500  21.500  1.0000e-07
8.500  21.750  1.0000e-07
8.500  22.000  1.0000e-07
8.500  22.250  1.0000e-07
8.500  22.500  1.0000e-07
8.500  22.750  1.0000e-07
8.500  23.000  1.0000e-07
8.500  23.250  1.0000e-07
8.500  23.500  1.0000e-07
8.500  23.750  1.0000e-07
8.500  24.000  1.0000e-07
8.750  17.000  1.5101e-03
8.750  17.250  1.5155e-03
8.750  17.500  1.5239e-03
8.750  17.750  1.5374e-03
8.750  18.000  1.5593e-03
8.750  18.250  1.5917e-03
8.750  18.500  1.6312e-03
8.750  18.750  1.6895e-03
8.750  19.000  1.7282e-03
8.750  19.250  1.7685e-03
8.750  19.500  1.7861e-03
8.750  19.750  1.8181e-03
8.750  20.000  1.8348e-03
8.750  20.250  1.8491e-03
8.750  20.500  1.7688e-03
8.750  20.750  1.1802e-03
8.750  21.000  2.6148e-04
8.750  21.250  2.9218e-05
8.750  21.500  2.7160e-06
8.750  21.750  1.0000e-07
8.750  22.000  1.0000e-07
8.750  22.250  1.0000e-07
8.750  22.500  1.0000e-07
8.750  22.750  1.0000e-07
8.750  23.000  1.0000e-07
8.750  23.250  1.0000e-07
8.750  23.500  1.0000e-07
8.750  23.750  1.0000e-07
8.750  24.000  1.0000e-07
9.000  17.000  1.5068e-03
9.000  17.250  1.5104e-03
9.000  17.500  1.5160e-03
9.000  17.750  1.5251e-03
9.000  18.000  1.5398e-03
9.000  18.250  1.5639e-03
9.000  18.500  1.5974e-03
9.000  18.750  1.6369e-03
9.000  19.000  1.6897e-03
9.000  19.250  1.7284e-03
9.000  19.500  1.7686e-03
9.000  19.750  1.7864e-03
9.000  20.000  1.8188e-03
9.000  20.250  1.8348e-03
9.000  20.500  1.8491e-03
9.000  20.750  1.7689e-03
9.000  21.000  1.1807e-03
9.000  21.250  2.6148e-04
9.000  21.500  2.9218e-05
9.000  21.750  2.7160e-06
9.000  22.000  1.0000e-07
9.000  22.250  1.0000e-07
9.000  22.500  1.0000e-07
9.000  22.750  1.0000e-07
9.000  23.000  1.0000e-07
9.000  23.250  1.0000e-07
9.000  23.500  1.0000e-07
9.000  23.750  1.0000e-07
9.000  24.000  1.0000e-07
9.250  17.000  1.5045e-03
9.250  17.250  1.5070e-03
9.250  17.500  1.5109e-03
9.250  17.750  1.5171e-03
9.250  18.000  1.5273e-03
9.250  18.250  1.5443e-03
9.250  18.500  1.5703e-03
9.250  18.750  1.6050e-03
9.250  19.000  1.6463e-03
9.250  19.250  1.6898e-03
9.250  19.500  1.7285e-03
9.250  19.750  1.7688e-03
9.250  20.000  1.7867e-03
9.250  20.250  1.8194e-03
9.250  20.500  1.8350e-03
9.250  20.750  1.8491e-03
9.250  21.000  1.7690e-03
9.250  21.250  1.1811e-03
9.250  21.500  2.6140e-04
9.250  21.750  2.9218e-05
9.250  22.000  2.7160e-06
9.250  22.250  1.0000e-07
9.250  22.500  1.0000e-07
9.250  22.750  1.0000e-07
9.250  23.000  1.0000e-07
9.250  23.250  1.0000e-07
9.250  23.500  1.0000e-07
9.250  23.750  1.0000e-07
9.250  24.000  1.0000e-07
9.500  17.000  1.5030e-03
9.500  17.250  1.5047e-03
9.500  17.500  1.5074e-03
9.500  17.750  1.5119e-03
9.500  18.000  1.5193e-03
9.500  18.250  1.5313e-03
9.500  18.500  1.5500e-03
9.500  18.750  1.5780e-03
9.500  19.000  1.6133e-03
9.500  19.250  1.6560e-03
9.500  19.500  1.6896e-03
9.500  19.750  1.7284e-03
9.500  20.000  1.7690e-03
9.500  20.250  1.7872e-03
9.500  20.500  1.8202e-03
9.500  20.750  1.8349e-03
9.500  21.000  1.8492e-03
9.500  21.250  1.7692e-03
9.500  21.500  1.1804e-03
9.500  21.750  2.6132e-04
9.500  22.000  2.9218e-05
9.500  22.250  2.7160e-06
9.500  22.500  1.0000e-07
9.500  22.750  1.0000e-07
9.500  23.000  1.0000e-07
9.500  23.250  1.0000e-07
9.500  23.500  1.0000e-07
9.500  23.750  1.0000e-07
9.500  24.000  1.0000e-07
9.750  17.000  1.5018e-03
9.750  17.250  1.5030e-03
9.750  17.500  1.5050e-03
9.750  17.750  1.5083e-03
9.750  18.000  1.5140e-03
9.750  18.250  1.5226e-03
9.750  18.500  1.5362e-03
9.750  18.750  1.5567e-03
9.750  19.000  1.5864e-03
9.750  19.250  1.6228e-03
9.750  19.500  1.6679e-03
9.750  19.750  1.6895e-03
9.750  20.000  1.7281e-03
9.750  20.250  1.7691e-03
9.750  20.500  1.7875e-03
9.750  20.750  1.8208e-03
9.750  21.000  1.8350e-03
9.750  21.250  1.8491e-03
9.750  21.500  1.7691e-03
9.750  21.750  1.1806e-03
9.750  22.000  2.6140e-04
9.750  22.250  2.9218e-05
9.750  22.500  2.7160e-06
9.750  22.750  1.0000e-07
9.750  23.000  1.0000e-07
9.750  23.250  1.0000e-07
9.750  23.500  1.0000e-07
9.750  23.750  1.0000e-07
9.750  24.000  1.0000e-07
10.000  17.000  1.5011e-03
10.000  17.250  1.5019e-03
10.000  17.500  1.5033e-03
10.000  17.750  1.5058e-03
10.000  18.000  1.5100e-03
10.000  18.250  1.5165e-03
10.000  18.500  1.5265e-03
10.000  18.750  1.5413e-03
10.000  19.000  1.5636e-03
10.000  19.250  1.5942e-03
10.000  19.500  1.6326e-03
10.000  19.750  1.6683e-03
10.000  20.000  1.6892e-03
10.000  20.250  1.7278e-03
10.000  20.500  1.7692e-03
10.000  20.750  1.7879e-03
10.000  21.000  1.8216e-03
10.000  21.250  1.8351e-03
10.000  21.500  1.8491e-03
10.000  21.750  1.7686e-03
10.000  22.000  1.1802e-03
10.000  22.250  2.6148e-04
10.000  22.500  2.9218e-05
10.000  22.750  2.7160e-06
10.000  23.000  1.0000e-07
10.000  23.250  1.0000e-07
10.000  23.500  1.0000e-07
10.000  23.750  1.0000e-07
10.000  24.000  1.0000e-07
10.250  17.000  1.5007e-03
10.250  17.250  1.5012e-03
10.250  17.500  1.5021e-03
10.250  17.750  1.5039e-03
10.250  18.000  1.5072e-03
10.250  18.250  1.5120e-03
10.250  18.500  1.5193e-03
10.250  18.750  1.5301e-03
10.250  19.000  1.5463e-03
10.250  19.250  1.5696e-03
10.250  19.500  1.6013e-03
10.250  19.750  1.6425e-03
10.250  20.000  1.6681e-03
10.250  20.250  1.6890e-03
10.250  20.500  1.7276e-03
10.250  20.750  1.7693e-03
10.250  21.000  1.7882e-03
10.250  21.250  1.8225e-03
10.250  21.500  1.8351e-03
10.250  21.750  1.8492e-03
10.250  22.000  1.7682e-03
10.250  22.250  1.1795e-03
10.250  22.500  2.6156e-04
10.250  22.750  2.9218e-05
10.250  23.000  2.7160e-06
10.250  23.250  1.0000e-07
10.250  23.500  1.0000e-07
10.250  23.750  1.0000e-07
10.250  24.000  1.0000e-07
10.500  17.000  1.5003e-03
10.500  17.250  1.5007e-03
10.500  17.500  1.5013e-03
10.500  17.750  1.5026e-03
10.500  18.000  1.5049e-03
10.500  18.250  1.5088e-03
10.500  18.500  1.5140e-03
10.500  18.750  1.5217e-03
10.500  19.000  1.5333e-03
10.500  19.250  1.5504e-03
10.500  19.500  1.5747e-03
10.500  19.750  1.6081e-03
10.500  20.000  1.6514e-03
10.500  20.250  1.6681e-03
10.500  20.500  1.6890e-03
10.500  20.750  1.7277e-03
10.500  21.000  1.7694e-03
10.500  21.250  1.7886e-03
10.500  21.500  1.8232e-03
10.500  21.750  1.8352e-03
10.500  22.000  1.8492e-03
10.500  22.250  1.7675e-03
10.500  22.500  1.1783e-03
10.500  22.750  2.6173e-04
10.500  23.000  2.9218e-05
10.500  23.250  2.7160e-06
10.500  23.500  1.0000e-07
10.500  23.750  1.0000e-07
10.500  24.000  1.0000e-07
10.750  17.000  1.5001e-03
10.750  17.250  1.5003e-03
10.750  17.500  1.5008e-03
10.750  17.750  1.5017e-03
10.750  18.000  1.5033e-03
10.750  18.250  1.5060e-03
10.750  18.500  1.5099e-03
10.750  18.750  1.5156e-03
10.750  19.000  1.5239e-03
10.750  19.250  1.5360e-03
10.750  19.500  1.5538e-03
10.750  19.750  1.5797e-03
10.750  20.000  1.6155e-03
10.750  20.250  1.6565e-03
10.750  20.500  1.6681e-03
10.750  20.750  1.6892e-03
10.750  21.000  1.7286e-03
10.750  21.250  1.7695e-03
10.750  21.500  1.7890e-03
10.750  21.750  1.8240e-03
10.750  22.000  1.8356e-03
10.750  22.250  1.8492e-03
10.750  22.500  1.7665e-03
10.750  22.750  1.1763e-03
10.750  23.000  2.6181e-04
10.750  23.250  2.9218e-05
10.750  23.500  2.7160e-06
10.750  23.750  1.0000e-07
10.750  24.000  1.0000e-07
11.000  17.000  1.4999e-03
11.000  17.250  1.5001e-03
11.000  17.500  1.5004e-03
11.000  17.750  1.5011e-03
11.000  18.000  1.5021e-03
11.000  18.250  1.5039e-03
11.000  18.500  1.5066e-03
11.000  18.750  1.5110e-03
11.000  19.000  1.5169e-03
11.000  19.250  1.5255e-03
11.000  19.500  1.5382e-03
11.000  19.750  1.5570e-03
11.000  20.000  1.5844e-03
11.000  20.250  1.6226e-03
11.000  20.500  1.6566e-03
11.000  20.750  1.6682e-03
11.000  21.000  1.6902e-03
11.000  21.250  1.7312e-03
11.000  21.500  1.7698e-03
11.000  21.750  1.7894e-03
11.000  22.000  1.8248e-03
11.000  22.250  1.8356e-03
11.000  22.500  1.8491e-03
11.000  22.750  1.7653e-03
11.000  23.000  1.1737e-03
11.000  23.250  2.6206e-04
11.000  23.500  2.9218e-05
11.000  23.750  2.7160e-06
11.000  24.000  1.0000e-07
11.250  17.000  1.4998e-03
11.250  17.250  1.4999e-03
11.250  17.500  1.5002e-03
11.250  17.750  1.5007e-03
11.250  18.000  1.5014e-03
11.250  18.250  1.5025e-03
11.250  18.500  1.5044e-03
11.250  18.750  1.5073e-03
11.250  19.000  1.5119e-03
11.250  19.250  1.5179e-03
11.250  19.500  1.5268e-03
11.250  19.750  1.5402e-03
11.250  20.000  1.5599e-03
11.250  20.250  1.5888e-03
11.250  20.500  1.6297e-03
11.250  20.750  1.6568e-03
11.250  21.000  1.6690e-03
11.250  21.250  1.6927e-03
11.250  21.500  1.7366e-03
11.250  21.750  1.7701e-03
11.250  22.000  1.7899e-03
11.250  22.250  1.8255e-03
11.250  22.500  1.8357e-03
11.250  22.750  1.8491e-03
11.250  23.000  1.7639e-03
11.250  23.250  1.1706e-03
11.250  23.500  2.6230e-04
11.250  23.750  2.9300e-05
11.250  24.000  2.7160e-06
11.500  17.000  1.4997e-03
11.500  17.250  1.4998e-03
11.500  17.500  1.5000e-03
11.500  17.750  1.5003e-03
11.500  18.000  1.5008e-03
11.500  18.250  1.5016e-03
11.500  18.500  1.5028e-03
11.500  18.750  1.5047e-03
11.500  19.000  1.5079e-03
11.500  19.250  1.5125e-03
11.500  19.500  1.5188e-03
11.500  19.750  1.5281e-03
11.500  20.000  1.5420e-03
11.500  20.250  1.5628e-03
11.500  20.500  1.5932e-03
11.500  20.750  1.6365e-03
11.500  21.000  1.6574e-03
11.500  21.250  1.6709e-03
11.500  21.500  1.6975e-03
11.500  21.750  1.7449e-03
11.500  22.000  1.7706e-03
11.500  22.250  1.7904e-03
11.500  22.500  1.8262e-03
11.500  22.750  1.8360e-03
11.500  23.000  1.8491e-03
11.500  23.250  1.7620e-03
11.500  23.500  1.1671e-03
11.500  23.750  2.6247e-04
11.500  24.000  2.9300e-05
11.750  17.000  1.4996e-03
11.750  17.250  1.4998e-03
11.750  17.500  1.4999e-03
11.750  17.750  1.5002e-03
11.750  18.000  1.5004e-03
11.750  18.250  1.5009e-03
11.750  18.500  1.5018e-03
11.750  18.750  1.5031e-03
11.750  19.000  1.5051e-03
11.750  19.250  1.5083e-03
11.750  19.500  1.5131e-03
11.750  19.750  1.5195e-03
11.750  20.000  1.5291e-03
11.750  20.250  1.5437e-03
11.750  20.500  1.5657e-03
11.750  20.750  1.5980e-03
11.750  21.000  1.6444e-03
11.750  21.250  1.6586e-03
11.750  21.500  1.6742e-03
11.750  21.750  1.7043e-03
11.750  22.000  1.7508e-03
11.750  22.250  1.7711e-03
11.750  22.500  1.7909e-03
11.750  22.750  1.8269e-03
11.750  23.000  1.8361e-03
11.750  23.250  1.8491e-03
11.750  23.500  1.7598e-03
11.750  23.750  1.1629e-03
11.750  24.000  2.6263e-04
12.000  17.000  1.4996e-03
12.000  17.250  1.4996e-03
12.000  17.500  1.4998e-03
12.000  17.750  1.5000e-03
12.000  18.000  1.5002e-03
12.000  18.250  1.5005e-03
12.000  18.500  1.5011e-03
12.000  18.750  1.5020e-03
12.000  19.000  1.5033e-03
12.000  19.250  1.5053e-03
12.000  19.500  1.5087e-03
12.000  19.750  1.5136e-03
12.000  20.000  1.5202e-03
12.000  20.250  1.5302e-03
12.000  20.500  1.5454e-03
12.000  20.750  1.5687e-03
12.000  21.000  1.6033e-03
12.000  21.250  1.6468e-03
12.000  21.500  1.6607e-03
12.000  21.750  1.6786e-03
12.000  22.000  1.7119e-03
12.000  22.250  1.7526e-03
12.000  22.500  1.7718e-03
12.000  22.750  1.7918e-03
12.000  23.000  1.8276e-03
12.000  23.250  1.8363e-03
12.000  23.500  1.8490e-03
12.000  23.750  1.7573e-03
12.000  24.000  1.1584e-03
12.250  17.000  1.4998e-03
12.250  17.250  1.4997e-03
12.250  17.500  1.4997e-03
12.250  17.750  1.4998e-03
12.250  18.000  1.4999e-03
12.250  18.250  1.5002e-03
12.250  18.500  1.5007e-03
12.250  18.750  1.5012e-03
12.250  19.000  1.5021e-03
12.250  19.250  1.5035e-03
12.250  19.500  1.5056e-03
12.250  19.750  1.5090e-03
12.250  20.000  1.5140e-03
12.250  20.250  1.5208e-03
12.250  20.500  1.5312e-03
12.250  20.750  1.5472e-03
12.250  21.000  1.5723e-03
12.250  21.250  1.6095e-03
12.250  21.500  1.6499e-03
12.250  21.750  1.6633e-03
12.250  22.000  1.6836e-03
12.250  22.250  1.7198e-03
12.250  22.500  1.7544e-03
12.250  22.750  1.7726e-03
12.250  23.000  1.7926e-03
12.250  23.250  1.8284e-03
12.250  23.500  1.8365e-03
12.250  23.750  1.8489e-03
12.250  24.000  1.7543e-03
12.500  17.000  1.2127e-03
12.500  17.250  1.4998e-03
12.500  17.500  1.4998e-03
12.500  17.750  1.4998e-03
12.500  18.000  1.4998e-03
12.500  18.250  1.5000e-03
12.500  18.500  1.5002e-03
12.500  18.750  1.5007e-03
12.500  19.000  1.5013e-03
12.500  19.250  1.5022e-03
12.500  19.500  1.5036e-03
12.500  19.750  1.5058e-03
12.500  20.000  1.5092e-03
12.500  20.250  1.5144e-03
12.500  20.500  1.5214e-03
12.500  20.750  1.5323e-03
12.500  21.000  1.5495e-03
12.500  21.250  1.5765e-03
12.500  21.500  1.6147e-03
12.500  21.750  1.6522e-03
12.500  22.000  1.6663e-03
12.500  22.250  1.6889e-03
12.500  22.500  1.7269e-03
12.500  22.750  1.7562e-03
12.500  23.000  1.7734e-03
12.500  23.250  1.7937e-03
12.500  23.500  1.8292e-03
12.500  23.750  1.8369e-03
12.500  24.000  1.8488e-03
12.750  17.000  7.1868e-04
12.750  17.250  1.3195e-03
12.750  17.500  1.4998e-03
12.750  17.750  1.4999e-03
12.750  18.000  1.4999e-03
12.750  18.250  1.5000e-03
12.750  18.500  1.5002e-03
12.750  18.750  1.5003e-03
12.750  19.000  1.5007e-03
12.750  19.250  1.5013e-03
12.750  19.500  1.5023e-03
12.750  19.750  1.5037e-03
12.750  20.000  1.5059e-03
12.750  20.250  1.5095e-03
12.750  20.500  1.5147e-03
12.750  20.750  1.5221e-03
12.750  21.000  1.5337e-03
12.750  21.250  1.5524e-03
12.750  21.500  1.5802e-03
12.750  21.750  1.6219e-03
12.750  22.000  1.6547e-03
12.750  22.250  1.6692e-03
12.750  22.500  1.6939e-03
12.750  22.750  1.7328e-03
12.750  23.000  1.7578e-03
12.750  23.250  1.7743e-03
12.750  23.500  1.7950e-03
12.750  23.750  1.8303e-03
12.750  24.000  1.8372e-03
13.000  17.000  1.2856e-04
13.000  17.250  2.9802e-04
13.000  17.500  1.0204e-03
13.000  17.750  1.4792e-03
13.000  18.000  1.4999e-03
13.000  18.250  1.5000e-03
13.000  18.500  1.5001e-03
13.000  18.750  1.5002e-03
13.000  19.000  1.5004e-03
13.000  19.250  1.5007e-03
13.000  19.500  1.5014e-03
13.000  19.750  1.5024e-03
13.000  20.000  1.5038e-03
13.000  20.250  1.5060e-03
13.000  20.500  1.5096e-03
13.000  20.750  1.5152e-03
13.000  21.000  1.5230e-03
13.000  21.250  1.5356e-03
13.000  21.500  1.5551e-03
13.000  21.750  1.5860e-03
13.000  22.000  1.6290e-03
13.000  22.250  1.6568e-03
13.000  22.500  1.6717e-03
13.000  22.750  1.6976e-03
13.000  23.000  1.7359e-03
13.000  23.250  1.7593e-03
13.000  23.500  1.7754e-03
13.000  23.750  1.7965e-03
13.000  24.000  1.8314e-03
13.250  17.000  7.7366e-05
13.250  17.250  1.4551e-04
13.250  17.500  3.5325e-04
13.250  17.750  7.9490e-04
13.250  18.000  1.1877e-03
13.250  18.250  1.4999e-03
13.250  18.500  1.5000e-03
13.250  18.750  1.5001e-03
13.250  19.000  1.5002e-03
13.250  19.250  1.5005e-03
13.250  19.500  1.5008e-03
13.250  19.750  1.5014e-03
13.250  20.000  1.5025e-03
13.250  20.250  1.5039e-03
13.250  20.500  1.5063e-03
13.250  20.750  1.5099e-03
13.250  21.000  1.5158e-03
13.250  21.250  1.5241e-03
13.250  21.500  1.5372e-03
13.250  21.750  1.5590e-03
13.250  22.000  1.5925e-03
13.250  22.250  1.6356e-03
13.250  22.500  1.6576e-03
13.250  22.750  1.6729e-03
13.250  23.000  1.6991e-03
13.250  23.250  1.7369e-03
13.250  23.500  1.7607e-03
13.250  23.750  1.7764e-03
13.250  24.000  1.7981e-03
13.500  17.000  4.6584e-05
13.500  17.250  9.1852e-05
13.500  17.500  2.0510e-04
13.500  17.750  4.4881e-04
13.500  18.000  9.2864e-04
13.500  18.250  1.2513e-03
13.500  18.500  1.4998e-03
13.500  18.750  1.4999e-03
13.500  19.000  1.5001e-03
13.500  19.250  1.5003e-03
13.500  19.500  1.5006e-03
13.500  19.750  1.5009e-03
13.500  20.000  1.5015e-03
13.500  20.250  1.5024e-03
13.500  20.500  1.5040e-03
13.500  20.750  1.5063e-03
13.500  21.000  1.5104e-03
13.500  21.250  1.5165e-03
13.500  21.500  1.5252e-03
13.500  21.750  1.5398e-03
13.500  22.000  1.5640e-03
13.500  22.250  1.6003e-03
13.500  22.500  1.6402e-03
13.500  22.750  1.6576e-03
13.500  23.000  1.6723e-03
13.500  23.250  1.6989e-03
13.500  23.500  1.7376e-03
13.500  23.750  1.7621e-03
13.500  24.000  1.7774e-03
13.750  17.000  2.8560e-05
13.750  17.250  5.7531e-05
13.750  17.500  1.2428e-04
13.750  17.750  2.4239e-04
13.750  18.000  5.6025e-04
13.750  18.250  1.0533e-03
13.750  18.500  1.2776e-03
13.750  18.750  1.4998e-03
13.750  19.000  1.4999e-03
13.750  19.250  1.5001e-03
13.750  19.500  1.5003e-03
13.750  19.750  1.5007e-03
13.750  20.000  1.5010e-03
13.750  20.250  1.5016e-03
13.750  20.500  1.5025e-03
13.750  20.750  1.5040e-03
13.750  21.000  1.5065e-03
13.750  21.250  1.5108e-03
13.750  21.500  1.5173e-03
13.750  21.750  1.5272e-03
13.750  22.000  1.5431e-03
13.750  22.250  1.5710e-03
13.750  22.500  1.6095e-03
13.750  22.750  1.6438e-03
13.750  23.000  1.6574e-03
13.750  23.250  1.6725e-03
13.750  23.500  1.6987e-03
13.750  23.750  1.7382e-03
13.750  24.000  1.7633e-03
14.000  17.000  1.7366e-05
14.000  17.250  3.4074e-05
14.000  17.500  7.5967e-05
14.000  17.750  1.5103e-04
14.000  18.000  2.9992e-04
14.000  18.250  6.6148e-04
14.000  18.500  1.1153e-03
14.000  18.750  1.4012e-03
14.000  19.000  1.4998e-03
14.000  19.250  1.4999e-03
14.000  19.500  1.5001e-03
14.000  19.750  1.5003e-03
14.000  20.000  1.5007e-03
14.000  20.250  1.5011e-03
14.000  20.500  1.5016e-03
14.000  20.750  1.5026e-03
14.000  21.000  1.5041e-03
14.000  21.250  1.5067e-03
14.000  21.500  1.5113e-03
14.000  21.750  1.5189e-03
14.000  22.000  1.5306e-03
14.000  22.250  1.5497e-03
14.000  22.500  1.5795e-03
14.000  22.750  1.6193e-03
14.000  23.000  1.6463e-03
14.000  23.250  1.6580e-03
14.000  23.500  1.6733e-03
14.000  23.750  1.7011e-03
14.000  24.000  1.7389e-03
