InwT 575.146A  relative to Inci 1215.00A scaled to 1215A.
Hden   Phi(H)  Eq_Width (A)
7.000  17.000  5.8524e-02
7.000  17.250  8.4205e-02
7.000  17.500  9.5060e-02
7.000  17.750  7.7950e-02
7.000  18.000  6.0420e-02
7.000  18.250  5.0171e-02
7.000  18.500  4.4965e-02
7.000  18.750  4.3191e-02
7.000  19.000  4.2338e-02
7.000  19.250  4.1868e-02
7.000  19.500  4.1605e-02
7.000  19.750  4.1469e-02
7.000  20.000  4.1427e-02
7.000  20.250  4.1442e-02
7.000  20.500  4.1481e-02
7.000  20.750  4.1508e-02
7.000  21.000  4.1505e-02
7.000  21.250  4.1504e-02
7.000  21.500  4.1503e-02
7.000  21.750  4.1503e-02
7.000  22.000  4.1503e-02
7.000  22.250  4.1503e-02
7.000  22.500  4.1504e-02
7.000  22.750  4.1504e-02
7.000  23.000  4.1504e-02
7.000  23.250  4.1504e-02
7.000  23.500  4.1504e-02
7.000  23.750  4.1504e-02
7.000  24.000  4.1504e-02
7.250  17.000  4.0547e-02
7.250  17.250  5.8245e-02
7.250  17.500  8.3858e-02
7.250  17.750  9.4629e-02
7.250  18.000  7.7629e-02
7.250  18.250  6.0237e-02
7.250  18.500  5.0088e-02
7.250  18.750  4.4935e-02
7.250  19.000  4.3179e-02
7.250  19.250  4.2333e-02
7.250  19.500  4.1868e-02
7.250  19.750  4.1667e-02
7.250  20.000  4.1565e-02
7.250  20.250  4.1515e-02
7.250  20.500  4.1500e-02
7.250  20.750  4.1503e-02
7.250  21.000  4.1508e-02
7.250  21.250  4.1505e-02
7.250  21.500  4.1504e-02
7.250  21.750  4.1503e-02
7.250  22.000  4.1502e-02
7.250  22.250  4.1502e-02
7.250  22.500  4.1502e-02
7.250  22.750  4.1503e-02
7.250  23.000  4.1503e-02
7.250  23.250  4.1503e-02
7.250  23.500  4.1503e-02
7.250  23.750  4.1503e-02
7.250  24.000  4.1503e-02
7.500  17.000  2.9438e-02
7.500  17.250  4.0475e-02
7.500  17.500  5.8178e-02
7.500  17.750  8.3807e-02
7.500  18.000  9.4454e-02
7.500  18.250  7.7455e-02
7.500  18.500  6.0116e-02
7.500  18.750  5.0037e-02
7.500  19.000  4.4915e-02
7.500  19.250  4.3171e-02
7.500  19.500  4.2330e-02
7.500  19.750  4.1867e-02
7.500  20.000  4.1589e-02
7.500  20.250  4.1422e-02
7.500  20.500  4.1343e-02
7.500  20.750  4.1331e-02
7.500  21.000  4.1363e-02
7.500  21.250  4.1417e-02
7.500  21.500  4.1471e-02
7.500  21.750  4.1503e-02
7.500  22.000  4.1503e-02
7.500  22.250  4.1502e-02
7.500  22.500  4.1502e-02
7.500  22.750  4.1502e-02
7.500  23.000  4.1502e-02
7.500  23.250  4.1502e-02
7.500  23.500  4.1504e-02
7.500  23.750  4.1502e-02
7.500  24.000  4.1502e-02
7.750  17.000  2.2133e-02
7.750  17.250  2.9504e-02
7.750  17.500  4.0486e-02
7.750  17.750  5.8207e-02
7.750  18.000  8.3897e-02
7.750  18.250  9.4443e-02
7.750  18.500  7.7376e-02
7.750  18.750  6.0035e-02
7.750  19.000  5.0006e-02
7.750  19.250  4.4904e-02
7.750  19.500  4.3166e-02
7.750  19.750  4.2329e-02
7.750  20.000  4.1867e-02
7.750  20.250  4.1666e-02
7.750  20.500  4.1579e-02
7.750  20.750  4.1540e-02
7.750  21.000  4.1522e-02
7.750  21.250  4.1512e-02
7.750  21.500  4.1507e-02
7.750  21.750  4.1505e-02
7.750  22.000  4.1503e-02
7.750  22.250  4.1503e-02
7.750  22.500  4.1502e-02
7.750  22.750  4.1502e-02
7.750  23.000  4.1502e-02
7.750  23.250  4.1502e-02
7.750  23.500  4.1502e-02
7.750  23.750  4.1502e-02
7.750  24.000  4.1502e-02
8.000  17.000  1.6879e-02
8.000  17.250  2.2114e-02
8.000  17.500  2.9423e-02
8.000  17.750  4.0384e-02
8.000  18.000  5.8121e-02
8.000  18.250  8.3952e-02
8.000  18.500  9.4539e-02
8.000  18.750  7.7354e-02
8.000  19.000  5.9977e-02
8.000  19.250  4.9988e-02
8.000  19.500  4.4897e-02
8.000  19.750  4.3163e-02
8.000  20.000  4.2328e-02
8.000  20.250  4.1866e-02
8.000  20.500  4.1666e-02
8.000  20.750  4.1579e-02
8.000  21.000  4.1540e-02
8.000  21.250  4.1522e-02
8.000  21.500  4.1512e-02
8.000  21.750  4.1507e-02
8.000  22.000  4.1505e-02
8.000  22.250  4.1503e-02
8.000  22.500  4.1503e-02
8.000  22.750  4.1502e-02
8.000  23.000  4.1502e-02
8.000  23.250  4.1503e-02
8.000  23.500  4.1502e-02
8.000  23.750  4.1502e-02
8.000  24.000  4.1502e-02
8.250  17.000  1.3127e-02
8.250  17.250  1.6958e-02
8.250  17.500  2.2176e-02
8.250  17.750  2.9456e-02
8.250  18.000  4.0399e-02
8.250  18.250  5.8161e-02
8.250  18.500  8.4106e-02
8.250  18.750  9.4712e-02
8.250  19.000  7.7371e-02
8.250  19.250  5.9931e-02
8.250  19.500  4.9979e-02
8.250  19.750  4.4893e-02
8.250  20.000  4.3162e-02
8.250  20.250  4.2327e-02
8.250  20.500  4.1866e-02
8.250  20.750  4.1666e-02
8.250  21.000  4.1579e-02
8.250  21.250  4.1540e-02
8.250  21.500  4.1522e-02
8.250  21.750  4.1512e-02
8.250  22.000  4.1507e-02
8.250  22.250  4.1505e-02
8.250  22.500  4.1503e-02
8.250  22.750  4.1503e-02
8.250  23.000  4.1502e-02
8.250  23.250  4.1502e-02
8.250  23.500  4.1502e-02
8.250  23.750  4.1502e-02
8.250  24.000  4.1502e-02
8.500  17.000  1.0407e-02
8.500  17.250  1.3181e-02
8.500  17.500  1.7004e-02
8.500  17.750  2.2205e-02
8.500  18.000  2.9477e-02
8.500  18.250  4.0387e-02
8.500  18.500  5.8192e-02
8.500  18.750  8.4257e-02
8.500  19.000  9.4924e-02
8.500  19.250  7.7409e-02
8.500  19.500  5.9891e-02
8.500  19.750  4.9973e-02
8.500  20.000  4.4892e-02
8.500  20.250  4.3161e-02
8.500  20.500  4.2327e-02
8.500  20.750  4.1866e-02
8.500  21.000  4.1666e-02
8.500  21.250  4.1579e-02
8.500  21.500  4.1540e-02
8.500  21.750  4.1522e-02
8.500  22.000  4.1512e-02
8.500  22.250  4.1507e-02
8.500  22.500  4.1505e-02
8.500  22.750  4.1503e-02
8.500  23.000  4.1502e-02
8.500  23.250  4.1502e-02
8.500  23.500  4.1502e-02
8.500  23.750  4.1502e-02
8.500  24.000  4.1502e-02
8.750  17.000  8.4067e-03
8.750  17.250  1.0461e-02
8.750  17.500  1.3226e-02
8.750  17.750  1.7036e-02
8.750  18.000  2.2232e-02
8.750  18.250  2.9494e-02
8.750  18.500  4.0398e-02
8.750  18.750  5.8263e-02
8.750  19.000  8.4418e-02
8.750  19.250  9.5157e-02
8.750  19.500  7.7462e-02
8.750  19.750  5.9852e-02
8.750  20.000  4.9971e-02
8.750  20.250  4.4892e-02
8.750  20.500  4.3162e-02
8.750  20.750  4.2327e-02
8.750  21.000  4.1866e-02
8.750  21.250  4.1666e-02
8.750  21.500  4.1579e-02
8.750  21.750  4.1540e-02
8.750  22.000  4.1522e-02
8.750  22.250  4.1512e-02
8.750  22.500  4.1507e-02
8.750  22.750  4.1505e-02
8.750  23.000  4.1503e-02
8.750  23.250  4.1503e-02
8.750  23.500  4.1502e-02
8.750  23.750  4.1502e-02
8.750  24.000  4.1502e-02
9.000  17.000  6.7872e-03
9.000  17.250  8.5059e-03
9.000  17.500  1.0547e-02
9.000  17.750  1.3296e-02
9.000  18.000  1.7097e-02
9.000  18.250  2.2283e-02
9.000  18.500  2.9536e-02
9.000  18.750  4.0481e-02
9.000  19.000  5.8463e-02
9.000  19.250  8.4561e-02
9.000  19.500  9.5383e-02
9.000  19.750  7.7525e-02
9.000  20.000  5.9817e-02
9.000  20.250  4.9971e-02
9.000  20.500  4.4894e-02
9.000  20.750  4.3162e-02
9.000  21.000  4.2327e-02
9.000  21.250  4.1866e-02
9.000  21.500  4.1666e-02
9.000  21.750  4.1579e-02
9.000  22.000  4.1540e-02
9.000  22.250  4.1522e-02
9.000  22.500  4.1512e-02
9.000  22.750  4.1507e-02
9.000  23.000  4.1505e-02
9.000  23.250  4.1503e-02
9.000  23.500  4.1503e-02
9.000  23.750  4.1502e-02
9.000  24.000  4.1502e-02
9.250  17.000  5.3196e-03
9.250  17.250  6.9427e-03
9.250  17.500  8.6816e-03
9.250  17.750  1.0718e-02
9.250  18.000  1.3439e-02
9.250  18.250  1.7214e-02
9.250  18.500  2.2398e-02
9.250  18.750  2.9714e-02
9.250  19.000  4.0824e-02
9.250  19.250  5.8995e-02
9.250  19.500  8.4742e-02
9.250  19.750  9.5589e-02
9.250  20.000  7.7584e-02
9.250  20.250  5.9785e-02
9.250  20.500  4.9973e-02
9.250  20.750  4.4896e-02
9.250  21.000  4.3163e-02
9.250  21.250  4.2328e-02
9.250  21.500  4.1858e-02
9.250  21.750  4.1654e-02
9.250  22.000  4.1566e-02
9.250  22.250  4.1528e-02
9.250  22.500  4.1521e-02
9.250  22.750  4.1512e-02
9.250  23.000  4.1507e-02
9.250  23.250  4.1505e-02
9.250  23.500  4.1503e-02
9.250  23.750  4.1503e-02
9.250  24.000  4.1502e-02
9.500  17.000  3.9141e-03
9.500  17.250  5.5119e-03
9.500  17.500  7.2107e-03
9.500  17.750  8.9787e-03
9.500  18.000  1.0993e-02
9.500  18.250  1.3679e-02
9.500  18.500  1.7455e-02
9.500  18.750  2.2730e-02
9.500  19.000  3.0218e-02
9.500  19.250  4.1709e-02
9.500  19.500  6.0166e-02
9.500  19.750  8.5115e-02
9.500  20.000  9.5768e-02
9.500  20.250  7.7637e-02
9.500  20.500  5.9760e-02
9.500  20.750  4.9974e-02
9.500  21.000  4.4884e-02
9.500  21.250  4.3151e-02
9.500  21.500  4.2315e-02
9.500  21.750  4.1850e-02
9.500  22.000  4.1644e-02
9.500  22.250  4.1558e-02
9.500  22.500  4.1518e-02
9.500  22.750  4.1499e-02
9.500  23.000  4.1490e-02
9.500  23.250  4.1485e-02
9.500  23.500  4.1488e-02
9.500  23.750  4.1487e-02
9.500  24.000  4.1486e-02
9.750  17.000  2.6036e-03
9.750  17.250  4.0817e-03
9.750  17.500  5.8119e-03
9.750  17.750  7.6078e-03
9.750  18.000  9.3920e-03
9.750  18.250  1.1398e-02
9.750  18.500  1.4121e-02
9.750  18.750  1.8013e-02
9.750  19.000  2.3528e-02
9.750  19.250  3.1428e-02
9.750  19.500  4.3592e-02
9.750  19.750  6.2050e-02
9.750  20.000  8.5868e-02
9.750  20.250  9.5951e-02
9.750  20.500  7.7693e-02
9.750  20.750  5.9747e-02
9.750  21.000  4.9982e-02
9.750  21.250  4.4896e-02
9.750  21.500  4.3155e-02
9.750  21.750  4.2316e-02
9.750  22.000  4.1852e-02
9.750  22.250  4.1647e-02
9.750  22.500  4.1557e-02
9.750  22.750  4.1519e-02
9.750  23.000  4.1500e-02
9.750  23.250  4.1491e-02
9.750  23.500  4.1485e-02
9.750  23.750  4.1482e-02
9.750  24.000  4.1481e-02
10.000  17.000  1.4589e-03
10.000  17.250  2.7103e-03
10.000  17.500  4.3379e-03
10.000  17.750  6.2120e-03
10.000  18.000  8.1053e-03
10.000  18.250  9.9526e-03
10.000  18.500  1.2053e-02
10.000  18.750  1.4956e-02
10.000  19.000  1.9151e-02
10.000  19.250  2.5077e-02
10.000  19.500  3.3604e-02
10.000  19.750  4.6304e-02
10.000  20.000  6.4606e-02
10.000  20.250  8.7288e-02
10.000  20.500  9.6292e-02
10.000  20.750  7.7767e-02
10.000  21.000  5.9747e-02
10.000  21.250  4.9993e-02
10.000  21.500  4.4903e-02
10.000  21.750  4.3163e-02
10.000  22.000  4.2318e-02
10.000  22.250  4.1853e-02
10.000  22.500  4.1650e-02
10.000  22.750  4.1559e-02
10.000  23.000  4.1518e-02
10.000  23.250  4.1500e-02
10.000  23.500  4.1491e-02
10.000  23.750  4.1486e-02
10.000  24.000  4.1483e-02
10.250  17.000  7.7383e-04
10.250  17.250  1.5178e-03
10.250  17.500  2.8834e-03
10.250  17.750  4.6611e-03
10.250  18.000  6.7021e-03
10.250  18.250  8.7727e-03
10.250  18.500  1.0820e-02
10.250  18.750  1.3201e-02
10.250  19.000  1.6434e-02
10.250  19.250  2.1052e-02
10.250  19.500  2.7565e-02
10.250  19.750  3.7008e-02
10.250  20.000  5.0403e-02
10.250  20.250  6.7948e-02
10.250  20.500  8.9328e-02
10.250  20.750  9.6830e-02
10.250  21.000  7.7870e-02
10.250  21.250  5.9772e-02
10.250  21.500  5.0008e-02
10.250  21.750  4.4908e-02
10.250  22.000  4.3169e-02
10.250  22.250  4.2323e-02
10.250  22.500  4.1854e-02
10.250  22.750  4.1652e-02
10.250  23.000  4.1562e-02
10.250  23.250  4.1520e-02
10.250  23.500  4.1500e-02
10.250  23.750  4.1490e-02
10.250  24.000  4.1485e-02
10.500  17.000  4.1416e-04
10.500  17.250  7.9967e-04
10.500  17.500  1.6138e-03
10.500  17.750  3.1108e-03
10.500  18.000  5.0861e-03
10.500  18.250  7.3909e-03
10.500  18.500  9.7586e-03
10.500  18.750  1.2138e-02
10.500  19.000  1.4864e-02
10.500  19.250  1.8539e-02
10.500  19.500  2.3733e-02
10.500  19.750  3.0997e-02
10.500  20.000  4.1635e-02
10.500  20.250  5.5095e-02
10.500  20.500  7.2199e-02
10.500  20.750  9.2275e-02
10.500  21.000  9.7776e-02
10.500  21.250  7.8039e-02
10.500  21.500  5.9818e-02
10.500  21.750  5.0032e-02
10.500  22.000  4.4914e-02
10.500  22.250  4.3173e-02
10.500  22.500  4.2329e-02
10.500  22.750  4.1855e-02
10.500  23.000  4.1653e-02
10.500  23.250  4.1564e-02
10.500  23.500  4.1523e-02
10.500  23.750  4.1503e-02
10.500  24.000  4.1493e-02
10.750  17.000  2.5580e-04
10.750  17.250  4.2856e-04
10.750  17.500  8.5202e-04
10.750  17.750  1.7917e-03
10.750  18.000  3.4402e-03
10.750  18.250  5.7282e-03
10.750  18.500  8.3691e-03
10.750  18.750  1.1062e-02
10.750  19.000  1.3768e-02
10.750  19.250  1.6933e-02
10.750  19.500  2.1194e-02
10.750  19.750  2.7125e-02
10.750  20.000  3.5312e-02
10.750  20.250  4.6597e-02
10.750  20.500  6.1231e-02
10.750  20.750  7.7922e-02
10.750  21.000  9.6390e-02
10.750  21.250  9.9111e-02
10.750  21.500  7.8279e-02
10.750  21.750  5.9902e-02
10.750  22.000  5.0071e-02
10.750  22.250  4.4921e-02
10.750  22.500  4.3177e-02
10.750  22.750  4.2333e-02
10.750  23.000  4.1857e-02
10.750  23.250  4.1654e-02
10.750  23.500  4.1566e-02
10.750  23.750  4.1525e-02
10.750  24.000  4.1506e-02
11.000  17.000  1.9045e-04
11.000  17.250  2.6815e-04
11.000  17.500  4.6041e-04
11.000  17.750  9.5704e-04
11.000  18.000  2.0456e-03
11.000  18.250  3.9132e-03
11.000  18.500  6.5249e-03
11.000  18.750  9.4914e-03
11.000  19.000  1.2452e-02
11.000  19.250  1.5555e-02
11.000  19.500  1.9324e-02
11.000  19.750  2.4396e-02
11.000  20.000  3.1253e-02
11.000  20.250  4.0514e-02
11.000  20.500  5.3021e-02
11.000  20.750  6.8604e-02
11.000  21.000  8.5283e-02
11.000  21.250  1.0221e-01
11.000  21.500  1.0072e-01
11.000  21.750  7.8606e-02
11.000  22.000  6.0039e-02
11.000  22.250  5.0123e-02
11.000  22.500  4.4931e-02
11.000  22.750  4.3182e-02
11.000  23.000  4.2335e-02
11.000  23.250  4.1864e-02
11.000  23.500  4.1655e-02
11.000  23.750  4.1567e-02
11.000  24.000  4.1527e-02
11.250  17.000  1.6099e-04
11.250  17.250  2.0222e-04
11.250  17.500  2.9498e-04
11.250  17.750  5.3185e-04
11.250  18.000  1.1193e-03
11.250  18.250  2.3411e-03
11.250  18.500  4.4350e-03
11.250  18.750  7.3514e-03
11.250  19.000  1.0567e-02
11.250  19.250  1.3849e-02
11.250  19.500  1.7531e-02
11.250  19.750  2.2171e-02
11.250  20.000  2.8278e-02
11.250  20.250  3.6262e-02
11.250  20.500  4.6821e-02
11.250  20.750  6.0601e-02
11.250  21.000  7.7702e-02
11.250  21.250  9.4912e-02
11.250  21.500  1.1021e-01
11.250  21.750  1.0252e-01
11.250  22.000  7.8967e-02
11.250  22.250  6.0242e-02
11.250  22.500  5.0194e-02
11.250  22.750  4.4945e-02
11.250  23.000  4.3189e-02
11.250  23.250  4.2339e-02
11.250  23.500  4.1867e-02
11.250  23.750  4.1657e-02
11.250  24.000  4.1567e-02
11.500  17.000  1.4782e-04
11.500  17.250  1.7407e-04
11.500  17.500  2.2905e-04
11.500  17.750  3.5276e-04
11.500  18.000  6.4510e-04
11.500  18.250  1.2918e-03
11.500  18.500  2.6109e-03
11.500  18.750  4.9267e-03
11.500  19.000  8.1312e-03
11.500  19.250  1.1618e-02
11.500  19.500  1.5368e-02
11.500  19.750  1.9892e-02
11.500  20.000  2.5658e-02
11.500  20.250  3.2967e-02
11.500  20.500  4.2194e-02
11.500  20.750  5.4250e-02
11.500  21.000  6.9765e-02
11.500  21.250  8.9847e-02
11.500  21.500  1.0774e-01
11.500  21.750  1.2007e-01
11.500  22.000  1.0448e-01
11.500  22.250  7.9308e-02
11.500  22.500  6.0475e-02
11.500  22.750  5.0298e-02
11.500  23.000  4.4965e-02
11.500  23.250  4.3199e-02
11.500  23.500  4.2343e-02
11.500  23.750  4.1869e-02
11.500  24.000  4.1663e-02
11.750  17.000  1.4123e-04
11.750  17.250  1.6016e-04
11.750  17.500  1.9984e-04
11.750  17.750  2.7844e-04
11.750  18.000  4.3975e-04
11.750  18.250  7.6420e-04
11.750  18.500  1.4357e-03
11.750  18.750  2.8466e-03
11.750  19.000  5.4011e-03
11.750  19.250  8.9100e-03
11.750  19.500  1.2780e-02
11.750  19.750  1.7215e-02
11.750  20.000  2.2831e-02
11.750  20.250  2.9903e-02
11.750  20.500  3.8554e-02
11.750  20.750  4.9233e-02
11.750  21.000  6.3226e-02
11.750  21.250  8.1674e-02
11.750  21.500  1.0484e-01
11.750  21.750  1.2311e-01
11.750  22.000  1.2917e-01
11.750  22.250  1.0605e-01
11.750  22.500  7.9604e-02
11.750  22.750  6.0702e-02
11.750  23.000  5.0417e-02
11.750  23.250  4.4993e-02
11.750  23.500  4.3212e-02
11.750  23.750  4.2348e-02
11.750  24.000  4.1870e-02
12.000  17.000  1.3761e-04
12.000  17.250  1.5202e-04
12.000  17.500  1.8247e-04
12.000  17.750  2.4066e-04
12.000  18.000  3.4601e-04
12.000  18.250  5.3350e-04
12.000  18.500  8.6494e-04
12.000  18.750  1.5557e-03
12.000  19.000  3.0872e-03
12.000  19.250  5.9300e-03
12.000  19.500  9.8142e-03
12.000  19.750  1.4200e-02
12.000  20.000  1.9593e-02
12.000  20.250  2.6558e-02
12.000  20.500  3.5093e-02
12.000  20.750  4.5226e-02
12.000  21.000  5.8205e-02
12.000  21.250  7.4886e-02
12.000  21.500  9.6236e-02
12.000  21.750  1.2340e-01
12.000  22.000  1.3905e-01
12.000  22.250  1.3576e-01
12.000  22.500  1.0734e-01
12.000  22.750  7.9766e-02
12.000  23.000  6.0920e-02
12.000  23.250  5.0541e-02
12.000  23.500  4.5025e-02
12.000  23.750  4.3226e-02
12.000  24.000  4.2354e-02
12.250  17.000  1.3638e-04
12.250  17.250  1.4650e-04
12.250  17.500  1.6840e-04
12.250  17.750  2.1333e-04
12.250  18.000  2.9004e-04
12.250  18.250  4.1860e-04
12.250  18.500  6.2082e-04
12.250  18.750  9.5918e-04
12.250  19.000  1.6852e-03
12.250  19.250  3.4001e-03
12.250  19.500  6.5994e-03
12.250  19.750  1.0962e-02
12.250  20.000  1.6091e-02
12.250  20.250  2.2710e-02
12.250  20.500  3.1168e-02
12.250  20.750  4.1404e-02
12.250  21.000  5.3944e-02
12.250  21.250  6.9912e-02
12.250  21.500  8.9538e-02
12.250  21.750  1.1443e-01
12.250  22.000  1.4396e-01
12.250  22.250  1.5494e-01
12.250  22.500  1.4129e-01
12.250  22.750  1.0829e-01
12.250  23.000  7.9771e-02
12.250  23.250  6.1091e-02
12.250  23.500  5.0655e-02
12.250  23.750  4.5056e-02
12.250  24.000  4.3239e-02
12.500  17.000  1.3300e-04
12.500  17.250  1.4255e-04
12.500  17.500  1.5802e-04
12.500  17.750  1.8996e-04
12.500  18.000  2.4757e-04
12.500  18.250  3.4156e-04
12.500  18.500  4.8971e-04
12.500  18.750  7.0807e-04
12.500  19.000  1.0683e-03
12.500  19.250  1.8855e-03
12.500  19.500  3.8656e-03
12.500  19.750  7.5341e-03
12.500  20.000  1.2500e-02
12.500  20.250  1.8610e-02
12.500  20.500  2.6721e-02
12.500  20.750  3.7127e-02
12.500  21.000  5.0129e-02
12.500  21.250  6.6095e-02
12.500  21.500  8.4682e-02
12.500  21.750  1.0767e-01
12.500  22.000  1.3607e-01
12.500  22.250  1.6523e-01
12.500  22.500  1.6918e-01
12.500  22.750  1.4596e-01
12.500  23.000  1.0895e-01
12.500  23.250  7.9630e-02
12.500  23.500  6.1199e-02
12.500  23.750  5.0751e-02
12.500  24.000  4.5082e-02
12.750  17.000  1.2741e-04
12.750  17.250  1.3449e-04
12.750  17.500  1.4848e-04
12.750  17.750  1.7243e-04
12.750  18.000  2.1432e-04
12.750  18.250  2.8346e-04
12.750  18.500  3.9547e-04
12.750  18.750  5.6403e-04
12.750  19.000  8.0675e-04
12.750  19.250  1.2225e-03
12.750  19.500  2.1920e-03
12.750  19.750  4.4941e-03
12.750  20.000  8.6502e-03
12.750  20.250  1.4486e-02
12.750  20.500  2.1885e-02
12.750  20.750  3.1690e-02
12.750  21.000  4.4837e-02
12.750  21.250  6.1331e-02
12.750  21.500  7.9601e-02
12.750  21.750  1.0267e-01
12.750  22.000  1.2889e-01
12.750  22.250  1.5972e-01
12.750  22.500  1.8618e-01
12.750  22.750  1.8225e-01
12.750  23.000  1.4916e-01
12.750  23.250  1.0920e-01
12.750  23.500  7.9370e-02
12.750  23.750  6.1227e-02
12.750  24.000  5.0814e-02
13.000  17.000  1.2091e-04
13.000  17.250  1.2551e-04
13.000  17.500  1.3572e-04
13.000  17.750  1.5333e-04
13.000  18.000  1.8527e-04
13.000  18.250  2.3844e-04
13.000  18.500  3.2510e-04
13.000  18.750  4.5860e-04
13.000  19.000  6.5366e-04
13.000  19.250  9.3860e-04
13.000  19.500  1.4311e-03
13.000  19.750  2.5742e-03
13.000  20.000  5.2227e-03
13.000  20.250  9.9223e-03
13.000  20.500  1.6792e-02
13.000  20.750  2.5979e-02
13.000  21.000  3.8314e-02
13.000  21.250  5.5389e-02
13.000  21.500  7.5565e-02
13.000  21.750  9.5697e-02
13.000  22.000  1.2026e-01
13.000  22.250  1.5134e-01
13.000  22.500  1.8342e-01
13.000  22.750  2.0427e-01
13.000  23.000  1.9349e-01
13.000  23.250  1.5216e-01
13.000  23.500  1.0944e-01
13.000  23.750  7.8948e-02
13.000  24.000  6.1176e-02
13.250  17.000  1.1374e-04
13.250  17.250  1.1630e-04
13.250  17.500  1.2354e-04
13.250  17.750  1.3695e-04
13.250  18.000  1.6082e-04
13.250  18.250  2.0272e-04
13.250  18.500  2.7202e-04
13.250  18.750  3.8123e-04
13.250  19.000  5.4296e-04
13.250  19.250  7.7770e-04
13.250  19.500  1.1295e-03
13.250  19.750  1.7547e-03
13.250  20.000  3.1035e-03
13.250  20.250  5.9696e-03
13.250  20.500  1.1080e-02
13.250  20.750  1.9196e-02
13.250  21.000  3.0171e-02
13.250  21.250  4.5434e-02
13.250  21.500  6.2312e-02
13.250  21.750  8.4778e-02
13.250  22.000  1.1151e-01
13.250  22.250  1.4004e-01
13.250  22.500  1.7344e-01
13.250  22.750  2.0540e-01
13.250  23.000  2.2240e-01
13.250  23.250  2.0421e-01
13.250  23.500  1.5417e-01
13.250  23.750  1.0889e-01
13.250  24.000  7.8503e-02
13.500  17.000  1.0617e-04
13.500  17.250  1.0741e-04
13.500  17.500  1.1300e-04
13.500  17.750  1.2247e-04
13.500  18.000  1.4091e-04
13.500  18.250  1.7399e-04
13.500  18.500  2.3169e-04
13.500  18.750  3.2510e-04
13.500  19.000  4.6757e-04
13.500  19.250  6.7366e-04
13.500  19.500  9.7712e-04
13.500  19.750  1.4489e-03
13.500  20.000  2.2575e-03
13.500  20.250  3.8535e-03
13.500  20.500  6.9495e-03
13.500  20.750  1.2547e-02
13.500  21.000  2.0912e-02
13.500  21.250  3.3575e-02
13.500  21.500  4.8581e-02
13.500  21.750  7.0132e-02
13.500  22.000  9.8248e-02
13.500  22.250  1.2689e-01
13.500  22.500  1.6141e-01
13.500  22.750  1.9948e-01
13.500  23.000  2.3211e-01
13.500  23.250  2.4179e-01
13.500  23.500  2.1429e-01
13.500  23.750  1.5552e-01
13.500  24.000  1.0811e-01
13.750  17.000  9.9918e-05
13.750  17.250  9.8848e-05
13.750  17.500  1.0321e-04
13.750  17.750  1.1012e-04
13.750  18.000  1.2453e-04
13.750  18.250  1.5177e-04
13.750  18.500  1.9984e-04
13.750  18.750  2.8165e-04
13.750  19.000  4.1218e-04
13.750  19.250  6.0716e-04
13.750  19.500  8.9029e-04
13.750  19.750  1.3142e-03
13.750  20.000  1.9817e-03
13.750  20.250  3.0978e-03
13.750  20.500  5.0845e-03
13.750  20.750  8.6635e-03
13.750  21.000  1.4690e-02
13.750  21.250  2.3594e-02
13.750  21.500  3.6439e-02
13.750  21.750  5.3802e-02
13.750  22.000  7.6547e-02
13.750  22.250  1.0748e-01
13.750  22.500  1.4649e-01
13.750  22.750  1.9307e-01
13.750  23.000  2.3501e-01
13.750  23.250  2.6521e-01
13.750  23.500  2.6409e-01
13.750  23.750  2.2329e-01
13.750  24.000  1.5613e-01
14.000  17.000  9.3827e-05
14.000  17.250  9.2263e-05
14.000  17.500  9.2757e-05
14.000  17.750  9.9506e-05
14.000  18.000  1.1086e-04
14.000  18.250  1.3374e-04
14.000  18.500  1.7572e-04
14.000  18.750  2.4790e-04
14.000  19.000  3.6683e-04
14.000  19.250  5.5473e-04
14.000  19.500  8.3416e-04
14.000  19.750  1.2428e-03
14.000  20.000  1.8579e-03
14.000  20.250  2.8240e-03
14.000  20.500  4.3974e-03
14.000  20.750  7.0128e-03
14.000  21.000  1.1382e-02
14.000  21.250  1.8438e-02
14.000  21.500  2.8365e-02
14.000  21.750  4.2501e-02
14.000  22.000  6.1612e-02
14.000  22.250  8.8526e-02
14.000  22.500  1.2637e-01
14.000  22.750  1.7846e-01
14.000  23.000  2.3837e-01
14.000  23.250  2.8820e-01
14.000  23.500  3.0901e-01
14.000  23.750  2.8838e-01
14.000  24.000  2.2982e-01
