nFnu 1073.86A  relative to Inci 1215.00A scaled to 1215A.
Hden   Phi(H)  Eq_Width (A)
7.000  17.000  7.8863e-02
7.000  17.250  7.7521e-02
7.000  17.500  7.5974e-02
7.000  17.750  6.6806e-02
7.000  18.000  5.8396e-02
7.000  18.250  5.2274e-02
7.000  18.500  4.8256e-02
7.000  18.750  4.6275e-02
7.000  19.000  4.5238e-02
7.000  19.250  4.4643e-02
7.000  19.500  4.4391e-02
7.000  19.750  4.4285e-02
7.000  20.000  4.4238e-02
7.000  20.250  4.4216e-02
7.000  20.500  4.4205e-02
7.000  20.750  4.4200e-02
7.000  21.000  4.4197e-02
7.000  21.250  4.4195e-02
7.000  21.500  4.4194e-02
7.000  21.750  4.4194e-02
7.000  22.000  4.4194e-02
7.000  22.250  4.4195e-02
7.000  22.500  4.4195e-02
7.000  22.750  4.4195e-02
7.000  23.000  4.4195e-02
7.000  23.250  4.4195e-02
7.000  23.500  4.4195e-02
7.000  23.750  4.4195e-02
7.000  24.000  4.4195e-02
7.250  17.000  8.3221e-02
7.250  17.250  7.6411e-02
7.250  17.500  7.6547e-02
7.250  17.750  7.5634e-02
7.250  18.000  6.6638e-02
7.250  18.250  5.8306e-02
7.250  18.500  5.2229e-02
7.250  18.750  4.8240e-02
7.250  19.000  4.6269e-02
7.250  19.250  4.5236e-02
7.250  19.500  4.4642e-02
7.250  19.750  4.4391e-02
7.250  20.000  4.4285e-02
7.250  20.250  4.4238e-02
7.250  20.500  4.4216e-02
7.250  20.750  4.4205e-02
7.250  21.000  4.4200e-02
7.250  21.250  4.4196e-02
7.250  21.500  4.4195e-02
7.250  21.750  4.4194e-02
7.250  22.000  4.4193e-02
7.250  22.250  4.4193e-02
7.250  22.500  4.4193e-02
7.250  22.750  4.4193e-02
7.250  23.000  4.4194e-02
7.250  23.250  4.4194e-02
7.250  23.500  4.4194e-02
7.250  23.750  4.4194e-02
7.250  24.000  4.4194e-02
7.500  17.000  8.7847e-02
7.500  17.250  7.9872e-02
7.500  17.500  7.3977e-02
7.500  17.750  7.5829e-02
7.500  18.000  7.5458e-02
7.500  18.250  6.6558e-02
7.500  18.500  5.8254e-02
7.500  18.750  5.2201e-02
7.500  19.000  4.8230e-02
7.500  19.250  4.6265e-02
7.500  19.500  4.5234e-02
7.500  19.750  4.4642e-02
7.500  20.000  4.4391e-02
7.500  20.250  4.4285e-02
7.500  20.500  4.4238e-02
7.500  20.750  4.4216e-02
7.500  21.000  4.4205e-02
7.500  21.250  4.4199e-02
7.500  21.500  4.4196e-02
7.500  21.750  4.4195e-02
7.500  22.000  4.4194e-02
7.500  22.250  4.4193e-02
7.500  22.500  4.4193e-02
7.500  22.750  4.4193e-02
7.500  23.000  4.4193e-02
7.500  23.250  4.4193e-02
7.500  23.500  4.4195e-02
7.500  23.750  4.4193e-02
7.500  24.000  4.4193e-02
7.750  17.000  9.1462e-02
7.750  17.250  8.3971e-02
7.750  17.500  7.6946e-02
7.750  17.750  7.1939e-02
7.750  18.000  7.5276e-02
7.750  18.250  7.5383e-02
7.750  18.500  6.6534e-02
7.750  18.750  5.8227e-02
7.750  19.000  5.2185e-02
7.750  19.250  4.8223e-02
7.750  19.500  4.6262e-02
7.750  19.750  4.5233e-02
7.750  20.000  4.4642e-02
7.750  20.250  4.4391e-02
7.750  20.500  4.4285e-02
7.750  20.750  4.4238e-02
7.750  21.000  4.4216e-02
7.750  21.250  4.4205e-02
7.750  21.500  4.4199e-02
7.750  21.750  4.4196e-02
7.750  22.000  4.4195e-02
7.750  22.250  4.4194e-02
7.750  22.500  4.4193e-02
7.750  22.750  4.4193e-02
7.750  23.000  4.4193e-02
7.750  23.250  4.4193e-02
7.750  23.500  4.4193e-02
7.750  23.750  4.4193e-02
7.750  24.000  4.4193e-02
8.000  17.000  9.2839e-02
8.000  17.250  8.7551e-02
8.000  17.500  8.0620e-02
8.000  17.750  7.4571e-02
8.000  18.000  7.0365e-02
8.000  18.250  7.4874e-02
8.000  18.500  7.5373e-02
8.000  18.750  6.6547e-02
8.000  19.000  5.8217e-02
8.000  19.250  5.2174e-02
8.000  19.500  4.8219e-02
8.000  19.750  4.6260e-02
8.000  20.000  4.5233e-02
8.000  20.250  4.4642e-02
8.000  20.500  4.4391e-02
8.000  20.750  4.4285e-02
8.000  21.000  4.4238e-02
8.000  21.250  4.4216e-02
8.000  21.500  4.4205e-02
8.000  21.750  4.4199e-02
8.000  22.000  4.4196e-02
8.000  22.250  4.4195e-02
8.000  22.500  4.4194e-02
8.000  22.750  4.4193e-02
8.000  23.000  4.4193e-02
8.000  23.250  4.4194e-02
8.000  23.500  4.4193e-02
8.000  23.750  4.4192e-02
8.000  24.000  4.4193e-02
8.250  17.000  9.2643e-02
8.250  17.250  8.9563e-02
8.250  17.500  8.4582e-02
8.250  17.750  7.7943e-02
8.250  18.000  7.2548e-02
8.250  18.250  6.9289e-02
8.250  18.500  7.4652e-02
8.250  18.750  7.5401e-02
8.250  19.000  6.6587e-02
8.250  19.250  5.8215e-02
8.250  19.500  5.2168e-02
8.250  19.750  4.8216e-02
8.250  20.000  4.6260e-02
8.250  20.250  4.5232e-02
8.250  20.500  4.4642e-02
8.250  20.750  4.4391e-02
8.250  21.000  4.4285e-02
8.250  21.250  4.4238e-02
8.250  21.500  4.4216e-02
8.250  21.750  4.4205e-02
8.250  22.000  4.4199e-02
8.250  22.250  4.4196e-02
8.250  22.500  4.4195e-02
8.250  22.750  4.4194e-02
8.250  23.000  4.4193e-02
8.250  23.250  4.4193e-02
8.250  23.500  4.4193e-02
8.250  23.750  4.4193e-02
8.250  24.000  4.4192e-02
8.500  17.000  9.1662e-02
8.500  17.250  8.9986e-02
8.500  17.500  8.7084e-02
8.500  17.750  8.2037e-02
8.500  18.000  7.5485e-02
8.500  18.250  7.0710e-02
8.500  18.500  6.8514e-02
8.500  18.750  7.4532e-02
8.500  19.000  7.5455e-02
8.500  19.250  6.6647e-02
8.500  19.500  5.8221e-02
8.500  19.750  5.2164e-02
8.500  20.000  4.8214e-02
8.500  20.250  4.6259e-02
8.500  20.500  4.5232e-02
8.500  20.750  4.4641e-02
8.500  21.000  4.4391e-02
8.500  21.250  4.4285e-02
8.500  21.500  4.4238e-02
8.500  21.750  4.4216e-02
8.500  22.000  4.4205e-02
8.500  22.250  4.4199e-02
8.500  22.500  4.4196e-02
8.500  22.750  4.4195e-02
8.500  23.000  4.4194e-02
8.500  23.250  4.4193e-02
8.500  23.500  4.4193e-02
8.500  23.750  4.4193e-02
8.500  24.000  4.4193e-02
8.750  17.000  9.0381e-02
8.750  17.250  8.9598e-02
8.750  17.500  8.8006e-02
8.750  17.750  8.4902e-02
8.750  18.000  7.9534e-02
8.750  18.250  7.2671e-02
8.750  18.500  6.8195e-02
8.750  18.750  6.8017e-02
8.750  19.000  7.4470e-02
8.750  19.250  7.5519e-02
8.750  19.500  6.6722e-02
8.750  19.750  5.8231e-02
8.750  20.000  5.2162e-02
8.750  20.250  4.8213e-02
8.750  20.500  4.6259e-02
8.750  20.750  4.5232e-02
8.750  21.000  4.4641e-02
8.750  21.250  4.4391e-02
8.750  21.500  4.4284e-02
8.750  21.750  4.4238e-02
8.750  22.000  4.4216e-02
8.750  22.250  4.4205e-02
8.750  22.500  4.4199e-02
8.750  22.750  4.4196e-02
8.750  23.000  4.4195e-02
8.750  23.250  4.4194e-02
8.750  23.500  4.4193e-02
8.750  23.750  4.4193e-02
8.750  24.000  4.4193e-02
9.000  17.000  8.8911e-02
9.000  17.250  8.8782e-02
9.000  17.500  8.8034e-02
9.000  17.750  8.6252e-02
9.000  18.000  8.2630e-02
9.000  18.250  7.6407e-02
9.000  18.500  6.9456e-02
9.000  18.750  6.6624e-02
9.000  19.000  6.7674e-02
9.000  19.250  7.4410e-02
9.000  19.500  7.5579e-02
9.000  19.750  6.6799e-02
9.000  20.000  5.8241e-02
9.000  20.250  5.2160e-02
9.000  20.500  4.8212e-02
9.000  20.750  4.6258e-02
9.000  21.000  4.5232e-02
9.000  21.250  4.4641e-02
9.000  21.500  4.4391e-02
9.000  21.750  4.4284e-02
9.000  22.000  4.4238e-02
9.000  22.250  4.4216e-02
9.000  22.500  4.4205e-02
9.000  22.750  4.4199e-02
9.000  23.000  4.4196e-02
9.000  23.250  4.4195e-02
9.000  23.500  4.4194e-02
9.000  23.750  4.4193e-02
9.000  24.000  4.4193e-02
9.250  17.000  8.7279e-02
9.250  17.250  8.7611e-02
9.250  17.500  8.7520e-02
9.250  17.750  8.6570e-02
9.250  18.000  8.4173e-02
9.250  18.250  7.9701e-02
9.250  18.500  7.2902e-02
9.250  18.750  6.6278e-02
9.250  19.000  6.4289e-02
9.250  19.250  6.7338e-02
9.250  19.500  7.4326e-02
9.250  19.750  7.5622e-02
9.250  20.000  6.6872e-02
9.250  20.250  5.8253e-02
9.250  20.500  5.2158e-02
9.250  20.750  4.8211e-02
9.250  21.000  4.6258e-02
9.250  21.250  4.5232e-02
9.250  21.500  4.4633e-02
9.250  21.750  4.4378e-02
9.250  22.000  4.4270e-02
9.250  22.250  4.4225e-02
9.250  22.500  4.4215e-02
9.250  22.750  4.4205e-02
9.250  23.000  4.4199e-02
9.250  23.250  4.4196e-02
9.250  23.500  4.4194e-02
9.250  23.750  4.4194e-02
9.250  24.000  4.4193e-02
9.500  17.000  8.5544e-02
9.500  17.250  8.6106e-02
9.500  17.500  8.6512e-02
9.500  17.750  8.6254e-02
9.500  18.000  8.4733e-02
9.500  18.250  8.1628e-02
9.500  18.500  7.6459e-02
9.500  18.750  6.9521e-02
9.500  19.000  6.4134e-02
9.500  19.250  6.2874e-02
9.500  19.500  6.6988e-02
9.500  19.750  7.4182e-02
9.500  20.000  7.3844e-02
9.500  20.250  6.6933e-02
9.500  20.500  5.8263e-02
9.500  20.750  5.2156e-02
9.500  21.000  4.8200e-02
9.500  21.250  4.6245e-02
9.500  21.500  4.5218e-02
9.500  21.750  4.4624e-02
9.500  22.000  4.4367e-02
9.500  22.250  4.4261e-02
9.500  22.500  4.4215e-02
9.500  22.750  4.4192e-02
9.500  23.000  4.4181e-02
9.500  23.250  4.4176e-02
9.500  23.500  4.4178e-02
9.500  23.750  4.4177e-02
9.500  24.000  4.4176e-02
9.750  17.000  8.3907e-02
9.750  17.250  8.4381e-02
9.750  17.500  8.5034e-02
9.750  17.750  8.5329e-02
9.750  18.000  8.4668e-02
9.750  18.250  8.2536e-02
9.750  18.500  7.8875e-02
9.750  18.750  7.3433e-02
9.750  19.000  6.6728e-02
9.750  19.250  6.2073e-02
9.750  19.500  6.1849e-02
9.750  19.750  6.6724e-02
9.750  20.000  7.4006e-02
9.750  20.250  7.5619e-02
9.750  20.500  6.6977e-02
9.750  20.750  5.8271e-02
9.750  21.000  5.2155e-02
9.750  21.250  4.8205e-02
9.750  21.500  4.6247e-02
9.750  21.750  4.5218e-02
9.750  22.000  4.4626e-02
9.750  22.250  4.4370e-02
9.750  22.500  4.4260e-02
9.750  22.750  4.4215e-02
9.750  23.000  4.4193e-02
9.750  23.250  4.4182e-02
9.750  23.500  4.4176e-02
9.750  23.750  4.4172e-02
9.750  24.000  4.4171e-02
10.000  17.000  8.2562e-02
10.000  17.250  8.2639e-02
10.000  17.500  8.3198e-02
10.000  17.750  8.3764e-02
10.000  18.000  8.3729e-02
10.000  18.250  8.2598e-02
10.000  18.500  8.0260e-02
10.000  18.750  7.6454e-02
10.000  19.000  7.0821e-02
10.000  19.250  6.4615e-02
10.000  19.500  6.0177e-02
10.000  19.750  6.2211e-02
10.000  20.000  6.6651e-02
10.000  20.250  7.3806e-02
10.000  20.500  7.5576e-02
10.000  20.750  6.7009e-02
10.000  21.000  5.8278e-02
10.000  21.250  5.2155e-02
10.000  21.500  4.8207e-02
10.000  21.750  4.6253e-02
10.000  22.000  4.5220e-02
10.000  22.250  4.4627e-02
10.000  22.500  4.4373e-02
10.000  22.750  4.4263e-02
10.000  23.000  4.4214e-02
10.000  23.250  4.4193e-02
10.000  23.500  4.4182e-02
10.000  23.750  4.4176e-02
10.000  24.000  4.4173e-02
10.250  17.000  8.1731e-02
10.250  17.250  8.1134e-02
10.250  17.500  8.1268e-02
10.250  17.750  8.1739e-02
10.250  18.000  8.2052e-02
10.250  18.250  8.1830e-02
10.250  18.500  8.0814e-02
10.250  18.750  7.8521e-02
10.250  19.000  7.4586e-02
10.250  19.250  6.9088e-02
10.250  19.500  6.3059e-02
10.250  19.750  5.9321e-02
10.250  20.000  6.1993e-02
10.250  20.250  6.6810e-02
10.250  20.500  7.3836e-02
10.250  20.750  7.5541e-02
10.250  21.000  6.7029e-02
10.250  21.250  5.8283e-02
10.250  21.500  5.2154e-02
10.250  21.750  4.8207e-02
10.250  22.000  4.6256e-02
10.250  22.250  4.5225e-02
10.250  22.500  4.4628e-02
10.250  22.750  4.4375e-02
10.250  23.000  4.4266e-02
10.250  23.250  4.4216e-02
10.250  23.500  4.4193e-02
10.250  23.750  4.4181e-02
10.250  24.000  4.4175e-02
10.500  17.000  8.1333e-02
10.500  17.250  8.0072e-02
10.500  17.500  7.9523e-02
10.500  17.750  7.9582e-02
10.500  18.000  7.9878e-02
10.500  18.250  8.0221e-02
10.500  18.500  8.0488e-02
10.500  18.750  7.9650e-02
10.500  19.000  7.7410e-02
10.500  19.250  7.3642e-02
10.500  19.500  6.8287e-02
10.500  19.750  6.2133e-02
10.500  20.000  5.8825e-02
10.500  20.250  6.2754e-02
10.500  20.500  6.7512e-02
10.500  20.750  7.4248e-02
10.500  21.000  7.5555e-02
10.500  21.250  6.7037e-02
10.500  21.500  5.8286e-02
10.500  21.750  5.2154e-02
10.500  22.000  4.8206e-02
10.500  22.250  4.6257e-02
10.500  22.500  4.5230e-02
10.500  22.750  4.4628e-02
10.500  23.000  4.4377e-02
10.500  23.250  4.4268e-02
10.500  23.500  4.4220e-02
10.500  23.750  4.4196e-02
10.500  24.000  4.4184e-02
10.750  17.000  8.1029e-02
10.750  17.250  7.9342e-02
10.750  17.500  7.8177e-02
10.750  17.750  7.7644e-02
10.750  18.000  7.7636e-02
10.750  18.250  7.8162e-02
10.750  18.500  7.9123e-02
10.750  18.750  7.9559e-02
10.750  19.000  7.8800e-02
10.750  19.250  7.6718e-02
10.750  19.500  7.3046e-02
10.750  19.750  6.7588e-02
10.750  20.000  6.1161e-02
10.750  20.250  5.8788e-02
10.750  20.500  6.3817e-02
10.750  20.750  6.8641e-02
10.750  21.000  7.5242e-02
10.750  21.250  7.5696e-02
10.750  21.500  6.7043e-02
10.750  21.750  5.8287e-02
10.750  22.000  5.2154e-02
10.750  22.250  4.8205e-02
10.750  22.500  4.6258e-02
10.750  22.750  4.5232e-02
10.750  23.000  4.4631e-02
10.750  23.250  4.4377e-02
10.750  23.500  4.4270e-02
10.750  23.750  4.4222e-02
10.750  24.000  4.4199e-02
11.000  17.000  7.9902e-02
11.000  17.250  7.8516e-02
11.000  17.500  7.7041e-02
11.000  17.750  7.6063e-02
11.000  18.000  7.5663e-02
11.000  18.250  7.5994e-02
11.000  18.500  7.6972e-02
11.000  18.750  7.8106e-02
11.000  19.000  7.8670e-02
11.000  19.250  7.8030e-02
11.000  19.500  7.6134e-02
11.000  19.750  7.2512e-02
11.000  20.000  6.6942e-02
11.000  20.250  6.3321e-02
11.000  20.500  6.2726e-02
11.000  20.750  6.5194e-02
11.000  21.000  7.0759e-02
11.000  21.250  7.7259e-02
11.000  21.500  7.6012e-02
11.000  21.750  6.7058e-02
11.000  22.000  5.8284e-02
11.000  22.250  5.2154e-02
11.000  22.500  4.8204e-02
11.000  22.750  4.6258e-02
11.000  23.000  4.5233e-02
11.000  23.250  4.4637e-02
11.000  23.500  4.4378e-02
11.000  23.750  4.4271e-02
11.000  24.000  4.4224e-02
11.250  17.000  7.6390e-02
11.250  17.250  7.6481e-02
11.250  17.500  7.5447e-02
11.250  17.750  7.4437e-02
11.250  18.000  7.3888e-02
11.250  18.250  7.3842e-02
11.250  18.500  7.4384e-02
11.250  18.750  7.5564e-02
11.250  19.000  7.6908e-02
11.250  19.250  7.7614e-02
11.250  19.500  7.7215e-02
11.250  19.750  7.5562e-02
11.250  20.000  7.2136e-02
11.250  20.250  6.6567e-02
11.250  20.500  6.3660e-02
11.250  20.750  6.4267e-02
11.250  21.000  6.7814e-02
11.250  21.250  7.4056e-02
11.250  21.500  8.0598e-02
11.250  21.750  7.6583e-02
11.250  22.000  6.7098e-02
11.250  22.250  5.8280e-02
11.250  22.500  5.2154e-02
11.250  22.750  4.8203e-02
11.250  23.000  4.6258e-02
11.250  23.250  4.5233e-02
11.250  23.500  4.4640e-02
11.250  23.750  4.4380e-02
11.250  24.000  4.4271e-02
11.500  17.000  6.8138e-02
11.500  17.250  7.1303e-02
11.500  17.500  7.1978e-02
11.500  17.750  7.1737e-02
11.500  18.000  7.1525e-02
11.500  18.250  7.1422e-02
11.500  18.500  7.1646e-02
11.500  18.750  7.2543e-02
11.500  19.000  7.3949e-02
11.500  19.250  7.5450e-02
11.500  19.500  7.6341e-02
11.500  19.750  7.6327e-02
11.500  20.000  7.5106e-02
11.500  20.250  7.1953e-02
11.500  20.500  6.6510e-02
11.500  20.750  6.4614e-02
11.500  21.000  6.6892e-02
11.500  21.250  7.2137e-02
11.500  21.500  7.9477e-02
11.500  21.750  8.5216e-02
11.500  22.000  7.7312e-02
11.500  22.250  6.7180e-02
11.500  22.500  5.8274e-02
11.500  22.750  5.2155e-02
11.500  23.000  4.8201e-02
11.500  23.250  4.6257e-02
11.500  23.500  4.5233e-02
11.500  23.750  4.4641e-02
11.500  24.000  4.4386e-02
11.750  17.000  4.5151e-02
11.750  17.250  5.8916e-02
11.750  17.500  6.3745e-02
11.750  17.750  6.5850e-02
11.750  18.000  6.7101e-02
11.750  18.250  6.7942e-02
11.750  18.500  6.8535e-02
11.750  18.750  6.9151e-02
11.750  19.000  7.0271e-02
11.750  19.250  7.1831e-02
11.750  19.500  7.3593e-02
11.750  19.750  7.4865e-02
11.750  20.000  7.5423e-02
11.750  20.250  7.4766e-02
11.750  20.500  7.2040e-02
11.750  20.750  6.6840e-02
11.750  21.000  6.4621e-02
11.750  21.250  6.8494e-02
11.750  21.500  7.8263e-02
11.750  21.750  8.6750e-02
11.750  22.000  8.9441e-02
11.750  22.250  7.8087e-02
11.750  22.500  6.7308e-02
11.750  22.750  5.8267e-02
11.750  23.000  5.2156e-02
11.750  23.250  4.8200e-02
11.750  23.500  4.6257e-02
11.750  23.750  4.5234e-02
11.750  24.000  4.4641e-02
12.000  17.000  3.5556e-02
12.000  17.250  3.6986e-02
12.000  17.500  4.1925e-02
12.000  17.750  5.1860e-02
12.000  18.000  5.7831e-02
12.000  18.250  6.1805e-02
12.000  18.500  6.3826e-02
12.000  18.750  6.4871e-02
12.000  19.000  6.5790e-02
12.000  19.250  6.7256e-02
12.000  19.500  6.9234e-02
12.000  19.750  7.1447e-02
12.000  20.000  7.3341e-02
12.000  20.250  7.4600e-02
12.000  20.500  7.4633e-02
12.000  20.750  7.2473e-02
12.000  21.000  6.8154e-02
12.000  21.250  6.9670e-02
12.000  21.500  7.6822e-02
12.000  21.750  8.6665e-02
12.000  22.000  9.4792e-02
12.000  22.250  9.2384e-02
12.000  22.500  7.8997e-02
12.000  22.750  6.7479e-02
12.000  23.000  5.8258e-02
12.000  23.250  5.2157e-02
12.000  23.500  4.8197e-02
12.000  23.750  4.6256e-02
12.000  24.000  4.5234e-02
12.250  17.000  3.0862e-02
12.250  17.250  3.1829e-02
12.250  17.500  3.3071e-02
12.250  17.750  3.4761e-02
12.250  18.000  3.6650e-02
12.250  18.250  4.8076e-02
12.250  18.500  5.4453e-02
12.250  18.750  5.7860e-02
12.250  19.000  5.9845e-02
12.250  19.250  6.1672e-02
12.250  19.500  6.3894e-02
12.250  19.750  6.6454e-02
12.250  20.000  6.9289e-02
12.250  20.250  7.1814e-02
12.250  20.500  7.3873e-02
12.250  20.750  7.4788e-02
12.250  21.000  7.3782e-02
12.250  21.250  7.0935e-02
12.250  21.500  7.3235e-02
12.250  21.750  8.2696e-02
12.250  22.000  9.6771e-02
12.250  22.250  1.0321e-01
12.250  22.500  9.5197e-02
12.250  22.750  7.9949e-02
12.250  23.000  6.7660e-02
12.250  23.250  5.8250e-02
12.250  23.500  5.2158e-02
12.250  23.750  4.8194e-02
12.250  24.000  4.6255e-02
12.500  17.000  2.7697e-02
12.500  17.250  2.8467e-02
12.500  17.500  2.9739e-02
12.500  17.750  3.1352e-02
12.500  18.000  3.2711e-02
12.500  18.250  3.3798e-02
12.500  18.500  3.4828e-02
12.500  18.750  4.3024e-02
12.500  19.000  5.0068e-02
12.500  19.250  5.4156e-02
12.500  19.500  5.7384e-02
12.500  19.750  6.0454e-02
12.500  20.000  6.3630e-02
12.500  20.250  6.7014e-02
12.500  20.500  7.0314e-02
12.500  20.750  7.3393e-02
12.500  21.000  7.5857e-02
12.500  21.250  7.6793e-02
12.500  21.500  7.6044e-02
12.500  21.750  7.9961e-02
12.500  22.000  9.3190e-02
12.500  22.250  1.0805e-01
12.500  22.500  1.1072e-01
12.500  22.750  9.8062e-02
12.500  23.000  8.1018e-02
12.500  23.250  6.7834e-02
12.500  23.500  5.8244e-02
12.500  23.750  5.2157e-02
12.500  24.000  4.8190e-02
12.750  17.000  2.6346e-02
12.750  17.250  2.6942e-02
12.750  17.500  2.7712e-02
12.750  17.750  2.8482e-02
12.750  18.000  2.9257e-02
12.750  18.250  3.0064e-02
12.750  18.500  3.0900e-02
12.750  18.750  3.1895e-02
12.750  19.000  3.3190e-02
12.750  19.250  3.9876e-02
12.750  19.500  4.7960e-02
12.750  19.750  5.2869e-02
12.750  20.000  5.6867e-02
12.750  20.250  6.0658e-02
12.750  20.500  6.4698e-02
12.750  20.750  6.8839e-02
12.750  21.000  7.3326e-02
12.750  21.250  7.7821e-02
12.750  21.500  8.0631e-02
12.750  21.750  8.2699e-02
12.750  22.000  9.0091e-02
12.750  22.250  1.0525e-01
12.750  22.500  1.2010e-01
12.750  22.750  1.1777e-01
12.750  23.000  1.0057e-01
12.750  23.250  8.2082e-02
12.750  23.500  6.8079e-02
12.750  23.750  5.8245e-02
12.750  24.000  5.2155e-02
13.000  17.000  5.1029e-02
13.000  17.250  2.9603e-02
13.000  17.500  1.2560e-02
13.000  17.750  3.9358e-04
13.000  18.000  -7.3769e-03
13.000  18.250  -1.1231e-02
13.000  18.500  -1.1649e-02
13.000  18.750  -9.1102e-03
13.000  19.000  -4.0947e-03
13.000  19.250  2.9177e-03
13.000  19.500  1.1447e-02
13.000  19.750  2.1013e-02
13.000  20.000  3.1137e-02
13.000  20.250  4.1338e-02
13.000  20.500  5.1137e-02
13.000  20.750  6.0053e-02
13.000  21.000  6.7607e-02
13.000  21.250  7.4187e-02
13.000  21.500  8.1286e-02
13.000  21.750  8.5295e-02
13.000  22.000  9.2191e-02
13.000  22.250  1.0327e-01
13.000  22.500  1.1778e-01
13.000  22.750  1.3048e-01
13.000  23.000  1.2420e-01
13.000  23.250  1.0344e-01
13.000  23.500  8.3339e-02
13.000  23.750  6.8285e-02
13.000  24.000  5.8248e-02
13.250  17.000  4.8885e-02
13.250  17.250  4.3491e-02
13.250  17.500  3.9879e-02
13.250  17.750  3.8258e-02
13.250  18.000  3.8444e-02
13.250  18.250  4.0255e-02
13.250  18.500  4.3506e-02
13.250  18.750  4.8014e-02
13.250  19.000  5.3596e-02
13.250  19.250  6.0068e-02
13.250  19.500  6.7246e-02
13.250  19.750  7.4947e-02
13.250  20.000  8.2987e-02
13.250  20.250  9.1184e-02
13.250  20.500  9.9352e-02
13.250  20.750  1.0731e-01
13.250  21.000  1.1487e-01
13.250  21.250  1.2186e-01
13.250  21.500  1.2808e-01
13.250  21.750  1.3336e-01
13.250  22.000  1.3751e-01
13.250  22.250  1.4034e-01
13.250  22.500  1.4168e-01
13.250  22.750  1.4134e-01
13.250  23.000  1.3914e-01
13.250  23.250  1.3083e-01
13.250  23.500  1.0603e-01
13.250  23.750  8.4217e-02
13.250  24.000  6.8348e-02
13.500  17.000  4.6694e-02
13.500  17.250  4.1102e-02
13.500  17.500  3.7455e-02
13.500  17.750  3.5983e-02
13.500  18.000  3.6485e-02
13.500  18.250  3.8761e-02
13.500  18.500  4.2611e-02
13.500  18.750  4.7837e-02
13.500  19.000  5.4236e-02
13.500  19.250  6.1611e-02
13.500  19.500  6.9760e-02
13.500  19.750  7.8484e-02
13.500  20.000  8.7583e-02
13.500  20.250  9.6856e-02
13.500  20.500  1.0610e-01
13.500  20.750  1.1513e-01
13.500  21.000  1.2373e-01
13.500  21.250  1.3170e-01
13.500  21.500  1.3885e-01
13.500  21.750  1.4497e-01
13.500  22.000  1.4987e-01
13.500  22.250  1.5335e-01
13.500  22.500  1.5520e-01
13.500  22.750  1.5522e-01
13.500  23.000  1.5322e-01
13.500  23.250  1.4900e-01
13.500  23.500  1.3774e-01
13.500  23.750  1.0854e-01
13.500  24.000  8.4940e-02
13.750  17.000  4.3935e-02
13.750  17.250  3.9941e-02
13.750  17.500  3.7989e-02
13.750  17.750  3.8310e-02
13.750  18.000  4.0680e-02
13.750  18.250  4.4877e-02
13.750  18.500  5.0679e-02
13.750  18.750  5.7862e-02
13.750  19.000  6.6203e-02
13.750  19.250  7.5481e-02
13.750  19.500  8.5471e-02
13.750  19.750  9.5952e-02
13.750  20.000  1.0670e-01
13.750  20.250  1.1749e-01
13.750  20.500  1.2811e-01
13.750  20.750  1.3832e-01
13.750  21.000  1.4792e-01
13.750  21.250  1.5666e-01
13.750  21.500  1.6434e-01
13.750  21.750  1.7072e-01
13.750  22.000  1.7559e-01
13.750  22.250  1.7873e-01
13.750  22.500  1.7990e-01
13.750  22.750  1.7889e-01
13.750  23.000  1.7548e-01
13.750  23.250  1.6943e-01
13.750  23.500  1.6054e-01
13.750  23.750  1.4471e-01
13.750  24.000  1.1072e-01
14.000  17.000  4.0103e-02
14.000  17.250  3.9789e-02
14.000  17.500  2.4433e-02
14.000  17.750  1.8954e-02
14.000  18.000  1.7610e-02
14.000  18.250  1.6838e-02
14.000  18.500  1.6566e-02
14.000  18.750  1.6718e-02
14.000  19.000  1.7220e-02
14.000  19.250  1.7999e-02
14.000  19.500  1.8979e-02
14.000  19.750  2.0087e-02
14.000  20.000  2.1249e-02
14.000  20.250  2.2390e-02
14.000  20.500  2.3437e-02
14.000  20.750  2.4937e-02
14.000  21.000  2.9259e-02
14.000  21.250  3.6719e-02
14.000  21.500  4.6964e-02
14.000  21.750  5.9641e-02
14.000  22.000  7.4396e-02
14.000  22.250  9.0876e-02
14.000  22.500  1.0873e-01
14.000  22.750  1.2760e-01
14.000  23.000  1.4714e-01
14.000  23.250  1.6577e-01
14.000  23.500  1.7763e-01
14.000  23.750  1.7546e-01
14.000  24.000  1.5072e-01
