InwT 1410.00A  relative to Inci 1215.00A scaled to 1215A.
Hden   Phi(H)  Eq_Width (A)
7.000  17.000  7.1560e-02
7.000  17.250  6.9643e-02
7.000  17.500  6.5183e-02
7.000  17.750  5.6327e-02
7.000  18.000  5.0741e-02
7.000  18.250  4.7493e-02
7.000  18.500  4.5586e-02
7.000  18.750  4.4737e-02
7.000  19.000  4.4301e-02
7.000  19.250  4.4055e-02
7.000  19.500  4.3952e-02
7.000  19.750  4.3909e-02
7.000  20.000  4.3890e-02
7.000  20.250  4.3882e-02
7.000  20.500  4.3877e-02
7.000  20.750  4.3875e-02
7.000  21.000  4.3874e-02
7.000  21.250  4.3874e-02
7.000  21.500  4.3873e-02
7.000  21.750  4.3873e-02
7.000  22.000  4.3874e-02
7.000  22.250  4.3874e-02
7.000  22.500  4.3874e-02
7.000  22.750  4.3875e-02
7.000  23.000  4.3875e-02
7.000  23.250  4.3875e-02
7.000  23.500  4.3875e-02
7.000  23.750  4.3875e-02
7.000  24.000  4.3875e-02
7.250  17.000  7.7869e-02
7.250  17.250  7.1001e-02
7.250  17.500  6.9455e-02
7.250  17.750  6.5082e-02
7.250  18.000  5.6271e-02
7.250  18.250  5.0714e-02
7.250  18.500  4.7480e-02
7.250  18.750  4.5581e-02
7.250  19.000  4.4735e-02
7.250  19.250  4.4301e-02
7.250  19.500  4.4054e-02
7.250  19.750  4.3952e-02
7.250  20.000  4.3909e-02
7.250  20.250  4.3890e-02
7.250  20.500  4.3882e-02
7.250  20.750  4.3877e-02
7.250  21.000  4.3875e-02
7.250  21.250  4.3874e-02
7.250  21.500  4.3873e-02
7.250  21.750  4.3873e-02
7.250  22.000  4.3873e-02
7.250  22.250  4.3873e-02
7.250  22.500  4.3873e-02
7.250  22.750  4.3873e-02
7.250  23.000  4.3874e-02
7.250  23.250  4.3874e-02
7.250  23.500  4.3874e-02
7.250  23.750  4.3874e-02
7.250  24.000  4.3874e-02
7.500  17.000  8.4057e-02
7.500  17.250  7.6814e-02
7.500  17.500  7.0432e-02
7.500  17.750  6.9326e-02
7.500  18.000  6.5024e-02
7.500  18.250  5.6238e-02
7.500  18.500  5.0695e-02
7.500  18.750  4.7473e-02
7.500  19.000  4.5578e-02
7.500  19.250  4.4734e-02
7.500  19.500  4.4300e-02
7.500  19.750  4.4054e-02
7.500  20.000  4.3952e-02
7.500  20.250  4.3909e-02
7.500  20.500  4.3890e-02
7.500  20.750  4.3882e-02
7.500  21.000  4.3877e-02
7.500  21.250  4.3875e-02
7.500  21.500  4.3874e-02
7.500  21.750  4.3873e-02
7.500  22.000  4.3873e-02
7.500  22.250  4.3873e-02
7.500  22.500  4.3873e-02
7.500  22.750  4.3873e-02
7.500  23.000  4.3873e-02
7.500  23.250  4.3873e-02
7.500  23.500  4.3875e-02
7.500  23.750  4.3873e-02
7.500  24.000  4.3873e-02
7.750  17.000  8.9664e-02
7.750  17.250  8.2757e-02
7.750  17.500  7.5881e-02
7.750  17.750  6.9956e-02
7.750  18.000  6.9236e-02
7.750  18.250  6.4994e-02
7.750  18.500  5.6219e-02
7.750  18.750  4.9342e-02
7.750  19.000  4.5388e-02
7.750  19.250  4.3620e-02
7.750  19.500  4.3300e-02
7.750  19.750  4.3690e-02
7.750  20.000  4.4054e-02
7.750  20.250  4.3952e-02
7.750  20.500  4.3909e-02
7.750  20.750  4.3890e-02
7.750  21.000  4.3882e-02
7.750  21.250  4.3877e-02
7.750  21.500  4.3875e-02
7.750  21.750  4.3874e-02
7.750  22.000  4.3873e-02
7.750  22.250  4.3873e-02
7.750  22.500  4.3873e-02
7.750  22.750  4.3872e-02
7.750  23.000  4.3873e-02
7.750  23.250  4.3872e-02
7.750  23.500  4.3872e-02
7.750  23.750  4.3873e-02
7.750  24.000  4.3872e-02
8.000  17.000  9.3429e-02
8.000  17.250  8.8259e-02
8.000  17.500  8.1412e-02
8.000  17.750  7.4979e-02
8.000  18.000  6.9548e-02
8.000  18.250  6.9131e-02
8.000  18.500  6.4981e-02
8.000  18.750  5.6207e-02
8.000  19.000  5.0673e-02
8.000  19.250  4.7465e-02
8.000  19.500  4.5575e-02
8.000  19.750  4.4733e-02
8.000  20.000  4.4300e-02
8.000  20.250  4.4054e-02
8.000  20.500  4.3952e-02
8.000  20.750  4.3909e-02
8.000  21.000  4.3890e-02
8.000  21.250  4.3882e-02
8.000  21.500  4.3877e-02
8.000  21.750  4.3875e-02
8.000  22.000  4.3874e-02
8.000  22.250  4.3873e-02
8.000  22.500  4.3873e-02
8.000  22.750  4.3873e-02
8.000  23.000  4.3872e-02
8.000  23.250  4.3873e-02
8.000  23.500  4.3872e-02
8.000  23.750  4.3872e-02
8.000  24.000  4.3872e-02
8.250  17.000  9.5750e-02
8.250  17.250  9.2414e-02
8.250  17.500  8.7175e-02
8.250  17.750  8.0251e-02
8.250  18.000  7.4088e-02
8.250  18.250  6.9289e-02
8.250  18.500  6.9119e-02
8.250  18.750  6.4977e-02
8.250  19.000  5.6200e-02
8.250  19.250  5.0666e-02
8.250  19.500  4.7462e-02
8.250  19.750  4.5574e-02
8.250  20.000  4.4732e-02
8.250  20.250  4.4300e-02
8.250  20.500  4.4054e-02
8.250  20.750  4.3952e-02
8.250  21.000  4.3909e-02
8.250  21.250  4.3890e-02
8.250  21.500  4.3882e-02
8.250  21.750  4.3877e-02
8.250  22.000  4.3875e-02
8.250  22.250  4.3874e-02
8.250  22.500  4.3873e-02
8.250  22.750  4.3873e-02
8.250  23.000  4.3872e-02
8.250  23.250  4.3872e-02
8.250  23.500  4.3872e-02
8.250  23.750  4.3872e-02
8.250  24.000  4.3872e-02
8.500  17.000  9.7102e-02
8.500  17.250  9.4961e-02
8.500  17.500  9.1533e-02
8.500  17.750  8.5996e-02
8.500  18.000  7.8858e-02
8.500  18.250  7.3044e-02
8.500  18.500  6.9053e-02
8.500  18.750  6.9130e-02
8.500  19.000  6.4979e-02
8.500  19.250  5.6196e-02
8.500  19.500  5.0659e-02
8.500  19.750  4.7460e-02
8.500  20.000  4.5574e-02
8.500  20.250  4.4732e-02
8.500  20.500  4.4300e-02
8.500  20.750  4.4054e-02
8.500  21.000  4.3952e-02
8.500  21.250  4.3909e-02
8.500  21.500  4.3890e-02
8.500  21.750  4.3882e-02
8.500  22.000  4.3877e-02
8.500  22.250  4.3875e-02
8.500  22.500  4.3874e-02
8.500  22.750  4.3873e-02
8.500  23.000  4.3873e-02
8.500  23.250  4.3873e-02
8.500  23.500  4.3872e-02
8.500  23.750  4.3872e-02
8.500  24.000  4.3872e-02
8.750  17.000  9.7880e-02
8.750  17.250  9.6516e-02
8.750  17.500  9.4273e-02
8.750  17.750  9.0507e-02
8.750  18.000  8.4448e-02
8.750  18.250  7.6886e-02
8.750  18.500  7.1324e-02
8.750  18.750  6.8818e-02
8.750  19.000  6.9153e-02
8.750  19.250  6.4982e-02
8.750  19.500  5.6194e-02
8.750  19.750  5.0652e-02
8.750  20.000  4.7458e-02
8.750  20.250  4.5573e-02
8.750  20.500  4.4732e-02
8.750  20.750  4.4300e-02
8.750  21.000  4.4054e-02
8.750  21.250  4.3952e-02
8.750  21.500  4.3909e-02
8.750  21.750  4.3890e-02
8.750  22.000  4.3882e-02
8.750  22.250  4.3877e-02
8.750  22.500  4.3875e-02
8.750  22.750  4.3874e-02
8.750  23.000  4.3873e-02
8.750  23.250  4.3873e-02
8.750  23.500  4.3873e-02
8.750  23.750  4.3873e-02
8.750  24.000  4.3872e-02
9.000  17.000  9.8240e-02
9.000  17.250  9.7465e-02
9.000  17.500  9.6003e-02
9.000  17.750  9.3477e-02
9.000  18.000  8.9057e-02
9.000  18.250  8.1992e-02
9.000  18.500  7.4311e-02
9.000  18.750  7.0294e-02
9.000  19.000  6.8615e-02
9.000  19.250  6.9160e-02
9.000  19.500  6.4984e-02
9.000  19.750  5.6191e-02
9.000  20.000  5.0645e-02
9.000  20.250  4.7457e-02
9.000  20.500  4.5573e-02
9.000  20.750  4.4732e-02
9.000  21.000  4.4300e-02
9.000  21.250  4.4054e-02
9.000  21.500  4.3952e-02
9.000  21.750  4.3909e-02
9.000  22.000  4.3890e-02
9.000  22.250  4.3882e-02
9.000  22.500  4.3877e-02
9.000  22.750  4.3875e-02
9.000  23.000  4.3874e-02
9.000  23.250  4.3873e-02
9.000  23.500  4.3873e-02
9.000  23.750  4.3872e-02
9.000  24.000  4.3872e-02
9.250  17.000  9.8205e-02
9.250  17.250  9.7920e-02
9.250  17.500  9.7089e-02
9.250  17.750  9.5362e-02
9.250  18.000  9.2119e-02
9.250  18.250  8.6616e-02
9.250  18.500  7.8915e-02
9.250  18.750  7.1728e-02
9.250  19.000  6.8913e-02
9.250  19.250  6.8312e-02
9.250  19.500  6.9140e-02
9.250  19.750  6.4982e-02
9.250  20.000  5.6189e-02
9.250  20.250  5.0639e-02
9.250  20.500  4.7455e-02
9.250  20.750  4.5572e-02
9.250  21.000  4.4732e-02
9.250  21.250  4.4300e-02
9.250  21.500  4.4046e-02
9.250  21.750  4.3939e-02
9.250  22.000  4.3895e-02
9.250  22.250  4.3878e-02
9.250  22.500  4.3881e-02
9.250  22.750  4.3877e-02
9.250  23.000  4.3875e-02
9.250  23.250  4.3873e-02
9.250  23.500  4.3873e-02
9.250  23.750  4.3873e-02
9.250  24.000  4.3873e-02
9.500  17.000  9.7768e-02
9.500  17.250  9.7901e-02
9.500  17.500  9.7622e-02
9.500  17.750  9.6585e-02
9.500  18.000  9.4185e-02
9.500  18.250  8.9942e-02
9.500  18.500  8.3627e-02
9.500  18.750  7.5960e-02
9.500  19.000  7.0324e-02
9.500  19.250  6.8665e-02
9.500  19.500  6.7952e-02
9.500  19.750  6.9070e-02
9.500  20.000  6.4976e-02
9.500  20.250  5.6186e-02
9.500  20.500  5.0632e-02
9.500  20.750  4.7452e-02
9.500  21.000  4.5562e-02
9.500  21.250  4.4719e-02
9.500  21.500  4.4286e-02
9.500  21.750  4.4037e-02
9.500  22.000  4.3929e-02
9.500  22.250  4.3886e-02
9.500  22.500  4.3867e-02
9.500  22.750  4.3858e-02
9.500  23.000  4.3854e-02
9.500  23.250  4.3851e-02
9.500  23.500  4.3856e-02
9.500  23.750  4.3855e-02
9.500  24.000  4.3855e-02
9.750  17.000  9.6959e-02
9.750  17.250  9.7391e-02
9.750  17.500  9.7589e-02
9.750  17.750  9.7192e-02
9.750  18.000  9.5605e-02
9.750  18.250  9.2365e-02
9.750  18.500  8.7328e-02
9.750  18.750  8.0661e-02
9.750  19.000  7.3556e-02
9.750  19.250  6.9310e-02
9.750  19.500  6.9009e-02
9.750  19.750  6.7718e-02
9.750  20.000  6.8980e-02
9.750  20.250  6.4962e-02
9.750  20.500  5.6182e-02
9.750  20.750  5.0627e-02
9.750  21.000  4.7451e-02
9.750  21.250  4.5568e-02
9.750  21.500  4.4721e-02
9.750  21.750  4.4287e-02
9.750  22.000  4.4039e-02
9.750  22.250  4.3932e-02
9.750  22.500  4.3885e-02
9.750  22.750  4.3867e-02
9.750  23.000  4.3859e-02
9.750  23.250  4.3854e-02
9.750  23.500  4.3852e-02
9.750  23.750  4.3850e-02
9.750  24.000  4.3849e-02
10.000  17.000  9.5858e-02
10.000  17.250  9.6435e-02
10.000  17.500  9.6955e-02
10.000  17.750  9.7132e-02
10.000  18.000  9.6372e-02
10.000  18.250  9.4100e-02
10.000  18.500  9.0068e-02
10.000  18.750  8.4535e-02
10.000  19.000  7.7750e-02
10.000  19.250  7.1788e-02
10.000  19.500  6.8861e-02
10.000  19.750  6.9726e-02
10.000  20.000  6.7770e-02
10.000  20.250  6.8850e-02
10.000  20.500  6.4941e-02
10.000  20.750  5.6179e-02
10.000  21.000  5.0623e-02
10.000  21.250  4.7450e-02
10.000  21.500  4.5570e-02
10.000  21.750  4.4727e-02
10.000  22.000  4.4288e-02
10.000  22.250  4.4040e-02
10.000  22.500  4.3935e-02
10.000  22.750  4.3887e-02
10.000  23.000  4.3866e-02
10.000  23.250  4.3858e-02
10.000  23.500  4.3854e-02
10.000  23.750  4.3852e-02
10.000  24.000  4.3851e-02
10.250  17.000  9.4891e-02
10.250  17.250  9.5202e-02
10.250  17.500  9.5897e-02
10.250  17.750  9.6478e-02
10.250  18.000  9.6438e-02
10.250  18.250  9.5045e-02
10.250  18.500  9.1961e-02
10.250  18.750  8.7300e-02
10.250  19.000  8.1429e-02
10.250  19.250  7.5461e-02
10.250  19.500  7.0867e-02
10.250  19.750  6.9787e-02
10.250  20.000  6.9422e-02
10.250  20.250  6.8069e-02
10.250  20.500  6.8925e-02
10.250  20.750  6.4922e-02
10.250  21.000  5.6174e-02
10.250  21.250  5.0619e-02
10.250  21.500  4.7449e-02
10.250  21.750  4.5570e-02
10.250  22.000  4.4730e-02
10.250  22.250  4.4293e-02
10.250  22.500  4.4041e-02
10.250  22.750  4.3937e-02
10.250  23.000  4.3891e-02
10.250  23.250  4.3869e-02
10.250  23.500  4.3859e-02
10.250  23.750  4.3853e-02
10.250  24.000  4.3851e-02
10.500  17.000  9.4207e-02
10.500  17.250  9.4158e-02
10.500  17.500  9.4601e-02
10.500  17.750  9.5415e-02
10.500  18.000  9.5781e-02
10.500  18.250  9.4927e-02
10.500  18.500  9.2686e-02
10.500  18.750  8.9038e-02
10.500  19.000  8.4579e-02
10.500  19.250  7.9788e-02
10.500  19.500  7.4826e-02
10.500  19.750  7.0858e-02
10.500  20.000  7.0905e-02
10.500  20.250  7.0469e-02
10.500  20.500  6.8908e-02
10.500  20.750  6.9270e-02
10.500  21.000  6.4913e-02
10.500  21.250  5.6169e-02
10.500  21.500  5.0617e-02
10.500  21.750  4.7449e-02
10.500  22.000  4.5570e-02
10.500  22.250  4.4731e-02
10.500  22.500  4.4298e-02
10.500  22.750  4.4041e-02
10.500  23.000  4.3938e-02
10.500  23.250  4.3893e-02
10.500  23.500  4.3872e-02
10.500  23.750  4.3862e-02
10.500  24.000  4.3856e-02
10.750  17.000  9.3866e-02
10.750  17.250  9.3509e-02
10.750  17.500  9.3583e-02
10.750  17.750  9.4112e-02
10.750  18.000  9.4415e-02
10.750  18.250  9.3794e-02
10.750  18.500  9.2143e-02
10.750  18.750  8.9612e-02
10.750  19.000  8.6621e-02
10.750  19.250  8.3102e-02
10.750  19.500  7.8909e-02
10.750  19.750  7.4237e-02
10.750  20.000  7.0435e-02
10.750  20.250  7.0883e-02
10.750  20.500  7.1608e-02
10.750  20.750  6.9955e-02
10.750  21.000  6.9976e-02
10.750  21.250  6.4929e-02
10.750  21.500  5.6164e-02
10.750  21.750  5.0616e-02
10.750  22.000  4.7449e-02
10.750  22.250  4.5569e-02
10.750  22.500  4.4732e-02
10.750  22.750  4.4299e-02
10.750  23.000  4.4044e-02
10.750  23.250  4.3939e-02
10.750  23.500  4.3895e-02
10.750  23.750  4.3875e-02
10.750  24.000  4.3865e-02
11.000  17.000  9.3794e-02
11.000  17.250  9.3270e-02
11.000  17.500  9.2955e-02
11.000  17.750  9.2807e-02
11.000  18.000  9.2534e-02
11.000  18.250  9.1697e-02
11.000  18.500  9.0349e-02
11.000  18.750  8.8823e-02
11.000  19.000  8.7212e-02
11.000  19.250  8.5075e-02
11.000  19.500  8.2024e-02
11.000  19.750  7.8002e-02
11.000  20.000  7.3356e-02
11.000  20.250  6.9688e-02
11.000  20.500  7.2776e-02
11.000  20.750  7.2972e-02
11.000  21.000  7.1727e-02
11.000  21.250  7.1392e-02
11.000  21.500  6.4975e-02
11.000  21.750  5.6158e-02
11.000  22.000  5.0615e-02
11.000  22.250  4.7449e-02
11.000  22.500  4.5569e-02
11.000  22.750  4.4732e-02
11.000  23.000  4.4300e-02
11.000  23.250  4.4050e-02
11.000  23.500  4.3939e-02
11.000  23.750  4.3896e-02
11.000  24.000  4.3876e-02
11.250  17.000  9.3976e-02
11.250  17.250  9.3327e-02
11.250  17.500  9.2566e-02
11.250  17.750  9.1642e-02
11.250  18.000  9.0423e-02
11.250  18.250  8.8920e-02
11.250  18.500  8.7675e-02
11.250  18.750  8.7048e-02
11.250  19.000  8.6604e-02
11.250  19.250  8.5662e-02
11.250  19.500  8.3918e-02
11.250  19.750  8.1082e-02
11.250  20.000  7.7134e-02
11.250  20.250  7.2486e-02
11.250  20.500  6.9156e-02
11.250  20.750  7.3060e-02
11.250  21.000  7.5011e-02
11.250  21.250  7.4245e-02
11.250  21.500  7.3725e-02
11.250  21.750  6.5056e-02
11.250  22.000  5.6154e-02
11.250  22.250  5.0615e-02
11.250  22.500  4.7448e-02
11.250  22.750  4.5568e-02
11.250  23.000  4.4732e-02
11.250  23.250  4.4300e-02
11.250  23.500  4.4053e-02
11.250  23.750  4.3941e-02
11.250  24.000  4.3896e-02
11.500  17.000  9.4519e-02
11.500  17.250  9.3521e-02
11.500  17.500  9.2254e-02
11.500  17.750  9.0515e-02
11.500  18.000  8.8189e-02
11.500  18.250  8.5834e-02
11.500  18.500  8.4574e-02
11.500  18.750  8.4485e-02
11.500  19.000  8.4989e-02
11.500  19.250  8.5138e-02
11.500  19.500  8.4570e-02
11.500  19.750  8.3061e-02
11.500  20.000  8.0439e-02
11.500  20.250  7.6496e-02
11.500  20.500  7.1914e-02
11.500  20.750  6.9428e-02
11.500  21.000  7.5220e-02
11.500  21.250  7.8777e-02
11.500  21.500  7.8516e-02
11.500  21.750  7.6783e-02
11.500  22.000  6.5147e-02
11.500  22.250  5.6149e-02
11.500  22.500  5.0616e-02
11.500  22.750  4.7449e-02
11.500  23.000  4.5567e-02
11.500  23.250  4.4731e-02
11.500  23.500  4.4300e-02
11.500  23.750  4.4054e-02
11.500  24.000  4.3947e-02
11.750  17.000  9.5447e-02
11.750  17.250  9.3805e-02
11.750  17.500  9.1840e-02
11.750  17.750  8.9151e-02
11.750  18.000  8.5740e-02
11.750  18.250  8.2855e-02
11.750  18.500  8.0623e-02
11.750  18.750  7.8952e-02
11.750  19.000  7.7795e-02
11.750  19.250  7.7103e-02
11.750  19.500  7.6827e-02
11.750  19.750  7.6920e-02
11.750  20.000  7.7335e-02
11.750  20.250  7.8021e-02
11.750  20.500  7.8932e-02
11.750  20.750  8.0020e-02
11.750  21.000  8.1235e-02
11.750  21.250  8.2531e-02
11.750  21.500  8.3859e-02
11.750  21.750  8.4282e-02
11.750  22.000  7.8870e-02
11.750  22.250  6.5224e-02
11.750  22.500  5.6139e-02
11.750  22.750  5.0617e-02
11.750  23.000  4.7450e-02
11.750  23.250  4.5565e-02
11.750  23.500  4.4731e-02
11.750  23.750  4.4300e-02
11.750  24.000  4.4054e-02
12.000  17.000  9.6483e-02
12.000  17.250  9.4052e-02
12.000  17.500  9.1040e-02
12.000  17.750  8.7188e-02
12.000  18.000  8.3018e-02
12.000  18.250  8.0196e-02
12.000  18.500  7.9012e-02
12.000  18.750  7.9054e-02
12.000  19.000  8.0017e-02
12.000  19.250  8.1562e-02
12.000  19.500  8.2926e-02
12.000  19.750  8.3641e-02
12.000  20.000  8.3610e-02
12.000  20.250  8.2636e-02
12.000  20.500  8.0614e-02
12.000  20.750  7.8495e-02
12.000  21.000  7.7500e-02
12.000  21.250  7.8854e-02
12.000  21.500  8.3780e-02
12.000  21.750  9.0899e-02
12.000  22.000  9.0403e-02
12.000  22.250  7.9548e-02
12.000  22.500  6.5293e-02
12.000  22.750  5.6121e-02
12.000  23.000  5.0614e-02
12.000  23.250  4.7452e-02
12.000  23.500  4.5564e-02
12.000  23.750  4.4730e-02
12.000  24.000  4.4300e-02
12.250  17.000  9.7033e-02
12.250  17.250  9.3618e-02
12.250  17.500  8.9305e-02
12.250  17.750  8.4286e-02
12.250  18.000  8.0054e-02
12.250  18.250  7.7645e-02
12.250  18.500  7.6812e-02
12.250  18.750  7.6848e-02
12.250  19.000  7.7600e-02
12.250  19.250  7.9126e-02
12.250  19.500  8.1028e-02
12.250  19.750  8.3111e-02
12.250  20.000  8.5304e-02
12.250  20.250  8.7543e-02
12.250  20.500  8.9768e-02
12.250  20.750  9.1915e-02
12.250  21.000  9.3923e-02
12.250  21.250  9.5730e-02
12.250  21.500  9.7272e-02
12.250  21.750  9.8489e-02
12.250  22.000  9.9317e-02
12.250  22.250  9.6269e-02
12.250  22.500  8.0091e-02
12.250  22.750  6.5340e-02
12.250  23.000  5.6095e-02
12.250  23.250  5.0608e-02
12.250  23.500  4.7452e-02
12.250  23.750  4.5561e-02
12.250  24.000  4.4729e-02
12.500  17.000  7.7246e-02
12.500  17.250  9.1180e-02
12.500  17.500  8.5860e-02
12.500  17.750  8.0492e-02
12.500  18.000  7.7794e-02
12.500  18.250  7.6705e-02
12.500  18.500  7.7018e-02
12.500  18.750  7.8525e-02
12.500  19.000  8.1019e-02
12.500  19.250  8.4292e-02
12.500  19.500  8.8136e-02
12.500  19.750  9.2344e-02
12.500  20.000  9.6709e-02
12.500  20.250  1.0102e-01
12.500  20.500  1.0508e-01
12.500  20.750  1.0866e-01
12.500  21.000  1.1158e-01
12.500  21.250  1.1361e-01
12.500  21.500  1.1455e-01
12.500  21.750  1.1419e-01
12.500  22.000  1.1233e-01
12.500  22.250  1.0876e-01
12.500  22.500  1.0040e-01
12.500  22.750  8.0579e-02
12.500  23.000  6.5390e-02
12.500  23.250  5.6062e-02
12.500  23.500  5.0597e-02
12.500  23.750  4.7451e-02
12.500  24.000  4.5558e-02
12.750  17.000  4.4791e-02
12.750  17.250  7.4795e-02
12.750  17.500  8.0138e-02
12.750  17.750  7.6027e-02
12.750  18.000  7.3144e-02
12.750  18.250  7.2277e-02
12.750  18.500  7.2388e-02
12.750  18.750  7.3029e-02
12.750  19.000  7.3971e-02
12.750  19.250  7.5179e-02
12.750  19.500  7.8492e-02
12.750  19.750  8.3944e-02
12.750  20.000  9.0953e-02
12.750  20.250  9.8936e-02
12.750  20.500  1.0731e-01
12.750  20.750  1.1550e-01
12.750  21.000  1.2292e-01
12.750  21.250  1.2898e-01
12.750  21.500  1.3312e-01
12.750  21.750  1.3473e-01
12.750  22.000  1.3325e-01
12.750  22.250  1.2809e-01
12.750  22.500  1.1867e-01
12.750  22.750  1.0327e-01
12.750  23.000  8.0917e-02
12.750  23.250  6.5431e-02
12.750  23.500  5.6024e-02
12.750  23.750  5.0581e-02
12.750  24.000  4.7445e-02
13.000  17.000  1.1893e-02
13.000  17.250  2.0023e-02
13.000  17.500  5.1093e-02
13.000  17.750  6.9049e-02
13.000  18.000  6.9168e-02
13.000  18.250  6.8884e-02
13.000  18.500  6.9430e-02
13.000  18.750  7.0577e-02
13.000  19.000  7.2016e-02
13.000  19.250  7.3560e-02
13.000  19.500  7.5178e-02
13.000  19.750  7.7167e-02
13.000  20.000  7.9621e-02
13.000  20.250  8.2294e-02
13.000  20.500  8.5028e-02
13.000  20.750  8.7514e-02
13.000  21.000  8.9904e-02
13.000  21.250  9.3480e-02
13.000  21.500  9.6748e-02
13.000  21.750  9.7857e-02
13.000  22.000  1.0245e-01
13.000  22.250  1.1544e-01
13.000  22.500  1.2597e-01
13.000  22.750  1.2571e-01
13.000  23.000  1.0521e-01
13.000  23.250  8.1324e-02
13.000  23.500  6.5492e-02
13.000  23.750  5.5979e-02
13.000  24.000  5.0555e-02
13.250  17.000  8.8128e-03
13.250  17.250  1.1917e-02
13.250  17.500  2.1032e-02
13.250  17.750  3.8782e-02
13.250  18.000  5.3093e-02
13.250  18.250  6.5004e-02
13.250  18.500  6.5849e-02
13.250  18.750  6.7387e-02
13.250  19.000  6.9407e-02
13.250  19.250  7.1513e-02
13.250  19.500  7.3568e-02
13.250  19.750  7.5668e-02
13.250  20.000  7.7992e-02
13.250  20.250  8.0598e-02
13.250  20.500  8.3485e-02
13.250  20.750  8.6931e-02
13.250  21.000  9.0312e-02
13.250  21.250  9.4247e-02
13.250  21.500  9.6619e-02
13.250  21.750  9.9630e-02
13.250  22.000  1.0513e-01
13.250  22.250  1.1500e-01
13.250  22.500  1.2771e-01
13.250  22.750  1.3367e-01
13.250  23.000  1.2845e-01
13.250  23.250  1.0679e-01
13.250  23.500  8.1607e-02
13.250  23.750  6.5467e-02
13.250  24.000  5.5923e-02
13.500  17.000  6.9907e-03
13.500  17.250  9.2623e-03
13.500  17.500  1.4450e-02
13.500  17.750  2.4260e-02
13.500  18.000  4.1513e-02
13.500  18.250  5.2441e-02
13.500  18.500  6.1889e-02
13.500  18.750  6.3676e-02
13.500  19.000  6.6048e-02
13.500  19.250  6.8722e-02
13.500  19.500  7.1381e-02
13.500  19.750  7.3951e-02
13.500  20.000  7.6518e-02
13.500  20.250  7.9274e-02
13.500  20.500  8.2105e-02
13.500  20.750  8.5290e-02
13.500  21.000  8.8461e-02
13.500  21.250  9.2492e-02
13.500  21.500  9.4728e-02
13.500  21.750  9.8259e-02
13.500  22.000  1.0404e-01
13.500  22.250  1.1194e-01
13.500  22.500  1.2836e-01
13.500  22.750  1.3996e-01
13.500  23.000  1.4001e-01
13.500  23.250  1.3166e-01
13.500  23.500  1.0821e-01
13.500  23.750  8.1806e-02
13.500  24.000  6.5403e-02
13.750  17.000  5.9770e-03
13.750  17.250  7.6440e-03
13.750  17.500  1.0992e-02
13.750  17.750  1.5971e-02
13.750  18.000  2.7677e-02
13.750  18.250  4.3450e-02
13.750  18.500  5.0987e-02
13.750  18.750  5.9596e-02
13.750  19.000  6.2159e-02
13.750  19.250  6.5191e-02
13.750  19.500  6.8450e-02
13.750  19.750  7.1637e-02
13.750  20.000  7.4749e-02
13.750  20.250  7.7902e-02
13.750  20.500  8.1167e-02
13.750  20.750  8.4433e-02
13.750  21.000  8.7656e-02
13.750  21.250  9.0486e-02
13.750  21.500  9.3293e-02
13.750  21.750  9.5647e-02
13.750  22.000  9.8620e-02
13.750  22.250  1.0610e-01
13.750  22.500  1.2382e-01
13.750  22.750  1.5173e-01
13.750  23.000  1.5288e-01
13.750  23.250  1.4824e-01
13.750  23.500  1.3477e-01
13.750  23.750  1.0934e-01
13.750  24.000  8.1868e-02
14.000  17.000  5.3782e-03
14.000  17.250  6.4954e-03
14.000  17.500  9.0030e-03
14.000  17.750  1.2473e-02
14.000  18.000  1.8281e-02
14.000  18.250  3.0115e-02
14.000  18.500  4.3358e-02
14.000  18.750  5.2553e-02
14.000  19.000  5.7991e-02
14.000  19.250  6.1162e-02
14.000  19.500  6.4821e-02
14.000  19.750  6.8629e-02
14.000  20.000  7.2349e-02
14.000  20.250  7.6052e-02
14.000  20.500  7.9843e-02
14.000  20.750  8.3713e-02
14.000  21.000  8.7492e-02
14.000  21.250  9.1017e-02
14.000  21.500  9.3604e-02
14.000  21.750  9.5905e-02
14.000  22.000  9.8023e-02
14.000  22.250  1.0331e-01
14.000  22.500  1.1786e-01
14.000  22.750  1.4938e-01
14.000  23.000  1.8205e-01
14.000  23.250  1.7448e-01
14.000  23.500  1.6065e-01
14.000  23.750  1.4062e-01
14.000  24.000  1.0995e-01
