InwC 1.11867m  relative to Inci 1215.00A scaled to 1215A.
Hden   Phi(H)  Eq_Width (A)
7.000  17.000  1.7792e-02
7.000  17.250  2.5418e-02
7.000  17.500  3.5561e-02
7.000  17.750  4.7959e-02
7.000  18.000  6.0093e-02
7.000  18.250  6.8427e-02
7.000  18.500  7.1126e-02
7.000  18.750  7.1772e-02
7.000  19.000  7.1682e-02
7.000  19.250  7.1667e-02
7.000  19.500  7.1574e-02
7.000  19.750  7.1477e-02
7.000  20.000  7.1476e-02
7.000  20.250  7.1476e-02
7.000  20.500  7.1476e-02
7.000  20.750  7.1476e-02
7.000  21.000  7.1476e-02
7.000  21.250  7.1476e-02
7.000  21.500  7.1476e-02
7.000  21.750  7.1477e-02
7.000  22.000  7.1477e-02
7.000  22.250  7.1476e-02
7.000  22.500  7.1477e-02
7.000  22.750  7.1477e-02
7.000  23.000  7.1477e-02
7.000  23.250  7.1476e-02
7.000  23.500  7.1476e-02
7.000  23.750  7.1476e-02
7.000  24.000  7.1477e-02
7.250  17.000  1.2587e-02
7.250  17.250  1.8355e-02
7.250  17.500  2.6390e-02
7.250  17.750  3.6951e-02
7.250  18.000  4.9486e-02
7.250  18.250  6.1093e-02
7.250  18.500  6.8650e-02
7.250  18.750  7.1135e-02
7.250  19.000  7.1774e-02
7.250  19.250  7.1683e-02
7.250  19.500  7.1666e-02
7.250  19.750  7.1573e-02
7.250  20.000  7.1478e-02
7.250  20.250  7.1476e-02
7.250  20.500  7.1476e-02
7.250  20.750  7.1476e-02
7.250  21.000  7.1477e-02
7.250  21.250  7.1477e-02
7.250  21.500  7.1477e-02
7.250  21.750  7.1477e-02
7.250  22.000  7.1476e-02
7.250  22.250  7.1476e-02
7.250  22.500  7.1477e-02
7.250  22.750  7.1477e-02
7.250  23.000  7.1476e-02
7.250  23.250  7.1477e-02
7.250  23.500  7.1477e-02
7.250  23.750  7.1476e-02
7.250  24.000  7.1477e-02
7.500  17.000  8.8717e-03
7.500  17.250  1.3041e-02
7.500  17.500  1.9247e-02
7.500  17.750  2.7970e-02
7.500  18.000  3.9056e-02
7.500  18.250  5.1706e-02
7.500  18.500  6.2155e-02
7.500  18.750  6.8862e-02
7.500  19.000  7.1143e-02
7.500  19.250  7.1772e-02
7.500  19.500  7.1682e-02
7.500  19.750  7.1665e-02
7.500  20.000  7.1574e-02
7.500  20.250  7.1478e-02
7.500  20.500  7.1476e-02
7.500  20.750  7.1477e-02
7.500  21.000  7.1476e-02
7.500  21.250  7.1476e-02
7.500  21.500  7.1476e-02
7.500  21.750  7.1476e-02
7.500  22.000  7.1476e-02
7.500  22.250  7.1477e-02
7.500  22.500  7.1476e-02
7.500  22.750  7.1476e-02
7.500  23.000  7.1477e-02
7.500  23.250  7.1477e-02
7.500  23.500  7.1477e-02
7.500  23.750  7.1477e-02
7.500  24.000  7.1477e-02
7.750  17.000  6.3035e-03
7.750  17.250  9.2167e-03
7.750  17.500  1.3822e-02
7.750  17.750  2.0805e-02
7.750  18.000  3.0502e-02
7.750  18.250  4.2268e-02
7.750  18.500  5.4381e-02
7.750  18.750  6.3374e-02
7.750  19.000  6.9080e-02
7.750  19.250  7.1154e-02
7.750  19.500  7.1771e-02
7.750  19.750  7.1682e-02
7.750  20.000  7.1667e-02
7.750  20.250  7.1573e-02
7.750  20.500  7.1477e-02
7.750  20.750  7.1476e-02
7.750  21.000  7.1476e-02
7.750  21.250  7.1476e-02
7.750  21.500  7.1476e-02
7.750  21.750  7.1477e-02
7.750  22.000  7.1477e-02
7.750  22.250  7.1476e-02
7.750  22.500  7.1476e-02
7.750  22.750  7.1477e-02
7.750  23.000  7.1477e-02
7.750  23.250  7.1476e-02
7.750  23.500  7.1476e-02
7.750  23.750  7.1476e-02
7.750  24.000  7.1476e-02
8.000  17.000  4.5301e-03
8.000  17.250  6.5519e-03
8.000  17.500  9.8084e-03
8.000  17.750  1.5182e-02
8.000  18.000  2.3420e-02
8.000  18.250  3.4296e-02
8.000  18.500  4.6136e-02
8.000  18.750  5.7282e-02
8.000  19.000  6.4397e-02
8.000  19.250  6.9219e-02
8.000  19.500  7.1160e-02
8.000  19.750  7.1773e-02
8.000  20.000  7.1681e-02
8.000  20.250  7.1666e-02
8.000  20.500  7.1570e-02
8.000  20.750  7.1477e-02
8.000  21.000  7.1475e-02
8.000  21.250  7.1476e-02
8.000  21.500  7.1477e-02
8.000  21.750  7.1476e-02
8.000  22.000  7.1477e-02
8.000  22.250  7.1477e-02
8.000  22.500  7.1477e-02
8.000  22.750  7.1476e-02
8.000  23.000  7.1476e-02
8.000  23.250  7.1477e-02
8.000  23.500  7.1477e-02
8.000  23.750  7.1477e-02
8.000  24.000  7.1477e-02
8.250  17.000  3.2950e-03
8.250  17.250  4.7253e-03
8.250  17.500  7.0235e-03
8.250  17.750  1.0953e-02
8.250  18.000  1.7718e-02
8.250  18.250  2.7559e-02
8.250  18.500  3.9219e-02
8.250  18.750  5.0209e-02
8.250  19.000  6.0279e-02
8.250  19.250  6.5147e-02
8.250  19.500  6.9472e-02
8.250  19.750  7.1175e-02
8.250  20.000  7.1772e-02
8.250  20.250  7.1681e-02
8.250  20.500  7.1666e-02
8.250  20.750  7.1573e-02
8.250  21.000  7.1478e-02
8.250  21.250  7.1476e-02
8.250  21.500  7.1476e-02
8.250  21.750  7.1476e-02
8.250  22.000  7.1477e-02
8.250  22.250  7.1476e-02
8.250  22.500  7.1477e-02
8.250  22.750  7.1477e-02
8.250  23.000  7.1477e-02
8.250  23.250  7.1477e-02
8.250  23.500  7.1477e-02
8.250  23.750  7.1476e-02
8.250  24.000  7.1476e-02
8.500  17.000  2.4064e-03
8.500  17.250  3.4431e-03
8.500  17.500  5.0823e-03
8.500  17.750  7.9040e-03
8.500  18.000  1.3098e-02
8.500  18.250  2.1527e-02
8.500  18.500  3.2545e-02
8.500  18.750  4.3776e-02
8.500  19.000  5.3321e-02
8.500  19.250  6.1304e-02
8.500  19.500  6.5835e-02
8.500  19.750  6.9558e-02
8.500  20.000  7.1190e-02
8.500  20.250  7.1772e-02
8.500  20.500  7.1681e-02
8.500  20.750  7.1665e-02
8.500  21.000  7.1570e-02
8.500  21.250  7.1477e-02
8.500  21.500  7.1476e-02
8.500  21.750  7.1477e-02
8.500  22.000  7.1476e-02
8.500  22.250  7.1476e-02
8.500  22.500  7.1476e-02
8.500  22.750  7.1476e-02
8.500  23.000  7.1476e-02
8.500  23.250  7.1476e-02
8.500  23.500  7.1477e-02
8.500  23.750  7.1477e-02
8.500  24.000  7.1477e-02
8.750  17.000  1.7553e-03
8.750  17.250  2.5179e-03
8.750  17.500  3.7131e-03
8.750  17.750  5.7621e-03
8.750  18.000  9.6201e-03
8.750  18.250  1.6345e-02
8.750  18.500  2.5966e-02
8.750  18.750  3.6870e-02
8.750  19.000  4.6805e-02
8.750  19.250  5.6541e-02
8.750  19.500  6.2588e-02
8.750  19.750  6.6471e-02
8.750  20.000  6.9490e-02
8.750  20.250  7.1209e-02
8.750  20.500  7.1771e-02
8.750  20.750  7.1681e-02
8.750  21.000  7.1667e-02
8.750  21.250  7.1569e-02
8.750  21.500  7.1478e-02
8.750  21.750  7.1476e-02
8.750  22.000  7.1476e-02
8.750  22.250  7.1477e-02
8.750  22.500  7.1476e-02
8.750  22.750  7.1477e-02
8.750  23.000  7.1476e-02
8.750  23.250  7.1476e-02
8.750  23.500  7.1477e-02
8.750  23.750  7.1477e-02
8.750  24.000  7.1476e-02
9.000  17.000  1.2736e-03
9.000  17.250  1.8374e-03
9.000  17.500  2.7199e-03
9.000  17.750  4.2307e-03
9.000  18.000  7.1069e-03
9.000  18.250  1.2302e-02
9.000  18.500  2.0164e-02
9.000  18.750  2.9950e-02
9.000  19.000  4.0064e-02
9.000  19.250  4.9564e-02
9.000  19.500  5.8605e-02
9.000  19.750  6.3130e-02
9.000  20.000  6.7029e-02
9.000  20.250  6.9411e-02
9.000  20.500  7.1230e-02
9.000  20.750  7.1770e-02
9.000  21.000  7.1681e-02
9.000  21.250  7.1667e-02
9.000  21.500  7.1574e-02
9.000  21.750  7.1478e-02
9.000  22.000  7.1476e-02
9.000  22.250  7.1476e-02
9.000  22.500  7.1476e-02
9.000  22.750  7.1476e-02
9.000  23.000  7.1476e-02
9.000  23.250  7.1477e-02
9.000  23.500  7.1477e-02
9.000  23.750  7.1477e-02
9.000  24.000  7.1476e-02
9.250  17.000  9.1926e-04
9.250  17.250  1.3371e-03
9.250  17.500  1.9895e-03
9.250  17.750  3.1192e-03
9.250  18.000  5.3015e-03
9.250  18.250  9.3444e-03
9.250  18.500  1.5563e-02
9.250  18.750  2.3333e-02
9.250  19.000  3.2647e-02
9.250  19.250  4.2556e-02
9.250  19.500  5.1559e-02
9.250  19.750  5.9757e-02
9.250  20.000  6.3739e-02
9.250  20.250  6.7410e-02
9.250  20.500  6.9313e-02
9.250  20.750  7.1250e-02
9.250  21.000  7.1768e-02
9.250  21.250  7.1680e-02
9.250  21.500  7.1666e-02
9.250  21.750  7.1565e-02
9.250  22.000  7.1446e-02
9.250  22.250  7.1471e-02
9.250  22.500  7.1476e-02
9.250  22.750  7.1476e-02
9.250  23.000  7.1476e-02
9.250  23.250  7.1476e-02
9.250  23.500  7.1476e-02
9.250  23.750  7.1477e-02
9.250  24.000  7.1476e-02
9.500  17.000  6.5992e-04
9.500  17.250  9.6683e-04
9.500  17.500  1.4522e-03
9.500  17.750  2.3031e-03
9.500  18.000  3.9472e-03
9.500  18.250  7.1313e-03
9.500  18.500  1.1963e-02
9.500  18.750  1.8046e-02
9.500  19.000  2.5526e-02
9.500  19.250  3.4195e-02
9.500  19.500  4.3480e-02
9.500  19.750  5.3519e-02
9.500  20.000  6.0123e-02
9.500  20.250  6.4083e-02
9.500  20.500  6.7415e-02
9.500  20.750  6.9193e-02
9.500  21.000  7.1265e-02
9.500  21.250  7.1760e-02
9.500  21.500  7.1663e-02
9.500  21.750  7.1625e-02
9.500  22.000  7.1489e-02
9.500  22.250  7.1288e-02
9.500  22.500  7.1179e-02
9.500  22.750  7.1157e-02
9.500  23.000  7.1140e-02
9.500  23.250  7.1133e-02
9.500  23.500  7.1264e-02
9.500  23.750  7.1262e-02
9.500  24.000  7.1260e-02
9.750  17.000  4.7226e-04
9.750  17.250  6.9539e-04
9.750  17.500  1.0540e-03
9.750  17.750  1.6923e-03
9.750  18.000  2.9940e-03
9.750  18.250  5.4635e-03
9.750  18.500  9.0836e-03
9.750  18.750  1.3727e-02
9.750  19.000  1.9502e-02
9.750  19.250  2.6640e-02
9.750  19.500  3.5145e-02
9.750  19.750  4.4607e-02
9.750  20.000  5.4286e-02
9.750  20.250  6.0347e-02
9.750  20.500  6.4563e-02
9.750  20.750  6.7147e-02
9.750  21.000  6.9071e-02
9.750  21.250  7.1295e-02
9.750  21.500  7.1757e-02
9.750  21.750  7.1671e-02
9.750  22.000  7.1626e-02
9.750  22.250  7.1486e-02
9.750  22.500  7.1303e-02
9.750  22.750  7.1207e-02
9.750  23.000  7.1194e-02
9.750  23.250  7.1182e-02
9.750  23.500  7.1178e-02
9.750  23.750  7.1174e-02
9.750  24.000  7.1171e-02
10.000  17.000  3.3827e-04
10.000  17.250  4.9811e-04
10.000  17.500  7.5975e-04
10.000  17.750  1.2370e-03
10.000  18.000  2.2200e-03
10.000  18.250  4.0895e-03
10.000  18.500  6.8201e-03
10.000  18.750  1.0291e-02
10.000  19.000  1.4621e-02
10.000  19.250  2.0188e-02
10.000  19.500  2.7148e-02
10.000  19.750  3.5738e-02
10.000  20.000  4.5448e-02
10.000  20.250  5.4598e-02
10.000  20.500  6.0696e-02
10.000  20.750  6.4849e-02
10.000  21.000  6.6864e-02
10.000  21.250  6.8962e-02
10.000  21.500  7.1318e-02
10.000  21.750  7.1748e-02
10.000  22.000  7.1671e-02
10.000  22.250  7.1638e-02
10.000  22.500  7.1492e-02
10.000  22.750  7.1301e-02
10.000  23.000  7.1223e-02
10.000  23.250  7.1216e-02
10.000  23.500  7.1207e-02
10.000  23.750  7.1207e-02
10.000  24.000  7.1205e-02
10.250  17.000  2.4255e-04
10.250  17.250  3.5613e-04
10.250  17.500  5.4477e-04
10.250  17.750  9.0132e-04
10.250  18.000  1.6467e-03
10.250  18.250  3.0320e-03
10.250  18.500  5.0050e-03
10.250  18.750  7.5645e-03
10.250  19.000  1.0741e-02
10.250  19.250  1.4947e-02
10.250  19.500  2.0450e-02
10.250  19.750  2.7514e-02
10.250  20.000  3.6096e-02
10.250  20.250  4.5884e-02
10.250  20.500  5.4823e-02
10.250  20.750  6.1107e-02
10.250  21.000  6.4785e-02
10.250  21.250  6.6625e-02
10.250  21.500  6.9026e-02
10.250  21.750  7.1320e-02
10.250  22.000  7.1727e-02
10.250  22.250  7.1667e-02
10.250  22.500  7.1652e-02
10.250  22.750  7.1500e-02
10.250  23.000  7.1305e-02
10.250  23.250  7.1231e-02
10.250  23.500  7.1229e-02
10.250  23.750  7.1225e-02
10.250  24.000  7.1224e-02
10.500  17.000  1.7432e-04
10.500  17.250  2.5449e-04
10.500  17.500  3.8938e-04
10.500  17.750  6.4979e-04
10.500  18.000  1.2036e-03
10.500  18.250  2.2052e-03
10.500  18.500  3.5937e-03
10.500  18.750  5.4442e-03
10.500  19.000  7.8154e-03
10.500  19.250  1.0901e-02
10.500  19.500  1.5172e-02
10.500  19.750  2.0739e-02
10.500  20.000  2.7823e-02
10.500  20.250  3.6362e-02
10.500  20.500  4.6150e-02
10.500  20.750  5.5030e-02
10.500  21.000  6.1355e-02
10.500  21.250  6.4397e-02
10.500  21.500  6.6628e-02
10.500  21.750  6.9066e-02
10.500  22.000  7.1248e-02
10.500  22.250  7.1694e-02
10.500  22.500  7.1661e-02
10.500  22.750  7.1655e-02
10.500  23.000  7.1543e-02
10.500  23.250  7.1340e-02
10.500  23.500  7.1251e-02
10.500  23.750  7.1234e-02
10.500  24.000  7.1236e-02
10.750  17.000  1.2551e-04
10.750  17.250  1.8206e-04
10.750  17.500  2.7728e-04
10.750  17.750  4.6436e-04
10.750  18.000  8.5053e-04
10.750  18.250  1.5595e-03
10.750  18.500  2.5216e-03
10.750  18.750  3.8147e-03
10.750  19.000  5.5291e-03
10.750  19.250  7.9034e-03
10.750  19.500  1.1115e-02
10.750  19.750  1.5403e-02
10.750  20.000  2.0982e-02
10.750  20.250  2.7962e-02
10.750  20.500  3.6354e-02
10.750  20.750  4.6051e-02
10.750  21.000  5.4943e-02
10.750  21.250  6.1271e-02
10.750  21.500  6.4314e-02
10.750  21.750  6.6469e-02
10.750  22.000  6.9104e-02
10.750  22.250  7.1115e-02
10.750  22.500  7.1639e-02
10.750  22.750  7.1647e-02
10.750  23.000  7.1652e-02
10.750  23.250  7.1560e-02
10.750  23.500  7.1428e-02
10.750  23.750  7.1338e-02
10.750  24.000  7.1278e-02
11.000  17.000  9.0288e-05
11.000  17.250  1.3053e-04
11.000  17.500  1.9712e-04
11.000  17.750  3.2840e-04
11.000  18.000  5.9827e-04
11.000  18.250  1.0789e-03
11.000  18.500  1.7321e-03
11.000  18.750  2.6510e-03
11.000  19.000  3.8974e-03
11.000  19.250  5.6372e-03
11.000  19.500  8.0374e-03
11.000  19.750  1.1282e-02
11.000  20.000  1.5552e-02
11.000  20.250  2.1045e-02
11.000  20.500  2.7784e-02
11.000  20.750  3.5820e-02
11.000  21.000  4.5300e-02
11.000  21.250  5.4337e-02
11.000  21.500  6.1277e-02
11.000  21.750  6.3859e-02
11.000  22.000  6.6239e-02
11.000  22.250  6.9062e-02
11.000  22.500  7.0909e-02
11.000  22.750  7.1560e-02
11.000  23.000  7.1625e-02
11.000  23.250  7.1645e-02
11.000  23.500  7.1559e-02
11.000  23.750  7.1460e-02
11.000  24.000  7.1431e-02
11.250  17.000  6.5926e-05
11.250  17.250  9.3169e-05
11.250  17.500  1.3992e-04
11.250  17.750  2.3004e-04
11.250  18.000  4.1416e-04
11.250  18.250  7.2403e-04
11.250  18.500  1.1574e-03
11.250  18.750  1.7850e-03
11.250  19.000  2.6826e-03
11.250  19.250  3.9436e-03
11.250  19.500  5.7215e-03
11.250  19.750  8.1378e-03
11.250  20.000  1.1370e-02
11.250  20.250  1.5588e-02
11.250  20.500  2.0829e-02
11.250  20.750  2.7095e-02
11.250  21.000  3.4537e-02
11.250  21.250  4.3729e-02
11.250  21.500  5.3912e-02
11.250  21.750  6.0214e-02
11.250  22.000  6.3111e-02
11.250  22.250  6.5787e-02
11.250  22.500  6.8794e-02
11.250  22.750  7.0592e-02
11.250  23.000  7.1450e-02
11.250  23.250  7.1588e-02
11.250  23.500  7.1632e-02
11.250  23.750  7.1557e-02
11.250  24.000  7.1469e-02
11.500  17.000  4.7572e-05
11.500  17.250  6.7654e-05
11.500  17.500  9.8683e-05
11.500  17.750  1.5926e-04
11.500  18.000  2.8033e-04
11.500  18.250  4.7778e-04
11.500  18.500  7.6313e-04
11.500  18.750  1.1840e-03
11.500  19.000  1.8323e-03
11.500  19.250  2.7451e-03
11.500  19.500  4.0160e-03
11.500  19.750  5.7839e-03
11.500  20.000  8.1894e-03
11.500  20.250  1.1365e-02
11.500  20.500  1.5387e-02
11.500  20.750  2.0193e-02
11.500  21.000  2.5674e-02
11.500  21.250  3.2317e-02
11.500  21.500  4.2203e-02
11.500  21.750  5.2212e-02
11.500  22.000  5.8502e-02
11.500  22.250  6.1913e-02
11.500  22.500  6.4964e-02
11.500  22.750  6.8120e-02
11.500  23.000  7.0144e-02
11.500  23.250  7.1286e-02
11.500  23.500  7.1535e-02
11.500  23.750  7.1612e-02
11.500  24.000  7.1552e-02
11.750  17.000  2.7325e-05
11.750  17.250  5.0370e-05
11.750  17.500  7.1029e-05
11.750  17.750  1.0955e-04
11.750  18.000  1.8642e-04
11.750  18.250  3.1177e-04
11.750  18.500  5.0296e-04
11.750  18.750  7.9671e-04
11.750  19.000  1.2369e-03
11.750  19.250  1.8731e-03
11.750  19.500  2.7802e-03
11.750  19.750  4.0598e-03
11.750  20.000  5.8223e-03
11.750  20.250  8.1806e-03
11.750  20.500  1.1220e-02
11.750  20.750  1.4876e-02
11.750  21.000  1.8948e-02
11.750  21.250  2.3376e-02
11.750  21.500  3.0244e-02
11.750  21.750  3.9271e-02
11.750  22.000  4.9427e-02
11.750  22.250  5.5969e-02
11.750  22.500  6.0051e-02
11.750  22.750  6.3702e-02
11.750  23.000  6.7032e-02
11.750  23.250  6.9490e-02
11.750  23.500  7.1048e-02
11.750  23.750  7.1456e-02
11.750  24.000  7.1583e-02
12.000  17.000  1.2510e-05
12.000  17.250  2.9465e-05
12.000  17.500  5.2840e-05
12.000  17.750  7.6790e-05
12.000  18.000  1.2321e-04
12.000  18.250  2.0305e-04
12.000  18.500  3.3251e-04
12.000  18.750  5.3424e-04
12.000  19.000  8.2840e-04
12.000  19.250  1.2588e-03
12.000  19.500  1.8950e-03
12.000  19.750  2.8032e-03
12.000  20.000  4.0784e-03
12.000  20.250  5.8137e-03
12.000  20.500  8.0743e-03
12.000  20.750  1.0834e-02
12.000  21.000  1.3895e-02
12.000  21.250  1.6933e-02
12.000  21.500  2.1288e-02
12.000  21.750  2.6730e-02
12.000  22.000  3.5433e-02
12.000  22.250  4.5303e-02
12.000  22.500  5.2421e-02
12.000  22.750  5.7275e-02
12.000  23.000  6.1636e-02
12.000  23.250  6.5406e-02
12.000  23.500  6.8528e-02
12.000  23.750  7.0682e-02
12.000  24.000  7.1333e-02
12.250  17.000  5.8436e-06
12.250  17.250  1.3827e-05
12.250  17.500  3.1440e-05
12.250  17.750  5.6543e-05
12.250  18.000  8.5103e-05
12.250  18.250  1.3654e-04
12.250  18.500  2.2395e-04
12.250  18.750  3.5235e-04
12.250  19.000  5.4198e-04
12.250  19.250  8.3786e-04
12.250  19.500  1.2722e-03
12.250  19.750  1.9077e-03
12.250  20.000  2.8153e-03
12.250  20.250  4.0700e-03
12.250  20.500  5.7342e-03
12.250  20.750  7.8058e-03
12.250  21.000  1.0114e-02
12.250  21.250  1.2301e-02
12.250  21.500  1.5110e-02
12.250  21.750  1.7874e-02
12.250  22.000  2.2750e-02
12.250  22.250  3.0959e-02
12.250  22.500  4.0349e-02
12.250  22.750  4.7618e-02
12.250  23.000  5.3331e-02
12.250  23.250  5.8610e-02
12.250  23.500  6.3059e-02
12.250  23.750  6.7114e-02
12.250  24.000  7.0132e-02
12.500  17.000  2.8807e-06
12.500  17.250  6.4198e-06
12.500  17.500  1.4979e-05
12.500  17.750  3.3086e-05
12.500  18.000  6.3045e-05
12.500  18.250  9.6214e-05
12.500  18.500  1.4897e-04
12.500  18.750  2.3136e-04
12.500  19.000  3.5737e-04
12.500  19.250  5.5062e-04
12.500  19.500  8.4387e-04
12.500  19.750  1.2799e-03
12.500  20.000  1.9132e-03
12.500  20.250  2.8081e-03
12.500  20.500  4.0151e-03
12.500  20.750  5.5463e-03
12.500  21.000  7.2996e-03
12.500  21.250  8.9365e-03
12.500  21.500  1.0857e-02
12.500  21.750  1.2125e-02
12.500  22.000  1.4241e-02
12.500  22.250  1.8889e-02
12.500  22.500  2.6587e-02
12.500  22.750  3.4627e-02
12.500  23.000  4.1565e-02
12.500  23.250  4.8227e-02
12.500  23.500  5.4462e-02
12.500  23.750  5.9792e-02
12.500  24.000  6.5076e-02
12.750  17.000  1.4815e-06
12.750  17.250  3.1276e-06
12.750  17.500  7.0782e-06
12.750  17.750  1.5556e-05
12.750  18.000  3.3416e-05
12.750  18.250  6.4774e-05
12.750  18.500  9.6955e-05
12.750  18.750  1.4560e-04
12.750  19.000  2.3226e-04
12.750  19.250  3.5926e-04
12.750  19.500  5.5383e-04
12.750  19.750  8.4576e-04
12.750  20.000  1.2784e-03
12.750  20.250  1.9070e-03
12.750  20.500  2.7686e-03
12.750  20.750  3.8884e-03
12.750  21.000  5.2019e-03
12.750  21.250  6.4590e-03
12.750  21.500  7.8542e-03
12.750  21.750  8.4091e-03
12.750  22.000  9.0633e-03
12.750  22.250  1.1138e-02
12.750  22.500  1.5505e-02
12.750  22.750  2.1766e-02
12.750  23.000  2.7983e-02
12.750  23.250  3.4820e-02
12.750  23.500  4.2201e-02
12.750  23.750  4.9185e-02
12.750  24.000  5.5400e-02
13.000  17.000  1.0000e-07
13.000  17.250  9.8765e-07
13.000  17.500  2.5514e-06
13.000  17.750  6.3374e-06
13.000  18.000  1.3909e-05
13.000  18.250  2.7819e-05
13.000  18.500  5.4568e-05
13.000  18.750  9.4979e-05
13.000  19.000  1.4658e-04
13.000  19.250  2.3267e-04
13.000  19.500  3.5753e-04
13.000  19.750  5.5424e-04
13.000  20.000  8.4593e-04
13.000  20.250  1.2728e-03
13.000  20.500  1.8809e-03
13.000  20.750  2.6898e-03
13.000  21.000  3.6608e-03
13.000  21.250  4.6216e-03
13.000  21.500  5.6747e-03
13.000  21.750  5.9374e-03
13.000  22.000  5.9100e-03
13.000  22.250  6.6015e-03
13.000  22.500  8.8079e-03
13.000  22.750  1.2430e-02
13.000  23.000  1.6915e-02
13.000  23.250  2.2096e-02
13.000  23.500  2.8393e-02
13.000  23.750  3.5632e-02
13.000  24.000  4.2882e-02
13.250  17.000  1.0000e-07
13.250  17.250  1.0000e-07
13.250  17.500  1.0700e-06
13.250  17.750  2.5514e-06
13.250  18.000  6.1728e-06
13.250  18.250  1.3992e-05
13.250  18.500  2.8560e-05
13.250  18.750  5.5638e-05
13.250  19.000  9.7366e-05
13.250  19.250  1.4774e-04
13.250  19.500  2.3144e-04
13.250  19.750  3.5852e-04
13.250  20.000  5.5169e-04
13.250  20.250  8.3984e-04
13.250  20.500  1.2570e-03
13.250  20.750  1.8279e-03
13.250  21.000  2.5397e-03
13.250  21.250  3.2631e-03
13.250  21.500  4.0643e-03
13.250  21.750  4.2143e-03
13.250  22.000  3.9380e-03
13.250  22.250  4.0070e-03
13.250  22.500  4.9834e-03
13.250  22.750  6.8786e-03
13.250  23.000  9.5511e-03
13.250  23.250  1.2995e-02
13.250  23.500  1.7219e-02
13.250  23.750  2.2546e-02
13.250  24.000  2.9055e-02
13.500  17.000  1.0000e-07
13.500  17.250  1.0000e-07
13.500  17.500  1.0000e-07
13.500  17.750  1.3169e-06
13.500  18.000  3.1276e-06
13.500  18.250  7.0782e-06
13.500  18.500  1.4568e-05
13.500  18.750  2.9547e-05
13.500  19.000  6.4444e-05
13.500  19.250  9.8272e-05
13.500  19.500  1.4634e-04
13.500  19.750  2.3152e-04
13.500  20.000  3.5613e-04
13.500  20.250  5.4626e-04
13.500  20.500  8.2700e-04
13.500  20.750  1.2212e-03
13.500  21.000  1.7281e-03
13.500  21.250  2.2733e-03
13.500  21.500  2.8765e-03
13.500  21.750  2.9937e-03
13.500  22.000  2.6765e-03
13.500  22.250  2.4814e-03
13.500  22.500  2.8991e-03
13.500  22.750  3.8700e-03
13.500  23.000  5.3530e-03
13.500  23.250  7.3993e-03
13.500  23.500  1.0005e-02
13.500  23.750  1.3228e-02
13.500  24.000  1.7575e-02
13.750  17.000  1.0000e-07
13.750  17.250  1.0000e-07
13.750  17.500  1.0000e-07
13.750  17.750  1.0000e-07
13.750  18.000  1.6461e-06
13.750  18.250  3.6214e-06
13.750  18.500  7.7366e-06
13.750  18.750  1.5473e-05
13.750  19.000  3.0782e-05
13.750  19.250  5.7366e-05
13.750  19.500  1.0033e-04
13.750  19.750  1.5128e-04
13.750  20.000  2.2971e-04
13.750  20.250  3.5267e-04
13.750  20.500  5.3761e-04
13.750  20.750  8.0370e-04
13.750  21.000  1.1579e-03
13.750  21.250  1.5554e-03
13.750  21.500  2.0089e-03
13.750  21.750  2.1100e-03
13.750  22.000  1.8430e-03
13.750  22.250  1.5698e-03
13.750  22.500  1.7033e-03
13.750  22.750  2.2401e-03
13.750  23.000  3.0525e-03
13.750  23.250  4.1763e-03
13.750  23.500  5.6851e-03
13.750  23.750  7.5610e-03
13.750  24.000  1.0051e-02
14.000  17.000  1.0000e-07
14.000  17.250  1.0000e-07
14.000  17.500  1.0000e-07
14.000  17.750  1.0000e-07
14.000  18.000  9.0535e-07
14.000  18.250  1.9753e-06
14.000  18.500  4.0329e-06
14.000  18.750  8.1481e-06
14.000  19.000  1.5967e-05
14.000  19.250  3.3498e-05
14.000  19.500  6.1152e-05
14.000  19.750  1.0091e-04
14.000  20.000  1.4971e-04
14.000  20.250  2.2700e-04
14.000  20.500  3.4675e-04
14.000  20.750  5.2313e-04
14.000  21.000  7.6412e-04
14.000  21.250  1.0476e-03
14.000  21.500  1.3803e-03
14.000  21.750  1.4709e-03
14.000  22.000  1.2707e-03
14.000  22.250  1.0161e-03
14.000  22.500  1.0125e-03
14.000  22.750  1.3034e-03
14.000  23.000  1.7670e-03
14.000  23.250  2.3791e-03
14.000  23.500  3.2117e-03
14.000  23.750  4.2711e-03
14.000  24.000  5.6051e-03
