InwC 1.10000m  relative to Inci 1215.00A scaled to 1215A.
Hden   Phi(H)  Eq_Width (A)
7.000  17.000  1.8772e-02
7.000  17.250  2.6819e-02
7.000  17.500  3.7520e-02
7.000  17.750  5.0601e-02
7.000  18.000  6.3404e-02
7.000  18.250  7.2197e-02
7.000  18.500  7.5045e-02
7.000  18.750  7.5726e-02
7.000  19.000  7.5631e-02
7.000  19.250  7.5616e-02
7.000  19.500  7.5518e-02
7.000  19.750  7.5415e-02
7.000  20.000  7.5414e-02
7.000  20.250  7.5414e-02
7.000  20.500  7.5414e-02
7.000  20.750  7.5414e-02
7.000  21.000  7.5414e-02
7.000  21.250  7.5414e-02
7.000  21.500  7.5414e-02
7.000  21.750  7.5415e-02
7.000  22.000  7.5415e-02
7.000  22.250  7.5414e-02
7.000  22.500  7.5414e-02
7.000  22.750  7.5415e-02
7.000  23.000  7.5415e-02
7.000  23.250  7.5414e-02
7.000  23.500  7.5414e-02
7.000  23.750  7.5414e-02
7.000  24.000  7.5415e-02
7.250  17.000  1.3281e-02
7.250  17.250  1.9367e-02
7.250  17.500  2.7844e-02
7.250  17.750  3.8987e-02
7.250  18.000  5.2213e-02
7.250  18.250  6.4459e-02
7.250  18.500  7.2432e-02
7.250  18.750  7.5054e-02
7.250  19.000  7.5728e-02
7.250  19.250  7.5632e-02
7.250  19.500  7.5614e-02
7.250  19.750  7.5516e-02
7.250  20.000  7.5416e-02
7.250  20.250  7.5414e-02
7.250  20.500  7.5414e-02
7.250  20.750  7.5414e-02
7.250  21.000  7.5415e-02
7.250  21.250  7.5415e-02
7.250  21.500  7.5415e-02
7.250  21.750  7.5415e-02
7.250  22.000  7.5414e-02
7.250  22.250  7.5414e-02
7.250  22.500  7.5415e-02
7.250  22.750  7.5415e-02
7.250  23.000  7.5414e-02
7.250  23.250  7.5414e-02
7.250  23.500  7.5414e-02
7.250  23.750  7.5414e-02
7.250  24.000  7.5415e-02
7.500  17.000  9.3607e-03
7.500  17.250  1.3760e-02
7.500  17.500  2.0308e-02
7.500  17.750  2.9511e-02
7.500  18.000  4.1208e-02
7.500  18.250  5.4555e-02
7.500  18.500  6.5579e-02
7.500  18.750  7.2656e-02
7.500  19.000  7.5063e-02
7.500  19.250  7.5726e-02
7.500  19.500  7.5631e-02
7.500  19.750  7.5614e-02
7.500  20.000  7.5518e-02
7.500  20.250  7.5416e-02
7.500  20.500  7.5414e-02
7.500  20.750  7.5415e-02
7.500  21.000  7.5414e-02
7.500  21.250  7.5414e-02
7.500  21.500  7.5414e-02
7.500  21.750  7.5414e-02
7.500  22.000  7.5414e-02
7.500  22.250  7.5415e-02
7.500  22.500  7.5414e-02
7.500  22.750  7.5414e-02
7.500  23.000  7.5415e-02
7.500  23.250  7.5415e-02
7.500  23.500  7.5415e-02
7.500  23.750  7.5415e-02
7.500  24.000  7.5414e-02
7.750  17.000  6.6510e-03
7.750  17.250  9.7247e-03
7.750  17.500  1.4583e-02
7.750  17.750  2.1952e-02
7.750  18.000  3.2183e-02
7.750  18.250  4.4597e-02
7.750  18.500  5.7378e-02
7.750  18.750  6.6867e-02
7.750  19.000  7.2886e-02
7.750  19.250  7.5074e-02
7.750  19.500  7.5725e-02
7.750  19.750  7.5632e-02
7.750  20.000  7.5616e-02
7.750  20.250  7.5517e-02
7.750  20.500  7.5415e-02
7.750  20.750  7.5414e-02
7.750  21.000  7.5414e-02
7.750  21.250  7.5414e-02
7.750  21.500  7.5414e-02
7.750  21.750  7.5415e-02
7.750  22.000  7.5415e-02
7.750  22.250  7.5414e-02
7.750  22.500  7.5414e-02
7.750  22.750  7.5415e-02
7.750  23.000  7.5415e-02
7.750  23.250  7.5414e-02
7.750  23.500  7.5414e-02
7.750  23.750  7.5414e-02
7.750  24.000  7.5414e-02
8.000  17.000  4.7799e-03
8.000  17.250  6.9131e-03
8.000  17.500  1.0349e-02
8.000  17.750  1.6019e-02
8.000  18.000  2.4710e-02
8.000  18.250  3.6188e-02
8.000  18.500  4.8682e-02
8.000  18.750  6.0443e-02
8.000  19.000  6.7948e-02
8.000  19.250  7.3033e-02
8.000  19.500  7.5081e-02
8.000  19.750  7.5728e-02
8.000  20.000  7.5630e-02
8.000  20.250  7.5615e-02
8.000  20.500  7.5513e-02
8.000  20.750  7.5415e-02
8.000  21.000  7.5413e-02
8.000  21.250  7.5414e-02
8.000  21.500  7.5415e-02
8.000  21.750  7.5414e-02
8.000  22.000  7.5415e-02
8.000  22.250  7.5415e-02
8.000  22.500  7.5415e-02
8.000  22.750  7.5414e-02
8.000  23.000  7.5414e-02
8.000  23.250  7.5415e-02
8.000  23.500  7.5415e-02
8.000  23.750  7.5415e-02
8.000  24.000  7.5415e-02
8.250  17.000  3.4768e-03
8.250  17.250  4.9858e-03
8.250  17.500  7.4105e-03
8.250  17.750  1.1556e-02
8.250  18.000  1.8695e-02
8.250  18.250  2.9081e-02
8.250  18.500  4.1390e-02
8.250  18.750  5.2990e-02
8.250  19.000  6.3615e-02
8.250  19.250  6.8744e-02
8.250  19.500  7.3301e-02
8.250  19.750  7.5096e-02
8.250  20.000  7.5726e-02
8.250  20.250  7.5630e-02
8.250  20.500  7.5614e-02
8.250  20.750  7.5516e-02
8.250  21.000  7.5416e-02
8.250  21.250  7.5414e-02
8.250  21.500  7.5414e-02
8.250  21.750  7.5414e-02
8.250  22.000  7.5415e-02
8.250  22.250  7.5414e-02
8.250  22.500  7.5415e-02
8.250  22.750  7.5415e-02
8.250  23.000  7.5415e-02
8.250  23.250  7.5415e-02
8.250  23.500  7.5415e-02
8.250  23.750  7.5414e-02
8.250  24.000  7.5414e-02
8.500  17.000  2.5393e-03
8.500  17.250  3.6330e-03
8.500  17.500  5.3623e-03
8.500  17.750  8.3395e-03
8.500  18.000  1.3820e-02
8.500  18.250  2.2718e-02
8.500  18.500  3.4353e-02
8.500  18.750  4.6214e-02
8.500  19.000  5.6293e-02
8.500  19.250  6.4711e-02
8.500  19.500  6.9479e-02
8.500  19.750  7.3394e-02
8.500  20.000  7.5113e-02
8.500  20.250  7.5726e-02
8.500  20.500  7.5631e-02
8.500  20.750  7.5614e-02
8.500  21.000  7.5513e-02
8.500  21.250  7.5415e-02
8.500  21.500  7.5414e-02
8.500  21.750  7.5415e-02
8.500  22.000  7.5414e-02
8.500  22.250  7.5414e-02
8.500  22.500  7.5414e-02
8.500  22.750  7.5414e-02
8.500  23.000  7.5414e-02
8.500  23.250  7.5414e-02
8.500  23.500  7.5415e-02
8.500  23.750  7.5415e-02
8.500  24.000  7.5415e-02
8.750  17.000  1.8523e-03
8.750  17.250  2.6568e-03
8.750  17.500  3.9177e-03
8.750  17.750  6.0795e-03
8.750  18.000  1.0151e-02
8.750  18.250  1.7251e-02
8.750  18.500  2.7413e-02
8.750  18.750  3.8937e-02
8.750  19.000  4.9437e-02
8.750  19.250  5.9719e-02
8.750  19.500  6.6087e-02
8.750  19.750  7.0158e-02
8.750  20.000  7.3326e-02
8.750  20.250  7.5133e-02
8.750  20.500  7.5725e-02
8.750  20.750  7.5630e-02
8.750  21.000  7.5615e-02
8.750  21.250  7.5512e-02
8.750  21.500  7.5416e-02
8.750  21.750  7.5414e-02
8.750  22.000  7.5414e-02
8.750  22.250  7.5415e-02
8.750  22.500  7.5414e-02
8.750  22.750  7.5415e-02
8.750  23.000  7.5414e-02
8.750  23.250  7.5414e-02
8.750  23.500  7.5415e-02
8.750  23.750  7.5415e-02
8.750  24.000  7.5414e-02
9.000  17.000  1.3440e-03
9.000  17.250  1.9388e-03
9.000  17.500  2.8698e-03
9.000  17.750  4.4637e-03
9.000  18.000  7.4988e-03
9.000  18.250  1.2983e-02
9.000  18.500  2.1290e-02
9.000  18.750  3.1638e-02
9.000  19.000  4.2338e-02
9.000  19.250  5.2384e-02
9.000  19.500  6.1932e-02
9.000  19.750  6.6679e-02
9.000  20.000  7.0758e-02
9.000  20.250  7.3248e-02
9.000  20.500  7.5156e-02
9.000  20.750  7.5724e-02
9.000  21.000  7.5631e-02
9.000  21.250  7.5615e-02
9.000  21.500  7.5517e-02
9.000  21.750  7.5416e-02
9.000  22.000  7.5414e-02
9.000  22.250  7.5414e-02
9.000  22.500  7.5414e-02
9.000  22.750  7.5414e-02
9.000  23.000  7.5414e-02
9.000  23.250  7.5414e-02
9.000  23.500  7.5415e-02
9.000  23.750  7.5414e-02
9.000  24.000  7.5414e-02
9.250  17.000  9.7021e-04
9.250  17.250  1.4109e-03
9.250  17.500  2.0992e-03
9.250  17.750  3.2909e-03
9.250  18.000  5.5937e-03
9.250  18.250  9.8617e-03
9.250  18.500  1.6431e-02
9.250  18.750  2.4648e-02
9.250  19.000  3.4509e-02
9.250  19.250  4.5003e-02
9.250  19.500  5.4530e-02
9.250  19.750  6.3181e-02
9.250  20.000  6.7343e-02
9.250  20.250  7.1173e-02
9.250  20.500  7.3151e-02
9.250  20.750  7.5178e-02
9.250  21.000  7.5722e-02
9.250  21.250  7.5629e-02
9.250  21.500  7.5614e-02
9.250  21.750  7.5508e-02
9.250  22.000  7.5382e-02
9.250  22.250  7.5408e-02
9.250  22.500  7.5413e-02
9.250  22.750  7.5414e-02
9.250  23.000  7.5414e-02
9.250  23.250  7.5414e-02
9.250  23.500  7.5414e-02
9.250  23.750  7.5415e-02
9.250  24.000  7.5414e-02
9.500  17.000  6.9654e-04
9.500  17.250  1.0203e-03
9.500  17.500  1.5322e-03
9.500  17.750  2.4300e-03
9.500  18.000  4.1645e-03
9.500  18.250  7.5253e-03
9.500  18.500  1.2629e-02
9.500  18.750  1.9061e-02
9.500  19.000  2.6981e-02
9.500  19.250  3.6170e-02
9.500  19.500  4.6012e-02
9.500  19.750  5.6643e-02
9.500  20.000  6.3597e-02
9.500  20.250  6.7724e-02
9.500  20.500  7.1194e-02
9.500  20.750  7.3032e-02
9.500  21.000  7.5196e-02
9.500  21.250  7.5714e-02
9.500  21.500  7.5612e-02
9.500  21.750  7.5572e-02
9.500  22.000  7.5428e-02
9.500  22.250  7.5215e-02
9.500  22.500  7.5101e-02
9.500  22.750  7.5078e-02
9.500  23.000  7.5060e-02
9.500  23.250  7.5053e-02
9.500  23.500  7.5191e-02
9.500  23.750  7.5188e-02
9.500  24.000  7.5186e-02
9.750  17.000  4.9852e-04
9.750  17.250  7.3383e-04
9.750  17.500  1.1121e-03
9.750  17.750  1.7853e-03
9.750  18.000  3.1586e-03
9.750  18.250  5.7645e-03
9.750  18.500  9.5872e-03
9.750  18.750  1.4495e-02
9.750  19.000  2.0608e-02
9.750  19.250  2.8174e-02
9.750  19.500  3.7201e-02
9.750  19.750  4.7242e-02
9.750  20.000  5.7493e-02
9.750  20.250  6.3855e-02
9.750  20.500  6.8245e-02
9.750  20.750  7.0925e-02
9.750  21.000  7.2912e-02
9.750  21.250  7.5230e-02
9.750  21.500  7.5711e-02
9.750  21.750  7.5620e-02
9.750  22.000  7.5572e-02
9.750  22.250  7.5425e-02
9.750  22.500  7.5231e-02
9.750  22.750  7.5130e-02
9.750  23.000  7.5116e-02
9.750  23.250  7.5104e-02
9.750  23.500  7.5100e-02
9.750  23.750  7.5095e-02
9.750  24.000  7.5092e-02
10.000  17.000  3.5712e-04
10.000  17.250  5.2568e-04
10.000  17.500  8.0165e-04
10.000  17.750  1.3049e-03
10.000  18.000  2.3418e-03
10.000  18.250  4.3138e-03
10.000  18.500  7.1955e-03
10.000  18.750  1.0861e-02
10.000  19.000  1.5442e-02
10.000  19.250  2.1341e-02
10.000  19.500  2.8734e-02
10.000  19.750  3.7880e-02
10.000  20.000  4.8210e-02
10.000  20.250  5.7883e-02
10.000  20.500  6.4248e-02
10.000  20.750  6.8564e-02
10.000  21.000  7.0641e-02
10.000  21.250  7.2806e-02
10.000  21.500  7.5259e-02
10.000  21.750  7.5702e-02
10.000  22.000  7.5620e-02
10.000  22.250  7.5585e-02
10.000  22.500  7.5430e-02
10.000  22.750  7.5229e-02
10.000  23.000  7.5147e-02
10.000  23.250  7.5140e-02
10.000  23.500  7.5130e-02
10.000  23.750  7.5130e-02
10.000  24.000  7.5128e-02
10.250  17.000  2.5605e-04
10.250  17.250  3.7588e-04
10.250  17.500  5.7481e-04
10.250  17.750  9.5078e-04
10.250  18.000  1.7367e-03
10.250  18.250  3.1971e-03
10.250  18.500  5.2777e-03
10.250  18.750  7.9788e-03
10.250  19.000  1.1335e-02
10.250  19.250  1.5788e-02
10.250  19.500  2.1629e-02
10.250  19.750  2.9144e-02
10.250  20.000  3.8290e-02
10.250  20.250  4.8705e-02
10.250  20.500  5.8143e-02
10.250  20.750  6.4699e-02
10.250  21.000  6.8514e-02
10.250  21.250  7.0398e-02
10.250  21.500  7.2875e-02
10.250  21.750  7.5265e-02
10.250  22.000  7.5680e-02
10.250  22.250  7.5616e-02
10.250  22.500  7.5600e-02
10.250  22.750  7.5440e-02
10.250  23.000  7.5234e-02
10.250  23.250  7.5155e-02
10.250  23.500  7.5153e-02
10.250  23.750  7.5149e-02
10.250  24.000  7.5148e-02
10.500  17.000  1.8403e-04
10.500  17.250  2.6864e-04
10.500  17.500  4.1086e-04
10.500  17.750  6.8535e-04
10.500  18.000  1.2690e-03
10.500  18.250  2.3240e-03
10.500  18.500  3.7867e-03
10.500  18.750  5.7371e-03
10.500  19.000  8.2398e-03
10.500  19.250  1.1502e-02
10.500  19.500  1.6029e-02
10.500  19.750  2.1945e-02
10.500  20.000  2.9492e-02
10.500  20.250  3.8602e-02
10.500  20.500  4.9023e-02
10.500  20.750  5.8388e-02
10.500  21.000  6.4980e-02
10.500  21.250  6.8115e-02
10.500  21.500  7.0388e-02
10.500  21.750  7.2901e-02
10.500  22.000  7.5192e-02
10.500  22.250  7.5647e-02
10.500  22.500  7.5610e-02
10.500  22.750  7.5603e-02
10.500  23.000  7.5484e-02
10.500  23.250  7.5271e-02
10.500  23.500  7.5177e-02
10.500  23.750  7.5159e-02
10.500  24.000  7.5161e-02
10.750  17.000  1.3259e-04
10.750  17.250  1.9218e-04
10.750  17.500  2.9251e-04
10.750  17.750  4.8971e-04
10.750  18.000  8.9638e-04
10.750  18.250  1.6422e-03
10.750  18.500  2.6545e-03
10.750  18.750  4.0156e-03
10.750  19.000  5.8230e-03
10.750  19.250  8.3307e-03
10.750  19.500  1.1730e-02
10.750  19.750  1.6280e-02
10.750  20.000  2.2217e-02
10.750  20.250  2.9667e-02
10.750  20.500  3.8636e-02
10.750  20.750  4.8968e-02
10.750  21.000  5.8335e-02
10.750  21.250  6.4913e-02
10.750  21.500  6.8002e-02
10.750  21.750  7.0175e-02
10.750  22.000  7.2908e-02
10.750  22.250  7.5055e-02
10.750  22.500  7.5591e-02
10.750  22.750  7.5595e-02
10.750  23.000  7.5600e-02
10.750  23.250  7.5502e-02
10.750  23.500  7.5364e-02
10.750  23.750  7.5268e-02
10.750  24.000  7.5205e-02
11.000  17.000  9.5309e-05
11.000  17.250  1.3778e-04
11.000  17.500  2.0790e-04
11.000  17.750  3.4609e-04
11.000  18.000  6.3004e-04
11.000  18.250  1.1351e-03
11.000  18.500  1.8212e-03
11.000  18.750  2.7872e-03
11.000  19.000  4.0997e-03
11.000  19.250  5.9354e-03
11.000  19.500  8.4731e-03
11.000  19.750  1.1911e-02
11.000  20.000  1.6448e-02
11.000  20.250  2.2307e-02
11.000  20.500  2.9522e-02
11.000  20.750  3.8134e-02
11.000  21.000  4.8245e-02
11.000  21.250  5.7747e-02
11.000  21.500  6.4898e-02
11.000  21.750  6.7471e-02
11.000  22.000  6.9865e-02
11.000  22.250  7.2834e-02
11.000  22.500  7.4837e-02
11.000  22.750  7.5511e-02
11.000  23.000  7.5572e-02
11.000  23.250  7.5593e-02
11.000  23.500  7.5501e-02
11.000  23.750  7.5397e-02
11.000  24.000  7.5366e-02
11.250  17.000  6.9712e-05
11.250  17.250  9.8272e-05
11.250  17.500  1.4749e-04
11.250  17.750  2.4239e-04
11.250  18.000  4.3580e-04
11.250  18.250  7.6074e-04
11.250  18.500  1.2152e-03
11.250  18.750  1.8742e-03
11.250  19.000  2.8184e-03
11.250  19.250  4.1476e-03
11.250  19.500  6.0246e-03
11.250  19.750  8.5815e-03
11.250  20.000  1.2011e-02
11.250  20.250  1.6504e-02
11.250  20.500  2.2115e-02
11.250  20.750  2.8856e-02
11.250  21.000  3.6862e-02
11.250  21.250  4.6672e-02
11.250  21.500  5.7287e-02
11.250  21.750  6.3755e-02
11.250  22.000  6.6620e-02
11.250  22.250  6.9332e-02
11.250  22.500  7.2537e-02
11.250  22.750  7.4500e-02
11.250  23.000  7.5398e-02
11.250  23.250  7.5534e-02
11.250  23.500  7.5579e-02
11.250  23.750  7.5499e-02
11.250  24.000  7.5406e-02
11.500  17.000  5.0288e-05
11.500  17.250  7.1440e-05
11.500  17.500  1.0403e-04
11.500  17.750  1.6765e-04
11.500  18.000  2.9457e-04
11.500  18.250  5.0123e-04
11.500  18.500  8.0008e-04
11.500  18.750  1.2416e-03
11.500  19.000  1.9228e-03
11.500  19.250  2.8836e-03
11.500  19.500  4.2238e-03
11.500  19.750  6.0919e-03
11.500  20.000  8.6412e-03
11.500  20.250  1.2019e-02
11.500  20.500  1.6321e-02
11.500  20.750  2.1498e-02
11.500  21.000  2.7438e-02
11.500  21.250  3.4615e-02
11.500  21.500  4.5057e-02
11.500  21.750  5.5524e-02
11.500  22.000  6.1925e-02
11.500  22.250  6.5309e-02
11.500  22.500  6.8435e-02
11.500  22.750  7.1828e-02
11.500  23.000  7.4024e-02
11.500  23.250  7.5228e-02
11.500  23.500  7.5480e-02
11.500  23.750  7.5558e-02
11.500  24.000  7.5494e-02
11.750  17.000  2.8971e-05
11.750  17.250  5.3251e-05
11.750  17.500  7.4897e-05
11.750  17.750  1.1523e-04
11.750  18.000  1.9564e-04
11.750  18.250  3.2658e-04
11.750  18.500  5.2658e-04
11.750  18.750  8.3449e-04
11.750  19.000  1.2965e-03
11.750  19.250  1.9651e-03
11.750  19.500  2.9202e-03
11.750  19.750  4.2705e-03
11.750  20.000  6.1359e-03
11.750  20.250  8.6412e-03
11.750  20.500  1.1888e-02
11.750  20.750  1.5825e-02
11.750  21.000  2.0257e-02
11.750  21.250  2.5106e-02
11.750  21.500  3.2427e-02
11.750  21.750  4.2020e-02
11.750  22.000  5.2616e-02
11.750  22.250  5.9248e-02
11.750  22.500  6.3325e-02
11.750  22.750  6.7111e-02
11.750  23.000  7.0697e-02
11.750  23.250  7.3336e-02
11.750  23.500  7.4978e-02
11.750  23.750  7.5398e-02
11.750  24.000  7.5528e-02
12.000  17.000  1.3251e-05
12.000  17.250  3.1193e-05
12.000  17.500  5.5720e-05
12.000  17.750  8.0741e-05
12.000  18.000  1.2922e-04
12.000  18.250  2.1251e-04
12.000  18.500  3.4790e-04
12.000  18.750  5.5901e-04
12.000  19.000  8.6716e-04
12.000  19.250  1.3188e-03
12.000  19.500  1.9876e-03
12.000  19.750  2.9447e-03
12.000  20.000  4.2924e-03
12.000  20.250  6.1333e-03
12.000  20.500  8.5447e-03
12.000  20.750  1.1513e-02
12.000  21.000  1.4849e-02
12.000  21.250  1.8213e-02
12.000  21.500  2.2904e-02
12.000  21.750  2.8768e-02
12.000  22.000  3.8004e-02
12.000  22.250  4.8290e-02
12.000  22.500  5.5507e-02
12.000  22.750  6.0402e-02
12.000  23.000  6.4988e-02
12.000  23.250  6.9022e-02
12.000  23.500  7.2336e-02
12.000  23.750  7.4597e-02
12.000  24.000  7.5270e-02
12.250  17.000  6.1728e-06
12.250  17.250  1.4650e-05
12.250  17.500  3.3333e-05
12.250  17.750  5.9506e-05
12.250  18.000  8.9218e-05
12.250  18.250  1.4288e-04
12.250  18.500  2.3424e-04
12.250  18.750  3.6840e-04
12.250  19.000  5.6675e-04
12.250  19.250  8.7654e-04
12.250  19.500  1.3324e-03
12.250  19.750  2.0010e-03
12.250  20.000  2.9587e-03
12.250  20.250  4.2877e-03
12.250  20.500  6.0603e-03
12.250  20.750  8.2856e-03
12.250  21.000  1.0800e-02
12.250  21.250  1.3236e-02
12.250  21.500  1.6293e-02
12.250  21.750  1.9338e-02
12.250  22.000  2.4568e-02
12.250  22.250  3.3267e-02
12.250  22.500  4.3016e-02
12.250  22.750  5.0402e-02
12.250  23.000  5.6309e-02
12.250  23.250  6.1891e-02
12.250  23.500  6.6614e-02
12.250  23.750  7.0879e-02
12.250  24.000  7.4027e-02
12.500  17.000  3.0453e-06
12.500  17.250  6.8313e-06
12.500  17.500  1.5885e-05
12.500  17.750  3.4979e-05
12.500  18.000  6.6420e-05
12.500  18.250  1.0099e-04
12.500  18.500  1.5580e-04
12.500  18.750  2.4173e-04
12.500  19.000  3.7325e-04
12.500  19.250  5.7523e-04
12.500  19.500  8.8247e-04
12.500  19.750  1.3405e-03
12.500  20.000  2.0075e-03
12.500  20.250  2.9539e-03
12.500  20.500  4.2372e-03
12.500  20.750  5.8790e-03
12.500  21.000  7.7854e-03
12.500  21.250  9.6118e-03
12.500  21.500  1.1719e-02
12.500  21.750  1.3172e-02
12.500  22.000  1.5476e-02
12.500  22.250  2.0428e-02
12.500  22.500  2.8544e-02
12.500  22.750  3.6869e-02
12.500  23.000  4.4046e-02
12.500  23.250  5.1035e-02
12.500  23.500  5.7638e-02
12.500  23.750  6.3265e-02
12.500  24.000  6.8785e-02
12.750  17.000  1.5638e-06
12.750  17.250  3.2922e-06
12.750  17.500  7.4897e-06
12.750  17.750  1.6461e-05
12.750  18.000  3.5309e-05
12.750  18.250  6.8230e-05
12.750  18.500  1.0165e-04
12.750  18.750  1.5218e-04
12.750  19.000  2.4247e-04
12.750  19.250  3.7490e-04
12.750  19.500  5.7844e-04
12.750  19.750  8.8444e-04
12.750  20.000  1.3393e-03
12.750  20.250  2.0026e-03
12.750  20.500  2.9171e-03
12.750  20.750  4.1151e-03
12.750  21.000  5.5401e-03
12.750  21.250  6.9402e-03
12.750  21.500  8.4783e-03
12.750  21.750  9.1600e-03
12.750  22.000  9.9026e-03
12.750  22.250  1.2112e-02
12.750  22.500  1.6747e-02
12.750  22.750  2.3322e-02
12.750  23.000  2.9788e-02
12.750  23.250  3.6982e-02
12.750  23.500  4.4803e-02
12.750  23.750  5.2207e-02
12.750  24.000  5.8753e-02
13.000  17.000  1.0000e-07
13.000  17.250  9.8765e-07
13.000  17.500  2.7160e-06
13.000  17.750  6.6667e-06
13.000  18.000  1.4733e-05
13.000  18.250  2.9383e-05
13.000  18.500  5.7449e-05
13.000  18.750  9.9506e-05
13.000  19.000  1.5309e-04
13.000  19.250  2.4272e-04
13.000  19.500  3.7300e-04
13.000  19.750  5.7868e-04
13.000  20.000  8.8477e-04
13.000  20.250  1.3344e-03
13.000  20.500  1.9783e-03
13.000  20.750  2.8416e-03
13.000  21.000  3.8922e-03
13.000  21.250  4.9589e-03
13.000  21.500  6.1213e-03
13.000  21.750  6.4765e-03
13.000  22.000  6.4859e-03
13.000  22.250  7.2125e-03
13.000  22.500  9.5497e-03
13.000  22.750  1.3382e-02
13.000  23.000  1.8111e-02
13.000  23.250  2.3584e-02
13.000  23.500  3.0261e-02
13.000  23.750  3.7975e-02
13.000  24.000  4.5685e-02
13.250  17.000  1.0000e-07
13.250  17.250  1.0000e-07
13.250  17.500  1.1523e-06
13.250  17.750  2.7160e-06
13.250  18.000  6.5844e-06
13.250  18.250  1.4815e-05
13.250  18.500  3.0123e-05
13.250  18.750  5.8436e-05
13.250  19.000  1.0198e-04
13.250  19.250  1.5424e-04
13.250  19.500  2.4132e-04
13.250  19.750  3.7391e-04
13.250  20.000  5.7621e-04
13.250  20.250  8.7893e-04
13.250  20.500  1.3195e-03
13.250  20.750  1.9273e-03
13.250  21.000  2.6949e-03
13.250  21.250  3.4947e-03
13.250  21.500  4.3783e-03
13.250  21.750  4.5988e-03
13.250  22.000  4.3368e-03
13.250  22.250  4.3969e-03
13.250  22.500  5.4232e-03
13.250  22.750  7.4462e-03
13.250  23.000  1.0288e-02
13.250  23.250  1.3945e-02
13.250  23.500  1.8428e-02
13.250  23.750  2.4113e-02
13.250  24.000  3.1093e-02
13.500  17.000  1.0000e-07
13.500  17.250  1.0000e-07
13.500  17.500  1.0000e-07
13.500  17.750  1.3992e-06
13.500  18.000  3.3745e-06
13.500  18.250  7.4897e-06
13.500  18.500  1.5391e-05
13.500  18.750  3.1193e-05
13.500  19.000  6.7737e-05
13.500  19.250  1.0280e-04
13.500  19.500  1.5276e-04
13.500  19.750  2.4140e-04
13.500  20.000  3.7152e-04
13.500  20.250  5.7086e-04
13.500  20.500  8.6658e-04
13.500  20.750  1.2850e-03
13.500  21.000  1.8295e-03
13.500  21.250  2.4293e-03
13.500  21.500  3.0932e-03
13.500  21.750  3.2648e-03
13.500  22.000  2.9548e-03
13.500  22.250  2.7342e-03
13.500  22.500  3.1622e-03
13.500  22.750  4.2047e-03
13.500  23.000  5.7995e-03
13.500  23.250  7.9872e-03
13.500  23.500  1.0757e-02
13.500  23.750  1.4186e-02
13.500  24.000  1.8861e-02
13.750  17.000  1.0000e-07
13.750  17.250  1.0000e-07
13.750  17.500  1.0000e-07
13.750  17.750  1.0000e-07
13.750  18.000  1.7284e-06
13.750  18.250  3.8683e-06
13.750  18.500  8.1481e-06
13.750  18.750  1.6379e-05
13.750  19.000  3.2428e-05
13.750  19.250  6.0329e-05
13.750  19.500  1.0494e-04
13.750  19.750  1.5778e-04
13.750  20.000  2.3959e-04
13.750  20.250  3.6815e-04
13.750  20.500  5.6247e-04
13.750  20.750  8.4403e-04
13.750  21.000  1.2231e-03
13.750  21.250  1.6580e-03
13.750  21.500  2.1556e-03
13.750  21.750  2.2981e-03
13.750  22.000  2.0370e-03
13.750  22.250  1.7370e-03
13.750  22.500  1.8626e-03
13.750  22.750  2.4366e-03
13.750  23.000  3.3150e-03
13.750  23.250  4.5252e-03
13.750  23.500  6.1406e-03
13.750  23.750  8.1355e-03
13.750  24.000  1.0804e-02
14.000  17.000  1.0000e-07
14.000  17.250  1.0000e-07
14.000  17.500  1.0000e-07
14.000  17.750  1.0000e-07
14.000  18.000  9.0535e-07
14.000  18.250  2.0576e-06
14.000  18.500  4.2798e-06
14.000  18.750  8.6420e-06
14.000  19.000  1.6872e-05
14.000  19.250  3.5309e-05
14.000  19.500  6.4280e-05
14.000  19.750  1.0560e-04
14.000  20.000  1.5621e-04
14.000  20.250  2.3687e-04
14.000  20.500  3.6239e-04
14.000  20.750  5.4848e-04
14.000  21.000  8.0551e-04
14.000  21.250  1.1140e-03
14.000  21.500  1.4776e-03
14.000  21.750  1.5994e-03
14.000  22.000  1.4049e-03
14.000  22.250  1.1282e-03
14.000  22.500  1.1105e-03
14.000  22.750  1.4186e-03
14.000  23.000  1.9211e-03
14.000  23.250  2.5835e-03
14.000  23.500  3.4788e-03
14.000  23.750  4.6118e-03
14.000  24.000  6.0336e-03
