InwC 1.05000m  relative to Inci 1215.00A scaled to 1215A.
Hden   Phi(H)  Eq_Width (A)
7.000  17.000  2.1095e-02
7.000  17.250  3.0136e-02
7.000  17.500  4.2161e-02
7.000  17.750  5.6859e-02
7.000  18.000  7.1246e-02
7.000  18.250  8.1127e-02
7.000  18.500  8.4327e-02
7.000  18.750  8.5092e-02
7.000  19.000  8.4985e-02
7.000  19.250  8.4968e-02
7.000  19.500  8.4858e-02
7.000  19.750  8.4742e-02
7.000  20.000  8.4742e-02
7.000  20.250  8.4742e-02
7.000  20.500  8.4742e-02
7.000  20.750  8.4741e-02
7.000  21.000  8.4741e-02
7.000  21.250  8.4741e-02
7.000  21.500  8.4741e-02
7.000  21.750  8.4742e-02
7.000  22.000  8.4742e-02
7.000  22.250  8.4742e-02
7.000  22.500  8.4742e-02
7.000  22.750  8.4742e-02
7.000  23.000  8.4742e-02
7.000  23.250  8.4742e-02
7.000  23.500  8.4742e-02
7.000  23.750  8.4742e-02
7.000  24.000  8.4742e-02
7.250  17.000  1.4925e-02
7.250  17.250  2.1762e-02
7.250  17.500  3.1288e-02
7.250  17.750  4.3809e-02
7.250  18.000  5.8670e-02
7.250  18.250  7.2431e-02
7.250  18.500  8.1391e-02
7.250  18.750  8.4337e-02
7.250  19.000  8.5094e-02
7.250  19.250  8.4987e-02
7.250  19.500  8.4966e-02
7.250  19.750  8.4856e-02
7.250  20.000  8.4743e-02
7.250  20.250  8.4741e-02
7.250  20.500  8.4742e-02
7.250  20.750  8.4741e-02
7.250  21.000  8.4742e-02
7.250  21.250  8.4742e-02
7.250  21.500  8.4742e-02
7.250  21.750  8.4742e-02
7.250  22.000  8.4742e-02
7.250  22.250  8.4741e-02
7.250  22.500  8.4742e-02
7.250  22.750  8.4742e-02
7.250  23.000  8.4742e-02
7.250  23.250  8.4742e-02
7.250  23.500  8.4742e-02
7.250  23.750  8.4742e-02
7.250  24.000  8.4742e-02
7.500  17.000  1.0519e-02
7.500  17.250  1.5462e-02
7.500  17.500  2.2820e-02
7.500  17.750  3.3161e-02
7.500  18.000  4.6305e-02
7.500  18.250  6.1302e-02
7.500  18.500  7.3691e-02
7.500  18.750  8.1643e-02
7.500  19.000  8.4347e-02
7.500  19.250  8.5092e-02
7.500  19.500  8.4985e-02
7.500  19.750  8.4966e-02
7.500  20.000  8.4858e-02
7.500  20.250  8.4743e-02
7.500  20.500  8.4742e-02
7.500  20.750  8.4742e-02
7.500  21.000  8.4741e-02
7.500  21.250  8.4741e-02
7.500  21.500  8.4741e-02
7.500  21.750  8.4741e-02
7.500  22.000  8.4742e-02
7.500  22.250  8.4742e-02
7.500  22.500  8.4742e-02
7.500  22.750  8.4741e-02
7.500  23.000  8.4742e-02
7.500  23.250  8.4742e-02
7.500  23.500  8.4742e-02
7.500  23.750  8.4742e-02
7.500  24.000  8.4742e-02
7.750  17.000  7.4745e-03
7.750  17.250  1.0928e-02
7.750  17.500  1.6387e-02
7.750  17.750  2.4667e-02
7.750  18.000  3.6164e-02
7.750  18.250  5.0115e-02
7.750  18.500  6.4478e-02
7.750  18.750  7.5139e-02
7.750  19.000  8.1901e-02
7.750  19.250  8.4360e-02
7.750  19.500  8.5091e-02
7.750  19.750  8.4986e-02
7.750  20.000  8.4968e-02
7.750  20.250  8.4857e-02
7.750  20.500  8.4742e-02
7.750  20.750  8.4741e-02
7.750  21.000  8.4741e-02
7.750  21.250  8.4742e-02
7.750  21.500  8.4741e-02
7.750  21.750  8.4742e-02
7.750  22.000  8.4742e-02
7.750  22.250  8.4742e-02
7.750  22.500  8.4741e-02
7.750  22.750  8.4742e-02
7.750  23.000  8.4742e-02
7.750  23.250  8.4742e-02
7.750  23.500  8.4741e-02
7.750  23.750  8.4741e-02
7.750  24.000  8.4741e-02
8.000  17.000  5.3719e-03
8.000  17.250  7.7687e-03
8.000  17.500  1.1629e-02
8.000  17.750  1.8000e-02
8.000  18.000  2.7768e-02
8.000  18.250  4.0668e-02
8.000  18.500  5.4712e-02
8.000  18.750  6.7931e-02
8.000  19.000  7.6360e-02
8.000  19.250  8.2067e-02
8.000  19.500  8.4367e-02
8.000  19.750  8.5094e-02
8.000  20.000  8.4984e-02
8.000  20.250  8.4967e-02
8.000  20.500  8.4852e-02
8.000  20.750  8.4743e-02
8.000  21.000  8.4740e-02
8.000  21.250  8.4741e-02
8.000  21.500  8.4742e-02
8.000  21.750  8.4741e-02
8.000  22.000  8.4742e-02
8.000  22.250  8.4742e-02
8.000  22.500  8.4742e-02
8.000  22.750  8.4741e-02
8.000  23.000  8.4741e-02
8.000  23.250  8.4742e-02
8.000  23.500  8.4742e-02
8.000  23.750  8.4742e-02
8.000  24.000  8.4742e-02
8.250  17.000  3.9077e-03
8.250  17.250  5.6032e-03
8.250  17.500  8.3273e-03
8.250  17.750  1.2985e-02
8.250  18.000  2.1009e-02
8.250  18.250  3.2687e-02
8.250  18.500  4.6531e-02
8.250  18.750  5.9578e-02
8.250  19.000  7.1519e-02
8.250  19.250  7.7265e-02
8.250  19.500  8.2370e-02
8.250  19.750  8.4384e-02
8.250  20.000  8.5092e-02
8.250  20.250  8.4984e-02
8.250  20.500  8.4966e-02
8.250  20.750  8.4856e-02
8.250  21.000  8.4743e-02
8.250  21.250  8.4741e-02
8.250  21.500  8.4741e-02
8.250  21.750  8.4741e-02
8.250  22.000  8.4742e-02
8.250  22.250  8.4742e-02
8.250  22.500  8.4742e-02
8.250  22.750  8.4742e-02
8.250  23.000  8.4742e-02
8.250  23.250  8.4742e-02
8.250  23.500  8.4742e-02
8.250  23.750  8.4742e-02
8.250  24.000  8.4741e-02
8.500  17.000  2.8542e-03
8.500  17.250  4.0830e-03
8.500  17.500  6.0259e-03
8.500  17.750  9.3712e-03
8.500  18.000  1.5532e-02
8.500  18.250  2.5540e-02
8.500  18.500  3.8637e-02
8.500  18.750  5.1993e-02
8.500  19.000  6.3333e-02
8.500  19.250  7.2783e-02
8.500  19.500  7.8109e-02
8.500  19.750  8.2479e-02
8.500  20.000  8.4404e-02
8.500  20.250  8.5092e-02
8.500  20.500  8.4985e-02
8.500  20.750  8.4966e-02
8.500  21.000  8.4852e-02
8.500  21.250  8.4743e-02
8.500  21.500  8.4742e-02
8.500  21.750  8.4742e-02
8.500  22.000  8.4741e-02
8.500  22.250  8.4742e-02
8.500  22.500  8.4741e-02
8.500  22.750  8.4741e-02
8.500  23.000  8.4741e-02
8.500  23.250  8.4741e-02
8.500  23.500  8.4742e-02
8.500  23.750  8.4742e-02
8.500  24.000  8.4742e-02
8.750  17.000  2.0822e-03
8.750  17.250  2.9860e-03
8.750  17.500  4.4026e-03
8.750  17.750  6.8317e-03
8.750  18.000  1.1408e-02
8.750  18.250  1.9396e-02
8.750  18.500  3.0843e-02
8.750  18.750  4.3839e-02
8.750  19.000  5.5676e-02
8.750  19.250  6.7253e-02
8.750  19.500  7.4378e-02
8.750  19.750  7.8895e-02
8.750  20.000  8.2412e-02
8.750  20.250  8.4427e-02
8.750  20.500  8.5091e-02
8.750  20.750  8.4985e-02
8.750  21.000  8.4968e-02
8.750  21.250  8.4851e-02
8.750  21.500  8.4743e-02
8.750  21.750  8.4741e-02
8.750  22.000  8.4742e-02
8.750  22.250  8.4742e-02
8.750  22.500  8.4742e-02
8.750  22.750  8.4742e-02
8.750  23.000  8.4742e-02
8.750  23.250  8.4742e-02
8.750  23.500  8.4742e-02
8.750  23.750  8.4742e-02
8.750  24.000  8.4742e-02
9.000  17.000  1.5110e-03
9.000  17.250  2.1793e-03
9.000  17.500  3.2251e-03
9.000  17.750  5.0160e-03
9.000  18.000  8.4274e-03
9.000  18.250  1.4598e-02
9.000  18.500  2.3958e-02
9.000  18.750  3.5639e-02
9.000  19.000  4.7729e-02
9.000  19.250  5.9071e-02
9.000  19.500  6.9821e-02
9.000  19.750  7.5093e-02
9.000  20.000  7.9593e-02
9.000  20.250  8.2336e-02
9.000  20.500  8.4454e-02
9.000  20.750  8.5090e-02
9.000  21.000  8.4985e-02
9.000  21.250  8.4967e-02
9.000  21.500  8.4857e-02
9.000  21.750  8.4743e-02
9.000  22.000  8.4741e-02
9.000  22.250  8.4741e-02
9.000  22.500  8.4742e-02
9.000  22.750  8.4741e-02
9.000  23.000  8.4741e-02
9.000  23.250  8.4742e-02
9.000  23.500  8.4742e-02
9.000  23.750  8.4742e-02
9.000  24.000  8.4742e-02
9.250  17.000  1.0910e-03
9.250  17.250  1.5862e-03
9.250  17.500  2.3592e-03
9.250  17.750  3.6982e-03
9.250  18.000  6.2862e-03
9.250  18.250  1.1088e-02
9.250  18.500  1.8490e-02
9.250  18.750  2.7769e-02
9.250  19.000  3.8927e-02
9.250  19.250  5.0811e-02
9.250  19.500  6.1580e-02
9.250  19.750  7.1308e-02
9.250  20.000  7.5890e-02
9.250  20.250  8.0092e-02
9.250  20.500  8.2243e-02
9.250  20.750  8.4482e-02
9.250  21.000  8.5088e-02
9.250  21.250  8.4983e-02
9.250  21.500  8.4966e-02
9.250  21.750  8.4847e-02
9.250  22.000  8.4706e-02
9.250  22.250  8.4735e-02
9.250  22.500  8.4741e-02
9.250  22.750  8.4741e-02
9.250  23.000  8.4741e-02
9.250  23.250  8.4741e-02
9.250  23.500  8.4742e-02
9.250  23.750  8.4742e-02
9.250  24.000  8.4741e-02
9.500  17.000  7.8346e-04
9.500  17.250  1.1472e-03
9.500  17.500  1.7221e-03
9.500  17.750  2.7306e-03
9.500  18.000  4.6798e-03
9.500  18.250  8.4594e-03
9.500  18.500  1.4208e-02
9.500  18.750  2.1470e-02
9.500  19.000  3.0434e-02
9.500  19.250  4.0857e-02
9.500  19.500  5.2024e-02
9.500  19.750  6.4063e-02
9.500  20.000  7.1845e-02
9.500  20.250  7.6361e-02
9.500  20.500  8.0154e-02
9.500  20.750  8.2129e-02
9.500  21.000  8.4508e-02
9.500  21.250  8.5079e-02
9.500  21.500  8.4964e-02
9.500  21.750  8.4919e-02
9.500  22.000  8.4757e-02
9.500  22.250  8.4518e-02
9.500  22.500  8.4389e-02
9.500  22.750  8.4363e-02
9.500  23.000  8.4343e-02
9.500  23.250  8.4335e-02
9.500  23.500  8.4490e-02
9.500  23.750  8.4487e-02
9.500  24.000  8.4486e-02
9.750  17.000  5.6099e-04
9.750  17.250  8.2527e-04
9.750  17.500  1.2500e-03
9.750  17.750  2.0063e-03
9.750  18.000  3.5490e-03
9.750  18.250  6.4784e-03
9.750  18.500  1.0781e-02
9.750  18.750  1.6317e-02
9.750  19.000  2.3231e-02
9.750  19.250  3.1817e-02
9.750  19.500  4.2085e-02
9.750  19.750  5.3506e-02
9.750  20.000  6.5117e-02
9.750  20.250  7.2187e-02
9.750  20.500  7.6981e-02
9.750  20.750  7.9886e-02
9.750  21.000  8.2018e-02
9.750  21.250  8.4553e-02
9.750  21.500  8.5076e-02
9.750  21.750  8.4973e-02
9.750  22.000  8.4919e-02
9.750  22.250  8.4754e-02
9.750  22.500  8.4536e-02
9.750  22.750  8.4422e-02
9.750  23.000  8.4407e-02
9.750  23.250  8.4393e-02
9.750  23.500  8.4388e-02
9.750  23.750  8.4383e-02
9.750  24.000  8.4379e-02
10.000  17.000  4.0206e-04
10.000  17.250  5.9136e-04
10.000  17.500  9.0123e-04
10.000  17.750  1.4664e-03
10.000  18.000  2.6307e-03
10.000  18.250  4.8459e-03
10.000  18.500  8.0863e-03
10.000  18.750  1.2216e-02
10.000  19.000  1.7390e-02
10.000  19.250  2.4077e-02
10.000  19.500  3.2503e-02
10.000  19.750  4.2977e-02
10.000  20.000  5.4786e-02
10.000  20.250  6.5698e-02
10.000  20.500  7.2687e-02
10.000  20.750  7.7382e-02
10.000  21.000  7.9604e-02
10.000  21.250  8.1926e-02
10.000  21.500  8.4595e-02
10.000  21.750  8.5067e-02
10.000  22.000  8.4974e-02
10.000  22.250  8.4934e-02
10.000  22.500  8.4760e-02
10.000  22.750  8.4534e-02
10.000  23.000  8.4441e-02
10.000  23.250  8.4433e-02
10.000  23.500  8.4422e-02
10.000  23.750  8.4422e-02
10.000  24.000  8.4420e-02
10.250  17.000  2.8840e-04
10.250  17.250  4.2296e-04
10.250  17.500  6.4634e-04
10.250  17.750  1.0683e-03
10.250  18.000  1.9504e-03
10.250  18.250  3.5891e-03
10.250  18.500  5.9253e-03
10.250  18.750  8.9626e-03
10.250  19.000  1.2747e-02
10.250  19.250  1.7785e-02
10.250  19.500  2.4428e-02
10.250  19.750  3.3022e-02
10.250  20.000  4.3513e-02
10.250  20.250  5.5429e-02
10.250  20.500  6.6047e-02
10.250  20.750  7.3239e-02
10.250  21.000  7.7375e-02
10.250  21.250  7.9367e-02
10.250  21.500  8.2017e-02
10.250  21.750  8.4613e-02
10.250  22.000  8.5046e-02
10.250  22.250  8.4969e-02
10.250  22.500  8.4951e-02
10.250  22.750  8.4770e-02
10.250  23.000  8.4539e-02
10.250  23.250  8.4451e-02
10.250  23.500  8.4448e-02
10.250  23.750  8.4443e-02
10.250  24.000  8.4442e-02
10.500  17.000  2.0741e-04
10.500  17.250  3.0239e-04
10.500  17.500  4.6198e-04
10.500  17.750  7.6996e-04
10.500  18.000  1.4244e-03
10.500  18.250  2.6063e-03
10.500  18.500  4.2456e-03
10.500  18.750  6.4337e-03
10.500  19.000  9.2490e-03
10.500  19.250  1.2933e-02
10.500  19.500  1.8066e-02
10.500  19.750  2.4812e-02
10.500  20.000  3.3465e-02
10.500  20.250  4.3940e-02
10.500  20.500  5.5875e-02
10.500  20.750  6.6389e-02
10.500  21.000  7.3607e-02
10.500  21.250  7.6970e-02
10.500  21.500  7.9367e-02
10.500  21.750  8.2076e-02
10.500  22.000  8.4546e-02
10.500  22.250  8.5013e-02
10.500  22.500  8.4964e-02
10.500  22.750  8.4954e-02
10.500  23.000  8.4821e-02
10.500  23.250  8.4580e-02
10.500  23.500  8.4475e-02
10.500  23.750  8.4455e-02
10.500  24.000  8.4457e-02
10.750  17.000  1.4947e-04
10.750  17.250  2.1638e-04
10.750  17.500  3.2897e-04
10.750  17.750  5.5004e-04
10.750  18.000  1.0054e-03
10.750  18.250  1.8393e-03
10.750  18.500  2.9708e-03
10.750  18.750  4.4942e-03
10.750  19.000  6.5229e-03
10.750  19.250  9.3476e-03
10.750  19.500  1.3193e-02
10.750  19.750  1.8365e-02
10.750  20.000  2.5156e-02
10.750  20.250  3.3731e-02
10.750  20.500  4.4082e-02
10.750  20.750  5.5938e-02
10.750  21.000  6.6430e-02
10.750  21.250  7.3605e-02
10.750  21.500  7.6847e-02
10.750  21.750  7.9171e-02
10.750  22.000  8.2122e-02
10.750  22.250  8.4409e-02
10.750  22.500  8.4955e-02
10.750  22.750  8.4949e-02
10.750  23.000  8.4952e-02
10.750  23.250  8.4841e-02
10.750  23.500  8.4685e-02
10.750  23.750  8.4577e-02
10.750  24.000  8.4506e-02
11.000  17.000  1.0757e-04
11.000  17.250  1.5514e-04
11.000  17.500  2.3383e-04
11.000  17.750  3.8856e-04
11.000  18.000  7.0593e-04
11.000  18.250  1.2689e-03
11.000  18.500  2.0336e-03
11.000  18.750  3.1122e-03
11.000  19.000  4.5822e-03
11.000  19.250  6.6459e-03
11.000  19.500  9.5099e-03
11.000  19.750  1.3407e-02
11.000  20.000  1.8580e-02
11.000  20.250  2.5312e-02
11.000  20.500  3.3668e-02
11.000  20.750  4.3669e-02
11.000  21.000  5.5300e-02
11.000  21.250  6.5914e-02
11.000  21.500  7.3595e-02
11.000  21.750  7.6308e-02
11.000  22.000  7.8879e-02
11.000  22.250  8.2085e-02
11.000  22.500  8.4187e-02
11.000  22.750  8.4873e-02
11.000  23.000  8.4925e-02
11.000  23.250  8.4945e-02
11.000  23.500  8.4840e-02
11.000  23.750  8.4722e-02
11.000  24.000  8.4688e-02
11.250  17.000  7.8848e-05
11.250  17.250  1.1078e-04
11.250  17.500  1.6584e-04
11.250  17.750  2.7193e-04
11.250  18.000  4.8749e-04
11.250  18.250  8.4856e-04
11.250  18.500  1.3537e-03
11.250  18.750  2.0877e-03
11.250  19.000  3.1431e-03
11.250  19.250  4.6344e-03
11.250  19.500  6.7473e-03
11.250  19.750  9.6379e-03
11.250  20.000  1.3537e-02
11.250  20.250  1.8685e-02
11.250  20.500  2.5183e-02
11.250  20.750  3.3070e-02
11.250  21.000  4.2447e-02
11.250  21.250  5.3756e-02
11.250  21.500  6.5414e-02
11.250  21.750  7.2408e-02
11.250  22.000  7.5439e-02
11.250  22.250  7.8356e-02
11.250  22.500  8.1804e-02
11.250  22.750  8.3840e-02
11.250  23.000  8.4758e-02
11.250  23.250  8.4887e-02
11.250  23.500  8.4930e-02
11.250  23.750  8.4839e-02
11.250  24.000  8.4733e-02
11.500  17.000  5.7119e-05
11.500  17.250  8.0658e-05
11.500  17.500  1.1695e-04
11.500  17.750  1.8790e-04
11.500  18.000  3.2897e-04
11.500  18.250  5.5770e-04
11.500  18.500  8.8889e-04
11.500  18.750  1.3799e-03
11.500  19.000  2.1399e-03
11.500  19.250  3.2151e-03
11.500  19.500  4.7199e-03
11.500  19.750  6.8264e-03
11.500  20.000  9.7170e-03
11.500  20.250  1.3577e-02
11.500  20.500  1.8547e-02
11.500  20.750  2.4620e-02
11.500  21.000  3.1680e-02
11.500  21.250  4.0172e-02
11.500  21.500  5.1966e-02
11.500  21.750  6.3604e-02
11.500  22.000  7.0493e-02
11.500  22.250  7.4086e-02
11.500  22.500  7.7451e-02
11.500  22.750  8.1075e-02
11.500  23.000  8.3349e-02
11.500  23.250  8.4583e-02
11.500  23.500  8.4832e-02
11.500  23.750  8.4909e-02
11.500  24.000  8.4833e-02
11.750  17.000  3.3004e-05
11.750  17.250  6.0412e-05
11.750  17.500  8.4280e-05
11.750  17.750  1.2905e-04
11.750  18.000  2.1802e-04
11.750  18.250  3.6247e-04
11.750  18.500  5.8362e-04
11.750  18.750  9.2560e-04
11.750  19.000  1.4398e-03
11.750  19.250  2.1858e-03
11.750  19.500  3.2554e-03
11.750  19.750  4.7740e-03
11.750  20.000  6.8835e-03
11.750  20.250  9.7388e-03
11.750  20.500  1.3480e-02
11.750  20.750  1.8095e-02
11.750  21.000  2.3405e-02
11.750  21.250  2.9300e-02
11.750  21.500  3.7738e-02
11.750  21.750  4.8751e-02
11.750  22.000  6.0541e-02
11.750  22.250  6.7670e-02
11.750  22.500  7.2022e-02
11.750  22.750  7.6098e-02
11.750  23.000  7.9898e-02
11.750  23.250  8.2635e-02
11.750  23.500  8.4327e-02
11.750  23.750  8.4748e-02
11.750  24.000  8.4879e-02
12.000  17.000  1.5144e-05
12.000  17.250  3.5473e-05
12.000  17.500  6.2963e-05
12.000  17.750  9.0453e-05
12.000  18.000  1.4387e-04
12.000  18.250  2.3547e-04
12.000  18.500  3.8510e-04
12.000  18.750  6.1909e-04
12.000  19.000  9.6082e-04
12.000  19.250  1.4633e-03
12.000  19.500  2.2100e-03
12.000  19.750  3.2836e-03
12.000  20.000  4.8036e-03
12.000  20.250  6.8956e-03
12.000  20.500  9.6669e-03
12.000  20.750  1.3139e-02
12.000  21.000  1.7143e-02
12.000  21.250  2.1320e-02
12.000  21.500  2.6851e-02
12.000  21.750  3.3788e-02
12.000  22.000  4.4403e-02
12.000  22.250  5.5898e-02
12.000  22.500  6.3697e-02
12.000  22.750  6.8968e-02
12.000  23.000  7.3888e-02
12.000  23.250  7.8145e-02
12.000  23.500  8.1596e-02
12.000  23.750  8.3933e-02
12.000  24.000  8.4617e-02
12.250  17.000  7.0782e-06
12.250  17.250  1.6708e-05
12.250  17.500  3.7778e-05
12.250  17.750  6.6996e-05
12.250  18.000  9.9506e-05
12.250  18.250  1.5844e-04
12.250  18.500  2.5918e-04
12.250  18.750  4.0724e-04
12.250  19.000  6.2667e-04
12.250  19.250  9.7012e-04
12.250  19.500  1.4776e-03
12.250  19.750  2.2253e-03
12.250  20.000  3.3023e-03
12.250  20.250  4.8082e-03
12.250  20.500  6.8391e-03
12.250  20.750  9.4328e-03
12.250  21.000  1.2448e-02
12.250  21.250  1.5506e-02
12.250  21.500  1.9190e-02
12.250  21.750  2.2966e-02
12.250  22.000  2.9120e-02
12.250  22.250  3.9152e-02
12.250  22.500  5.0145e-02
12.250  22.750  5.8234e-02
12.250  23.000  6.4631e-02
12.250  23.250  7.0620e-02
12.250  23.500  7.5614e-02
12.250  23.750  8.0074e-02
12.250  24.000  8.3343e-02
12.500  17.000  3.4568e-06
12.500  17.250  7.8189e-06
12.500  17.500  1.8107e-05
12.500  17.750  3.9588e-05
12.500  18.000  7.4568e-05
12.500  18.250  1.1243e-04
12.500  18.500  1.7251e-04
12.500  18.750  2.6691e-04
12.500  19.000  4.1193e-04
12.500  19.250  6.3523e-04
12.500  19.500  9.7613e-04
12.500  19.750  1.4866e-03
12.500  20.000  2.2343e-03
12.500  20.250  3.3031e-03
12.500  20.500  4.7684e-03
12.500  20.750  6.6752e-03
12.500  21.000  8.9530e-03
12.500  21.250  1.1252e-02
12.500  21.500  1.3832e-02
12.500  21.750  1.5779e-02
12.500  22.000  1.8596e-02
12.500  22.250  2.4371e-02
12.500  22.500  3.3808e-02
12.500  22.750  4.3339e-02
12.500  23.000  5.1310e-02
12.500  23.250  5.8952e-02
12.500  23.500  6.6083e-02
12.500  23.750  7.2074e-02
12.500  24.000  7.7880e-02
12.750  17.000  1.8107e-06
12.750  17.250  3.7860e-06
12.750  17.500  8.5597e-06
12.750  17.750  1.8765e-05
12.750  18.000  3.9918e-05
12.750  18.250  7.6626e-05
12.750  18.500  1.1300e-04
12.750  18.750  1.6831e-04
12.750  19.000  2.6724e-04
12.750  19.250  4.1317e-04
12.750  19.500  6.3827e-04
12.750  19.750  9.7819e-04
12.750  20.000  1.4864e-03
12.750  20.250  2.2327e-03
12.750  20.500  3.2728e-03
12.750  20.750  4.6584e-03
12.750  21.000  6.3530e-03
12.750  21.250  8.1080e-03
12.750  21.500  1.0008e-02
12.750  21.750  1.1036e-02
12.750  22.000  1.2040e-02
12.750  22.250  1.4625e-02
12.750  22.500  2.0048e-02
12.750  22.750  2.7815e-02
12.750  23.000  3.5325e-02
12.750  23.250  4.3441e-02
12.750  23.500  5.2129e-02
12.750  23.750  6.0228e-02
12.750  24.000  6.7269e-02
13.000  17.000  1.0000e-07
13.000  17.250  1.1523e-06
13.000  17.500  3.0453e-06
13.000  17.750  7.6543e-06
13.000  18.000  1.6708e-05
13.000  18.250  3.3169e-05
13.000  18.500  6.4280e-05
13.000  18.750  1.1045e-04
13.000  19.000  1.6905e-04
13.000  19.250  2.6724e-04
13.000  19.500  4.1086e-04
13.000  19.750  6.3844e-04
13.000  20.000  9.7901e-04
13.000  20.250  1.4830e-03
13.000  20.500  2.2123e-03
13.000  20.750  3.2059e-03
13.000  21.000  4.4482e-03
13.000  21.250  5.7767e-03
13.000  21.500  7.2148e-03
13.000  21.750  7.8263e-03
13.000  22.000  7.9614e-03
13.000  22.250  8.8019e-03
13.000  22.500  1.1518e-02
13.000  22.750  1.6076e-02
13.000  23.000  2.1725e-02
13.000  23.250  2.8128e-02
13.000  23.500  3.5790e-02
13.000  23.750  4.4526e-02
13.000  24.000  5.3108e-02
13.250  17.000  1.0000e-07
13.250  17.250  1.0000e-07
13.250  17.500  1.3169e-06
13.250  17.750  3.0453e-06
13.250  18.000  7.4897e-06
13.250  18.250  1.6708e-05
13.250  18.500  3.3909e-05
13.250  18.750  6.5432e-05
13.250  19.000  1.1309e-04
13.250  19.250  1.7012e-04
13.250  19.500  2.6560e-04
13.250  19.750  4.1177e-04
13.250  20.000  6.3588e-04
13.250  20.250  9.7383e-04
13.250  20.500  1.4705e-03
13.250  20.750  2.1663e-03
13.250  21.000  3.0681e-03
13.250  21.250  4.0557e-03
13.250  21.500  5.1461e-03
13.250  21.750  5.5598e-03
13.250  22.000  5.3616e-03
13.250  22.250  5.4167e-03
13.250  22.500  6.5781e-03
13.250  22.750  8.9807e-03
13.250  23.000  1.2396e-02
13.250  23.250  1.6764e-02
13.250  23.500  2.2043e-02
13.250  23.750  2.8659e-02
13.250  24.000  3.6727e-02
13.500  17.000  1.0000e-07
13.500  17.250  1.0000e-07
13.500  17.500  1.0000e-07
13.500  17.750  1.5638e-06
13.500  18.000  3.7860e-06
13.500  18.250  8.4774e-06
13.500  18.500  1.7449e-05
13.500  18.750  3.5144e-05
13.500  19.000  7.5802e-05
13.500  19.250  1.1399e-04
13.500  19.500  1.6848e-04
13.500  19.750  2.6560e-04
13.500  20.000  4.0930e-04
13.500  20.250  6.3078e-04
13.500  20.500  9.6263e-04
13.500  20.750  1.4388e-03
13.500  21.000  2.0738e-03
13.500  21.250  2.8067e-03
13.500  21.500  3.6221e-03
13.500  21.750  3.9407e-03
13.500  22.000  3.6695e-03
13.500  22.250  3.3978e-03
13.500  22.500  3.8519e-03
13.500  22.750  5.0812e-03
13.500  23.000  7.0002e-03
13.500  23.250  9.6316e-03
13.500  23.500  1.2942e-02
13.500  23.750  1.6987e-02
13.500  24.000  2.2495e-02
13.750  17.000  1.0000e-07
13.750  17.250  1.0000e-07
13.750  17.500  1.0000e-07
13.750  17.750  8.2305e-07
13.750  18.000  1.9753e-06
13.750  18.250  4.3621e-06
13.750  18.500  9.2181e-06
13.750  18.750  1.8519e-05
13.750  19.000  3.6461e-05
13.750  19.250  6.7407e-05
13.750  19.500  1.1630e-04
13.750  19.750  1.7391e-04
13.750  20.000  2.6370e-04
13.750  20.250  4.0601e-04
13.750  20.500  6.2296e-04
13.750  20.750  9.4165e-04
13.750  21.000  1.3806e-03
13.750  21.250  1.9062e-03
13.750  21.500  2.5128e-03
13.750  21.750  2.7660e-03
13.750  22.000  2.5346e-03
13.750  22.250  2.1765e-03
13.750  22.500  2.2793e-03
13.750  22.750  2.9467e-03
13.750  23.000  4.0073e-03
13.750  23.250  5.4677e-03
13.750  23.500  7.4148e-03
13.750  23.750  9.7933e-03
13.750  24.000  1.2947e-02
14.000  17.000  1.0000e-07
14.000  17.250  1.0000e-07
14.000  17.500  1.0000e-07
14.000  17.750  1.0000e-07
14.000  18.000  1.0700e-06
14.000  18.250  2.3045e-06
14.000  18.500  4.8560e-06
14.000  18.750  9.7942e-06
14.000  19.000  1.9095e-05
14.000  19.250  3.9753e-05
14.000  19.500  7.1852e-05
14.000  19.750  1.1695e-04
14.000  20.000  1.7226e-04
14.000  20.250  2.6099e-04
14.000  20.500  4.0049e-04
14.000  20.750  6.1004e-04
14.000  21.000  9.0560e-04
14.000  21.250  1.2747e-03
14.000  21.500  1.7144e-03
14.000  21.750  1.9179e-03
14.000  22.000  1.7482e-03
14.000  22.250  1.4231e-03
14.000  22.500  1.3671e-03
14.000  22.750  1.7161e-03
14.000  23.000  2.3241e-03
14.000  23.250  3.1272e-03
14.000  23.500  4.2101e-03
14.000  23.750  5.5754e-03
14.000  24.000  7.2581e-03
