nFnu 9000.00A  relative to Inci 1215.00A scaled to 1215A.
Hden   Phi(H)  Eq_Width (A)
7.000  17.000  8.3685e-02
7.000  17.250  8.9231e-02
7.000  17.500  8.9697e-02
7.000  17.750  8.7855e-02
7.000  18.000  7.1976e-02
7.000  18.250  6.1246e-02
7.000  18.500  5.4683e-02
7.000  18.750  5.1766e-02
7.000  19.000  5.0647e-02
7.000  19.250  4.9995e-02
7.000  19.500  4.9737e-02
7.000  19.750  4.9625e-02
7.000  20.000  4.9569e-02
7.000  20.250  4.9551e-02
7.000  20.500  4.9554e-02
7.000  20.750  4.9560e-02
7.000  21.000  4.9557e-02
7.000  21.250  4.9556e-02
7.000  21.500  4.9555e-02
7.000  21.750  4.9555e-02
7.000  22.000  4.9555e-02
7.000  22.250  4.9554e-02
7.000  22.500  4.9554e-02
7.000  22.750  4.9555e-02
7.000  23.000  4.9555e-02
7.000  23.250  4.9555e-02
7.000  23.500  4.9555e-02
7.000  23.750  4.9555e-02
7.000  24.000  4.9555e-02
7.250  17.000  7.8919e-02
7.250  17.250  8.6368e-02
7.250  17.500  9.2319e-02
7.250  17.750  9.1323e-02
7.250  18.000  8.7809e-02
7.250  18.250  7.1970e-02
7.250  18.500  6.1235e-02
7.250  18.750  5.4682e-02
7.250  19.000  5.1767e-02
7.250  19.250  5.0647e-02
7.250  19.500  4.9995e-02
7.250  19.750  4.9737e-02
7.250  20.000  4.9635e-02
7.250  20.250  4.9593e-02
7.250  20.500  4.9574e-02
7.250  20.750  4.9564e-02
7.250  21.000  4.9560e-02
7.250  21.250  4.9557e-02
7.250  21.500  4.9556e-02
7.250  21.750  4.9555e-02
7.250  22.000  4.9554e-02
7.250  22.250  4.9554e-02
7.250  22.500  4.9554e-02
7.250  22.750  4.9554e-02
7.250  23.000  4.9554e-02
7.250  23.250  4.9554e-02
7.250  23.500  4.9554e-02
7.250  23.750  4.9554e-02
7.250  24.000  4.9554e-02
7.500  17.000  7.4830e-02
7.500  17.250  8.1723e-02
7.500  17.500  9.0066e-02
7.500  17.750  9.6560e-02
7.500  18.000  9.3093e-02
7.500  18.250  8.7770e-02
7.500  18.500  7.1967e-02
7.500  18.750  6.1225e-02
7.500  19.000  5.4680e-02
7.500  19.250  5.1766e-02
7.500  19.500  5.0647e-02
7.500  19.750  4.9995e-02
7.500  20.000  4.9737e-02
7.500  20.250  4.9635e-02
7.500  20.500  4.9593e-02
7.500  20.750  4.9574e-02
7.500  21.000  4.9565e-02
7.500  21.250  4.9560e-02
7.500  21.500  4.9557e-02
7.500  21.750  4.9556e-02
7.500  22.000  4.9555e-02
7.500  22.250  4.9555e-02
7.500  22.500  4.9554e-02
7.500  22.750  4.9554e-02
7.500  23.000  4.9554e-02
7.500  23.250  4.9554e-02
7.500  23.500  4.9554e-02
7.500  23.750  4.9554e-02
7.500  24.000  4.9554e-02
7.750  17.000  7.2084e-02
7.750  17.250  7.7595e-02
7.750  17.500  8.5928e-02
7.750  17.750  9.5906e-02
7.750  18.000  1.0216e-01
7.750  18.250  9.5236e-02
7.750  18.500  8.7735e-02
7.750  18.750  7.1967e-02
7.750  19.000  6.1212e-02
7.750  19.250  5.4679e-02
7.750  19.500  5.1767e-02
7.750  19.750  5.0647e-02
7.750  20.000  4.9995e-02
7.750  20.250  4.9737e-02
7.750  20.500  4.9635e-02
7.750  20.750  4.9593e-02
7.750  21.000  4.9574e-02
7.750  21.250  4.9565e-02
7.750  21.500  4.9560e-02
7.750  21.750  4.9559e-02
7.750  22.000  4.9556e-02
7.750  22.250  4.9555e-02
7.750  22.500  4.9554e-02
7.750  22.750  4.9554e-02
7.750  23.000  4.9554e-02
7.750  23.250  4.9554e-02
7.750  23.500  4.9554e-02
7.750  23.750  4.9554e-02
7.750  24.000  4.9554e-02
8.000  17.000  7.0475e-02
8.000  17.250  7.4027e-02
8.000  17.500  8.1206e-02
8.000  17.750  9.2407e-02
8.000  18.000  1.0487e-01
8.000  18.250  1.0945e-01
8.000  18.500  9.7738e-02
8.000  18.750  8.7687e-02
8.000  19.000  7.1949e-02
8.000  19.250  6.1196e-02
8.000  19.500  5.4676e-02
8.000  19.750  5.1767e-02
8.000  20.000  5.0647e-02
8.000  20.250  4.9995e-02
8.000  20.500  4.9737e-02
8.000  20.750  4.9635e-02
8.000  21.000  4.9593e-02
8.000  21.250  4.9574e-02
8.000  21.500  4.9565e-02
8.000  21.750  4.9560e-02
8.000  22.000  4.9557e-02
8.000  22.250  4.9556e-02
8.000  22.500  4.9555e-02
8.000  22.750  4.9554e-02
8.000  23.000  4.9554e-02
8.000  23.250  4.9554e-02
8.000  23.500  4.9554e-02
8.000  23.750  4.9554e-02
8.000  24.000  4.9554e-02
8.250  17.000  7.1201e-02
8.250  17.250  7.2949e-02
8.250  17.500  7.8122e-02
8.250  17.750  8.8648e-02
8.250  18.000  1.0493e-01
8.250  18.250  1.2048e-01
8.250  18.500  1.1805e-01
8.250  18.750  1.0166e-01
8.250  19.000  8.7664e-02
8.250  19.250  7.1955e-02
8.250  19.500  6.1178e-02
8.250  19.750  5.4673e-02
8.250  20.000  5.1766e-02
8.250  20.250  5.0647e-02
8.250  20.500  4.9995e-02
8.250  20.750  4.9737e-02
8.250  21.000  4.9635e-02
8.250  21.250  4.9593e-02
8.250  21.500  4.9574e-02
8.250  21.750  4.9564e-02
8.250  22.000  4.9560e-02
8.250  22.250  4.9557e-02
8.250  22.500  4.9556e-02
8.250  22.750  4.9555e-02
8.250  23.000  4.9554e-02
8.250  23.250  4.9554e-02
8.250  23.500  4.9554e-02
8.250  23.750  4.9554e-02
8.250  24.000  4.9554e-02
8.500  17.000  7.3181e-02
8.500  17.250  7.3721e-02
8.500  17.500  7.7021e-02
8.500  17.750  8.5716e-02
8.500  18.000  1.0293e-01
8.500  18.250  1.2655e-01
8.500  18.500  1.4085e-01
8.500  18.750  1.2832e-01
8.500  19.000  1.0494e-01
8.500  19.250  8.7641e-02
8.500  19.500  7.1966e-02
8.500  19.750  6.1154e-02
8.500  20.000  5.4668e-02
8.500  20.250  5.1765e-02
8.500  20.500  5.0647e-02
8.500  20.750  4.9995e-02
8.500  21.000  4.9737e-02
8.500  21.250  4.9635e-02
8.500  21.500  4.9593e-02
8.500  21.750  4.9574e-02
8.500  22.000  4.9564e-02
8.500  22.250  4.9560e-02
8.500  22.500  4.9557e-02
8.500  22.750  4.9555e-02
8.500  23.000  4.9555e-02
8.500  23.250  4.9554e-02
8.500  23.500  4.9554e-02
8.500  23.750  4.9554e-02
8.500  24.000  4.9554e-02
8.750  17.000  7.5989e-02
8.750  17.250  7.5837e-02
8.750  17.500  7.7984e-02
8.750  17.750  8.4723e-02
8.750  18.000  1.0076e-01
8.750  18.250  1.2834e-01
8.750  18.500  1.5416e-01
8.750  18.750  1.6116e-01
8.750  19.000  1.3469e-01
8.750  19.250  1.0868e-01
8.750  19.500  8.7613e-02
8.750  19.750  7.1982e-02
8.750  20.000  6.1129e-02
8.750  20.250  5.4663e-02
8.750  20.500  5.1766e-02
8.750  20.750  5.0647e-02
8.750  21.000  4.9995e-02
8.750  21.250  4.9737e-02
8.750  21.500  4.9635e-02
8.750  21.750  4.9593e-02
8.750  22.000  4.9574e-02
8.750  22.250  4.9565e-02
8.750  22.500  4.9560e-02
8.750  22.750  4.9557e-02
8.750  23.000  4.9556e-02
8.750  23.250  4.9555e-02
8.750  23.500  4.9554e-02
8.750  23.750  4.9554e-02
8.750  24.000  4.9554e-02
9.000  17.000  7.9513e-02
9.000  17.250  7.8873e-02
9.000  17.500  8.0516e-02
9.000  17.750  8.6364e-02
9.000  18.000  1.0087e-01
9.000  18.250  1.2844e-01
9.000  18.500  1.6173e-01
9.000  18.750  1.8475e-01
9.000  19.000  1.7897e-01
9.000  19.250  1.4293e-01
9.000  19.500  1.1201e-01
9.000  19.750  8.7577e-02
9.000  20.000  7.2004e-02
9.000  20.250  6.1101e-02
9.000  20.500  5.4657e-02
9.000  20.750  5.1765e-02
9.000  21.000  5.0647e-02
9.000  21.250  4.9995e-02
9.000  21.500  4.9737e-02
9.000  21.750  4.9635e-02
9.000  22.000  4.9593e-02
9.000  22.250  4.9574e-02
9.000  22.500  4.9564e-02
9.000  22.750  4.9560e-02
9.000  23.000  4.9557e-02
9.000  23.250  4.9556e-02
9.000  23.500  4.9555e-02
9.000  23.750  4.9554e-02
9.000  24.000  4.9554e-02
9.250  17.000  8.3775e-02
9.250  17.250  8.2713e-02
9.250  17.500  8.4242e-02
9.250  17.750  9.0139e-02
9.250  18.000  1.0483e-01
9.250  18.250  1.3185e-01
9.250  18.500  1.6519e-01
9.250  18.750  1.9745e-01
9.250  19.000  2.1084e-01
9.250  19.250  1.9697e-01
9.250  19.500  1.4982e-01
9.250  19.750  1.1555e-01
9.250  20.000  8.7522e-02
9.250  20.250  7.2034e-02
9.250  20.500  6.1073e-02
9.250  20.750  5.4653e-02
9.250  21.000  5.1765e-02
9.250  21.250  5.0647e-02
9.250  21.500  4.9993e-02
9.250  21.750  4.9720e-02
9.250  22.000  4.9573e-02
9.250  22.250  4.9576e-02
9.250  22.500  4.9574e-02
9.250  22.750  4.9564e-02
9.250  23.000  4.9560e-02
9.250  23.250  4.9557e-02
9.250  23.500  4.9556e-02
9.250  23.750  4.9555e-02
9.250  24.000  4.9554e-02
9.500  17.000  8.9116e-02
9.500  17.250  8.7531e-02
9.500  17.500  8.9078e-02
9.500  17.750  9.5758e-02
9.500  18.000  1.1219e-01
9.500  18.250  1.4051e-01
9.500  18.500  1.7351e-01
9.500  18.750  2.0444e-01
9.500  19.000  2.2919e-01
9.500  19.250  2.3741e-01
9.500  19.500  2.0736e-01
9.500  19.750  1.5560e-01
9.500  20.000  1.1642e-01
9.500  20.250  8.7455e-02
9.500  20.500  7.2076e-02
9.500  20.750  6.1044e-02
9.500  21.000  5.4644e-02
9.500  21.250  5.1756e-02
9.500  21.500  5.0605e-02
9.500  21.750  4.9920e-02
9.500  22.000  4.9651e-02
9.500  22.250  4.9531e-02
9.500  22.500  4.9472e-02
9.500  22.750  4.9444e-02
9.500  23.000  4.9429e-02
9.500  23.250  4.9424e-02
9.500  23.500  4.9482e-02
9.500  23.750  4.9480e-02
9.500  24.000  4.9479e-02
9.750  17.000  9.5824e-02
9.750  17.250  9.3541e-02
9.750  17.500  9.5071e-02
9.750  17.750  1.0306e-01
9.750  18.000  1.2246e-01
9.750  18.250  1.5375e-01
9.750  18.500  1.8729e-01
9.750  18.750  2.1579e-01
9.750  19.000  2.3959e-01
9.750  19.250  2.5848e-01
9.750  19.500  2.6534e-01
9.750  19.750  2.1622e-01
9.750  20.000  1.6151e-01
9.750  20.250  1.1612e-01
9.750  20.500  8.7369e-02
9.750  20.750  7.2147e-02
9.750  21.000  6.1015e-02
9.750  21.250  5.4637e-02
9.750  21.500  5.1761e-02
9.750  21.750  5.0633e-02
9.750  22.000  4.9922e-02
9.750  22.250  4.9658e-02
9.750  22.500  4.9545e-02
9.750  22.750  4.9490e-02
9.750  23.000  4.9462e-02
9.750  23.250  4.9446e-02
9.750  23.500  4.9438e-02
9.750  23.750  4.9434e-02
9.750  24.000  4.9431e-02
10.000  17.000  1.0453e-01
10.000  17.250  1.0121e-01
10.000  17.500  1.0272e-01
10.000  17.750  1.1247e-01
10.000  18.000  1.3559e-01
10.000  18.250  1.6940e-01
10.000  18.500  2.0358e-01
10.000  18.750  2.3023e-01
10.000  19.000  2.5166e-01
10.000  19.250  2.7063e-01
10.000  19.500  2.9040e-01
10.000  19.750  2.8025e-01
10.000  20.000  2.2512e-01
10.000  20.250  1.6619e-01
10.000  20.500  1.1580e-01
10.000  20.750  8.7335e-02
10.000  21.000  7.2239e-02
10.000  21.250  6.0984e-02
10.000  21.500  5.4630e-02
10.000  21.750  5.1762e-02
10.000  22.000  5.0642e-02
10.000  22.250  4.9935e-02
10.000  22.500  4.9662e-02
10.000  22.750  4.9554e-02
10.000  23.000  4.9504e-02
10.000  23.250  4.9478e-02
10.000  23.500  4.9464e-02
10.000  23.750  4.9457e-02
10.000  24.000  4.9452e-02
10.250  17.000  1.1609e-01
10.250  17.250  1.1107e-01
10.250  17.500  1.1274e-01
10.250  17.750  1.2476e-01
10.250  18.000  1.5140e-01
10.250  18.250  1.8769e-01
10.250  18.500  2.2182e-01
10.250  18.750  2.4601e-01
10.250  19.000  2.6460e-01
10.250  19.250  2.8238e-01
10.250  19.500  3.0124e-01
10.250  19.750  3.1810e-01
10.250  20.000  2.8980e-01
10.250  20.250  2.3320e-01
10.250  20.500  1.6757e-01
10.250  20.750  1.1558e-01
10.250  21.000  8.7377e-02
10.250  21.250  7.2350e-02
10.250  21.500  6.0954e-02
10.250  21.750  5.4622e-02
10.250  22.000  5.1761e-02
10.250  22.250  5.0644e-02
10.250  22.500  4.9970e-02
10.250  22.750  4.9664e-02
10.250  23.000  4.9559e-02
10.250  23.250  4.9512e-02
10.250  23.500  4.9489e-02
10.250  23.750  4.9476e-02
10.250  24.000  4.9470e-02
10.500  17.000  1.3202e-01
10.500  17.250  1.2461e-01
10.500  17.500  1.2622e-01
10.500  17.750  1.4094e-01
10.500  18.000  1.7042e-01
10.500  18.250  2.0742e-01
10.500  18.500  2.3984e-01
10.500  18.750  2.6142e-01
10.500  19.000  2.7836e-01
10.500  19.250  2.9271e-01
10.500  19.500  3.0747e-01
10.500  19.750  3.2519e-01
10.500  20.000  3.3571e-01
10.500  20.250  3.0205e-01
10.500  20.500  2.4311e-01
10.500  20.750  1.6768e-01
10.500  21.000  1.1533e-01
10.500  21.250  8.7615e-02
10.500  21.500  7.2452e-02
10.500  21.750  6.0914e-02
10.500  22.000  5.4612e-02
10.500  22.250  5.1759e-02
10.500  22.500  5.0644e-02
10.500  22.750  4.9987e-02
10.500  23.000  4.9675e-02
10.500  23.250  4.9562e-02
10.500  23.500  4.9517e-02
10.500  23.750  4.9496e-02
10.500  24.000  4.9484e-02
10.750  17.000  1.5368e-01
10.750  17.250  1.4275e-01
10.750  17.500  1.4431e-01
10.750  17.750  1.6120e-01
10.750  18.000  1.9238e-01
10.750  18.250  2.2953e-01
10.750  18.500  2.5871e-01
10.750  18.750  2.7866e-01
10.750  19.000  2.9292e-01
10.750  19.250  3.0633e-01
10.750  19.500  3.1743e-01
10.750  19.750  3.3049e-01
10.750  20.000  3.4676e-01
10.750  20.250  3.5411e-01
10.750  20.500  3.1681e-01
10.750  20.750  2.5252e-01
10.750  21.000  1.6665e-01
10.750  21.250  1.1507e-01
10.750  21.500  8.8318e-02
10.750  21.750  7.2407e-02
10.750  22.000  6.0860e-02
10.750  22.250  5.4599e-02
10.750  22.500  5.1756e-02
10.750  22.750  5.0643e-02
10.750  23.000  4.9991e-02
10.750  23.250  4.9710e-02
10.750  23.500  4.9566e-02
10.750  23.750  4.9519e-02
10.750  24.000  4.9500e-02
11.000  17.000  1.8217e-01
11.000  17.250  1.6675e-01
11.000  17.500  1.6738e-01
11.000  17.750  1.8534e-01
11.000  18.000  2.1683e-01
11.000  18.250  2.5229e-01
11.000  18.500  2.7733e-01
11.000  18.750  2.9553e-01
11.000  19.000  3.0870e-01
11.000  19.250  3.1988e-01
11.000  19.500  3.2911e-01
11.000  19.750  3.3869e-01
11.000  20.000  3.5125e-01
11.000  20.250  3.6789e-01
11.000  20.500  3.7429e-01
11.000  20.750  3.3344e-01
11.000  21.000  2.5982e-01
11.000  21.250  1.6582e-01
11.000  21.500  1.1543e-01
11.000  21.750  8.9609e-02
11.000  22.000  7.2158e-02
11.000  22.250  6.0785e-02
11.000  22.500  5.4582e-02
11.000  22.750  5.1750e-02
11.000  23.000  5.0640e-02
11.000  23.250  4.9992e-02
11.000  23.500  4.9727e-02
11.000  23.750  4.9590e-02
11.000  24.000  4.9526e-02
11.250  17.000  2.2027e-01
11.250  17.250  1.9741e-01
11.250  17.500  1.9563e-01
11.250  17.750  2.1325e-01
11.250  18.000  2.4420e-01
11.250  18.250  2.7697e-01
11.250  18.500  2.9805e-01
11.250  18.750  3.1468e-01
11.250  19.000  3.2633e-01
11.250  19.250  3.3484e-01
11.250  19.500  3.4185e-01
11.250  19.750  3.4902e-01
11.250  20.000  3.5839e-01
11.250  20.250  3.7176e-01
11.250  20.500  3.8970e-01
11.250  20.750  3.9633e-01
11.250  21.000  3.5008e-01
11.250  21.250  2.6030e-01
11.250  21.500  1.6580e-01
11.250  21.750  1.1630e-01
11.250  22.000  9.0971e-02
11.250  22.250  7.1798e-02
11.250  22.500  6.0682e-02
11.250  22.750  5.4557e-02
11.250  23.000  5.1741e-02
11.250  23.250  5.0635e-02
11.250  23.500  4.9992e-02
11.250  23.750  4.9733e-02
11.250  24.000  4.9621e-02
11.500  17.000  2.7188e-01
11.500  17.250  2.3827e-01
11.500  17.500  2.2999e-01
11.500  17.750  2.4518e-01
11.500  18.000  2.7479e-01
11.500  18.250  3.0403e-01
11.500  18.500  3.2127e-01
11.500  18.750  3.3400e-01
11.500  19.000  3.4328e-01
11.500  19.250  3.4992e-01
11.500  19.500  3.5633e-01
11.500  19.750  3.6354e-01
11.500  20.000  3.7214e-01
11.500  20.250  3.8272e-01
11.500  20.500  3.9589e-01
11.500  20.750  4.1223e-01
11.500  21.000  4.1884e-01
11.500  21.250  3.6462e-01
11.500  21.500  2.5928e-01
11.500  21.750  1.6580e-01
11.500  22.000  1.1770e-01
11.500  22.250  9.1707e-02
11.500  22.500  7.1376e-02
11.500  22.750  6.0536e-02
11.500  23.000  5.4522e-02
11.500  23.250  5.1727e-02
11.500  23.500  5.0628e-02
11.500  23.750  4.9990e-02
11.500  24.000  4.9734e-02
11.750  17.000  3.3998e-01
11.750  17.250  2.9355e-01
11.750  17.500  2.7443e-01
11.750  17.750  2.8272e-01
11.750  18.000  3.0862e-01
11.750  18.250  3.3318e-01
11.750  18.500  3.4664e-01
11.750  18.750  3.5719e-01
11.750  19.000  3.6411e-01
11.750  19.250  3.6849e-01
11.750  19.500  3.8252e-01
11.750  19.750  4.0530e-01
11.750  20.000  4.3171e-01
11.750  20.250  4.5664e-01
11.750  20.500  4.7496e-01
11.750  20.750  4.8157e-01
11.750  21.000  4.7136e-01
11.750  21.250  4.3920e-01
11.750  21.500  3.7223e-01
11.750  21.750  2.5594e-01
11.750  22.000  1.6567e-01
11.750  22.250  1.1927e-01
11.750  22.500  9.1012e-02
11.750  22.750  7.0807e-02
11.750  23.000  6.0329e-02
11.750  23.250  5.4472e-02
11.750  23.500  5.1704e-02
11.750  23.750  5.0616e-02
11.750  24.000  4.9986e-02
12.000  17.000  3.6129e-01
12.000  17.250  3.6693e-01
12.000  17.500  3.3352e-01
12.000  17.750  3.2955e-01
12.000  18.000  3.3510e-01
12.000  18.250  3.3976e-01
12.000  18.500  3.4388e-01
12.000  18.750  3.4784e-01
12.000  19.000  3.5200e-01
12.000  19.250  3.5673e-01
12.000  19.500  3.6239e-01
12.000  19.750  3.6934e-01
12.000  20.000  3.7796e-01
12.000  20.250  3.8861e-01
12.000  20.500  4.0164e-01
12.000  20.750  4.1744e-01
12.000  21.000  4.3636e-01
12.000  21.250  4.5456e-01
12.000  21.500  4.4708e-01
12.000  21.750  3.7521e-01
12.000  22.000  2.5115e-01
12.000  22.250  1.6571e-01
12.000  22.500  1.2028e-01
12.000  22.750  8.9647e-02
12.000  23.000  7.0124e-02
12.000  23.250  6.0024e-02
12.000  23.500  5.4397e-02
12.000  23.750  5.1670e-02
12.000  24.000  5.0598e-02
12.250  17.000  3.0970e-01
12.250  17.250  4.0831e-01
12.250  17.500  4.1213e-01
12.250  17.750  3.9109e-01
12.250  18.000  3.9325e-01
12.250  18.250  4.0528e-01
12.250  18.500  4.1651e-01
12.250  18.750  4.2570e-01
12.250  19.000  4.3309e-01
12.250  19.250  4.3894e-01
12.250  19.500  4.4347e-01
12.250  19.750  4.4695e-01
12.250  20.000  4.4960e-01
12.250  20.250  4.5168e-01
12.250  20.500  4.5344e-01
12.250  20.750  4.5510e-01
12.250  21.000  4.5692e-01
12.250  21.250  4.5914e-01
12.250  21.500  4.6331e-01
12.250  21.750  4.5607e-01
12.250  22.000  3.7155e-01
12.250  22.250  2.4530e-01
12.250  22.500  1.6694e-01
12.250  22.750  1.2009e-01
12.250  23.000  8.7784e-02
12.250  23.250  6.9214e-02
12.250  23.500  5.9578e-02
12.250  23.750  5.4279e-02
12.250  24.000  5.1619e-02
12.500  17.000  2.7340e-01
12.500  17.250  3.4740e-01
12.500  17.500  4.5579e-01
12.500  17.750  4.6872e-01
12.500  18.000  4.5565e-01
12.500  18.250  4.5320e-01
12.500  18.500  4.5377e-01
12.500  18.750  4.5357e-01
12.500  19.000  4.4983e-01
12.500  19.250  4.4225e-01
12.500  19.500  4.3463e-01
12.500  19.750  4.2783e-01
12.500  20.000  4.2258e-01
12.500  20.250  4.1966e-01
12.500  20.500  4.2078e-01
12.500  20.750  4.2772e-01
12.500  21.000  4.4159e-01
12.500  21.250  4.6212e-01
12.500  21.500  4.7093e-01
12.500  21.750  4.7676e-01
12.500  22.000  4.5432e-01
12.500  22.250  3.5580e-01
12.500  22.500  2.4159e-01
12.500  22.750  1.6602e-01
12.500  23.000  1.1736e-01
12.500  23.250  8.5442e-02
12.500  23.500  6.8006e-02
12.500  23.750  5.8932e-02
12.500  24.000  5.4089e-02
12.750  17.000  2.4592e-01
12.750  17.250  2.9944e-01
12.750  17.500  3.7879e-01
12.750  17.750  4.9011e-01
12.750  18.000  5.2082e-01
12.750  18.250  5.1027e-01
12.750  18.500  5.0417e-01
12.750  18.750  4.9535e-01
12.750  19.000  4.8588e-01
12.750  19.250  4.7442e-01
12.750  19.500  4.6226e-01
12.750  19.750  4.5044e-01
12.750  20.000  4.4103e-01
12.750  20.250  4.3505e-01
12.750  20.500  4.3257e-01
12.750  20.750  4.3574e-01
12.750  21.000  4.4760e-01
12.750  21.250  4.6612e-01
12.750  21.500  4.7769e-01
12.750  21.750  4.9047e-01
12.750  22.000  4.8048e-01
12.750  22.250  4.3709e-01
12.750  22.500  3.3596e-01
12.750  22.750  2.3242e-01
12.750  23.000  1.6032e-01
12.750  23.250  1.1231e-01
12.750  23.500  8.2497e-02
12.750  23.750  6.6347e-02
12.750  24.000  5.7978e-02
13.000  17.000  1.3746e-01
13.000  17.250  1.7802e-01
13.000  17.500  2.6039e-01
13.000  17.750  3.7211e-01
13.000  18.000  4.7387e-01
13.000  18.250  5.1599e-01
13.000  18.500  5.3874e-01
13.000  18.750  5.4318e-01
13.000  19.000  5.2597e-01
13.000  19.250  5.1064e-01
13.000  19.500  4.9368e-01
13.000  19.750  4.7709e-01
13.000  20.000  4.6248e-01
13.000  20.250  4.5255e-01
13.000  20.500  4.4730e-01
13.000  20.750  4.4730e-01
13.000  21.000  4.5494e-01
13.000  21.250  4.7159e-01
13.000  21.500  4.8507e-01
13.000  21.750  5.0264e-01
13.000  22.000  4.9949e-01
13.000  22.250  4.6240e-01
13.000  22.500  3.9939e-01
13.000  22.750  3.0727e-01
13.000  23.000  2.1442e-01
13.000  23.250  1.4897e-01
13.000  23.500  1.0564e-01
13.000  23.750  7.8663e-02
13.000  24.000  6.4060e-02
13.250  17.000  1.3770e-01
13.250  17.250  1.5809e-01
13.250  17.500  2.0366e-01
13.250  17.750  2.7807e-01
13.250  18.000  3.9076e-01
13.250  18.250  5.0284e-01
13.250  18.500  5.5998e-01
13.250  18.750  5.7125e-01
13.250  19.000  5.7566e-01
13.250  19.250  5.4645e-01
13.250  19.500  5.2810e-01
13.250  19.750  5.0684e-01
13.250  20.000  4.8712e-01
13.250  20.250  4.7278e-01
13.250  20.500  4.6314e-01
13.250  20.750  4.6031e-01
13.250  21.000  4.6449e-01
13.250  21.250  4.7832e-01
13.250  21.500  4.8869e-01
13.250  21.750  5.0972e-01
13.250  22.000  5.1216e-01
13.250  22.250  4.7583e-01
13.250  22.500  4.0442e-01
13.250  22.750  3.3881e-01
13.250  23.000  2.6528e-01
13.250  23.250  1.8799e-01
13.250  23.500  1.3374e-01
13.250  23.750  9.7244e-02
13.250  24.000  7.3749e-02
13.500  17.000  1.3848e-01
13.500  17.250  1.6041e-01
13.500  17.500  1.9801e-01
13.500  17.750  2.4993e-01
13.500  18.000  3.4265e-01
13.500  18.250  4.4753e-01
13.500  18.500  5.4991e-01
13.500  18.750  6.0615e-01
13.500  19.000  6.1406e-01
13.500  19.250  5.9913e-01
13.500  19.500  5.6817e-01
13.500  19.750  5.3996e-01
13.500  20.000  5.1562e-01
13.500  20.250  4.9758e-01
13.500  20.500  4.8260e-01
13.500  20.750  4.7462e-01
13.500  21.000  4.7279e-01
13.500  21.250  4.8412e-01
13.500  21.500  4.9109e-01
13.500  21.750  5.1092e-01
13.500  22.000  5.1654e-01
13.500  22.250  4.7841e-01
13.500  22.500  3.9598e-01
13.500  22.750  3.0363e-01
13.500  23.000  2.5083e-01
13.500  23.250  2.1959e-01
13.500  23.500  1.5932e-01
13.500  23.750  1.1754e-01
13.500  24.000  8.7215e-02
13.750  17.000  1.3858e-01
13.750  17.250  1.5961e-01
13.750  17.500  1.9552e-01
13.750  17.750  2.3787e-01
13.750  18.000  3.1384e-01
13.750  18.250  4.0751e-01
13.750  18.500  4.9710e-01
13.750  18.750  5.8351e-01
13.750  19.000  6.5471e-01
13.750  19.250  6.5203e-01
13.750  19.500  6.0875e-01
13.750  19.750  5.8069e-01
13.750  20.000  5.5096e-01
13.750  20.250  5.2662e-01
13.750  20.500  5.0765e-01
13.750  20.750  4.9459e-01
13.750  21.000  4.8892e-01
13.750  21.250  4.9179e-01
13.750  21.500  4.9655e-01
13.750  21.750  5.1427e-01
13.750  22.000  5.1667e-01
13.750  22.250  4.7902e-01
13.750  22.500  3.8801e-01
13.750  22.750  2.8782e-01
13.750  23.000  2.1130e-01
13.750  23.250  1.7725e-01
13.750  23.500  1.5360e-01
13.750  23.750  1.3144e-01
13.750  24.000  9.9468e-02
14.000  17.000  1.3952e-01
14.000  17.250  1.5970e-01
14.000  17.500  1.9735e-01
14.000  17.750  2.3716e-01
14.000  18.000  2.9377e-01
14.000  18.250  3.7768e-01
14.000  18.500  4.6177e-01
14.000  18.750  5.3996e-01
14.000  19.000  6.1818e-01
14.000  19.250  6.8989e-01
14.000  19.500  6.7386e-01
14.000  19.750  6.3364e-01
14.000  20.000  5.9450e-01
14.000  20.250  5.6267e-01
14.000  20.500  5.3852e-01
14.000  20.750  5.2087e-01
14.000  21.000  5.1068e-01
14.000  21.250  5.0944e-01
14.000  21.500  5.0903e-01
14.000  21.750  5.2386e-01
14.000  22.000  5.2317e-01
14.000  22.250  4.8172e-01
14.000  22.500  3.8318e-01
14.000  22.750  2.7996e-01
14.000  23.000  2.0063e-01
14.000  23.250  1.4481e-01
14.000  23.500  1.2168e-01
14.000  23.750  1.0230e-01
14.000  24.000  8.4493e-02
