InwT 4.11370m  relative to Inci 1215.00A scaled to 1215A.
Hden   Phi(H)  Eq_Width (A)
7.000  17.000  1.0703e-02
7.000  17.250  1.0209e-02
7.000  17.500  8.7016e-03
7.000  17.750  6.7485e-03
7.000  18.000  3.7623e-03
7.000  18.250  1.9091e-03
7.000  18.500  8.4247e-04
7.000  18.750  3.8255e-04
7.000  19.000  2.0930e-04
7.000  19.250  1.0938e-04
7.000  19.500  7.1523e-05
7.000  19.750  5.7119e-05
7.000  20.000  5.1193e-05
7.000  20.250  4.8560e-05
7.000  20.500  4.7243e-05
7.000  20.750  4.6584e-05
7.000  21.000  4.6255e-05
7.000  21.250  4.6008e-05
7.000  21.500  4.5926e-05
7.000  21.750  4.5844e-05
7.000  22.000  4.5844e-05
7.000  22.250  4.5844e-05
7.000  22.500  4.5844e-05
7.000  22.750  4.5844e-05
7.000  23.000  4.5844e-05
7.000  23.250  4.5844e-05
7.000  23.500  4.5844e-05
7.000  23.750  4.5844e-05
7.000  24.000  4.5844e-05
7.250  17.000  1.0914e-02
7.250  17.250  1.1092e-02
7.250  17.500  1.0617e-02
7.250  17.750  8.8840e-03
7.250  18.000  6.7341e-03
7.250  18.250  3.7583e-03
7.250  18.500  1.9077e-03
7.250  18.750  8.4239e-04
7.250  19.000  3.8255e-04
7.250  19.250  2.0930e-04
7.250  19.500  1.0938e-04
7.250  19.750  7.1523e-05
7.250  20.000  5.7119e-05
7.250  20.250  5.1193e-05
7.250  20.500  4.8560e-05
7.250  20.750  4.7243e-05
7.250  21.000  4.6584e-05
7.250  21.250  4.6255e-05
7.250  21.500  4.6008e-05
7.250  21.750  4.5926e-05
7.250  22.000  4.5844e-05
7.250  22.250  4.5844e-05
7.250  22.500  4.5844e-05
7.250  22.750  4.5844e-05
7.250  23.000  4.5844e-05
7.250  23.250  4.5844e-05
7.250  23.500  4.5844e-05
7.250  23.750  4.5844e-05
7.250  24.000  4.5844e-05
7.500  17.000  1.0866e-02
7.500  17.250  1.1339e-02
7.500  17.500  1.1634e-02
7.500  17.750  1.1189e-02
7.500  18.000  9.0879e-03
7.500  18.250  6.7211e-03
7.500  18.500  3.7545e-03
7.500  18.750  1.9062e-03
7.500  19.000  8.4206e-04
7.500  19.250  3.8255e-04
7.500  19.500  2.0930e-04
7.500  19.750  1.0938e-04
7.500  20.000  7.1523e-05
7.500  20.250  5.7119e-05
7.500  20.500  5.1193e-05
7.500  20.750  4.8560e-05
7.500  21.000  4.7243e-05
7.500  21.250  4.6584e-05
7.500  21.500  4.6255e-05
7.500  21.750  4.6008e-05
7.500  22.000  4.5926e-05
7.500  22.250  4.5844e-05
7.500  22.500  4.5844e-05
7.500  22.750  4.5844e-05
7.500  23.000  4.5844e-05
7.500  23.250  4.5844e-05
7.500  23.500  4.5844e-05
7.500  23.750  4.5844e-05
7.500  24.000  4.5844e-05
7.750  17.000  1.0767e-02
7.750  17.250  1.1295e-02
7.750  17.500  1.1983e-02
7.750  17.750  1.2499e-02
7.750  18.000  1.1961e-02
7.750  18.250  9.3409e-03
7.750  18.500  6.7092e-03
7.750  18.750  3.7509e-03
7.750  19.000  1.9040e-03
7.750  19.250  8.4173e-04
7.750  19.500  3.8255e-04
7.750  19.750  2.0930e-04
7.750  20.000  1.0938e-04
7.750  20.250  7.1523e-05
7.750  20.500  5.7119e-05
7.750  20.750  5.1193e-05
7.750  21.000  4.8560e-05
7.750  21.250  4.7243e-05
7.750  21.500  4.6584e-05
7.750  21.750  4.6255e-05
7.750  22.000  4.6008e-05
7.750  22.250  4.5926e-05
7.750  22.500  4.5844e-05
7.750  22.750  4.5844e-05
7.750  23.000  4.5844e-05
7.750  23.250  4.5844e-05
7.750  23.500  4.5844e-05
7.750  23.750  4.5844e-05
7.750  24.000  4.5844e-05
8.000  17.000  1.0678e-02
8.000  17.250  1.1073e-02
8.000  17.500  1.1865e-02
8.000  17.750  1.2993e-02
8.000  18.000  1.3854e-02
8.000  18.250  1.2992e-02
8.000  18.500  9.6477e-03
8.000  18.750  6.6955e-03
8.000  19.000  3.7458e-03
8.000  19.250  1.9016e-03
8.000  19.500  8.4156e-04
8.000  19.750  3.8255e-04
8.000  20.000  2.0930e-04
8.000  20.250  1.0938e-04
8.000  20.500  7.1523e-05
8.000  20.750  5.7119e-05
8.000  21.000  5.1193e-05
8.000  21.250  4.8560e-05
8.000  21.500  4.7243e-05
8.000  21.750  4.6584e-05
8.000  22.000  4.6255e-05
8.000  22.250  4.6008e-05
8.000  22.500  4.5926e-05
8.000  22.750  4.5844e-05
8.000  23.000  4.5844e-05
8.000  23.250  4.5844e-05
8.000  23.500  4.5844e-05
8.000  23.750  4.5844e-05
8.000  24.000  4.5844e-05
8.250  17.000  1.0834e-02
8.250  17.250  1.1070e-02
8.250  17.500  1.1727e-02
8.250  17.750  1.3055e-02
8.250  18.000  1.4978e-02
8.250  18.250  1.6248e-02
8.250  18.500  1.4229e-02
8.250  18.750  1.0129e-02
8.250  19.000  6.6844e-03
8.250  19.250  3.7421e-03
8.250  19.500  1.8985e-03
8.250  19.750  8.4099e-04
8.250  20.000  3.8247e-04
8.250  20.250  2.0930e-04
8.250  20.500  1.0938e-04
8.250  20.750  7.1523e-05
8.250  21.000  5.7119e-05
8.250  21.250  5.1193e-05
8.250  21.500  4.8560e-05
8.250  21.750  4.7243e-05
8.250  22.000  4.6584e-05
8.250  22.250  4.6255e-05
8.250  22.500  4.6008e-05
8.250  22.750  4.5926e-05
8.250  23.000  4.5844e-05
8.250  23.250  4.5844e-05
8.250  23.500  4.5844e-05
8.250  23.750  4.5844e-05
8.250  24.000  4.5844e-05
8.500  17.000  1.1073e-02
8.500  17.250  1.1233e-02
8.500  17.500  1.1725e-02
8.500  17.750  1.2965e-02
8.500  18.000  1.5397e-02
8.500  18.250  1.8491e-02
8.500  18.500  1.9446e-02
8.500  18.750  1.5720e-02
8.500  19.000  1.0531e-02
8.500  19.250  6.6733e-03
8.500  19.500  3.7383e-03
8.500  19.750  1.8947e-03
8.500  20.000  8.4033e-04
8.500  20.250  3.8247e-04
8.500  20.500  2.0930e-04
8.500  20.750  1.0938e-04
8.500  21.000  7.1523e-05
8.500  21.250  5.7119e-05
8.500  21.500  5.1193e-05
8.500  21.750  4.8560e-05
8.500  22.000  4.7243e-05
8.500  22.250  4.6584e-05
8.500  22.500  4.6255e-05
8.500  22.750  4.6008e-05
8.500  23.000  4.5926e-05
8.500  23.250  4.5844e-05
8.500  23.500  4.5844e-05
8.500  23.750  4.5844e-05
8.500  24.000  4.5844e-05
8.750  17.000  1.1316e-02
8.750  17.250  1.1489e-02
8.750  17.500  1.1922e-02
8.750  17.750  1.2995e-02
8.750  18.000  1.5485e-02
8.750  18.250  1.9696e-02
8.750  18.500  2.3112e-02
8.750  18.750  2.2711e-02
8.750  19.000  1.6660e-02
8.750  19.250  1.0978e-02
8.750  19.500  6.6607e-03
8.750  19.750  3.7340e-03
8.750  20.000  1.8903e-03
8.750  20.250  8.3926e-04
8.750  20.500  3.8247e-04
8.750  20.750  2.0930e-04
8.750  21.000  1.0938e-04
8.750  21.250  7.1523e-05
8.750  21.500  5.7119e-05
8.750  21.750  5.1193e-05
8.750  22.000  4.8560e-05
8.750  22.250  4.7243e-05
8.750  22.500  4.6584e-05
8.750  22.750  4.6255e-05
8.750  23.000  4.6008e-05
8.750  23.250  4.5926e-05
8.750  23.500  4.5844e-05
8.750  23.750  4.5844e-05
8.750  24.000  4.5844e-05
9.000  17.000  1.1533e-02
9.000  17.250  1.1761e-02
9.000  17.500  1.2243e-02
9.000  17.750  1.3309e-02
9.000  18.000  1.5736e-02
9.000  18.250  2.0281e-02
9.000  18.500  2.5511e-02
9.000  18.750  2.8344e-02
9.000  19.000  2.5633e-02
9.000  19.250  1.7842e-02
9.000  19.500  1.1332e-02
9.000  19.750  6.6471e-03
9.000  20.000  3.7294e-03
9.000  20.250  1.8853e-03
9.000  20.500  8.3852e-04
9.000  20.750  3.8239e-04
9.000  21.000  2.0930e-04
9.000  21.250  1.0938e-04
9.000  21.500  7.1523e-05
9.000  21.750  5.7119e-05
9.000  22.000  5.1193e-05
9.000  22.250  4.8560e-05
9.000  22.500  4.7243e-05
9.000  22.750  4.6584e-05
9.000  23.000  4.6255e-05
9.000  23.250  4.6008e-05
9.000  23.500  4.5926e-05
9.000  23.750  4.5844e-05
9.000  24.000  4.5844e-05
9.250  17.000  1.1710e-02
9.250  17.250  1.2016e-02
9.250  17.500  1.2617e-02
9.250  17.750  1.3838e-02
9.250  18.000  1.6474e-02
9.250  18.250  2.1183e-02
9.250  18.500  2.6832e-02
9.250  18.750  3.1853e-02
9.250  19.000  3.2921e-02
9.250  19.250  2.8551e-02
9.250  19.500  1.8786e-02
9.250  19.750  1.1679e-02
9.250  20.000  6.6243e-03
9.250  20.250  3.7241e-03
9.250  20.500  1.8800e-03
9.250  20.750  8.3728e-04
9.250  21.000  3.8239e-04
9.250  21.250  2.0930e-04
9.250  21.500  1.0938e-04
9.250  21.750  7.1523e-05
9.250  22.000  5.7037e-05
9.250  22.250  5.1193e-05
9.250  22.500  4.8560e-05
9.250  22.750  4.7243e-05
9.250  23.000  4.6584e-05
9.250  23.250  4.6255e-05
9.250  23.500  4.6008e-05
9.250  23.750  4.5926e-05
9.250  24.000  4.5844e-05
9.500  17.000  1.1882e-02
9.500  17.250  1.2269e-02
9.500  17.500  1.3019e-02
9.500  17.750  1.4517e-02
9.500  18.000  1.7627e-02
9.500  18.250  2.2785e-02
9.500  18.500  2.8701e-02
9.500  18.750  3.3988e-02
9.500  19.000  3.7688e-02
9.500  19.250  3.7662e-02
9.500  19.500  3.0267e-02
9.500  19.750  1.9521e-02
9.500  20.000  1.1687e-02
9.500  20.250  6.5906e-03
9.500  20.500  3.7179e-03
9.500  20.750  1.8744e-03
9.500  21.000  8.3646e-04
9.500  21.250  3.8222e-04
9.500  21.500  2.0914e-04
9.500  21.750  1.0922e-04
9.500  22.000  7.1440e-05
9.500  22.250  5.7037e-05
9.500  22.500  5.1111e-05
9.500  22.750  4.8477e-05
9.500  23.000  4.7160e-05
9.500  23.250  4.6502e-05
9.500  23.500  4.6173e-05
9.500  23.750  4.6008e-05
9.500  24.000  4.5844e-05
9.750  17.000  1.2055e-02
9.750  17.250  1.2522e-02
9.750  17.500  1.3435e-02
9.750  17.750  1.5303e-02
9.750  18.000  1.9093e-02
9.750  18.250  2.4976e-02
9.750  18.500  3.1293e-02
9.750  18.750  3.6576e-02
9.750  19.000  4.0682e-02
9.750  19.250  4.3372e-02
9.750  19.500  4.2905e-02
9.750  19.750  3.1713e-02
9.750  20.000  2.0144e-02
9.750  20.250  1.1549e-02
9.750  20.500  6.5380e-03
9.750  20.750  3.7119e-03
9.750  21.000  1.8681e-03
9.750  21.250  8.3465e-04
9.750  21.500  3.8222e-04
9.750  21.750  2.0922e-04
9.750  22.000  1.0922e-04
9.750  22.250  7.1440e-05
9.750  22.500  5.7037e-05
9.750  22.750  5.1111e-05
9.750  23.000  4.8477e-05
9.750  23.250  4.7160e-05
9.750  23.500  4.6502e-05
9.750  23.750  4.6091e-05
9.750  24.000  4.5926e-05
10.000  17.000  1.2278e-02
10.000  17.250  1.2816e-02
10.000  17.500  1.3917e-02
10.000  17.750  1.6247e-02
10.000  18.000  2.0831e-02
10.000  18.250  2.7360e-02
10.000  18.500  3.4082e-02
10.000  18.750  3.9442e-02
10.000  19.000  4.3658e-02
10.000  19.250  4.7179e-02
10.000  19.500  5.0731e-02
10.000  19.750  4.7496e-02
10.000  20.000  3.3721e-02
10.000  20.250  2.0241e-02
10.000  20.500  1.1367e-02
10.000  20.750  6.4715e-03
10.000  21.000  3.7016e-03
10.000  21.250  1.8606e-03
10.000  21.500  8.3358e-04
10.000  21.750  3.8214e-04
10.000  22.000  2.0922e-04
10.000  22.250  1.0922e-04
10.000  22.500  7.1440e-05
10.000  22.750  5.7037e-05
10.000  23.000  5.1111e-05
10.000  23.250  4.8477e-05
10.000  23.500  4.7160e-05
10.000  23.750  4.6502e-05
10.000  24.000  4.6173e-05
10.250  17.000  1.2621e-02
10.250  17.250  1.3189e-02
10.250  17.500  1.4555e-02
10.250  17.750  1.7446e-02
10.250  18.000  2.2774e-02
10.250  18.250  2.9925e-02
10.250  18.500  3.6952e-02
10.250  18.750  4.2303e-02
10.250  19.000  4.6513e-02
10.250  19.250  5.0340e-02
10.250  19.500  5.3941e-02
10.250  19.750  5.6326e-02
10.250  20.000  4.8079e-02
10.250  20.250  3.3950e-02
10.250  20.500  1.9825e-02
10.250  20.750  1.1160e-02
10.250  21.000  6.3932e-03
10.250  21.250  3.6835e-03
10.250  21.500  1.8557e-03
10.250  21.750  8.3218e-04
10.250  22.000  3.8198e-04
10.250  22.250  2.0922e-04
10.250  22.500  1.0930e-04
10.250  22.750  7.1440e-05
10.250  23.000  5.7037e-05
10.250  23.250  5.1111e-05
10.250  23.500  4.8477e-05
10.250  23.750  4.7160e-05
10.250  24.000  4.6502e-05
10.500  17.000  1.3257e-02
10.500  17.250  1.3821e-02
10.500  17.500  1.5472e-02
10.500  17.750  1.9029e-02
10.500  18.000  2.4971e-02
10.500  18.250  3.2438e-02
10.500  18.500  3.9470e-02
10.500  18.750  4.4753e-02
10.500  19.000  4.8980e-02
10.500  19.250  5.2285e-02
10.500  19.500  5.5091e-02
10.500  19.750  5.7690e-02
10.500  20.000  5.7710e-02
10.500  20.250  4.7942e-02
10.500  20.500  3.3779e-02
10.500  20.750  1.9235e-02
10.500  21.000  1.0854e-02
10.500  21.250  6.2980e-03
10.500  21.500  3.6800e-03
10.500  21.750  1.8457e-03
10.500  22.000  8.3012e-04
10.500  22.250  3.8181e-04
10.500  22.500  2.0922e-04
10.500  22.750  1.0938e-04
10.500  23.000  7.1440e-05
10.500  23.250  5.7037e-05
10.500  23.500  5.1111e-05
10.500  23.750  4.8477e-05
10.500  24.000  4.7160e-05
10.750  17.000  1.4261e-02
10.750  17.250  1.4781e-02
10.750  17.500  1.6814e-02
10.750  17.750  2.0974e-02
10.750  18.000  2.7351e-02
10.750  18.250  3.4967e-02
10.750  18.500  4.1772e-02
10.750  18.750  4.7136e-02
10.750  19.000  5.1161e-02
10.750  19.250  5.4507e-02
10.750  19.500  5.6673e-02
10.750  19.750  5.8371e-02
10.750  20.000  5.9622e-02
10.750  20.250  5.7631e-02
10.750  20.500  4.6975e-02
10.750  20.750  3.2829e-02
10.750  21.000  1.8236e-02
10.750  21.250  1.0438e-02
10.750  21.500  6.3373e-03
10.750  21.750  3.6261e-03
10.750  22.000  1.8318e-03
10.750  22.250  8.2774e-04
10.750  22.500  3.8148e-04
10.750  22.750  2.0922e-04
10.750  23.000  1.0938e-04
10.750  23.250  7.1523e-05
10.750  23.500  5.7037e-05
10.750  23.750  5.1111e-05
10.750  24.000  4.8477e-05
11.000  17.000  1.5695e-02
11.000  17.250  1.6136e-02
11.000  17.500  1.8526e-02
11.000  17.750  2.3198e-02
11.000  18.000  2.9766e-02
11.000  18.250  3.7264e-02
11.000  18.500  4.3696e-02
11.000  18.750  4.9078e-02
11.000  19.000  5.3233e-02
11.000  19.250  5.6371e-02
11.000  19.500  5.8342e-02
11.000  19.750  5.9520e-02
11.000  20.000  6.0108e-02
11.000  20.250  5.9773e-02
11.000  20.500  5.5697e-02
11.000  20.750  4.4481e-02
11.000  21.000  3.0428e-02
11.000  21.250  1.7027e-02
11.000  21.500  1.0427e-02
11.000  21.750  6.2909e-03
11.000  22.000  3.5314e-03
11.000  22.250  1.8107e-03
11.000  22.500  8.2436e-04
11.000  22.750  3.8091e-04
11.000  23.000  2.0905e-04
11.000  23.250  1.0930e-04
11.000  23.500  7.1523e-05
11.000  23.750  5.7037e-05
11.000  24.000  5.1111e-05
11.250  17.000  1.7669e-02
11.250  17.250  1.7898e-02
11.250  17.500  2.0507e-02
11.250  17.750  2.5527e-02
11.250  18.000  3.2224e-02
11.250  18.250  3.9522e-02
11.250  18.500  4.5654e-02
11.250  18.750  5.1027e-02
11.250  19.000  5.5201e-02
11.250  19.250  5.8120e-02
11.250  19.500  5.9967e-02
11.250  19.750  6.0875e-02
11.250  20.000  6.0963e-02
11.250  20.250  6.0064e-02
11.250  20.500  5.7529e-02
11.250  20.750  5.1174e-02
11.250  21.000  3.9822e-02
11.250  21.250  2.6840e-02
11.250  21.500  1.6961e-02
11.250  21.750  1.0007e-02
11.250  22.000  6.1700e-03
11.250  22.250  3.4091e-03
11.250  22.500  1.7788e-03
11.250  22.750  8.1984e-04
11.250  23.000  3.8008e-04
11.250  23.250  2.0889e-04
11.250  23.500  1.0930e-04
11.250  23.750  7.1523e-05
11.250  24.000  5.7119e-05
11.500  17.000  2.0347e-02
11.500  17.250  2.0222e-02
11.500  17.500  2.2756e-02
11.500  17.750  2.7894e-02
11.500  18.000  3.4678e-02
11.500  18.250  4.1747e-02
11.500  18.500  4.7582e-02
11.500  18.750  5.2587e-02
11.500  19.000  5.6586e-02
11.500  19.250  5.9528e-02
11.500  19.500  6.1436e-02
11.500  19.750  6.2247e-02
11.500  20.000  6.1961e-02
11.500  20.250  6.0542e-02
11.500  20.500  5.7578e-02
11.500  20.750  5.2265e-02
11.500  21.000  4.3808e-02
11.500  21.250  3.3167e-02
11.500  21.500  2.6412e-02
11.500  21.750  1.5562e-02
11.500  22.000  9.4584e-03
11.500  22.250  5.8973e-03
11.500  22.500  3.2513e-03
11.500  22.750  1.7319e-03
11.500  23.000  8.1292e-04
11.500  23.250  3.7877e-04
11.500  23.500  2.0856e-04
11.500  23.750  1.0922e-04
11.500  24.000  7.1523e-05
11.750  17.000  2.3821e-02
11.750  17.250  2.3245e-02
11.750  17.500  2.5415e-02
11.750  17.750  3.0347e-02
11.750  18.000  3.7043e-02
11.750  18.250  4.3809e-02
11.750  18.500  4.9357e-02
11.750  18.750  5.4228e-02
11.750  19.000  5.8194e-02
11.750  19.250  6.1091e-02
11.750  19.500  6.2842e-02
11.750  19.750  6.3566e-02
11.750  20.000  6.3061e-02
11.750  20.250  6.1147e-02
11.750  20.500  5.7643e-02
11.750  20.750  5.2116e-02
11.750  21.000  4.4049e-02
11.750  21.250  3.3332e-02
11.750  21.500  3.2603e-02
11.750  21.750  2.2087e-02
11.750  22.000  1.3800e-02
11.750  22.250  8.6940e-03
11.750  22.500  5.4114e-03
11.750  22.750  3.0412e-03
11.750  23.000  1.6647e-03
11.750  23.250  8.0272e-04
11.750  23.500  3.7663e-04
11.750  23.750  2.0790e-04
11.750  24.000  1.0914e-04
12.000  17.000  2.4503e-02
12.000  17.250  2.7057e-02
12.000  17.500  2.8596e-02
12.000  17.750  3.2954e-02
12.000  18.000  3.9199e-02
12.000  18.250  4.5624e-02
12.000  18.500  5.1144e-02
12.000  18.750  5.5915e-02
12.000  19.000  5.9838e-02
12.000  19.250  6.2669e-02
12.000  19.500  6.4240e-02
12.000  19.750  6.4793e-02
12.000  20.000  6.4054e-02
12.000  20.250  6.1822e-02
12.000  20.500  5.7857e-02
12.000  20.750  5.1976e-02
12.000  21.000  4.3830e-02
12.000  21.250  3.2606e-02
12.000  21.500  3.2422e-02
12.000  21.750  2.3827e-02
12.000  22.000  1.7375e-02
12.000  22.250  1.1737e-02
12.000  22.500  7.6440e-03
12.000  22.750  4.7928e-03
12.000  23.000  2.7798e-03
12.000  23.250  1.5700e-03
12.000  23.500  7.8683e-04
12.000  23.750  3.7317e-04
12.000  24.000  2.0691e-04
12.250  17.000  2.1205e-02
12.250  17.250  2.8734e-02
12.250  17.500  3.2414e-02
12.250  17.750  3.5810e-02
12.250  18.000  4.1282e-02
12.250  18.250  4.7491e-02
12.250  18.500  5.2866e-02
12.250  18.750  5.7621e-02
12.250  19.000  6.1488e-02
12.250  19.250  6.4191e-02
12.250  19.500  6.5669e-02
12.250  19.750  6.5956e-02
12.250  20.000  6.4883e-02
12.250  20.250  6.2375e-02
12.250  20.500  5.8148e-02
12.250  20.750  5.1971e-02
12.250  21.000  4.3752e-02
12.250  21.250  3.2365e-02
12.250  21.500  3.1625e-02
12.250  21.750  2.3080e-02
12.250  22.000  1.6897e-02
12.250  22.250  1.2787e-02
12.250  22.500  9.3702e-03
12.250  22.750  6.3612e-03
12.250  23.000  4.0762e-03
12.250  23.250  2.4588e-03
12.250  23.500  1.4421e-03
12.250  23.750  7.6255e-04
12.250  24.000  3.6782e-04
12.500  17.000  1.8767e-02
12.500  17.250  2.4587e-02
12.500  17.500  3.3645e-02
12.500  17.750  3.8781e-02
12.500  18.000  4.3358e-02
12.500  18.250  4.8892e-02
12.500  18.500  5.4513e-02
12.500  18.750  5.9541e-02
12.500  19.000  6.3354e-02
12.500  19.250  6.5690e-02
12.500  19.500  6.6888e-02
12.500  19.750  6.6907e-02
12.500  20.000  6.5611e-02
12.500  20.250  6.2815e-02
12.500  20.500  5.8374e-02
12.500  20.750  5.2069e-02
12.500  21.000  4.3803e-02
12.500  21.250  3.2447e-02
12.500  21.500  3.1604e-02
12.500  21.750  2.2506e-02
12.500  22.000  1.6331e-02
12.500  22.250  1.2361e-02
12.500  22.500  9.3259e-03
12.500  22.750  6.5415e-03
12.500  23.000  4.7263e-03
12.500  23.250  3.3060e-03
12.500  23.500  2.0835e-03
12.500  23.750  1.2784e-03
12.500  24.000  7.2642e-04
12.750  17.000  1.6793e-02
12.750  17.250  2.1197e-02
12.750  17.500  2.8049e-02
12.750  17.750  3.8060e-02
12.750  18.000  4.4882e-02
12.750  18.250  5.0133e-02
12.750  18.500  5.5953e-02
12.750  18.750  6.0929e-02
12.750  19.000  6.4747e-02
12.750  19.250  6.7089e-02
12.750  19.500  6.8055e-02
12.750  19.750  6.7725e-02
12.750  20.000  6.6177e-02
12.750  20.250  6.3255e-02
12.750  20.500  5.8622e-02
12.750  20.750  5.2164e-02
12.750  21.000  4.3991e-02
12.750  21.250  3.2757e-02
12.750  21.500  3.1937e-02
12.750  21.750  2.2589e-02
12.750  22.000  1.6132e-02
12.750  22.250  1.1948e-02
12.750  22.500  8.9337e-03
12.750  22.750  6.3699e-03
12.750  23.000  4.5991e-03
12.750  23.250  3.3461e-03
12.750  23.500  2.4088e-03
12.750  23.750  1.6713e-03
12.750  24.000  1.0807e-03
13.000  17.000  1.0546e-02
13.000  17.250  1.4047e-02
13.000  17.500  2.0648e-02
13.000  17.750  2.9974e-02
13.000  18.000  4.0012e-02
13.000  18.250  4.7780e-02
13.000  18.500  5.5223e-02
13.000  18.750  6.1718e-02
13.000  19.000  6.5649e-02
13.000  19.250  6.8252e-02
13.000  19.500  6.9098e-02
13.000  19.750  6.8551e-02
13.000  20.000  6.6685e-02
13.000  20.250  6.3600e-02
13.000  20.500  5.8952e-02
13.000  20.750  5.2452e-02
13.000  21.000  4.4176e-02
13.000  21.250  3.3120e-02
13.000  21.500  3.2473e-02
13.000  21.750  2.2924e-02
13.000  22.000  1.6175e-02
13.000  22.250  1.1665e-02
13.000  22.500  8.5406e-03
13.000  22.750  6.2040e-03
13.000  23.000  4.4200e-03
13.000  23.250  3.1998e-03
13.000  23.500  2.3007e-03
13.000  23.750  1.6533e-03
13.000  24.000  1.1800e-03
13.250  17.000  1.0242e-02
13.250  17.250  1.2468e-02
13.250  17.500  1.6762e-02
13.250  17.750  2.3602e-02
13.250  18.000  3.3578e-02
13.250  18.250  4.4575e-02
13.250  18.500  5.3377e-02
13.250  18.750  5.9996e-02
13.250  19.000  6.6200e-02
13.250  19.250  6.8388e-02
13.250  19.500  6.9820e-02
13.250  19.750  6.9246e-02
13.250  20.000  6.7143e-02
13.250  20.250  6.3905e-02
13.250  20.500  5.9115e-02
13.250  20.750  5.2672e-02
13.250  21.000  4.4420e-02
13.250  21.250  3.3471e-02
13.250  21.500  3.2708e-02
13.250  21.750  2.3172e-02
13.250  22.000  1.6183e-02
13.250  22.250  1.1611e-02
13.250  22.500  8.3088e-03
13.250  22.750  6.0087e-03
13.250  23.000  4.2903e-03
13.250  23.250  3.0588e-03
13.250  23.500  2.1935e-03
13.250  23.750  1.5619e-03
13.250  24.000  1.1114e-03
13.500  17.000  9.9769e-03
13.500  17.250  1.2130e-02
13.500  17.500  1.5766e-02
13.500  17.750  2.1001e-02
13.500  18.000  2.9398e-02
13.500  18.250  3.9345e-02
13.500  18.500  4.9981e-02
13.500  18.750  5.8629e-02
13.500  19.000  6.4743e-02
13.500  19.250  6.9002e-02
13.500  19.500  7.0319e-02
13.500  19.750  6.9739e-02
13.500  20.000  6.7663e-02
13.500  20.250  6.4398e-02
13.500  20.500  5.9378e-02
13.500  20.750  5.2794e-02
13.500  21.000  4.4404e-02
13.500  21.250  3.3682e-02
13.500  21.500  3.2769e-02
13.500  21.750  2.3009e-02
13.500  22.000  1.6020e-02
13.500  22.250  1.1256e-02
13.500  22.500  8.1869e-03
13.500  22.750  5.8698e-03
13.500  23.000  4.1498e-03
13.500  23.250  2.9363e-03
13.500  23.500  2.0640e-03
13.500  23.750  1.4561e-03
13.500  24.000  1.0335e-03
13.750  17.000  9.7037e-03
13.750  17.250  1.1656e-02
13.750  17.500  1.4993e-02
13.750  17.750  1.9387e-02
13.750  18.000  2.6477e-02
13.750  18.250  3.5336e-02
13.750  18.500  4.4628e-02
13.750  18.750  5.4233e-02
13.750  19.000  6.3396e-02
13.750  19.250  6.8338e-02
13.750  19.500  6.9825e-02
13.750  19.750  7.0376e-02
13.750  20.000  6.8472e-02
13.750  20.250  6.4992e-02
13.750  20.500  5.9916e-02
13.750  20.750  5.3157e-02
13.750  21.000  4.4762e-02
13.750  21.250  3.3815e-02
13.750  21.500  3.2837e-02
13.750  21.750  2.3002e-02
13.750  22.000  1.5838e-02
13.750  22.250  1.0945e-02
13.750  22.500  7.9384e-03
13.750  22.750  5.7362e-03
13.750  23.000  4.0268e-03
13.750  23.250  2.8107e-03
13.750  23.500  1.9201e-03
13.750  23.750  1.3356e-03
13.750  24.000  9.4774e-04
14.000  17.000  9.5019e-03
14.000  17.250  1.1285e-02
14.000  17.500  1.4477e-02
14.000  17.750  1.8490e-02
14.000  18.000  2.4177e-02
14.000  18.250  3.2126e-02
14.000  18.500  4.0684e-02
14.000  18.750  4.9293e-02
14.000  19.000  5.8109e-02
14.000  19.250  6.6700e-02
14.000  19.500  7.0061e-02
14.000  19.750  7.0965e-02
14.000  20.000  6.9442e-02
14.000  20.250  6.5876e-02
14.000  20.500  6.0672e-02
14.000  20.750  5.3756e-02
14.000  21.000  4.5226e-02
14.000  21.250  3.4298e-02
14.000  21.500  3.3189e-02
14.000  21.750  2.3179e-02
14.000  22.000  1.5950e-02
14.000  22.250  1.0709e-02
14.000  22.500  7.5901e-03
14.000  22.750  5.5509e-03
14.000  23.000  3.9340e-03
14.000  23.250  2.6866e-03
14.000  23.500  1.7830e-03
14.000  23.750  1.1963e-03
14.000  24.000  8.3942e-04
