InwC 9500.00A  relative to Inci 1215.00A scaled to 1215A.
Hden   Phi(H)  Eq_Width (A)
7.000  17.000  1.8550e-02
7.000  17.250  2.6320e-02
7.000  17.500  3.4117e-02
7.000  17.750  4.2096e-02
7.000  18.000  4.3381e-02
7.000  18.250  4.3931e-02
7.000  18.500  4.3955e-02
7.000  18.750  4.3903e-02
7.000  19.000  4.3908e-02
7.000  19.250  4.3913e-02
7.000  19.500  4.3914e-02
7.000  19.750  4.3915e-02
7.000  20.000  4.3915e-02
7.000  20.250  4.3915e-02
7.000  20.500  4.3916e-02
7.000  20.750  4.3915e-02
7.000  21.000  4.3915e-02
7.000  21.250  4.3916e-02
7.000  21.500  4.3915e-02
7.000  21.750  4.3916e-02
7.000  22.000  4.3916e-02
7.000  22.250  4.3916e-02
7.000  22.500  4.3916e-02
7.000  22.750  4.3916e-02
7.000  23.000  4.3916e-02
7.000  23.250  4.3916e-02
7.000  23.500  4.3916e-02
7.000  23.750  4.3916e-02
7.000  24.000  4.3916e-02
7.250  17.000  1.2593e-02
7.250  17.250  1.8978e-02
7.250  17.500  2.7075e-02
7.250  17.750  3.4643e-02
7.250  18.000  4.2101e-02
7.250  18.250  4.3391e-02
7.250  18.500  4.3930e-02
7.250  18.750  4.3955e-02
7.250  19.000  4.3904e-02
7.250  19.250  4.3908e-02
7.250  19.500  4.3913e-02
7.250  19.750  4.3914e-02
7.250  20.000  4.3915e-02
7.250  20.250  4.3915e-02
7.250  20.500  4.3915e-02
7.250  20.750  4.3915e-02
7.250  21.000  4.3916e-02
7.250  21.250  4.3915e-02
7.250  21.500  4.3916e-02
7.250  21.750  4.3916e-02
7.250  22.000  4.3916e-02
7.250  22.250  4.3916e-02
7.250  22.500  4.3916e-02
7.250  22.750  4.3916e-02
7.250  23.000  4.3916e-02
7.250  23.250  4.3916e-02
7.250  23.500  4.3916e-02
7.250  23.750  4.3916e-02
7.250  24.000  4.3916e-02
7.500  17.000  8.4715e-03
7.500  17.250  1.2933e-02
7.500  17.500  1.9577e-02
7.500  17.750  2.8068e-02
7.500  18.000  3.5192e-02
7.500  18.250  4.2107e-02
7.500  18.500  4.3401e-02
7.500  18.750  4.3930e-02
7.500  19.000  4.3956e-02
7.500  19.250  4.3904e-02
7.500  19.500  4.3908e-02
7.500  19.750  4.3913e-02
7.500  20.000  4.3914e-02
7.500  20.250  4.3915e-02
7.500  20.500  4.3915e-02
7.500  20.750  4.3915e-02
7.500  21.000  4.3915e-02
7.500  21.250  4.3915e-02
7.500  21.500  4.3915e-02
7.500  21.750  4.3915e-02
7.500  22.000  4.3915e-02
7.500  22.250  4.3916e-02
7.500  22.500  4.3916e-02
7.500  22.750  4.3916e-02
7.500  23.000  4.3916e-02
7.500  23.250  4.3916e-02
7.500  23.500  4.3916e-02
7.500  23.750  4.3916e-02
7.500  24.000  4.3916e-02
7.750  17.000  5.7672e-03
7.750  17.250  8.7427e-03
7.750  17.500  1.3470e-02
7.750  17.750  2.0530e-02
7.750  18.000  2.9291e-02
7.750  18.250  3.5833e-02
7.750  18.500  4.2111e-02
7.750  18.750  4.3412e-02
7.750  19.000  4.3931e-02
7.750  19.250  4.3957e-02
7.750  19.500  4.3904e-02
7.750  19.750  4.3908e-02
7.750  20.000  4.3913e-02
7.750  20.250  4.3914e-02
7.750  20.500  4.3915e-02
7.750  20.750  4.3915e-02
7.750  21.000  4.3915e-02
7.750  21.250  4.3915e-02
7.750  21.500  4.3915e-02
7.750  21.750  4.3917e-02
7.750  22.000  4.3916e-02
7.750  22.250  4.3915e-02
7.750  22.500  4.3915e-02
7.750  22.750  4.3915e-02
7.750  23.000  4.3916e-02
7.750  23.250  4.3916e-02
7.750  23.500  4.3915e-02
7.750  23.750  4.3915e-02
7.750  24.000  4.3915e-02
8.000  17.000  4.0026e-03
8.000  17.250  5.9484e-03
8.000  17.500  9.1456e-03
8.000  17.750  1.4314e-02
8.000  18.000  2.1959e-02
8.000  18.250  3.0792e-02
8.000  18.500  3.6548e-02
8.000  18.750  4.2113e-02
8.000  19.000  4.3417e-02
8.000  19.250  4.3930e-02
8.000  19.500  4.3955e-02
8.000  19.750  4.3904e-02
8.000  20.000  4.3908e-02
8.000  20.250  4.3913e-02
8.000  20.500  4.3914e-02
8.000  20.750  4.3915e-02
8.000  21.000  4.3915e-02
8.000  21.250  4.3915e-02
8.000  21.500  4.3916e-02
8.000  21.750  4.3915e-02
8.000  22.000  4.3916e-02
8.000  22.250  4.3916e-02
8.000  22.500  4.3916e-02
8.000  22.750  4.3915e-02
8.000  23.000  4.3915e-02
8.000  23.250  4.3916e-02
8.000  23.500  4.3916e-02
8.000  23.750  4.3916e-02
8.000  24.000  4.3916e-02
8.250  17.000  2.8442e-03
8.250  17.250  4.1504e-03
8.250  17.500  6.2816e-03
8.250  17.750  9.8959e-03
8.250  18.000  1.5808e-02
8.250  18.250  2.4328e-02
8.250  18.500  3.2426e-02
8.250  18.750  3.7605e-02
8.250  19.000  4.2119e-02
8.250  19.250  4.3431e-02
8.250  19.500  4.3930e-02
8.250  19.750  4.3954e-02
8.250  20.000  4.3904e-02
8.250  20.250  4.3908e-02
8.250  20.500  4.3913e-02
8.250  20.750  4.3914e-02
8.250  21.000  4.3915e-02
8.250  21.250  4.3915e-02
8.250  21.500  4.3915e-02
8.250  21.750  4.3915e-02
8.250  22.000  4.3916e-02
8.250  22.250  4.3915e-02
8.250  22.500  4.3916e-02
8.250  22.750  4.3916e-02
8.250  23.000  4.3916e-02
8.250  23.250  4.3916e-02
8.250  23.500  4.3916e-02
8.250  23.750  4.3915e-02
8.250  24.000  4.3915e-02
8.500  17.000  2.0457e-03
8.500  17.250  2.9537e-03
8.500  17.500  4.3958e-03
8.500  17.750  6.8767e-03
8.500  18.000  1.1207e-02
8.500  18.250  1.8204e-02
8.500  18.500  2.7152e-02
8.500  18.750  3.4250e-02
8.500  19.000  3.8412e-02
8.500  19.250  4.2121e-02
8.500  19.500  4.3447e-02
8.500  19.750  4.3930e-02
8.500  20.000  4.3954e-02
8.500  20.250  4.3903e-02
8.500  20.500  4.3908e-02
8.500  20.750  4.3913e-02
8.500  21.000  4.3914e-02
8.500  21.250  4.3915e-02
8.500  21.500  4.3915e-02
8.500  21.750  4.3915e-02
8.500  22.000  4.3915e-02
8.500  22.250  4.3915e-02
8.500  22.500  4.3915e-02
8.500  22.750  4.3915e-02
8.500  23.000  4.3915e-02
8.500  23.250  4.3915e-02
8.500  23.500  4.3915e-02
8.500  23.750  4.3915e-02
8.500  24.000  4.3916e-02
8.750  17.000  1.4772e-03
8.750  17.250  2.1259e-03
8.750  17.500  3.1334e-03
8.750  17.750  4.8326e-03
8.750  18.000  7.9220e-03
8.750  18.250  1.3283e-02
8.750  18.500  2.0884e-02
8.750  18.750  2.9732e-02
8.750  19.000  3.5233e-02
8.750  19.250  3.9310e-02
8.750  19.500  4.2117e-02
8.750  19.750  4.3465e-02
8.750  20.000  4.3930e-02
8.750  20.250  4.3955e-02
8.750  20.500  4.3904e-02
8.750  20.750  4.3908e-02
8.750  21.000  4.3913e-02
8.750  21.250  4.3914e-02
8.750  21.500  4.3915e-02
8.750  21.750  4.3915e-02
8.750  22.000  4.3915e-02
8.750  22.250  4.3915e-02
8.750  22.500  4.3916e-02
8.750  22.750  4.3916e-02
8.750  23.000  4.3916e-02
8.750  23.250  4.3916e-02
8.750  23.500  4.3916e-02
8.750  23.750  4.3916e-02
8.750  24.000  4.3916e-02
9.000  17.000  1.0667e-03
9.000  17.250  1.5356e-03
9.000  17.500  2.2583e-03
9.000  17.750  3.4609e-03
9.000  18.000  5.6427e-03
9.000  18.250  9.6007e-03
9.000  18.500  1.5719e-02
9.000  18.750  2.3635e-02
9.000  19.000  3.1833e-02
9.000  19.250  3.6531e-02
9.000  19.500  4.0091e-02
9.000  19.750  4.2100e-02
9.000  20.000  4.3484e-02
9.000  20.250  4.3930e-02
9.000  20.500  4.3953e-02
9.000  20.750  4.3903e-02
9.000  21.000  4.3908e-02
9.000  21.250  4.3913e-02
9.000  21.500  4.3914e-02
9.000  21.750  4.3915e-02
9.000  22.000  4.3915e-02
9.000  22.250  4.3915e-02
9.000  22.500  4.3915e-02
9.000  22.750  4.3915e-02
9.000  23.000  4.3915e-02
9.000  23.250  4.3916e-02
9.000  23.500  4.3916e-02
9.000  23.750  4.3915e-02
9.000  24.000  4.3915e-02
9.250  17.000  7.6815e-04
9.250  17.250  1.1094e-03
9.250  17.500  1.6349e-03
9.250  17.750  2.5040e-03
9.250  18.000  4.0911e-03
9.250  18.250  6.9970e-03
9.250  18.500  1.1561e-02
9.250  18.750  1.8084e-02
9.250  19.000  2.5680e-02
9.250  19.250  3.3784e-02
9.250  19.500  3.7527e-02
9.250  19.750  4.0895e-02
9.250  20.000  4.2076e-02
9.250  20.250  4.3503e-02
9.250  20.500  4.3929e-02
9.250  20.750  4.3955e-02
9.250  21.000  4.3903e-02
9.250  21.250  4.3908e-02
9.250  21.500  4.3912e-02
9.250  21.750  4.3900e-02
9.250  22.000  4.3860e-02
9.250  22.250  4.3900e-02
9.250  22.500  4.3915e-02
9.250  22.750  4.3915e-02
9.250  23.000  4.3915e-02
9.250  23.250  4.3915e-02
9.250  23.500  4.3915e-02
9.250  23.750  4.3916e-02
9.250  24.000  4.3915e-02
9.500  17.000  5.5136e-04
9.500  17.250  7.9926e-04
9.500  17.500  1.1836e-03
9.500  17.750  1.8252e-03
9.500  18.000  3.0071e-03
9.500  18.250  5.1853e-03
9.500  18.500  8.6143e-03
9.500  18.750  1.3444e-02
9.500  19.000  1.9936e-02
9.500  19.250  2.7718e-02
9.500  19.500  3.4729e-02
9.500  19.750  3.8338e-02
9.500  20.000  4.1087e-02
9.500  20.250  4.2046e-02
9.500  20.500  4.3520e-02
9.500  20.750  4.3927e-02
9.500  21.000  4.3951e-02
9.500  21.250  4.3896e-02
9.500  21.500  4.3872e-02
9.500  21.750  4.3847e-02
9.500  22.000  4.3839e-02
9.500  22.250  4.3823e-02
9.500  22.500  4.3808e-02
9.500  22.750  4.3800e-02
9.500  23.000  4.3795e-02
9.500  23.250  4.3796e-02
9.500  23.500  4.3849e-02
9.500  23.750  4.3849e-02
9.500  24.000  4.3848e-02
9.750  17.000  3.9531e-04
9.750  17.250  5.7506e-04
9.750  17.500  8.5547e-04
9.750  17.750  1.3324e-03
9.750  18.000  2.2228e-03
9.750  18.250  3.8804e-03
9.750  18.500  6.4686e-03
9.750  18.750  1.0062e-02
9.750  19.000  1.4926e-02
9.750  19.250  2.1501e-02
9.750  19.500  2.9955e-02
9.750  19.750  3.5479e-02
9.750  20.000  3.9178e-02
9.750  20.250  4.1020e-02
9.750  20.500  4.2015e-02
9.750  20.750  4.3540e-02
9.750  21.000  4.3923e-02
9.750  21.250  4.3952e-02
9.750  21.500  4.3900e-02
9.750  21.750  4.3896e-02
9.750  22.000  4.3848e-02
9.750  22.250  4.3845e-02
9.750  22.500  4.3835e-02
9.750  22.750  4.3824e-02
9.750  23.000  4.3816e-02
9.750  23.250  4.3810e-02
9.750  23.500  4.3808e-02
9.750  23.750  4.3806e-02
9.750  24.000  4.3805e-02
10.000  17.000  2.8370e-04
10.000  17.250  4.1317e-04
10.000  17.500  6.1786e-04
10.000  17.750  9.7276e-04
10.000  18.000  1.6477e-03
10.000  18.250  2.8820e-03
10.000  18.500  4.8236e-03
10.000  18.750  7.4850e-03
10.000  19.000  1.1112e-02
10.000  19.250  1.6036e-02
10.000  19.500  2.3093e-02
10.000  19.750  3.1011e-02
10.000  20.000  3.6279e-02
10.000  20.250  3.9850e-02
10.000  20.500  4.0954e-02
10.000  20.750  4.2002e-02
10.000  21.000  4.3562e-02
10.000  21.250  4.3915e-02
10.000  21.500  4.3950e-02
10.000  21.750  4.3901e-02
10.000  22.000  4.3904e-02
10.000  22.250  4.3860e-02
10.000  22.500  4.3848e-02
10.000  22.750  4.3843e-02
10.000  23.000  4.3836e-02
10.000  23.250  4.3830e-02
10.000  23.500  4.3826e-02
10.000  23.750  4.3824e-02
10.000  24.000  4.3822e-02
10.250  17.000  2.0387e-04
10.250  17.250  2.9679e-04
10.250  17.500  4.4527e-04
10.250  17.750  7.0914e-04
10.250  18.000  1.2174e-03
10.250  18.250  2.1392e-03
10.250  18.500  3.5774e-03
10.250  18.750  5.5141e-03
10.250  19.000  8.1642e-03
10.250  19.250  1.1889e-02
10.250  19.500  1.7177e-02
10.250  19.750  2.4668e-02
10.250  20.000  3.1536e-02
10.250  20.250  3.6991e-02
10.250  20.500  4.0038e-02
10.250  20.750  4.0876e-02
10.250  21.000  4.1993e-02
10.250  21.250  4.3590e-02
10.250  21.500  4.3906e-02
10.250  21.750  4.3947e-02
10.250  22.000  4.3901e-02
10.250  22.250  4.3905e-02
10.250  22.500  4.3891e-02
10.250  22.750  4.3850e-02
10.250  23.000  4.3848e-02
10.250  23.250  4.3844e-02
10.250  23.500  4.3840e-02
10.250  23.750  4.3837e-02
10.250  24.000  4.3836e-02
10.500  17.000  1.4634e-04
10.500  17.250  2.1309e-04
10.500  17.500  3.2132e-04
10.500  17.750  5.1613e-04
10.500  18.000  8.9523e-04
10.500  18.250  1.5705e-03
10.500  18.500  2.6062e-03
10.500  18.750  3.9971e-03
10.500  19.000  5.9418e-03
10.500  19.250  8.6421e-03
10.500  19.500  1.2459e-02
10.500  19.750  1.7964e-02
10.500  20.000  2.5348e-02
10.500  20.250  3.2140e-02
10.500  20.500  3.7776e-02
10.500  20.750  4.0057e-02
10.500  21.000  4.0825e-02
10.500  21.250  4.2033e-02
10.500  21.500  4.3635e-02
10.500  21.750  4.3887e-02
10.500  22.000  4.3943e-02
10.500  22.250  4.3899e-02
10.500  22.500  4.3905e-02
10.500  22.750  4.3905e-02
10.500  23.000  4.3860e-02
10.500  23.250  4.3850e-02
10.500  23.500  4.3848e-02
10.500  23.750  4.3846e-02
10.500  24.000  4.3844e-02
10.750  17.000  1.0543e-04
10.750  17.250  1.5284e-04
10.750  17.500  2.3103e-04
10.750  17.750  3.7416e-04
10.750  18.000  6.4963e-04
10.750  18.250  1.1435e-03
10.750  18.500  1.8734e-03
10.750  18.750  2.8825e-03
10.750  19.000  4.2693e-03
10.750  19.250  6.2685e-03
10.750  19.500  9.0156e-03
10.750  19.750  1.2918e-02
10.750  20.000  1.8527e-02
10.750  20.250  2.5921e-02
10.750  20.500  3.2778e-02
10.750  20.750  3.8401e-02
10.750  21.000  3.9928e-02
10.750  21.250  4.0773e-02
10.750  21.500  4.2194e-02
10.750  21.750  4.3647e-02
10.750  22.000  4.3855e-02
10.750  22.250  4.3935e-02
10.750  22.500  4.3896e-02
10.750  22.750  4.3903e-02
10.750  23.000  4.3909e-02
10.750  23.250  4.3891e-02
10.750  23.500  4.3853e-02
10.750  23.750  4.3850e-02
10.750  24.000  4.3849e-02
11.000  17.000  7.5885e-05
11.000  17.250  1.0979e-04
11.000  17.500  1.6576e-04
11.000  17.750  2.6848e-04
11.000  18.000  4.6551e-04
11.000  18.250  8.1325e-04
11.000  18.500  1.3163e-03
11.000  18.750  2.0342e-03
11.000  19.000  3.0388e-03
11.000  19.250  4.4728e-03
11.000  19.500  6.4719e-03
11.000  19.750  9.2700e-03
11.000  20.000  1.3246e-02
11.000  20.250  1.8969e-02
11.000  20.500  2.6421e-02
11.000  20.750  3.3366e-02
11.000  21.000  3.8699e-02
11.000  21.250  3.9747e-02
11.000  21.500  4.0840e-02
11.000  21.750  4.2418e-02
11.000  22.000  4.3619e-02
11.000  22.250  4.3810e-02
11.000  22.500  4.3923e-02
11.000  22.750  4.3890e-02
11.000  23.000  4.3900e-02
11.000  23.250  4.3910e-02
11.000  23.500  4.3906e-02
11.000  23.750  4.3875e-02
11.000  24.000  4.3855e-02
11.250  17.000  5.5226e-05
11.250  17.250  7.8601e-05
11.250  17.500  1.1860e-04
11.250  17.750  1.9160e-04
11.250  18.000  3.2979e-04
11.250  18.250  5.6889e-04
11.250  18.500  9.1449e-04
11.250  18.750  1.4258e-03
11.250  19.000  2.1515e-03
11.250  19.250  3.1673e-03
11.250  19.500  4.5978e-03
11.250  19.750  6.6170e-03
11.250  20.000  9.4705e-03
11.250  20.250  1.3513e-02
11.250  20.500  1.9299e-02
11.250  20.750  2.6774e-02
11.250  21.000  3.3717e-02
11.250  21.250  3.8359e-02
11.250  21.500  3.9709e-02
11.250  21.750  4.0862e-02
11.250  22.000  4.2644e-02
11.250  22.250  4.3518e-02
11.250  22.500  4.3748e-02
11.250  22.750  4.3901e-02
11.250  23.000  4.3882e-02
11.250  23.250  4.3895e-02
11.250  23.500  4.3909e-02
11.250  23.750  4.3911e-02
11.250  24.000  4.3902e-02
11.500  17.000  4.0988e-05
11.500  17.250  5.6955e-05
11.500  17.500  8.4527e-05
11.500  17.750  1.3556e-04
11.500  18.000  2.3103e-04
11.500  18.250  3.9292e-04
11.500  18.500  6.3021e-04
11.500  18.750  9.8329e-04
11.500  19.000  1.4912e-03
11.500  19.250  2.2121e-03
11.500  19.500  3.2363e-03
11.500  19.750  4.6858e-03
11.500  20.000  6.7320e-03
11.500  20.250  9.6232e-03
11.500  20.500  1.3704e-02
11.500  20.750  1.9441e-02
11.500  21.000  2.6824e-02
11.500  21.250  3.3659e-02
11.500  21.500  3.8024e-02
11.500  21.750  3.9440e-02
11.500  22.000  4.0860e-02
11.500  22.250  4.2726e-02
11.500  22.500  4.3364e-02
11.500  22.750  4.3659e-02
11.500  23.000  4.3871e-02
11.500  23.250  4.3868e-02
11.500  23.500  4.3887e-02
11.500  23.750  4.3907e-02
11.500  24.000  4.3912e-02
11.750  17.000  3.1193e-05
11.750  17.250  4.2222e-05
11.750  17.500  6.0823e-05
11.750  17.750  9.5391e-05
11.750  18.000  1.6008e-04
11.750  18.250  2.6815e-04
11.750  18.500  4.2971e-04
11.750  18.750  6.7473e-04
11.750  19.000  1.0292e-03
11.750  19.250  1.5380e-03
11.750  19.500  2.2606e-03
11.750  19.750  3.2982e-03
11.750  20.000  4.7670e-03
11.750  20.250  6.8252e-03
11.750  20.500  9.7150e-03
11.750  20.750  1.3766e-02
11.750  21.000  1.9264e-02
11.750  21.250  2.6371e-02
11.750  21.500  3.3283e-02
11.750  21.750  3.7171e-02
11.750  22.000  3.9036e-02
11.750  22.250  4.0761e-02
11.750  22.500  4.2521e-02
11.750  22.750  4.3142e-02
11.750  23.000  4.3522e-02
11.750  23.250  4.3824e-02
11.750  23.500  4.3848e-02
11.750  23.750  4.3875e-02
11.750  24.000  4.3904e-02
12.000  17.000  1.9671e-05
12.000  17.250  3.2099e-05
12.000  17.500  4.4774e-05
12.000  17.750  6.7654e-05
12.000  18.000  1.1004e-04
12.000  18.250  1.8148e-04
12.000  18.500  2.9251e-04
12.000  18.750  4.5909e-04
12.000  19.000  7.0395e-04
12.000  19.250  1.0589e-03
12.000  19.500  1.5677e-03
12.000  19.750  2.3056e-03
12.000  20.000  3.3548e-03
12.000  20.250  4.8287e-03
12.000  20.500  6.8789e-03
12.000  20.750  9.7361e-03
12.000  21.000  1.3601e-02
12.000  21.250  1.8689e-02
12.000  21.500  2.5509e-02
12.000  21.750  3.2117e-02
12.000  22.000  3.5967e-02
12.000  22.250  3.8377e-02
12.000  22.500  4.0421e-02
12.000  22.750  4.2105e-02
12.000  23.000  4.2812e-02
12.000  23.250  4.3313e-02
12.000  23.500  4.3755e-02
12.000  23.750  4.3816e-02
12.000  24.000  4.3857e-02
12.250  17.000  9.4650e-06
12.250  17.250  2.1564e-05
12.250  17.500  3.4074e-05
12.250  17.750  4.9300e-05
12.250  18.000  7.6626e-05
12.250  18.250  1.2428e-04
12.250  18.500  1.9819e-04
12.250  18.750  3.0963e-04
12.250  19.000  4.7712e-04
12.250  19.250  7.2296e-04
12.250  19.500  1.0803e-03
12.250  19.750  1.5993e-03
12.250  20.000  2.3410e-03
12.250  20.250  3.3916e-03
12.250  20.500  4.8592e-03
12.250  20.750  6.8877e-03
12.250  21.000  9.6129e-03
12.250  21.250  1.3151e-02
12.250  21.500  1.7842e-02
12.250  21.750  2.3982e-02
12.250  22.000  3.0185e-02
12.250  22.250  3.4397e-02
12.250  22.500  3.7376e-02
12.250  22.750  3.9737e-02
12.250  23.000  4.1441e-02
12.250  23.250  4.2328e-02
12.250  23.500  4.2995e-02
12.250  23.750  4.3648e-02
12.250  24.000  4.3769e-02
12.500  17.000  4.6914e-06
12.500  17.250  1.0370e-05
12.500  17.500  2.3210e-05
12.500  17.750  3.7202e-05
12.500  18.000  5.5473e-05
12.500  18.250  8.5926e-05
12.500  18.500  1.3416e-04
12.500  18.750  2.0938e-04
12.500  19.000  3.2329e-04
12.500  19.250  4.9086e-04
12.500  19.500  7.3786e-04
12.500  19.750  1.0987e-03
12.500  20.000  1.6202e-03
12.500  20.250  2.3622e-03
12.500  20.500  3.4072e-03
12.500  20.750  4.8573e-03
12.500  21.000  6.8012e-03
12.500  21.250  9.2951e-03
12.500  21.500  1.2506e-02
12.500  21.750  1.6438e-02
12.500  22.000  2.1811e-02
12.500  22.250  2.7697e-02
12.500  22.500  3.2518e-02
12.500  22.750  3.5751e-02
12.500  23.000  3.8476e-02
12.500  23.250  4.0452e-02
12.500  23.500  4.1608e-02
12.500  23.750  4.2508e-02
12.500  24.000  4.3480e-02
12.750  17.000  2.3868e-06
12.750  17.250  5.1029e-06
12.750  17.500  1.1111e-05
12.750  17.750  2.4362e-05
12.750  18.000  4.0247e-05
12.750  18.250  6.0165e-05
12.750  18.500  9.1770e-05
12.750  18.750  1.4099e-04
12.750  19.000  2.1687e-04
12.750  19.250  3.3103e-04
12.750  19.500  5.0066e-04
12.750  19.750  7.4897e-04
12.750  20.000  1.1105e-03
12.750  20.250  1.6333e-03
12.750  20.500  2.3726e-03
12.750  20.750  3.4036e-03
12.750  21.000  4.8010e-03
12.750  21.250  6.5921e-03
12.750  21.500  8.8543e-03
12.750  21.750  1.1383e-02
12.750  22.000  1.4486e-02
12.750  22.250  1.9185e-02
12.750  22.500  2.4888e-02
12.750  22.750  2.9580e-02
12.750  23.000  3.3308e-02
12.750  23.250  3.6627e-02
12.750  23.500  3.9029e-02
12.750  23.750  4.0552e-02
12.750  24.000  4.1767e-02
13.000  17.000  1.0000e-07
13.000  17.250  1.5638e-06
13.000  17.500  4.1152e-06
13.000  17.750  1.0288e-05
13.000  18.000  2.1646e-05
13.000  18.250  3.7037e-05
13.000  18.500  6.0329e-05
13.000  18.750  9.5309e-05
13.000  19.000  1.4502e-04
13.000  19.250  2.2222e-04
13.000  19.500  3.3778e-04
13.000  19.750  5.0790e-04
13.000  20.000  7.5638e-04
13.000  20.250  1.1193e-03
13.000  20.500  1.6397e-03
13.000  20.750  2.3712e-03
13.000  21.000  3.3704e-03
13.000  21.250  4.6626e-03
13.000  21.500  6.3026e-03
13.000  21.750  7.9989e-03
13.000  22.000  9.7202e-03
13.000  22.250  1.2099e-02
13.000  22.500  1.6234e-02
13.000  22.750  2.1334e-02
13.000  23.000  2.5822e-02
13.000  23.250  3.0172e-02
13.000  23.500  3.4158e-02
13.000  23.750  3.7057e-02
13.000  24.000  3.9023e-02
13.250  17.000  1.0000e-07
13.250  17.250  1.0000e-07
13.250  17.500  1.7284e-06
13.250  17.750  4.0329e-06
13.250  18.000  9.9588e-06
13.250  18.250  2.1728e-05
13.250  18.500  3.8765e-05
13.250  18.750  6.1646e-05
13.250  19.000  9.8272e-05
13.250  19.250  1.4724e-04
13.250  19.500  2.2617e-04
13.250  19.750  3.4148e-04
13.250  20.000  5.1136e-04
13.250  20.250  7.6123e-04
13.250  20.500  1.1227e-03
13.250  20.750  1.6386e-03
13.250  21.000  2.3493e-03
13.250  21.250  3.2805e-03
13.250  21.500  4.4650e-03
13.250  21.750  5.6582e-03
13.250  22.000  6.6084e-03
13.250  22.250  7.6571e-03
13.250  22.500  9.6563e-03
13.250  22.750  1.3208e-02
13.250  23.000  1.7418e-02
13.250  23.250  2.1827e-02
13.250  23.500  2.6549e-02
13.250  23.750  3.1003e-02
13.250  24.000  3.4408e-02
13.500  17.000  1.0000e-07
13.500  17.250  1.0000e-07
13.500  17.500  9.8765e-07
13.500  17.750  2.0576e-06
13.500  18.000  4.9383e-06
13.500  18.250  1.1111e-05
13.500  18.500  2.3045e-05
13.500  18.750  4.0988e-05
13.500  19.000  6.5021e-05
13.500  19.250  1.0016e-04
13.500  19.500  1.5095e-04
13.500  19.750  2.2798e-04
13.500  20.000  3.4272e-04
13.500  20.250  5.1391e-04
13.500  20.500  7.6247e-04
13.500  20.750  1.1212e-03
13.500  21.000  1.6205e-03
13.500  21.250  2.2902e-03
13.500  21.500  3.1465e-03
13.500  21.750  3.9969e-03
13.500  22.000  4.5426e-03
13.500  22.250  4.8810e-03
13.500  22.500  5.7610e-03
13.500  22.750  7.6108e-03
13.500  23.000  1.0424e-02
13.500  23.250  1.4058e-02
13.500  23.500  1.7988e-02
13.500  23.750  2.2494e-02
13.500  24.000  2.7209e-02
13.750  17.000  1.0000e-07
13.750  17.250  1.0000e-07
13.750  17.500  1.0000e-07
13.750  17.750  1.1523e-06
13.750  18.000  2.5514e-06
13.750  18.250  5.7613e-06
13.750  18.500  1.2016e-05
13.750  18.750  2.3704e-05
13.750  19.000  4.3786e-05
13.750  19.250  6.8148e-05
13.750  19.500  9.9342e-05
13.750  19.750  1.5177e-04
13.750  20.000  2.2905e-04
13.750  20.250  3.4428e-04
13.750  20.500  5.1424e-04
13.750  20.750  7.6140e-04
13.750  21.000  1.1118e-03
13.750  21.250  1.5837e-03
13.750  21.500  2.2020e-03
13.750  21.750  2.8163e-03
13.750  22.000  3.1475e-03
13.750  22.250  3.1747e-03
13.750  22.500  3.4520e-03
13.750  22.750  4.4213e-03
13.750  23.000  6.0017e-03
13.750  23.250  8.1610e-03
13.750  23.500  1.1009e-02
13.750  23.750  1.4182e-02
13.750  24.000  1.8262e-02
14.000  17.000  1.0000e-07
14.000  17.250  1.0000e-07
14.000  17.500  1.0000e-07
14.000  17.750  1.0000e-07
14.000  18.000  1.3992e-06
14.000  18.250  3.0453e-06
14.000  18.500  6.4198e-06
14.000  18.750  1.2757e-05
14.000  19.000  2.4609e-05
14.000  19.250  4.5514e-05
14.000  19.500  6.9053e-05
14.000  19.750  1.0206e-04
14.000  20.000  1.5276e-04
14.000  20.250  2.2955e-04
14.000  20.500  3.4461e-04
14.000  20.750  5.1358e-04
14.000  21.000  7.5630e-04
14.000  21.250  1.0887e-03
14.000  21.500  1.5296e-03
14.000  21.750  1.9711e-03
14.000  22.000  2.1880e-03
14.000  22.250  2.1033e-03
14.000  22.500  2.1025e-03
14.000  22.750  2.5765e-03
14.000  23.000  3.4854e-03
14.000  23.250  4.6947e-03
14.000  23.500  6.3179e-03
14.000  23.750  8.3055e-03
14.000  24.000  1.0700e-02
