InwC 7500.00A  relative to Inci 1215.00A scaled to 1215A.
Hden   Phi(H)  Eq_Width (A)
7.000  17.000  2.9616e-02
7.000  17.250  4.2016e-02
7.000  17.500  5.4460e-02
7.000  17.750  6.7195e-02
7.000  18.000  6.9247e-02
7.000  18.250  7.0124e-02
7.000  18.500  7.0163e-02
7.000  18.750  7.0081e-02
7.000  19.000  7.0089e-02
7.000  19.250  7.0096e-02
7.000  19.500  7.0099e-02
7.000  19.750  7.0100e-02
7.000  20.000  7.0100e-02
7.000  20.250  7.0100e-02
7.000  20.500  7.0100e-02
7.000  20.750  7.0100e-02
7.000  21.000  7.0100e-02
7.000  21.250  7.0100e-02
7.000  21.500  7.0100e-02
7.000  21.750  7.0101e-02
7.000  22.000  7.0101e-02
7.000  22.250  7.0101e-02
7.000  22.500  7.0101e-02
7.000  22.750  7.0101e-02
7.000  23.000  7.0101e-02
7.000  23.250  7.0101e-02
7.000  23.500  7.0101e-02
7.000  23.750  7.0101e-02
7.000  24.000  7.0102e-02
7.250  17.000  2.0109e-02
7.250  17.250  3.0296e-02
7.250  17.500  4.3218e-02
7.250  17.750  5.5297e-02
7.250  18.000  6.7203e-02
7.250  18.250  6.9262e-02
7.250  18.500  7.0124e-02
7.250  18.750  7.0163e-02
7.250  19.000  7.0082e-02
7.250  19.250  7.0089e-02
7.250  19.500  7.0096e-02
7.250  19.750  7.0098e-02
7.250  20.000  7.0099e-02
7.250  20.250  7.0100e-02
7.250  20.500  7.0100e-02
7.250  20.750  7.0100e-02
7.250  21.000  7.0100e-02
7.250  21.250  7.0100e-02
7.250  21.500  7.0100e-02
7.250  21.750  7.0100e-02
7.250  22.000  7.0100e-02
7.250  22.250  7.0100e-02
7.250  22.500  7.0100e-02
7.250  22.750  7.0101e-02
7.250  23.000  7.0100e-02
7.250  23.250  7.0101e-02
7.250  23.500  7.0101e-02
7.250  23.750  7.0101e-02
7.250  24.000  7.0101e-02
7.500  17.000  1.3531e-02
7.500  17.250  2.0649e-02
7.500  17.500  3.1246e-02
7.500  17.750  4.4790e-02
7.500  18.000  5.6164e-02
7.500  18.250  6.7211e-02
7.500  18.500  6.9279e-02
7.500  18.750  7.0124e-02
7.500  19.000  7.0164e-02
7.500  19.250  7.0081e-02
7.500  19.500  7.0089e-02
7.500  19.750  7.0096e-02
7.500  20.000  7.0098e-02
7.500  20.250  7.0099e-02
7.500  20.500  7.0100e-02
7.500  20.750  7.0100e-02
7.500  21.000  7.0100e-02
7.500  21.250  7.0100e-02
7.500  21.500  7.0100e-02
7.500  21.750  7.0100e-02
7.500  22.000  7.0100e-02
7.500  22.250  7.0101e-02
7.500  22.500  7.0100e-02
7.500  22.750  7.0100e-02
7.500  23.000  7.0100e-02
7.500  23.250  7.0101e-02
7.500  23.500  7.0101e-02
7.500  23.750  7.0100e-02
7.500  24.000  7.0101e-02
7.750  17.000  9.2151e-03
7.750  17.250  1.3962e-02
7.750  17.500  2.1499e-02
7.750  17.750  3.2744e-02
7.750  18.000  4.6703e-02
7.750  18.250  5.7163e-02
7.750  18.500  6.7214e-02
7.750  18.750  6.9296e-02
7.750  19.000  7.0125e-02
7.750  19.250  7.0166e-02
7.750  19.500  7.0083e-02
7.750  19.750  7.0089e-02
7.750  20.000  7.0096e-02
7.750  20.250  7.0099e-02
7.750  20.500  7.0100e-02
7.750  20.750  7.0100e-02
7.750  21.000  7.0100e-02
7.750  21.250  7.0100e-02
7.750  21.500  7.0100e-02
7.750  21.750  7.0103e-02
7.750  22.000  7.0100e-02
7.750  22.250  7.0100e-02
7.750  22.500  7.0100e-02
7.750  22.750  7.0100e-02
7.750  23.000  7.0101e-02
7.750  23.250  7.0100e-02
7.750  23.500  7.0100e-02
7.750  23.750  7.0100e-02
7.750  24.000  7.0100e-02
8.000  17.000  6.3989e-03
8.000  17.250  9.5027e-03
8.000  17.500  1.4598e-02
8.000  17.750  2.2819e-02
8.000  18.000  3.4954e-02
8.000  18.250  4.8990e-02
8.000  18.500  5.8241e-02
8.000  18.750  6.7206e-02
8.000  19.000  6.9304e-02
8.000  19.250  7.0124e-02
8.000  19.500  7.0163e-02
8.000  19.750  7.0082e-02
8.000  20.000  7.0089e-02
8.000  20.250  7.0096e-02
8.000  20.500  7.0099e-02
8.000  20.750  7.0100e-02
8.000  21.000  7.0100e-02
8.000  21.250  7.0100e-02
8.000  21.500  7.0100e-02
8.000  21.750  7.0100e-02
8.000  22.000  7.0100e-02
8.000  22.250  7.0100e-02
8.000  22.500  7.0100e-02
8.000  22.750  7.0100e-02
8.000  23.000  7.0100e-02
8.000  23.250  7.0100e-02
8.000  23.500  7.0100e-02
8.000  23.750  7.0100e-02
8.000  24.000  7.0100e-02
8.250  17.000  4.5504e-03
8.250  17.250  6.6333e-03
8.250  17.500  1.0028e-02
8.250  17.750  1.5769e-02
8.250  18.000  2.5116e-02
8.250  18.250  3.8533e-02
8.250  18.500  5.1364e-02
8.250  18.750  5.9790e-02
8.250  19.000  6.7185e-02
8.250  19.250  6.9325e-02
8.250  19.500  7.0124e-02
8.250  19.750  7.0163e-02
8.250  20.000  7.0082e-02
8.250  20.250  7.0089e-02
8.250  20.500  7.0096e-02
8.250  20.750  7.0098e-02
8.250  21.000  7.0099e-02
8.250  21.250  7.0100e-02
8.250  21.500  7.0100e-02
8.250  21.750  7.0100e-02
8.250  22.000  7.0100e-02
8.250  22.250  7.0100e-02
8.250  22.500  7.0100e-02
8.250  22.750  7.0100e-02
8.250  23.000  7.0100e-02
8.250  23.250  7.0100e-02
8.250  23.500  7.0100e-02
8.250  23.750  7.0100e-02
8.250  24.000  7.0100e-02
8.500  17.000  3.2760e-03
8.500  17.250  4.7236e-03
8.500  17.500  7.0198e-03
8.500  17.750  1.0956e-02
8.500  18.000  1.7778e-02
8.500  18.250  2.8707e-02
8.500  18.500  4.2643e-02
8.500  18.750  5.3892e-02
8.500  19.000  6.0840e-02
8.500  19.250  6.7127e-02
8.500  19.500  6.9347e-02
8.500  19.750  7.0124e-02
8.500  20.000  7.0162e-02
8.500  20.250  7.0081e-02
8.500  20.500  7.0089e-02
8.500  20.750  7.0096e-02
8.500  21.000  7.0099e-02
8.500  21.250  7.0099e-02
8.500  21.500  7.0100e-02
8.500  21.750  7.0100e-02
8.500  22.000  7.0100e-02
8.500  22.250  7.0100e-02
8.500  22.500  7.0100e-02
8.500  22.750  7.0100e-02
8.500  23.000  7.0100e-02
8.500  23.250  7.0100e-02
8.500  23.500  7.0100e-02
8.500  23.750  7.0100e-02
8.500  24.000  7.0100e-02
8.750  17.000  2.3688e-03
8.750  17.250  3.4028e-03
8.750  17.500  5.0057e-03
8.750  17.750  7.6982e-03
8.750  18.000  1.2554e-02
8.750  18.250  2.0880e-02
8.750  18.500  3.2570e-02
8.750  18.750  4.6197e-02
8.750  19.000  5.5027e-02
8.750  19.250  6.1984e-02
8.750  19.500  6.7000e-02
8.750  19.750  6.9368e-02
8.750  20.000  7.0124e-02
8.750  20.250  7.0163e-02
8.750  20.500  7.0081e-02
8.750  20.750  7.0089e-02
8.750  21.000  7.0096e-02
8.750  21.250  7.0098e-02
8.750  21.500  7.0099e-02
8.750  21.750  7.0100e-02
8.750  22.000  7.0100e-02
8.750  22.250  7.0100e-02
8.750  22.500  7.0100e-02
8.750  22.750  7.0100e-02
8.750  23.000  7.0100e-02
8.750  23.250  7.0100e-02
8.750  23.500  7.0100e-02
8.750  23.750  7.0100e-02
8.750  24.000  7.0100e-02
9.000  17.000  1.7138e-03
9.000  17.250  2.4609e-03
9.000  17.500  3.6096e-03
9.000  17.750  5.5126e-03
9.000  18.000  8.9351e-03
9.000  18.250  1.5064e-02
9.000  18.500  2.4388e-02
9.000  18.750  3.6295e-02
9.000  19.000  4.8761e-02
9.000  19.250  5.6481e-02
9.000  19.500  6.2739e-02
9.000  19.750  6.6843e-02
9.000  20.000  6.9381e-02
9.000  20.250  7.0122e-02
9.000  20.500  7.0161e-02
9.000  20.750  7.0081e-02
9.000  21.000  7.0088e-02
9.000  21.250  7.0096e-02
9.000  21.500  7.0099e-02
9.000  21.750  7.0100e-02
9.000  22.000  7.0100e-02
9.000  22.250  7.0100e-02
9.000  22.500  7.0100e-02
9.000  22.750  7.0100e-02
9.000  23.000  7.0100e-02
9.000  23.250  7.0100e-02
9.000  23.500  7.0101e-02
9.000  23.750  7.0100e-02
9.000  24.000  7.0100e-02
9.250  17.000  1.2373e-03
9.250  17.250  1.7807e-03
9.250  17.500  2.6155e-03
9.250  17.750  3.9886e-03
9.250  18.000  6.4748e-03
9.250  18.250  1.0966e-02
9.250  18.500  1.7881e-02
9.250  18.750  2.7526e-02
9.250  19.000  3.8619e-02
9.250  19.250  5.0741e-02
9.250  19.500  5.7250e-02
9.250  19.750  6.3684e-02
9.250  20.000  6.6605e-02
9.250  20.250  6.9375e-02
9.250  20.500  7.0119e-02
9.250  20.750  7.0163e-02
9.250  21.000  7.0081e-02
9.250  21.250  7.0088e-02
9.250  21.500  7.0094e-02
9.250  21.750  7.0076e-02
9.250  22.000  7.0012e-02
9.250  22.250  7.0076e-02
9.250  22.500  7.0100e-02
9.250  22.750  7.0100e-02
9.250  23.000  7.0100e-02
9.250  23.250  7.0100e-02
9.250  23.500  7.0100e-02
9.250  23.750  7.0100e-02
9.250  24.000  7.0100e-02
9.500  17.000  8.9136e-04
9.500  17.250  1.2860e-03
9.500  17.500  1.8960e-03
9.500  17.750  2.9084e-03
9.500  18.000  4.7575e-03
9.500  18.250  8.1219e-03
9.500  18.500  1.3293e-02
9.500  18.750  2.0333e-02
9.500  19.000  2.9497e-02
9.500  19.250  4.0333e-02
9.500  19.500  5.0837e-02
9.500  19.750  5.7775e-02
9.500  20.000  6.3599e-02
9.500  20.250  6.6324e-02
9.500  20.500  6.9337e-02
9.500  20.750  7.0112e-02
9.500  21.000  7.0156e-02
9.500  21.250  7.0069e-02
9.500  21.500  7.0030e-02
9.500  21.750  6.9991e-02
9.500  22.000  6.9978e-02
9.500  22.250  6.9953e-02
9.500  22.500  6.9929e-02
9.500  22.750  6.9916e-02
9.500  23.000  6.9908e-02
9.500  23.250  6.9909e-02
9.500  23.500  6.9994e-02
9.500  23.750  6.9994e-02
9.500  24.000  6.9993e-02
9.750  17.000  6.4239e-04
9.750  17.250  9.2840e-04
9.750  17.500  1.3733e-03
9.750  17.750  2.1251e-03
9.750  18.000  3.5169e-03
9.750  18.250  6.0736e-03
9.750  18.500  9.9664e-03
9.750  18.750  1.5148e-02
9.750  19.000  2.1827e-02
9.750  19.250  3.0504e-02
9.750  19.500  4.1679e-02
9.750  19.750  5.0610e-02
9.750  20.000  5.8294e-02
9.750  20.250  6.2949e-02
9.750  20.500  6.5958e-02
9.750  20.750  6.9244e-02
9.750  21.000  7.0091e-02
9.750  21.250  7.0158e-02
9.750  21.500  7.0076e-02
9.750  21.750  7.0069e-02
9.750  22.000  6.9993e-02
9.750  22.250  6.9988e-02
9.750  22.500  6.9972e-02
9.750  22.750  6.9955e-02
9.750  23.000  6.9941e-02
9.750  23.250  6.9932e-02
9.750  23.500  6.9929e-02
9.750  23.750  6.9926e-02
9.750  24.000  6.9924e-02
10.000  17.000  4.6420e-04
10.000  17.250  6.7029e-04
10.000  17.500  9.9481e-04
10.000  17.750  1.5542e-03
10.000  18.000  2.6091e-03
10.000  18.250  4.5110e-03
10.000  18.500  7.4230e-03
10.000  18.750  1.1237e-02
10.000  19.000  1.6147e-02
10.000  19.250  2.2373e-02
10.000  19.500  3.0624e-02
10.000  19.750  4.0466e-02
10.000  20.000  5.0225e-02
10.000  20.250  5.8742e-02
10.000  20.500  6.2351e-02
10.000  20.750  6.5582e-02
10.000  21.000  6.9155e-02
10.000  21.250  7.0055e-02
10.000  21.500  7.0154e-02
10.000  21.750  7.0077e-02
10.000  22.000  7.0081e-02
10.000  22.250  7.0012e-02
10.000  22.500  6.9993e-02
10.000  22.750  6.9985e-02
10.000  23.000  6.9974e-02
10.000  23.250  6.9964e-02
10.000  23.500  6.9957e-02
10.000  23.750  6.9954e-02
10.000  24.000  6.9952e-02
10.250  17.000  3.3671e-04
10.250  17.250  4.8469e-04
10.250  17.500  7.2008e-04
10.250  17.750  1.1361e-03
10.250  18.000  1.9308e-03
10.250  18.250  3.3515e-03
10.250  18.500  5.5075e-03
10.250  18.750  8.2780e-03
10.250  19.000  1.1851e-02
10.250  19.250  1.6538e-02
10.250  19.500  2.2739e-02
10.250  19.750  3.1217e-02
10.250  20.000  4.0433e-02
10.250  20.250  5.0751e-02
10.250  20.500  5.8244e-02
10.250  20.750  6.1729e-02
10.250  21.000  6.5330e-02
10.250  21.250  6.9092e-02
10.250  21.500  7.0001e-02
10.250  21.750  7.0148e-02
10.250  22.000  7.0076e-02
10.250  22.250  7.0084e-02
10.250  22.500  7.0061e-02
10.250  22.750  6.9996e-02
10.250  23.000  6.9992e-02
10.250  23.250  6.9986e-02
10.250  23.500  6.9980e-02
10.250  23.750  6.9975e-02
10.250  24.000  6.9974e-02
10.500  17.000  2.4486e-04
10.500  17.250  3.5119e-04
10.500  17.500  5.2280e-04
10.500  17.750  8.3004e-04
10.500  18.000  1.4234e-03
10.500  18.250  2.4660e-03
10.500  18.500  4.0238e-03
10.500  18.750  6.0280e-03
10.500  19.000  8.6965e-03
10.500  19.250  1.2201e-02
10.500  19.500  1.6862e-02
10.500  19.750  2.3171e-02
10.500  20.000  3.1467e-02
10.500  20.250  4.0896e-02
10.500  20.500  5.1561e-02
10.500  20.750  5.7760e-02
10.500  21.000  6.1249e-02
10.500  21.250  6.5118e-02
10.500  21.500  6.8938e-02
10.500  21.750  6.9920e-02
10.500  22.000  7.0137e-02
10.500  22.250  7.0073e-02
10.500  22.500  7.0083e-02
10.500  22.750  7.0084e-02
10.500  23.000  7.0012e-02
10.500  23.250  6.9996e-02
10.500  23.500  6.9992e-02
10.500  23.750  6.9990e-02
10.500  24.000  6.9986e-02
10.750  17.000  1.7934e-04
10.750  17.250  2.5490e-04
10.750  17.500  3.7901e-04
10.750  17.750  6.0502e-04
10.750  18.000  1.0370e-03
10.750  18.250  1.8021e-03
10.750  18.500  2.9077e-03
10.750  18.750  4.3844e-03
10.750  19.000  6.3286e-03
10.750  19.250  9.0067e-03
10.750  19.500  1.2490e-02
10.750  19.750  1.7148e-02
10.750  20.000  2.3445e-02
10.750  20.250  3.1729e-02
10.750  20.500  4.1432e-02
10.750  20.750  5.2050e-02
10.750  21.000  5.7345e-02
10.750  21.250  6.1002e-02
10.750  21.500  6.5129e-02
10.750  21.750  6.8819e-02
10.750  22.000  6.9808e-02
10.750  22.250  7.0118e-02
10.750  22.500  7.0066e-02
10.750  22.750  7.0080e-02
10.750  23.000  7.0090e-02
10.750  23.250  7.0061e-02
10.750  23.500  7.0001e-02
10.750  23.750  6.9996e-02
10.750  24.000  6.9995e-02
11.000  17.000  1.3193e-04
11.000  17.250  1.8601e-04
11.000  17.500  2.7506e-04
11.000  17.750  4.3745e-04
11.000  18.000  7.4724e-04
11.000  18.250  1.2884e-03
11.000  18.500  2.0571e-03
11.000  18.750  3.1249e-03
11.000  19.000  4.5673e-03
11.000  19.250  6.5468e-03
11.000  19.500  9.1791e-03
11.000  19.750  1.2665e-02
11.000  20.000  1.7318e-02
11.000  20.250  2.3618e-02
11.000  20.500  3.1948e-02
11.000  20.750  4.1928e-02
11.000  21.000  5.2166e-02
11.000  21.250  5.7042e-02
11.000  21.500  6.1002e-02
11.000  21.750  6.5395e-02
11.000  22.000  6.8678e-02
11.000  22.250  6.9668e-02
11.000  22.500  7.0086e-02
11.000  22.750  7.0056e-02
11.000  23.000  7.0074e-02
11.000  23.250  7.0091e-02
11.000  23.500  7.0085e-02
11.000  23.750  7.0036e-02
11.000  24.000  7.0004e-02
11.250  17.000  9.8601e-05
11.250  17.250  1.3605e-04
11.250  17.500  1.9967e-04
11.250  17.750  3.1523e-04
11.250  18.000  5.3300e-04
11.250  18.250  9.0691e-04
11.250  18.500  1.4395e-03
11.250  18.750  2.2117e-03
11.250  19.000  3.2770e-03
11.250  19.250  4.7186e-03
11.250  19.500  6.6686e-03
11.250  19.750  9.2893e-03
11.250  20.000  1.2783e-02
11.250  20.250  1.7421e-02
11.250  20.500  2.3696e-02
11.250  20.750  3.2041e-02
11.250  21.000  4.2249e-02
11.250  21.250  5.1719e-02
11.250  21.500  5.7063e-02
11.250  21.750  6.1181e-02
11.250  22.000  6.5765e-02
11.250  22.250  6.8455e-02
11.250  22.500  6.9501e-02
11.250  22.750  7.0036e-02
11.250  23.000  7.0039e-02
11.250  23.250  7.0065e-02
11.250  23.500  7.0090e-02
11.250  23.750  7.0092e-02
11.250  24.000  7.0079e-02
11.500  17.000  7.5885e-05
11.500  17.250  1.0115e-04
11.500  17.500  1.4494e-04
11.500  17.750  2.2593e-04
11.500  18.000  3.7671e-04
11.500  18.250  6.3086e-04
11.500  18.500  9.9942e-04
11.500  18.750  1.5397e-03
11.500  19.000  2.3002e-03
11.500  19.250  3.3500e-03
11.500  19.500  4.7904e-03
11.500  19.750  6.7436e-03
11.500  20.000  9.3640e-03
11.500  20.250  1.2845e-02
11.500  20.500  1.7439e-02
11.500  20.750  2.3590e-02
11.500  21.000  3.1902e-02
11.500  21.250  4.2321e-02
11.500  21.500  5.1438e-02
11.500  21.750  5.6997e-02
11.500  22.000  6.1416e-02
11.500  22.250  6.6004e-02
11.500  22.500  6.8204e-02
11.500  22.750  6.9342e-02
11.500  23.000  6.9972e-02
11.500  23.250  7.0013e-02
11.500  23.500  7.0051e-02
11.500  23.750  7.0087e-02
11.500  24.000  7.0094e-02
11.750  17.000  6.0329e-05
11.750  17.250  7.7531e-05
11.750  17.500  1.0691e-04
11.750  17.750  1.6165e-04
11.750  18.000  2.6387e-04
11.750  18.250  4.3407e-04
11.750  18.500  6.8691e-04
11.750  18.750  1.0659e-03
11.750  19.000  1.6053e-03
11.750  19.250  2.3623e-03
11.750  19.500  3.4070e-03
11.750  19.750  4.8536e-03
11.750  20.000  6.8111e-03
11.750  20.250  9.4075e-03
11.750  20.500  1.2824e-02
11.750  20.750  1.7296e-02
11.750  21.000  2.3167e-02
11.750  21.250  3.1371e-02
11.750  21.500  4.1931e-02
11.750  21.750  5.0943e-02
11.750  22.000  5.7002e-02
11.750  22.250  6.1688e-02
11.750  22.500  6.5929e-02
11.750  22.750  6.7938e-02
11.750  23.000  6.9130e-02
11.750  23.250  6.9887e-02
11.750  23.500  6.9977e-02
11.750  23.750  7.0032e-02
11.750  24.000  7.0082e-02
12.000  17.000  3.9012e-05
12.000  17.250  6.1564e-05
12.000  17.500  8.1235e-05
12.000  17.750  1.1720e-04
12.000  18.000  1.8412e-04
12.000  18.250  2.9695e-04
12.000  18.500  4.7169e-04
12.000  18.750  7.3144e-04
12.000  19.000  1.1087e-03
12.000  19.250  1.6463e-03
12.000  19.500  2.3992e-03
12.000  19.750  3.4588e-03
12.000  20.000  4.9075e-03
12.000  20.250  6.8459e-03
12.000  20.500  9.3867e-03
12.000  20.750  1.2687e-02
12.000  21.000  1.6868e-02
12.000  21.250  2.2338e-02
12.000  21.500  3.0359e-02
12.000  21.750  4.1116e-02
12.000  22.000  5.0176e-02
12.000  22.250  5.6820e-02
12.000  22.500  6.1732e-02
12.000  22.750  6.5642e-02
12.000  23.000  6.7592e-02
12.000  23.250  6.8870e-02
12.000  23.500  6.9784e-02
12.000  23.750  6.9929e-02
12.000  24.000  7.0007e-02
12.250  17.000  1.8519e-05
12.250  17.250  4.2798e-05
12.250  17.500  6.4362e-05
12.250  17.750  8.7901e-05
12.250  18.000  1.3078e-04
12.250  18.250  2.0617e-04
12.250  18.500  3.2305e-04
12.250  18.750  4.9794e-04
12.250  19.000  7.5844e-04
12.250  19.250  1.1360e-03
12.250  19.500  1.6747e-03
12.250  19.750  2.4384e-03
12.250  20.000  3.4943e-03
12.250  20.250  4.9275e-03
12.250  20.500  6.8249e-03
12.250  20.750  9.2765e-03
12.250  21.000  1.2327e-02
12.250  21.250  1.6071e-02
12.250  21.500  2.1162e-02
12.250  21.750  2.8949e-02
12.250  22.000  3.9526e-02
12.250  22.250  4.9244e-02
12.250  22.500  5.6350e-02
12.250  22.750  6.1442e-02
12.250  23.000  6.5099e-02
12.250  23.250  6.7123e-02
12.250  23.500  6.8517e-02
12.250  23.750  6.9646e-02
12.250  24.000  6.9868e-02
12.500  17.000  9.1358e-06
12.500  17.250  2.0494e-05
12.500  17.500  4.5597e-05
12.500  17.750  6.9136e-05
12.500  18.000  9.7531e-05
12.500  18.250  1.4560e-04
12.500  18.500  2.2165e-04
12.500  18.750  3.4016e-04
12.500  19.000  5.1860e-04
12.500  19.250  7.7877e-04
12.500  19.500  1.1566e-03
12.500  19.750  1.6980e-03
12.500  20.000  2.4596e-03
12.500  20.250  3.5043e-03
12.500  20.500  4.9058e-03
12.500  20.750  6.7345e-03
12.500  21.000  9.0016e-03
12.500  21.250  1.1671e-02
12.500  21.500  1.5019e-02
12.500  21.750  1.9510e-02
12.500  22.000  2.7031e-02
12.500  22.250  3.7719e-02
12.500  22.500  4.8265e-02
12.500  22.750  5.5117e-02
12.500  23.000  6.0445e-02
12.500  23.250  6.4216e-02
12.500  23.500  6.6425e-02
12.500  23.750  6.8008e-02
12.500  24.000  6.9455e-02
12.750  17.000  4.7737e-06
12.750  17.250  1.0206e-05
12.750  17.500  2.1975e-05
12.750  17.750  4.7325e-05
12.750  18.000  7.4074e-05
12.750  18.250  1.0486e-04
12.750  18.500  1.5432e-04
12.750  18.750  2.3193e-04
12.750  19.000  3.5144e-04
12.750  19.250  5.3012e-04
12.750  19.500  7.9259e-04
12.750  19.750  1.1710e-03
12.750  20.000  1.7100e-03
12.750  20.250  2.4653e-03
12.750  20.500  3.4890e-03
12.750  20.750  4.8374e-03
12.750  21.000  6.5336e-03
12.750  21.250  8.5076e-03
12.750  21.500  1.0837e-02
12.750  21.750  1.3456e-02
12.750  22.000  1.7472e-02
12.750  22.250  2.4900e-02
12.750  22.500  3.5751e-02
12.750  22.750  4.5563e-02
12.750  23.000  5.2798e-02
12.750  23.250  5.8741e-02
12.750  23.500  6.2846e-02
12.750  23.750  6.5384e-02
12.750  24.000  6.7247e-02
13.000  17.000  1.2346e-06
13.000  17.250  2.7984e-06
13.000  17.500  7.8189e-06
13.000  17.750  1.9753e-05
13.000  18.000  4.0658e-05
13.000  18.250  6.6255e-05
13.000  18.500  1.0387e-04
13.000  18.750  1.5967e-04
13.000  19.000  2.3794e-04
13.000  19.250  3.5942e-04
13.000  19.500  5.3984e-04
13.000  19.750  8.0214e-04
13.000  20.000  1.1785e-03
13.000  20.250  1.7144e-03
13.000  20.500  2.4544e-03
13.000  20.750  3.4421e-03
13.000  21.000  4.6979e-03
13.000  21.250  6.1707e-03
13.000  21.500  7.8807e-03
13.000  21.750  9.4825e-03
13.000  22.000  1.1499e-02
13.000  22.250  1.5286e-02
13.000  22.500  2.2444e-02
13.000  22.750  3.2447e-02
13.000  23.000  4.1484e-02
13.000  23.250  4.9483e-02
13.000  23.500  5.6226e-02
13.000  23.750  6.0831e-02
13.000  24.000  6.3817e-02
13.250  17.000  1.0000e-07
13.250  17.250  1.3992e-06
13.250  17.500  3.1276e-06
13.250  17.750  7.4897e-06
13.250  18.000  1.8519e-05
13.250  18.250  3.9835e-05
13.250  18.500  6.8724e-05
13.250  18.750  1.0551e-04
13.250  19.000  1.6412e-04
13.250  19.250  2.4107e-04
13.250  19.500  3.6502e-04
13.250  19.750  5.4453e-04
13.250  20.000  8.0519e-04
13.250  20.250  1.1802e-03
13.250  20.500  1.7060e-03
13.250  20.750  2.4217e-03
13.250  21.000  3.3431e-03
13.250  21.250  4.4381e-03
13.250  21.500  5.6973e-03
13.250  21.750  6.7503e-03
13.250  22.000  7.6828e-03
13.250  22.250  9.4657e-03
13.250  22.500  1.3140e-02
13.250  22.750  1.9629e-02
13.250  23.000  2.8016e-02
13.250  23.250  3.6758e-02
13.250  23.500  4.5340e-02
13.250  23.750  5.2738e-02
13.250  24.000  5.7957e-02
13.500  17.000  1.0000e-07
13.500  17.250  1.0000e-07
13.500  17.500  1.7284e-06
13.500  17.750  3.7860e-06
13.500  18.000  9.1358e-06
13.500  18.250  2.0494e-05
13.500  18.500  4.1893e-05
13.500  18.750  7.2428e-05
13.500  19.000  1.1111e-04
13.500  19.250  1.6683e-04
13.500  19.500  2.4658e-04
13.500  19.750  3.6716e-04
13.500  20.000  5.4486e-04
13.500  20.250  8.0535e-04
13.500  20.500  1.1733e-03
13.500  20.750  1.6826e-03
13.500  21.000  2.3481e-03
13.500  21.250  3.1585e-03
13.500  21.500  4.0883e-03
13.500  21.750  4.8063e-03
13.500  22.000  5.1979e-03
13.500  22.250  5.8663e-03
13.500  22.500  7.7801e-03
13.500  22.750  1.1265e-02
13.500  23.000  1.6571e-02
13.500  23.250  2.3892e-02
13.500  23.500  3.1918e-02
13.500  23.750  4.0299e-02
13.500  24.000  4.8222e-02
13.750  17.000  1.0000e-07
13.750  17.250  1.0000e-07
13.750  17.500  9.8765e-07
13.750  17.750  2.0576e-06
13.750  18.000  4.7737e-06
13.750  18.250  1.0700e-05
13.750  18.500  2.2058e-05
13.750  18.750  4.2881e-05
13.750  19.000  7.7695e-05
13.750  19.250  1.1646e-04
13.750  19.500  1.6494e-04
13.750  19.750  2.4741e-04
13.750  20.000  3.6782e-04
13.750  20.250  5.4486e-04
13.750  20.500  7.9992e-04
13.750  20.750  1.1574e-03
13.750  21.000  1.6358e-03
13.750  21.250  2.2221e-03
13.750  21.500  2.9083e-03
13.750  21.750  3.4178e-03
13.750  22.000  3.5621e-03
13.750  22.250  3.7077e-03
13.750  22.500  4.6030e-03
13.750  22.750  6.5784e-03
13.750  23.000  9.6011e-03
13.750  23.250  1.3972e-02
13.750  23.500  1.9957e-02
13.750  23.750  2.6636e-02
13.750  24.000  3.4495e-02
14.000  17.000  1.0000e-07
14.000  17.250  1.0000e-07
14.000  17.500  1.0000e-07
14.000  17.750  1.2346e-06
14.000  18.000  2.5514e-06
14.000  18.250  5.6790e-06
14.000  18.500  1.1934e-05
14.000  18.750  2.3374e-05
14.000  19.000  4.4444e-05
14.000  19.250  8.0905e-05
14.000  19.500  1.1794e-04
14.000  19.750  1.6914e-04
14.000  20.000  2.4823e-04
14.000  20.250  3.6708e-04
14.000  20.500  5.4156e-04
14.000  20.750  7.8947e-04
14.000  21.000  1.1273e-03
14.000  21.250  1.5503e-03
14.000  21.500  2.0509e-03
14.000  21.750  2.4141e-03
14.000  22.000  2.4605e-03
14.000  22.250  2.3927e-03
14.000  22.500  2.7528e-03
14.000  22.750  3.8537e-03
14.000  23.000  5.6394e-03
14.000  23.250  8.0976e-03
14.000  23.500  1.1573e-02
14.000  23.750  1.6020e-02
14.000  24.000  2.1164e-02
