InwC 6209.66A  relative to Inci 1215.00A scaled to 1215A.
Hden   Phi(H)  Eq_Width (A)
7.000  17.000  3.9813e-02
7.000  17.250  5.6471e-02
7.000  17.500  7.3188e-02
7.000  17.750  9.0295e-02
7.000  18.000  9.3052e-02
7.000  18.250  9.4231e-02
7.000  18.500  9.4284e-02
7.000  18.750  9.4173e-02
7.000  19.000  9.4183e-02
7.000  19.250  9.4194e-02
7.000  19.500  9.4197e-02
7.000  19.750  9.4198e-02
7.000  20.000  9.4199e-02
7.000  20.250  9.4199e-02
7.000  20.500  9.4199e-02
7.000  20.750  9.4199e-02
7.000  21.000  9.4199e-02
7.000  21.250  9.4199e-02
7.000  21.500  9.4199e-02
7.000  21.750  9.4200e-02
7.000  22.000  9.4200e-02
7.000  22.250  9.4200e-02
7.000  22.500  9.4200e-02
7.000  22.750  9.4200e-02
7.000  23.000  9.4201e-02
7.000  23.250  9.4201e-02
7.000  23.500  9.4201e-02
7.000  23.750  9.4201e-02
7.000  24.000  9.4201e-02
7.250  17.000  2.7043e-02
7.250  17.250  4.0728e-02
7.250  17.500  5.8087e-02
7.250  17.750  7.4314e-02
7.250  18.000  9.0306e-02
7.250  18.250  9.3073e-02
7.250  18.500  9.4231e-02
7.250  18.750  9.4284e-02
7.250  19.000  9.4175e-02
7.250  19.250  9.4184e-02
7.250  19.500  9.4194e-02
7.250  19.750  9.4196e-02
7.250  20.000  9.4198e-02
7.250  20.250  9.4199e-02
7.250  20.500  9.4199e-02
7.250  20.750  9.4199e-02
7.250  21.000  9.4199e-02
7.250  21.250  9.4199e-02
7.250  21.500  9.4199e-02
7.250  21.750  9.4200e-02
7.250  22.000  9.4199e-02
7.250  22.250  9.4199e-02
7.250  22.500  9.4199e-02
7.250  22.750  9.4200e-02
7.250  23.000  9.4200e-02
7.250  23.250  9.4200e-02
7.250  23.500  9.4200e-02
7.250  23.750  9.4200e-02
7.250  24.000  9.4200e-02
7.500  17.000  1.8207e-02
7.500  17.250  2.7769e-02
7.500  17.500  4.2008e-02
7.500  17.750  6.0206e-02
7.500  18.000  7.5483e-02
7.500  18.250  9.0318e-02
7.500  18.500  9.3096e-02
7.500  18.750  9.4231e-02
7.500  19.000  9.4285e-02
7.500  19.250  9.4174e-02
7.500  19.500  9.4184e-02
7.500  19.750  9.4194e-02
7.500  20.000  9.4197e-02
7.500  20.250  9.4198e-02
7.500  20.500  9.4199e-02
7.500  20.750  9.4199e-02
7.500  21.000  9.4199e-02
7.500  21.250  9.4199e-02
7.500  21.500  9.4199e-02
7.500  21.750  9.4199e-02
7.500  22.000  9.4199e-02
7.500  22.250  9.4200e-02
7.500  22.500  9.4199e-02
7.500  22.750  9.4199e-02
7.500  23.000  9.4199e-02
7.500  23.250  9.4200e-02
7.500  23.500  9.4200e-02
7.500  23.750  9.4200e-02
7.500  24.000  9.4200e-02
7.750  17.000  1.2410e-02
7.750  17.250  1.8787e-02
7.750  17.500  2.8916e-02
7.750  17.750  4.4033e-02
7.750  18.000  6.2797e-02
7.750  18.250  7.6838e-02
7.750  18.500  9.0324e-02
7.750  18.750  9.3119e-02
7.750  19.000  9.4232e-02
7.750  19.250  9.4287e-02
7.750  19.500  9.4176e-02
7.750  19.750  9.4184e-02
7.750  20.000  9.4193e-02
7.750  20.250  9.4197e-02
7.750  20.500  9.4198e-02
7.750  20.750  9.4198e-02
7.750  21.000  9.4199e-02
7.750  21.250  9.4199e-02
7.750  21.500  9.4199e-02
7.750  21.750  9.4202e-02
7.750  22.000  9.4199e-02
7.750  22.250  9.4199e-02
7.750  22.500  9.4199e-02
7.750  22.750  9.4199e-02
7.750  23.000  9.4200e-02
7.750  23.250  9.4199e-02
7.750  23.500  9.4199e-02
7.750  23.750  9.4199e-02
7.750  24.000  9.4199e-02
8.000  17.000  8.6268e-03
8.000  17.250  1.2797e-02
8.000  17.500  1.9646e-02
8.000  17.750  3.0704e-02
8.000  18.000  4.7042e-02
8.000  18.250  6.5932e-02
8.000  18.500  7.8322e-02
8.000  18.750  9.0320e-02
8.000  19.000  9.3130e-02
8.000  19.250  9.4231e-02
8.000  19.500  9.4283e-02
8.000  19.750  9.4175e-02
8.000  20.000  9.4184e-02
8.000  20.250  9.4194e-02
8.000  20.500  9.4197e-02
8.000  20.750  9.4198e-02
8.000  21.000  9.4198e-02
8.000  21.250  9.4199e-02
8.000  21.500  9.4199e-02
8.000  21.750  9.4199e-02
8.000  22.000  9.4199e-02
8.000  22.250  9.4199e-02
8.000  22.500  9.4199e-02
8.000  22.750  9.4199e-02
8.000  23.000  9.4199e-02
8.000  23.250  9.4200e-02
8.000  23.500  9.4199e-02
8.000  23.750  9.4199e-02
8.000  24.000  9.4200e-02
8.250  17.000  6.1437e-03
8.250  17.250  8.9427e-03
8.250  17.500  1.3507e-02
8.250  17.750  2.1234e-02
8.250  18.000  3.3840e-02
8.250  18.250  5.1966e-02
8.250  18.500  6.9257e-02
8.250  18.750  8.0484e-02
8.250  19.000  9.0308e-02
8.250  19.250  9.3159e-02
8.250  19.500  9.4231e-02
8.250  19.750  9.4283e-02
8.250  20.000  9.4174e-02
8.250  20.250  9.4184e-02
8.250  20.500  9.4194e-02
8.250  20.750  9.4196e-02
8.250  21.000  9.4198e-02
8.250  21.250  9.4199e-02
8.250  21.500  9.4199e-02
8.250  21.750  9.4199e-02
8.250  22.000  9.4199e-02
8.250  22.250  9.4199e-02
8.250  22.500  9.4199e-02
8.250  22.750  9.4199e-02
8.250  23.000  9.4199e-02
8.250  23.250  9.4199e-02
8.250  23.500  9.4199e-02
8.250  23.750  9.4199e-02
8.250  24.000  9.4199e-02
8.500  17.000  4.4319e-03
8.500  17.250  6.3774e-03
8.500  17.500  9.4652e-03
8.500  17.750  1.4766e-02
8.500  18.000  2.3982e-02
8.500  18.250  3.8802e-02
8.500  18.500  5.7727e-02
8.500  18.750  7.2884e-02
8.500  19.000  8.2035e-02
8.500  19.250  9.0267e-02
8.500  19.500  9.3191e-02
8.500  19.750  9.4232e-02
8.500  20.000  9.4283e-02
8.500  20.250  9.4173e-02
8.500  20.500  9.4184e-02
8.500  20.750  9.4194e-02
8.500  21.000  9.4197e-02
8.500  21.250  9.4198e-02
8.500  21.500  9.4199e-02
8.500  21.750  9.4199e-02
8.500  22.000  9.4199e-02
8.500  22.250  9.4199e-02
8.500  22.500  9.4199e-02
8.500  22.750  9.4199e-02
8.500  23.000  9.4199e-02
8.500  23.250  9.4199e-02
8.500  23.500  9.4199e-02
8.500  23.750  9.4199e-02
8.500  24.000  9.4199e-02
8.750  17.000  3.2133e-03
8.750  17.250  4.6032e-03
8.750  17.500  6.7595e-03
8.750  17.750  1.0388e-02
8.750  18.000  1.6954e-02
8.750  18.250  2.8276e-02
8.750  18.500  4.4244e-02
8.750  18.750  6.2854e-02
8.750  19.000  7.4683e-02
8.750  19.250  8.3753e-02
8.750  19.500  9.0168e-02
8.750  19.750  9.3225e-02
8.750  20.000  9.4232e-02
8.750  20.250  9.4284e-02
8.750  20.500  9.4174e-02
8.750  20.750  9.4184e-02
8.750  21.000  9.4194e-02
8.750  21.250  9.4197e-02
8.750  21.500  9.4198e-02
8.750  21.750  9.4199e-02
8.750  22.000  9.4199e-02
8.750  22.250  9.4199e-02
8.750  22.500  9.4199e-02
8.750  22.750  9.4199e-02
8.750  23.000  9.4199e-02
8.750  23.250  9.4199e-02
8.750  23.500  9.4199e-02
8.750  23.750  9.4199e-02
8.750  24.000  9.4199e-02
9.000  17.000  2.3334e-03
9.000  17.250  3.3379e-03
9.000  17.500  4.8839e-03
9.000  17.750  7.4500e-03
9.000  18.000  1.2083e-02
9.000  18.250  2.0430e-02
9.000  18.500  3.3221e-02
9.000  18.750  4.9651e-02
9.000  19.000  6.6776e-02
9.000  19.250  7.7009e-02
9.000  19.500  8.5036e-02
9.000  19.750  9.0042e-02
9.000  20.000  9.3253e-02
9.000  20.250  9.4231e-02
9.000  20.500  9.4281e-02
9.000  20.750  9.4173e-02
9.000  21.000  9.4183e-02
9.000  21.250  9.4194e-02
9.000  21.500  9.4197e-02
9.000  21.750  9.4198e-02
9.000  22.000  9.4198e-02
9.000  22.250  9.4199e-02
9.000  22.500  9.4199e-02
9.000  22.750  9.4199e-02
9.000  23.000  9.4199e-02
9.000  23.250  9.4199e-02
9.000  23.500  9.4200e-02
9.000  23.750  9.4199e-02
9.000  24.000  9.4199e-02
9.250  17.000  1.6933e-03
9.250  17.250  2.4242e-03
9.250  17.500  3.5481e-03
9.250  17.750  5.4012e-03
9.250  18.000  8.7697e-03
9.250  18.250  1.4893e-02
9.250  18.500  2.4405e-02
9.250  18.750  3.7813e-02
9.250  19.000  5.3320e-02
9.250  19.250  7.0085e-02
9.250  19.500  7.8504e-02
9.250  19.750  8.6528e-02
9.250  20.000  8.9850e-02
9.250  20.250  9.3268e-02
9.250  20.500  9.4229e-02
9.250  20.750  9.4284e-02
9.250  21.000  9.4173e-02
9.250  21.250  9.4183e-02
9.250  21.500  9.4191e-02
9.250  21.750  9.4166e-02
9.250  22.000  9.4080e-02
9.250  22.250  9.4167e-02
9.250  22.500  9.4198e-02
9.250  22.750  9.4199e-02
9.250  23.000  9.4199e-02
9.250  23.250  9.4199e-02
9.250  23.500  9.4199e-02
9.250  23.750  9.4199e-02
9.250  24.000  9.4199e-02
9.500  17.000  1.2286e-03
9.500  17.250  1.7594e-03
9.500  17.500  2.5812e-03
9.500  17.750  3.9483e-03
9.500  18.000  6.4556e-03
9.500  18.250  1.1045e-02
9.500  18.500  1.8174e-02
9.500  18.750  2.8018e-02
9.500  19.000  4.1008e-02
9.500  19.250  5.6438e-02
9.500  19.500  7.0948e-02
9.500  19.750  7.9633e-02
9.500  20.000  8.6666e-02
9.500  20.250  8.9621e-02
9.500  20.500  9.3261e-02
9.500  20.750  9.4223e-02
9.500  21.000  9.4276e-02
9.500  21.250  9.4158e-02
9.500  21.500  9.4106e-02
9.500  21.750  9.4052e-02
9.500  22.000  9.4035e-02
9.500  22.250  9.4001e-02
9.500  22.500  9.3969e-02
9.500  22.750  9.3951e-02
9.500  23.000  9.3941e-02
9.500  23.250  9.3942e-02
9.500  23.500  9.4057e-02
9.500  23.750  9.4056e-02
9.500  24.000  9.4055e-02
9.750  17.000  8.9399e-04
9.750  17.250  1.2788e-03
9.750  17.500  1.8784e-03
9.750  17.750  2.8944e-03
9.750  18.000  4.7826e-03
9.750  18.250  8.2738e-03
9.750  18.500  1.3649e-02
9.750  18.750  2.0929e-02
9.750  19.000  3.0499e-02
9.750  19.250  4.3125e-02
9.750  19.500  5.9361e-02
9.750  19.750  7.1343e-02
9.750  20.000  8.0770e-02
9.750  20.250  8.6099e-02
9.750  20.500  8.9325e-02
9.750  20.750  9.3215e-02
9.750  21.000  9.4206e-02
9.750  21.250  9.4279e-02
9.750  21.500  9.4167e-02
9.750  21.750  9.4158e-02
9.750  22.000  9.4055e-02
9.750  22.250  9.4048e-02
9.750  22.500  9.4027e-02
9.750  22.750  9.4004e-02
9.750  23.000  9.3986e-02
9.750  23.250  9.3973e-02
9.750  23.500  9.3968e-02
9.750  23.750  9.3965e-02
9.750  24.000  9.3962e-02
10.000  17.000  6.5449e-04
10.000  17.250  9.3193e-04
10.000  17.500  1.3694e-03
10.000  17.750  2.1256e-03
10.000  18.000  3.5574e-03
10.000  18.250  6.1570e-03
10.000  18.500  1.0185e-02
10.000  18.750  1.5560e-02
10.000  19.000  2.2638e-02
10.000  19.250  3.1855e-02
10.000  19.500  4.4442e-02
10.000  19.750  5.9047e-02
10.000  20.000  7.1607e-02
10.000  20.250  8.1730e-02
10.000  20.500  8.5581e-02
10.000  20.750  8.9030e-02
10.000  21.000  9.3184e-02
10.000  21.250  9.4177e-02
10.000  21.500  9.4276e-02
10.000  21.750  9.4170e-02
10.000  22.000  9.4174e-02
10.000  22.250  9.4080e-02
10.000  22.500  9.4055e-02
10.000  22.750  9.4044e-02
10.000  23.000  9.4029e-02
10.000  23.250  9.4017e-02
10.000  23.500  9.4007e-02
10.000  23.750  9.4003e-02
10.000  24.000  9.3999e-02
10.250  17.000  4.8296e-04
10.250  17.250  6.8230e-04
10.250  17.500  9.9984e-04
10.250  17.750  1.5624e-03
10.250  18.000  2.6416e-03
10.250  18.250  4.5850e-03
10.250  18.500  7.5714e-03
10.250  18.750  1.1483e-02
10.250  19.000  1.6649e-02
10.250  19.250  2.3605e-02
10.250  19.500  3.3049e-02
10.250  19.750  4.6118e-02
10.250  20.000  5.9385e-02
10.250  20.250  7.2627e-02
10.250  20.500  8.1477e-02
10.250  20.750  8.5044e-02
10.250  21.000  8.8863e-02
10.250  21.250  9.3188e-02
10.250  21.500  9.4132e-02
10.250  21.750  9.4270e-02
10.250  22.000  9.4169e-02
10.250  22.250  9.4179e-02
10.250  22.500  9.4147e-02
10.250  22.750  9.4059e-02
10.250  23.000  9.4054e-02
10.250  23.250  9.4045e-02
10.250  23.500  9.4038e-02
10.250  23.750  9.4031e-02
10.250  24.000  9.4029e-02
10.500  17.000  3.5934e-04
10.500  17.250  5.0263e-04
10.500  17.500  7.3424e-04
10.500  17.750  1.1500e-03
10.500  18.000  1.9561e-03
10.500  18.250  3.3833e-03
10.500  18.500  5.5419e-03
10.500  18.750  8.3682e-03
10.500  19.000  1.2203e-02
10.500  19.250  1.7343e-02
10.500  19.500  2.4334e-02
10.500  19.750  3.4026e-02
10.500  20.000  4.6846e-02
10.500  20.250  6.0279e-02
10.500  20.500  7.3998e-02
10.500  20.750  8.1129e-02
10.500  21.000  8.4639e-02
10.500  21.250  8.8767e-02
10.500  21.500  9.3118e-02
10.500  21.750  9.4064e-02
10.500  22.000  9.4261e-02
10.500  22.250  9.4166e-02
10.500  22.500  9.4179e-02
10.500  22.750  9.4178e-02
10.500  23.000  9.4080e-02
10.500  23.250  9.4059e-02
10.500  23.500  9.4054e-02
10.500  23.750  9.4050e-02
10.500  24.000  9.4045e-02
10.750  17.000  2.7078e-04
10.750  17.250  3.7292e-04
10.750  17.500  5.4049e-04
10.750  17.750  8.4650e-04
10.750  18.000  1.4337e-03
10.750  18.250  2.4814e-03
10.750  18.500  4.0124e-03
10.750  18.750  6.0858e-03
10.750  19.000  8.8584e-03
10.750  19.250  1.2742e-02
10.750  19.500  1.7894e-02
10.750  19.750  2.4947e-02
10.750  20.000  3.4713e-02
10.750  20.250  4.7557e-02
10.750  20.500  6.1331e-02
10.750  20.750  7.5016e-02
10.750  21.000  8.0762e-02
10.750  21.250  8.4467e-02
10.750  21.500  8.8932e-02
10.750  21.750  9.3069e-02
10.750  22.000  9.3970e-02
10.750  22.250  9.4245e-02
10.750  22.500  9.4161e-02
10.750  22.750  9.4176e-02
10.750  23.000  9.4187e-02
10.750  23.250  9.4147e-02
10.750  23.500  9.4066e-02
10.750  23.750  9.4059e-02
10.750  24.000  9.4057e-02
11.000  17.000  2.0642e-04
11.000  17.250  2.7975e-04
11.000  17.500  4.0016e-04
11.000  17.750  6.2016e-04
11.000  18.000  1.0415e-03
11.000  18.250  1.7828e-03
11.000  18.500  2.8458e-03
11.000  18.750  4.3379e-03
11.000  19.000  6.3784e-03
11.000  19.250  9.2179e-03
11.000  19.500  1.3060e-02
11.000  19.750  1.8258e-02
11.000  20.000  2.5376e-02
11.000  20.250  3.5266e-02
11.000  20.500  4.8267e-02
11.000  20.750  6.2427e-02
11.000  21.000  7.5538e-02
11.000  21.250  8.0504e-02
11.000  21.500  8.4546e-02
11.000  21.750  8.9426e-02
11.000  22.000  9.2981e-02
11.000  22.250  9.3851e-02
11.000  22.500  9.4219e-02
11.000  22.750  9.4153e-02
11.000  23.000  9.4171e-02
11.000  23.250  9.4189e-02
11.000  23.500  9.4180e-02
11.000  23.750  9.4113e-02
11.000  24.000  9.4070e-02
11.250  17.000  1.6107e-04
11.250  17.250  2.1177e-04
11.250  17.500  2.9811e-04
11.250  17.750  4.5473e-04
11.250  18.000  7.5128e-04
11.250  18.250  1.2637e-03
11.250  18.500  1.9992e-03
11.250  18.750  3.0737e-03
11.250  19.000  4.5695e-03
11.250  19.250  6.6179e-03
11.250  19.500  9.4299e-03
11.250  19.750  1.3282e-02
11.250  20.000  1.8545e-02
11.250  20.250  2.5737e-02
11.250  20.500  3.5736e-02
11.250  20.750  4.8906e-02
11.250  21.000  6.3376e-02
11.250  21.250  7.5240e-02
11.250  21.500  8.0533e-02
11.250  21.750  8.4869e-02
11.250  22.000  9.0043e-02
11.250  22.250  9.2788e-02
11.250  22.500  9.3707e-02
11.250  22.750  9.4175e-02
11.250  23.000  9.4138e-02
11.250  23.250  9.4163e-02
11.250  23.500  9.4188e-02
11.250  23.750  9.4190e-02
11.250  24.000  9.4171e-02
11.500  17.000  1.3029e-04
11.500  17.250  1.6420e-04
11.500  17.500  2.2354e-04
11.500  17.750  3.3350e-04
11.500  18.000  5.3893e-04
11.500  18.250  8.8749e-04
11.500  18.500  1.3960e-03
11.500  18.750  2.1449e-03
11.500  19.000  3.2061e-03
11.500  19.250  4.6853e-03
11.500  19.500  6.7412e-03
11.500  19.750  9.5760e-03
11.500  20.000  1.3462e-02
11.500  20.250  1.8775e-02
11.500  20.500  2.6032e-02
11.500  20.750  3.6037e-02
11.500  21.000  4.9342e-02
11.500  21.250  6.4059e-02
11.500  21.500  7.4892e-02
11.500  21.750  8.0534e-02
11.500  22.000  8.5305e-02
11.500  22.250  9.0473e-02
11.500  22.500  9.2562e-02
11.500  22.750  9.3566e-02
11.500  23.000  9.4121e-02
11.500  23.250  9.4116e-02
11.500  23.500  9.4152e-02
11.500  23.750  9.4186e-02
11.500  24.000  9.4192e-02
11.750  17.000  1.0938e-04
11.750  17.250  1.3210e-04
11.750  17.500  1.7144e-04
11.750  17.750  2.4568e-04
11.750  18.000  3.8494e-04
11.750  18.250  6.1860e-04
11.750  18.500  9.6716e-04
11.750  18.750  1.4914e-03
11.750  19.000  2.2410e-03
11.750  19.250  3.3011e-03
11.750  19.500  4.7790e-03
11.750  19.750  6.8551e-03
11.750  20.000  9.7191e-03
11.750  20.250  1.3619e-02
11.750  20.500  1.8935e-02
11.750  20.750  2.6195e-02
11.750  21.000  3.6008e-02
11.750  21.250  4.9347e-02
11.750  21.500  6.3816e-02
11.750  21.750  7.4382e-02
11.750  22.000  8.0633e-02
11.750  22.250  8.5808e-02
11.750  22.500  9.0464e-02
11.750  22.750  9.2314e-02
11.750  23.000  9.3376e-02
11.750  23.250  9.4047e-02
11.750  23.500  9.4085e-02
11.750  23.750  9.4135e-02
11.750  24.000  9.4182e-02
12.000  17.000  7.2922e-05
12.000  17.250  1.1062e-04
12.000  17.500  1.3646e-04
12.000  17.750  1.8461e-04
12.000  18.000  2.7564e-04
12.000  18.250  4.3045e-04
12.000  18.500  6.7136e-04
12.000  18.750  1.0303e-03
12.000  19.000  1.5537e-03
12.000  19.250  2.3035e-03
12.000  19.500  3.3613e-03
12.000  19.750  4.8677e-03
12.000  20.000  6.9626e-03
12.000  20.250  9.8334e-03
12.000  20.500  1.3725e-02
12.000  20.750  1.9019e-02
12.000  21.000  2.6084e-02
12.000  21.250  3.5556e-02
12.000  21.500  4.8248e-02
12.000  21.750  6.3224e-02
12.000  22.000  7.3572e-02
12.000  22.250  8.0584e-02
12.000  22.500  8.6078e-02
12.000  22.750  9.0201e-02
12.000  23.000  9.1986e-02
12.000  23.250  9.3136e-02
12.000  23.500  9.3955e-02
12.000  23.750  9.4043e-02
12.000  24.000  9.4113e-02
12.250  17.000  3.4156e-05
12.250  17.250  8.0000e-05
12.250  17.500  1.1383e-04
12.250  17.750  1.4461e-04
12.250  18.000  2.0247e-04
12.250  18.250  3.0584e-04
12.250  18.500  4.6675e-04
12.250  18.750  7.0840e-04
12.250  19.000  1.0696e-03
12.250  19.250  1.5950e-03
12.250  19.500  2.3488e-03
12.250  19.750  3.4269e-03
12.250  20.000  4.9386e-03
12.250  20.250  7.0352e-03
12.250  20.500  9.8998e-03
12.250  20.750  1.3776e-02
12.250  21.000  1.8908e-02
12.250  21.250  2.5615e-02
12.250  21.500  3.4234e-02
12.250  21.750  4.6963e-02
12.250  22.000  6.1650e-02
12.250  22.250  7.2589e-02
12.250  22.500  8.0343e-02
12.250  22.750  8.5978e-02
12.250  23.000  8.9663e-02
12.250  23.250  9.1531e-02
12.250  23.500  9.2807e-02
12.250  23.750  9.3831e-02
12.250  24.000  9.3989e-02
12.500  17.000  1.6626e-05
12.500  17.250  3.7942e-05
12.500  17.500  8.4198e-05
12.500  17.750  1.2008e-04
12.500  18.000  1.5770e-04
12.500  18.250  2.2280e-04
12.500  18.500  3.2708e-04
12.500  18.750  4.9078e-04
12.500  19.000  7.3835e-04
12.500  19.250  1.1000e-03
12.500  19.500  1.6274e-03
12.500  19.750  2.3881e-03
12.500  20.000  3.4702e-03
12.500  20.250  4.9827e-03
12.500  20.500  7.0722e-03
12.500  20.750  9.9203e-03
12.500  21.000  1.3689e-02
12.500  21.250  1.8532e-02
12.500  21.500  2.4474e-02
12.500  21.750  3.2606e-02
12.500  22.000  4.4859e-02
12.500  22.250  5.9495e-02
12.500  22.500  7.1661e-02
12.500  22.750  7.9289e-02
12.500  23.000  8.5040e-02
12.500  23.250  8.8774e-02
12.500  23.500  9.0851e-02
12.500  23.750  9.2324e-02
12.500  24.000  9.3654e-02
12.750  17.000  8.6420e-06
12.750  17.250  1.8848e-05
12.750  17.500  4.0576e-05
12.750  17.750  8.6420e-05
12.750  18.000  1.2700e-04
12.750  18.250  1.6765e-04
12.750  18.500  2.3449e-04
12.750  18.750  3.4123e-04
12.750  19.000  5.0691e-04
12.750  19.250  7.5539e-04
12.750  19.500  1.1216e-03
12.750  19.750  1.6518e-03
12.750  20.000  2.4137e-03
12.750  20.250  3.4986e-03
12.750  20.500  5.0079e-03
12.750  20.750  7.0807e-03
12.750  21.000  9.8602e-03
12.750  21.250  1.3427e-02
12.750  21.500  1.7677e-02
12.750  21.750  2.2940e-02
12.750  22.000  3.0210e-02
12.750  22.250  4.2151e-02
12.750  22.500  5.7069e-02
12.750  22.750  6.8794e-02
12.750  23.000  7.6954e-02
12.750  23.250  8.3296e-02
12.750  23.500  8.7391e-02
12.750  23.750  8.9826e-02
12.750  24.000  9.1591e-02
13.000  17.000  1.9753e-06
13.000  17.250  4.6914e-06
13.000  17.500  1.3827e-05
13.000  17.750  3.5391e-05
13.000  18.000  7.0947e-05
13.000  18.250  1.0922e-04
13.000  18.500  1.6288e-04
13.000  18.750  2.4156e-04
13.000  19.000  3.4963e-04
13.000  19.250  5.1860e-04
13.000  19.500  7.7037e-04
13.000  19.750  1.1376e-03
13.000  20.000  1.6681e-03
13.000  20.250  2.4333e-03
13.000  20.500  3.5147e-03
13.000  20.750  5.0150e-03
13.000  21.000  7.0454e-03
13.000  21.250  9.6758e-03
13.000  21.500  1.2818e-02
13.000  21.750  1.6372e-02
13.000  22.000  2.0549e-02
13.000  22.250  2.7081e-02
13.000  22.500  3.8700e-02
13.000  22.750  5.2910e-02
13.000  23.000  6.4126e-02
13.000  23.250  7.3343e-02
13.000  23.500  8.0662e-02
13.000  23.750  8.5340e-02
13.000  24.000  8.8273e-02
13.250  17.000  1.1523e-06
13.250  17.250  2.3045e-06
13.250  17.500  5.2675e-06
13.250  17.750  1.2840e-05
13.250  18.000  3.1852e-05
13.250  18.250  6.7654e-05
13.250  18.500  1.1202e-04
13.250  18.750  1.6420e-04
13.250  19.000  2.4749e-04
13.250  19.250  3.5407e-04
13.250  19.500  5.2724e-04
13.250  19.750  7.7852e-04
13.250  20.000  1.1455e-03
13.250  20.250  1.6793e-03
13.250  20.500  2.4423e-03
13.250  20.750  3.5187e-03
13.250  21.000  4.9893e-03
13.250  21.250  6.9193e-03
13.250  21.500  9.2283e-03
13.250  21.750  1.1740e-02
13.250  22.000  1.4127e-02
13.250  22.250  1.7384e-02
13.250  22.500  2.3511e-02
13.250  22.750  3.4482e-02
13.250  23.000  4.6962e-02
13.250  23.250  5.8314e-02
13.250  23.500  6.8607e-02
13.250  23.750  7.6924e-02
13.250  24.000  8.2380e-02
13.500  17.000  1.0000e-07
13.500  17.250  1.3992e-06
13.500  17.500  2.9630e-06
13.500  17.750  6.4198e-06
13.500  18.000  1.5638e-05
13.500  18.250  3.4979e-05
13.500  18.500  7.0535e-05
13.500  18.750  1.1786e-04
13.500  19.000  1.7309e-04
13.500  19.250  2.5119e-04
13.500  19.500  3.6214e-04
13.500  19.750  5.3111e-04
13.500  20.000  7.8123e-04
13.500  20.250  1.1514e-03
13.500  20.500  1.6831e-03
13.500  20.750  2.4427e-03
13.500  21.000  3.4922e-03
13.500  21.250  4.9007e-03
13.500  21.500  6.5949e-03
13.500  21.750  8.3877e-03
13.500  22.000  9.7815e-03
13.500  22.250  1.1164e-02
13.500  22.500  1.4219e-02
13.500  22.750  2.0214e-02
13.500  23.000  2.9546e-02
13.500  23.250  4.0960e-02
13.500  23.500  5.2037e-02
13.500  23.750  6.2676e-02
13.500  24.000  7.1952e-02
13.750  17.000  1.0000e-07
13.750  17.250  1.0000e-07
13.750  17.500  1.7284e-06
13.750  17.750  3.4568e-06
13.750  18.000  8.1481e-06
13.750  18.250  1.8354e-05
13.750  18.500  3.7366e-05
13.750  18.750  7.1687e-05
13.750  19.000  1.2716e-04
13.750  19.250  1.8198e-04
13.750  19.500  2.4749e-04
13.750  19.750  3.6362e-04
13.750  20.000  5.3342e-04
13.750  20.250  7.8494e-04
13.750  20.500  1.1527e-03
13.750  20.750  1.6830e-03
13.750  21.000  2.4298e-03
13.750  21.250  3.4350e-03
13.750  21.500  4.6749e-03
13.750  21.750  5.9718e-03
13.750  22.000  6.8167e-03
13.750  22.250  7.2951e-03
13.750  22.500  8.5942e-03
13.750  22.750  1.1851e-02
13.750  23.000  1.7296e-02
13.750  23.250  2.5213e-02
13.750  23.500  3.5025e-02
13.750  23.750  4.4837e-02
13.750  24.000  5.5449e-02
14.000  17.000  1.0000e-07
14.000  17.250  1.0000e-07
14.000  17.500  9.8765e-07
14.000  17.750  2.0576e-06
14.000  18.000  4.2798e-06
14.000  18.250  9.7119e-06
14.000  18.500  2.0329e-05
14.000  18.750  3.9506e-05
14.000  19.000  7.4239e-05
14.000  19.250  1.3309e-04
14.000  19.500  1.8444e-04
14.000  19.750  2.5473e-04
14.000  20.000  3.6576e-04
14.000  20.250  5.3457e-04
14.000  20.500  7.8601e-04
14.000  20.750  1.1526e-03
14.000  21.000  1.6764e-03
14.000  21.250  2.3931e-03
14.000  21.500  3.2892e-03
14.000  21.750  4.2237e-03
14.000  22.000  4.7695e-03
14.000  22.250  4.8514e-03
14.000  22.500  5.2686e-03
14.000  22.750  6.9514e-03
14.000  23.000  1.0144e-02
14.000  23.250  1.4714e-02
14.000  23.500  2.1081e-02
14.000  23.750  2.8779e-02
14.000  24.000  3.6727e-02
