InwC 8500.00A  relative to Inci 1215.00A scaled to 1215A.
Hden   Phi(H)  Eq_Width (A)
7.000  17.000  2.3453e-02
7.000  17.250  3.3275e-02
7.000  17.500  4.3132e-02
7.000  17.750  5.3217e-02
7.000  18.000  5.4842e-02
7.000  18.250  5.5537e-02
7.000  18.500  5.5568e-02
7.000  18.750  5.5502e-02
7.000  19.000  5.5508e-02
7.000  19.250  5.5514e-02
7.000  19.500  5.5516e-02
7.000  19.750  5.5517e-02
7.000  20.000  5.5517e-02
7.000  20.250  5.5518e-02
7.000  20.500  5.5518e-02
7.000  20.750  5.5518e-02
7.000  21.000  5.5518e-02
7.000  21.250  5.5518e-02
7.000  21.500  5.5518e-02
7.000  21.750  5.5518e-02
7.000  22.000  5.5518e-02
7.000  22.250  5.5518e-02
7.000  22.500  5.5518e-02
7.000  22.750  5.5519e-02
7.000  23.000  5.5519e-02
7.000  23.250  5.5519e-02
7.000  23.500  5.5519e-02
7.000  23.750  5.5519e-02
7.000  24.000  5.5519e-02
7.250  17.000  1.5922e-02
7.250  17.250  2.3993e-02
7.250  17.500  3.4230e-02
7.250  17.750  4.3796e-02
7.250  18.000  5.3224e-02
7.250  18.250  5.4854e-02
7.250  18.500  5.5537e-02
7.250  18.750  5.5567e-02
7.250  19.000  5.5503e-02
7.250  19.250  5.5509e-02
7.250  19.500  5.5515e-02
7.250  19.750  5.5516e-02
7.250  20.000  5.5517e-02
7.250  20.250  5.5517e-02
7.250  20.500  5.5518e-02
7.250  20.750  5.5518e-02
7.250  21.000  5.5518e-02
7.250  21.250  5.5518e-02
7.250  21.500  5.5518e-02
7.250  21.750  5.5518e-02
7.250  22.000  5.5518e-02
7.250  22.250  5.5518e-02
7.250  22.500  5.5518e-02
7.250  22.750  5.5518e-02
7.250  23.000  5.5518e-02
7.250  23.250  5.5518e-02
7.250  23.500  5.5518e-02
7.250  23.750  5.5518e-02
7.250  24.000  5.5518e-02
7.500  17.000  1.0712e-02
7.500  17.250  1.6352e-02
7.500  17.500  2.4751e-02
7.500  17.750  3.5484e-02
7.500  18.000  4.4490e-02
7.500  18.250  5.3232e-02
7.500  18.500  5.4867e-02
7.500  18.750  5.5536e-02
7.500  19.000  5.5569e-02
7.500  19.250  5.5503e-02
7.500  19.500  5.5509e-02
7.500  19.750  5.5515e-02
7.500  20.000  5.5516e-02
7.500  20.250  5.5517e-02
7.500  20.500  5.5518e-02
7.500  20.750  5.5518e-02
7.500  21.000  5.5518e-02
7.500  21.250  5.5518e-02
7.500  21.500  5.5518e-02
7.500  21.750  5.5518e-02
7.500  22.000  5.5518e-02
7.500  22.250  5.5518e-02
7.500  22.500  5.5518e-02
7.500  22.750  5.5518e-02
7.500  23.000  5.5518e-02
7.500  23.250  5.5518e-02
7.500  23.500  5.5518e-02
7.500  23.750  5.5518e-02
7.500  24.000  5.5518e-02
7.750  17.000  7.2935e-03
7.750  17.250  1.1055e-02
7.750  17.500  1.7031e-02
7.750  17.750  2.5955e-02
7.750  18.000  3.7031e-02
7.750  18.250  4.5300e-02
7.750  18.500  5.3237e-02
7.750  18.750  5.4881e-02
7.750  19.000  5.5537e-02
7.750  19.250  5.5570e-02
7.750  19.500  5.5504e-02
7.750  19.750  5.5509e-02
7.750  20.000  5.5514e-02
7.750  20.250  5.5516e-02
7.750  20.500  5.5517e-02
7.750  20.750  5.5517e-02
7.750  21.000  5.5518e-02
7.750  21.250  5.5518e-02
7.750  21.500  5.5518e-02
7.750  21.750  5.5520e-02
7.750  22.000  5.5518e-02
7.750  22.250  5.5518e-02
7.750  22.500  5.5518e-02
7.750  22.750  5.5518e-02
7.750  23.000  5.5518e-02
7.750  23.250  5.5518e-02
7.750  23.500  5.5518e-02
7.750  23.750  5.5518e-02
7.750  24.000  5.5518e-02
8.000  17.000  5.0628e-03
8.000  17.250  7.5226e-03
8.000  17.500  1.1564e-02
8.000  17.750  1.8098e-02
8.000  18.000  2.7763e-02
8.000  18.250  3.8930e-02
8.000  18.500  4.6205e-02
8.000  18.750  5.3240e-02
8.000  19.000  5.4888e-02
8.000  19.250  5.5537e-02
8.000  19.500  5.5567e-02
8.000  19.750  5.5503e-02
8.000  20.000  5.5509e-02
8.000  20.250  5.5514e-02
8.000  20.500  5.5516e-02
8.000  20.750  5.5517e-02
8.000  21.000  5.5517e-02
8.000  21.250  5.5518e-02
8.000  21.500  5.5518e-02
8.000  21.750  5.5518e-02
8.000  22.000  5.5518e-02
8.000  22.250  5.5518e-02
8.000  22.500  5.5518e-02
8.000  22.750  5.5518e-02
8.000  23.000  5.5518e-02
8.000  23.250  5.5518e-02
8.000  23.500  5.5518e-02
8.000  23.750  5.5518e-02
8.000  24.000  5.5518e-02
8.250  17.000  3.5986e-03
8.250  17.250  5.2496e-03
8.250  17.500  7.9437e-03
8.250  17.750  1.2513e-02
8.250  18.000  1.9988e-02
8.250  18.250  3.0763e-02
8.250  18.500  4.1003e-02
8.250  18.750  4.7546e-02
8.250  19.000  5.3247e-02
8.250  19.250  5.4905e-02
8.250  19.500  5.5537e-02
8.250  19.750  5.5567e-02
8.250  20.000  5.5503e-02
8.250  20.250  5.5509e-02
8.250  20.500  5.5515e-02
8.250  20.750  5.5516e-02
8.250  21.000  5.5517e-02
8.250  21.250  5.5517e-02
8.250  21.500  5.5518e-02
8.250  21.750  5.5517e-02
8.250  22.000  5.5518e-02
8.250  22.250  5.5518e-02
8.250  22.500  5.5518e-02
8.250  22.750  5.5518e-02
8.250  23.000  5.5518e-02
8.250  23.250  5.5518e-02
8.250  23.500  5.5518e-02
8.250  23.750  5.5518e-02
8.250  24.000  5.5518e-02
8.500  17.000  2.5891e-03
8.500  17.250  3.7369e-03
8.500  17.500  5.5599e-03
8.500  17.750  8.6963e-03
8.500  18.000  1.4172e-02
8.500  18.250  2.3025e-02
8.500  18.500  3.4349e-02
8.500  18.750  4.3325e-02
8.500  19.000  4.8575e-02
8.500  19.250  5.3252e-02
8.500  19.500  5.4926e-02
8.500  19.750  5.5537e-02
8.500  20.000  5.5567e-02
8.500  20.250  5.5503e-02
8.500  20.500  5.5509e-02
8.500  20.750  5.5515e-02
8.500  21.000  5.5516e-02
8.500  21.250  5.5517e-02
8.500  21.500  5.5518e-02
8.500  21.750  5.5518e-02
8.500  22.000  5.5518e-02
8.500  22.250  5.5518e-02
8.500  22.500  5.5518e-02
8.500  22.750  5.5518e-02
8.500  23.000  5.5518e-02
8.500  23.250  5.5518e-02
8.500  23.500  5.5518e-02
8.500  23.750  5.5518e-02
8.500  24.000  5.5518e-02
8.750  17.000  1.8705e-03
8.750  17.250  2.6906e-03
8.750  17.500  3.9641e-03
8.750  17.750  6.1123e-03
8.750  18.000  1.0019e-02
8.750  18.250  1.6804e-02
8.750  18.500  2.6432e-02
8.750  18.750  3.7642e-02
8.750  19.000  4.4593e-02
8.750  19.250  4.9725e-02
8.750  19.500  5.3251e-02
8.750  19.750  5.4949e-02
8.750  20.000  5.5537e-02
8.750  20.250  5.5568e-02
8.750  20.500  5.5503e-02
8.750  20.750  5.5509e-02
8.750  21.000  5.5515e-02
8.750  21.250  5.5516e-02
8.750  21.500  5.5517e-02
8.750  21.750  5.5517e-02
8.750  22.000  5.5518e-02
8.750  22.250  5.5518e-02
8.750  22.500  5.5518e-02
8.750  22.750  5.5518e-02
8.750  23.000  5.5518e-02
8.750  23.250  5.5518e-02
8.750  23.500  5.5518e-02
8.750  23.750  5.5518e-02
8.750  24.000  5.5518e-02
9.000  17.000  1.3517e-03
9.000  17.250  1.9444e-03
9.000  17.500  2.8579e-03
9.000  17.750  4.3783e-03
9.000  18.000  7.1377e-03
9.000  18.250  1.2148e-02
9.000  18.500  1.9900e-02
9.000  18.750  2.9942e-02
9.000  19.000  4.0339e-02
9.000  19.250  4.6265e-02
9.000  19.500  5.0726e-02
9.000  19.750  5.3237e-02
9.000  20.000  5.4974e-02
9.000  20.250  5.5537e-02
9.000  20.500  5.5566e-02
9.000  20.750  5.5502e-02
9.000  21.000  5.5508e-02
9.000  21.250  5.5515e-02
9.000  21.500  5.5516e-02
9.000  21.750  5.5517e-02
9.000  22.000  5.5517e-02
9.000  22.250  5.5518e-02
9.000  22.500  5.5518e-02
9.000  22.750  5.5518e-02
9.000  23.000  5.5518e-02
9.000  23.250  5.5518e-02
9.000  23.500  5.5518e-02
9.000  23.750  5.5518e-02
9.000  24.000  5.5518e-02
9.250  17.000  9.7424e-04
9.250  17.250  1.4055e-03
9.250  17.500  2.0698e-03
9.250  17.750  3.1687e-03
9.250  18.000  5.1761e-03
9.250  18.250  8.8542e-03
9.250  18.500  1.4638e-02
9.250  18.750  2.2918e-02
9.250  19.000  3.2569e-02
9.250  19.250  4.2856e-02
9.250  19.500  4.7558e-02
9.250  19.750  5.1767e-02
9.250  20.000  5.3218e-02
9.250  20.250  5.4999e-02
9.250  20.500  5.5536e-02
9.250  20.750  5.5568e-02
9.250  21.000  5.5503e-02
9.250  21.250  5.5508e-02
9.250  21.500  5.5513e-02
9.250  21.750  5.5498e-02
9.250  22.000  5.5447e-02
9.250  22.250  5.5499e-02
9.250  22.500  5.5517e-02
9.250  22.750  5.5518e-02
9.250  23.000  5.5517e-02
9.250  23.250  5.5517e-02
9.250  23.500  5.5518e-02
9.250  23.750  5.5518e-02
9.250  24.000  5.5518e-02
9.500  17.000  7.0016e-04
9.500  17.250  1.0135e-03
9.500  17.500  1.4993e-03
9.500  17.750  2.3105e-03
9.500  18.000  3.8054e-03
9.500  18.250  6.5626e-03
9.500  18.500  1.0907e-02
9.500  18.750  1.7037e-02
9.500  19.000  2.5293e-02
9.500  19.250  3.5195e-02
9.500  19.500  4.4095e-02
9.500  19.750  4.8615e-02
9.500  20.000  5.2037e-02
9.500  20.250  5.3194e-02
9.500  20.500  5.5026e-02
9.500  20.750  5.5534e-02
9.500  21.000  5.5563e-02
9.500  21.250  5.5493e-02
9.500  21.500  5.5462e-02
9.500  21.750  5.5431e-02
9.500  22.000  5.5421e-02
9.500  22.250  5.5401e-02
9.500  22.500  5.5382e-02
9.500  22.750  5.5372e-02
9.500  23.000  5.5366e-02
9.500  23.250  5.5366e-02
9.500  23.500  5.5434e-02
9.500  23.750  5.5433e-02
9.500  24.000  5.5433e-02
9.750  17.000  5.0288e-04
9.750  17.250  7.3004e-04
9.750  17.500  1.0846e-03
9.750  17.750  1.6875e-03
9.750  18.000  2.8136e-03
9.750  18.250  4.9114e-03
9.750  18.500  8.1906e-03
9.750  18.750  1.2749e-02
9.750  19.000  1.8933e-02
9.750  19.250  2.7310e-02
9.750  19.500  3.8091e-02
9.750  19.750  4.5085e-02
9.750  20.000  4.9705e-02
9.750  20.250  5.1973e-02
9.750  20.500  5.3171e-02
9.750  20.750  5.5056e-02
9.750  21.000  5.5530e-02
9.750  21.250  5.5564e-02
9.750  21.500  5.5499e-02
9.750  21.750  5.5493e-02
9.750  22.000  5.5433e-02
9.750  22.250  5.5429e-02
9.750  22.500  5.5416e-02
9.750  22.750  5.5402e-02
9.750  23.000  5.5392e-02
9.750  23.250  5.5384e-02
9.750  23.500  5.5382e-02
9.750  23.750  5.5380e-02
9.750  24.000  5.5378e-02
10.000  17.000  3.6173e-04
10.000  17.250  5.2543e-04
10.000  17.500  7.8412e-04
10.000  17.750  1.2328e-03
10.000  18.000  2.0863e-03
10.000  18.250  3.6481e-03
10.000  18.500  6.1069e-03
10.000  18.750  9.4816e-03
10.000  19.000  1.4089e-02
10.000  19.250  2.0363e-02
10.000  19.500  2.9387e-02
10.000  19.750  3.9519e-02
10.000  20.000  4.6153e-02
10.000  20.250  5.0585e-02
10.000  20.500  5.1913e-02
10.000  20.750  5.3170e-02
10.000  21.000  5.5094e-02
10.000  21.250  5.5523e-02
10.000  21.500  5.5563e-02
10.000  21.750  5.5500e-02
10.000  22.000  5.5503e-02
10.000  22.250  5.5448e-02
10.000  22.500  5.5433e-02
10.000  22.750  5.5426e-02
10.000  23.000  5.5417e-02
10.000  23.250  5.5410e-02
10.000  23.500  5.5404e-02
10.000  23.750  5.5402e-02
10.000  24.000  5.5400e-02
10.250  17.000  2.6074e-04
10.250  17.250  3.7827e-04
10.250  17.500  5.6601e-04
10.250  17.750  8.9951e-04
10.250  18.000  1.5421e-03
10.250  18.250  2.7080e-03
10.250  18.500  4.5284e-03
10.250  18.750  6.9822e-03
10.250  19.000  1.0347e-02
10.250  19.250  1.5088e-02
10.250  19.500  2.1844e-02
10.250  19.750  3.1447e-02
10.250  20.000  4.0224e-02
10.250  20.250  4.7083e-02
10.250  20.500  5.0850e-02
10.250  20.750  5.1842e-02
10.250  21.000  5.3182e-02
10.250  21.250  5.5143e-02
10.250  21.500  5.5514e-02
10.250  21.750  5.5559e-02
10.250  22.000  5.5500e-02
10.250  22.250  5.5506e-02
10.250  22.500  5.5487e-02
10.250  22.750  5.5435e-02
10.250  23.000  5.5432e-02
10.250  23.250  5.5427e-02
10.250  23.500  5.5423e-02
10.250  23.750  5.5419e-02
10.250  24.000  5.5417e-02
10.500  17.000  1.8807e-04
10.500  17.250  2.7243e-04
10.500  17.500  4.0930e-04
10.500  17.750  6.5539e-04
10.500  18.000  1.1346e-03
10.500  18.250  1.9883e-03
10.500  18.500  3.2983e-03
10.500  18.750  5.0593e-03
10.500  19.000  7.5256e-03
10.500  19.250  1.0958e-02
10.500  19.500  1.5825e-02
10.500  19.750  2.2872e-02
10.500  20.000  3.2357e-02
10.500  20.250  4.1035e-02
10.500  20.500  4.8114e-02
10.500  20.750  5.0909e-02
10.500  21.000  5.1802e-02
10.500  21.250  5.3254e-02
10.500  21.500  5.5209e-02
10.500  21.750  5.5495e-02
10.500  22.000  5.5555e-02
10.500  22.250  5.5498e-02
10.500  22.500  5.5505e-02
10.500  22.750  5.5505e-02
10.500  23.000  5.5448e-02
10.500  23.250  5.5435e-02
10.500  23.500  5.5432e-02
10.500  23.750  5.5430e-02
10.500  24.000  5.5427e-02
10.750  17.000  1.3630e-04
10.750  17.250  1.9621e-04
10.750  17.500  2.9506e-04
10.750  17.750  4.7588e-04
10.750  18.000  8.2387e-04
10.750  18.250  1.4477e-03
10.750  18.500  2.3705e-03
10.750  18.750  3.6470e-03
10.750  19.000  5.4041e-03
10.750  19.250  7.9421e-03
10.750  19.500  1.1439e-02
10.750  19.750  1.6424e-02
10.750  20.000  2.3624e-02
10.750  20.250  3.3152e-02
10.750  20.500  4.1921e-02
10.750  20.750  4.8970e-02
10.750  21.000  5.0785e-02
10.750  21.250  5.1768e-02
10.750  21.500  5.3469e-02
10.750  21.750  5.5239e-02
10.750  22.000  5.5464e-02
10.750  22.250  5.5548e-02
10.750  22.500  5.5495e-02
10.750  22.750  5.5504e-02
10.750  23.000  5.5511e-02
10.750  23.250  5.5487e-02
10.750  23.500  5.5439e-02
10.750  23.750  5.5435e-02
10.750  24.000  5.5434e-02
11.000  17.000  9.8848e-05
11.000  17.250  1.4173e-04
11.000  17.500  2.1251e-04
11.000  17.750  3.4222e-04
11.000  18.000  5.9103e-04
11.000  18.250  1.0300e-03
11.000  18.500  1.6653e-03
11.000  18.750  2.5729e-03
11.000  19.000  3.8445e-03
11.000  19.250  5.6631e-03
11.000  19.500  8.2039e-03
11.000  19.750  1.1772e-02
11.000  20.000  1.6868e-02
11.000  20.250  2.4247e-02
11.000  20.500  3.3898e-02
11.000  20.750  4.2798e-02
11.000  21.000  4.9442e-02
11.000  21.250  5.0615e-02
11.000  21.500  5.1860e-02
11.000  21.750  5.3784e-02
11.000  22.000  5.5222e-02
11.000  22.250  5.5420e-02
11.000  22.500  5.5536e-02
11.000  22.750  5.5490e-02
11.000  23.000  5.5501e-02
11.000  23.250  5.5512e-02
11.000  23.500  5.5506e-02
11.000  23.750  5.5467e-02
11.000  24.000  5.5442e-02
11.250  17.000  7.2593e-05
11.250  17.250  1.0222e-04
11.250  17.500  1.5276e-04
11.250  17.750  2.4486e-04
11.250  18.000  4.1926e-04
11.250  18.250  7.2091e-04
11.250  18.500  1.1570e-03
11.250  18.750  1.8030e-03
11.250  19.000  2.7209e-03
11.250  19.250  4.0079e-03
11.250  19.500  5.8240e-03
11.250  19.750  8.3952e-03
11.250  20.000  1.2045e-02
11.250  20.250  1.7252e-02
11.250  20.500  2.4768e-02
11.250  20.750  3.4533e-02
11.250  21.000  4.3455e-02
11.250  21.250  4.9166e-02
11.250  21.500  5.0575e-02
11.250  21.750  5.1940e-02
11.250  22.000  5.4113e-02
11.250  22.250  5.5122e-02
11.250  22.500  5.5357e-02
11.250  22.750  5.5515e-02
11.250  23.000  5.5481e-02
11.250  23.250  5.5496e-02
11.250  23.500  5.5511e-02
11.250  23.750  5.5512e-02
11.250  24.000  5.5501e-02
11.500  17.000  5.4650e-05
11.500  17.250  7.4733e-05
11.500  17.500  1.0947e-04
11.500  17.750  1.7391e-04
11.500  18.000  2.9432e-04
11.500  18.250  4.9827e-04
11.500  18.500  7.9753e-04
11.500  18.750  1.2434e-03
11.500  19.000  1.8855e-03
11.500  19.250  2.7980e-03
11.500  19.500  4.0969e-03
11.500  19.750  5.9404e-03
11.500  20.000  8.5542e-03
11.500  20.250  1.2272e-02
11.500  20.500  1.7573e-02
11.500  20.750  2.5116e-02
11.500  21.000  3.4888e-02
11.500  21.250  4.3688e-02
11.500  21.500  4.8792e-02
11.500  21.750  5.0329e-02
11.500  22.000  5.2019e-02
11.500  22.250  5.4272e-02
11.500  22.500  5.4965e-02
11.500  22.750  5.5267e-02
11.500  23.000  5.5485e-02
11.500  23.250  5.5468e-02
11.500  23.500  5.5488e-02
11.500  23.750  5.5509e-02
11.500  24.000  5.5513e-02
11.750  17.000  4.2222e-05
11.750  17.250  5.6049e-05
11.750  17.500  7.9424e-05
11.750  17.750  1.2296e-04
11.750  18.000  2.0444e-04
11.750  18.250  3.4049e-04
11.750  18.500  5.4428e-04
11.750  18.750  8.5358e-04
11.750  19.000  1.3013e-03
11.750  19.250  1.9449e-03
11.750  19.500  2.8603e-03
11.750  19.750  4.1784e-03
11.750  20.000  6.0523e-03
11.750  20.250  8.6956e-03
11.750  20.500  1.2446e-02
11.750  20.750  1.7781e-02
11.750  21.000  2.5147e-02
11.750  21.250  3.4730e-02
11.750  21.500  4.3387e-02
11.750  21.750  4.7920e-02
11.750  22.000  4.9956e-02
11.750  22.250  5.2011e-02
11.750  22.500  5.4086e-02
11.750  22.750  5.4738e-02
11.750  23.000  5.5128e-02
11.750  23.250  5.5437e-02
11.750  23.500  5.5447e-02
11.750  23.750  5.5476e-02
11.750  24.000  5.5506e-02
12.000  17.000  2.6914e-05
12.000  17.250  4.3374e-05
12.000  17.500  5.9177e-05
12.000  17.750  8.7901e-05
12.000  18.000  1.4115e-04
12.000  18.250  2.3103e-04
12.000  18.500  3.7111e-04
12.000  18.750  5.8115e-04
12.000  19.000  8.9029e-04
12.000  19.250  1.3388e-03
12.000  19.500  1.9828e-03
12.000  19.750  2.9193e-03
12.000  20.000  4.2565e-03
12.000  20.250  6.1468e-03
12.000  20.500  8.8040e-03
12.000  20.750  1.2567e-02
12.000  21.000  1.7772e-02
12.000  21.250  2.4781e-02
12.000  21.500  3.3874e-02
12.000  21.750  4.2311e-02
12.000  22.000  4.6671e-02
12.000  22.250  4.9331e-02
12.000  22.500  5.1748e-02
12.000  22.750  5.3663e-02
12.000  23.000  5.4397e-02
12.000  23.250  5.4914e-02
12.000  23.500  5.5367e-02
12.000  23.750  5.5415e-02
12.000  24.000  5.5458e-02
12.250  17.000  1.2922e-05
12.250  17.250  2.9547e-05
12.250  17.500  4.5761e-05
12.250  17.750  6.4691e-05
12.250  18.000  9.8930e-05
12.250  18.250  1.5885e-04
12.250  18.500  2.5210e-04
12.250  18.750  3.9251e-04
12.250  19.000  6.0370e-04
12.250  19.250  9.1416e-04
12.250  19.500  1.3661e-03
12.250  19.750  2.0243e-03
12.250  20.000  2.9683e-03
12.250  20.250  4.3142e-03
12.250  20.500  6.2134e-03
12.250  20.750  8.8817e-03
12.250  21.000  1.2558e-02
12.250  21.250  1.7492e-02
12.250  21.500  2.3917e-02
12.250  21.750  3.2443e-02
12.250  22.000  4.0339e-02
12.250  22.250  4.5020e-02
12.250  22.500  4.8375e-02
12.250  22.750  5.1108e-02
12.250  23.000  5.2970e-02
12.250  23.250  5.3894e-02
12.250  23.500  5.4587e-02
12.250  23.750  5.5258e-02
12.250  24.000  5.5368e-02
12.500  17.000  6.3374e-06
12.500  17.250  1.4239e-05
12.500  17.500  3.1687e-05
12.500  17.750  4.9630e-05
12.500  18.000  7.2428e-05
12.500  18.250  1.1070e-04
12.500  18.500  1.7128e-04
12.500  18.750  2.6593e-04
12.500  19.000  4.0955e-04
12.500  19.250  6.2099e-04
12.500  19.500  9.3309e-04
12.500  19.750  1.3902e-03
12.500  20.000  2.0533e-03
12.500  20.250  3.0026e-03
12.500  20.500  4.3527e-03
12.500  20.750  6.2566e-03
12.500  21.000  8.8765e-03
12.500  21.250  1.2373e-02
12.500  21.500  1.6845e-02
12.500  21.750  2.2590e-02
12.500  22.000  3.0183e-02
12.500  22.250  3.7581e-02
12.500  22.500  4.3041e-02
12.500  22.750  4.6727e-02
12.500  23.000  4.9801e-02
12.500  23.250  5.1929e-02
12.500  23.500  5.3142e-02
12.500  23.750  5.4083e-02
12.500  24.000  5.5086e-02
12.750  17.000  3.2922e-06
12.750  17.250  7.0782e-06
12.750  17.500  1.5226e-05
12.750  17.750  3.3086e-05
12.750  18.000  5.3580e-05
12.750  18.250  7.8272e-05
12.750  18.500  1.1778e-04
12.750  18.750  1.7967e-04
12.750  19.000  2.7523e-04
12.750  19.250  4.1918e-04
12.750  19.500  6.3342e-04
12.750  19.750  9.4765e-04
12.750  20.000  1.4069e-03
12.750  20.250  2.0747e-03
12.750  20.500  3.0281e-03
12.750  20.750  4.3789e-03
12.750  21.000  6.2578e-03
12.750  21.250  8.7696e-03
12.750  21.500  1.1950e-02
12.750  21.750  1.5800e-02
12.750  22.000  2.0534e-02
12.750  22.250  2.7192e-02
12.750  22.500  3.4350e-02
12.750  22.750  3.9824e-02
12.750  23.000  4.4108e-02
12.750  23.250  4.7821e-02
12.750  23.500  5.0416e-02
12.750  23.750  5.2032e-02
12.750  24.000  5.3310e-02
13.000  17.000  9.0535e-07
13.000  17.250  2.0576e-06
13.000  17.500  5.5144e-06
13.000  17.750  1.3909e-05
13.000  18.000  2.9053e-05
13.000  18.250  4.8724e-05
13.000  18.500  7.8107e-05
13.000  18.750  1.2222e-04
13.000  19.000  1.8461e-04
13.000  19.250  2.8189e-04
13.000  19.500  4.2774e-04
13.000  19.750  6.4280e-04
13.000  20.000  9.5802e-04
13.000  20.250  1.4211e-03
13.000  20.500  2.0908e-03
13.000  20.750  3.0467e-03
13.000  21.000  4.3862e-03
13.000  21.250  6.1939e-03
13.000  21.500  8.5057e-03
13.000  21.750  1.1170e-02
13.000  22.000  1.4028e-02
13.000  22.250  1.7706e-02
13.000  22.500  2.3546e-02
13.000  22.750  3.0102e-02
13.000  23.000  3.5513e-02
13.000  23.250  4.0597e-02
13.000  23.500  4.5120e-02
13.000  23.750  4.8296e-02
13.000  24.000  5.0411e-02
13.250  17.000  1.0000e-07
13.250  17.250  9.8765e-07
13.250  17.500  2.2222e-06
13.250  17.750  5.4321e-06
13.250  18.000  1.3333e-05
13.250  18.250  2.8889e-05
13.250  18.500  5.0782e-05
13.250  18.750  7.9753e-05
13.250  19.000  1.2584e-04
13.250  19.250  1.8733e-04
13.250  19.500  2.8683e-04
13.250  19.750  4.3251e-04
13.250  20.000  6.4782e-04
13.250  20.250  9.6601e-04
13.250  20.500  1.4305e-03
13.250  20.750  2.1027e-03
13.250  21.000  3.0520e-03
13.250  21.250  4.3495e-03
13.250  21.500  6.0174e-03
13.250  21.750  7.9228e-03
13.250  22.000  9.6674e-03
13.250  22.250  1.1483e-02
13.250  22.500  1.4451e-02
13.250  22.750  1.9551e-02
13.250  23.000  2.5174e-02
13.250  23.250  3.0692e-02
13.250  23.500  3.6393e-02
13.250  23.750  4.1588e-02
13.250  24.000  4.5403e-02
13.500  17.000  1.0000e-07
13.500  17.250  1.0000e-07
13.500  17.500  1.2346e-06
13.500  17.750  2.7160e-06
13.500  18.000  6.5844e-06
13.500  18.250  1.4815e-05
13.500  18.500  3.0535e-05
13.500  18.750  5.3663e-05
13.500  19.000  8.4033e-05
13.500  19.250  1.2815e-04
13.500  19.500  1.9202e-04
13.500  19.750  2.8922e-04
13.500  20.000  4.3440e-04
13.500  20.250  6.5218e-04
13.500  20.500  9.7086e-04
13.500  20.750  1.4370e-03
13.500  21.000  2.1012e-03
13.500  21.250  3.0293e-03
13.500  21.500  4.2314e-03
13.500  21.750  5.5979e-03
13.500  22.000  6.7052e-03
13.500  22.250  7.4756e-03
13.500  22.500  8.8020e-03
13.500  22.750  1.1499e-02
13.500  23.000  1.5646e-02
13.500  23.250  2.0696e-02
13.500  23.500  2.5845e-02
13.500  23.750  3.1522e-02
13.500  24.000  3.7222e-02
13.750  17.000  1.0000e-07
13.750  17.250  1.0000e-07
13.750  17.500  1.0000e-07
13.750  17.750  1.4815e-06
13.750  18.000  3.4568e-06
13.750  18.250  7.7366e-06
13.750  18.500  1.5967e-05
13.750  18.750  3.1358e-05
13.750  19.000  5.7449e-05
13.750  19.250  8.8066e-05
13.750  19.500  1.2708e-04
13.750  19.750  1.9309e-04
13.750  20.000  2.9078e-04
13.750  20.250  4.3720e-04
13.750  20.500  6.5473e-04
13.750  20.750  9.7506e-04
13.750  21.000  1.4393e-03
13.750  21.250  2.0895e-03
13.750  21.500  2.9538e-03
13.750  21.750  3.9395e-03
13.750  22.000  4.6673e-03
13.750  22.250  4.9455e-03
13.750  22.500  5.3775e-03
13.750  22.750  6.7377e-03
13.750  23.000  9.0977e-03
13.750  23.250  1.2358e-02
13.750  23.500  1.6471e-02
13.750  23.750  2.0807e-02
13.750  24.000  2.6189e-02
14.000  17.000  1.0000e-07
14.000  17.250  1.0000e-07
14.000  17.500  1.0000e-07
14.000  17.750  9.0535e-07
14.000  18.000  1.8107e-06
14.000  18.250  4.1152e-06
14.000  18.500  8.5597e-06
14.000  18.750  1.6955e-05
14.000  19.000  3.2510e-05
14.000  19.250  5.9753e-05
14.000  19.500  8.9300e-05
14.000  19.750  1.3053e-04
14.000  20.000  1.9449e-04
14.000  20.250  2.9193e-04
14.000  20.500  4.3901e-04
14.000  20.750  6.5753e-04
14.000  21.000  9.7811e-04
14.000  21.250  1.4337e-03
14.000  21.500  2.0473e-03
14.000  21.750  2.7535e-03
14.000  22.000  3.2532e-03
14.000  22.250  3.3197e-03
14.000  22.500  3.3388e-03
14.000  22.750  3.9539e-03
14.000  23.000  5.2946e-03
14.000  23.250  7.1488e-03
14.000  23.500  9.6166e-03
14.000  23.750  1.2568e-02
14.000  24.000  1.5913e-02
