InwC 8210.00A  relative to Inci 1215.00A scaled to 1215A.
Hden   Phi(H)  Eq_Width (A)
7.000  17.000  2.5120e-02
7.000  17.250  3.5639e-02
7.000  17.500  4.6196e-02
7.000  17.750  5.7000e-02
7.000  18.000  5.8740e-02
7.000  18.250  5.9484e-02
7.000  18.500  5.9517e-02
7.000  18.750  5.9448e-02
7.000  19.000  5.9454e-02
7.000  19.250  5.9460e-02
7.000  19.500  5.9463e-02
7.000  19.750  5.9463e-02
7.000  20.000  5.9464e-02
7.000  20.250  5.9464e-02
7.000  20.500  5.9464e-02
7.000  20.750  5.9464e-02
7.000  21.000  5.9464e-02
7.000  21.250  5.9464e-02
7.000  21.500  5.9464e-02
7.000  21.750  5.9464e-02
7.000  22.000  5.9464e-02
7.000  22.250  5.9465e-02
7.000  22.500  5.9464e-02
7.000  22.750  5.9465e-02
7.000  23.000  5.9465e-02
7.000  23.250  5.9465e-02
7.000  23.500  5.9465e-02
7.000  23.750  5.9465e-02
7.000  24.000  5.9465e-02
7.250  17.000  1.7054e-02
7.250  17.250  2.5696e-02
7.250  17.500  3.6658e-02
7.250  17.750  4.6905e-02
7.250  18.000  5.7006e-02
7.250  18.250  5.8753e-02
7.250  18.500  5.9484e-02
7.250  18.750  5.9517e-02
7.250  19.000  5.9449e-02
7.250  19.250  5.9454e-02
7.250  19.500  5.9461e-02
7.250  19.750  5.9462e-02
7.250  20.000  5.9463e-02
7.250  20.250  5.9464e-02
7.250  20.500  5.9464e-02
7.250  20.750  5.9464e-02
7.250  21.000  5.9464e-02
7.250  21.250  5.9464e-02
7.250  21.500  5.9464e-02
7.250  21.750  5.9464e-02
7.250  22.000  5.9464e-02
7.250  22.250  5.9464e-02
7.250  22.500  5.9464e-02
7.250  22.750  5.9464e-02
7.250  23.000  5.9464e-02
7.250  23.250  5.9464e-02
7.250  23.500  5.9464e-02
7.250  23.750  5.9464e-02
7.250  24.000  5.9465e-02
7.500  17.000  1.1474e-02
7.500  17.250  1.7512e-02
7.500  17.500  2.6501e-02
7.500  17.750  3.7989e-02
7.500  18.000  4.7639e-02
7.500  18.250  5.7013e-02
7.500  18.500  5.8767e-02
7.500  18.750  5.9484e-02
7.500  19.000  5.9518e-02
7.500  19.250  5.9448e-02
7.500  19.500  5.9454e-02
7.500  19.750  5.9461e-02
7.500  20.000  5.9462e-02
7.500  20.250  5.9463e-02
7.500  20.500  5.9464e-02
7.500  20.750  5.9464e-02
7.500  21.000  5.9464e-02
7.500  21.250  5.9464e-02
7.500  21.500  5.9464e-02
7.500  21.750  5.9464e-02
7.500  22.000  5.9464e-02
7.500  22.250  5.9464e-02
7.500  22.500  5.9464e-02
7.500  22.750  5.9464e-02
7.500  23.000  5.9464e-02
7.500  23.250  5.9464e-02
7.500  23.500  5.9464e-02
7.500  23.750  5.9464e-02
7.500  24.000  5.9464e-02
7.750  17.000  7.8125e-03
7.750  17.250  1.1839e-02
7.750  17.500  1.8231e-02
7.750  17.750  2.7766e-02
7.750  18.000  3.9603e-02
7.750  18.250  4.8481e-02
7.750  18.500  5.7014e-02
7.750  18.750  5.8782e-02
7.750  19.000  5.9485e-02
7.750  19.250  5.9520e-02
7.750  19.500  5.9449e-02
7.750  19.750  5.9454e-02
7.750  20.000  5.9460e-02
7.750  20.250  5.9463e-02
7.750  20.500  5.9463e-02
7.750  20.750  5.9463e-02
7.750  21.000  5.9464e-02
7.750  21.250  5.9464e-02
7.750  21.500  5.9464e-02
7.750  21.750  5.9466e-02
7.750  22.000  5.9464e-02
7.750  22.250  5.9464e-02
7.750  22.500  5.9464e-02
7.750  22.750  5.9464e-02
7.750  23.000  5.9464e-02
7.750  23.250  5.9464e-02
7.750  23.500  5.9464e-02
7.750  23.750  5.9464e-02
7.750  24.000  5.9464e-02
8.000  17.000  5.4234e-03
8.000  17.250  8.0560e-03
8.000  17.500  1.2377e-02
8.000  17.750  1.9345e-02
8.000  18.000  2.9624e-02
8.000  18.250  4.1518e-02
8.000  18.500  4.9380e-02
8.000  18.750  5.7004e-02
8.000  19.000  5.8788e-02
8.000  19.250  5.9484e-02
8.000  19.500  5.9517e-02
8.000  19.750  5.9449e-02
8.000  20.000  5.9454e-02
8.000  20.250  5.9461e-02
8.000  20.500  5.9462e-02
8.000  20.750  5.9463e-02
8.000  21.000  5.9463e-02
8.000  21.250  5.9464e-02
8.000  21.500  5.9464e-02
8.000  21.750  5.9464e-02
8.000  22.000  5.9464e-02
8.000  22.250  5.9464e-02
8.000  22.500  5.9464e-02
8.000  22.750  5.9464e-02
8.000  23.000  5.9464e-02
8.000  23.250  5.9464e-02
8.000  23.500  5.9464e-02
8.000  23.750  5.9464e-02
8.000  24.000  5.9464e-02
8.250  17.000  3.8551e-03
8.250  17.250  5.6218e-03
8.250  17.500  8.5001e-03
8.250  17.750  1.3364e-02
8.250  18.000  2.1273e-02
8.250  18.250  3.2614e-02
8.250  18.500  4.3476e-02
8.250  18.750  5.0663e-02
8.250  19.000  5.6980e-02
8.250  19.250  5.8806e-02
8.250  19.500  5.9484e-02
8.250  19.750  5.9517e-02
8.250  20.000  5.9448e-02
8.250  20.250  5.9454e-02
8.250  20.500  5.9461e-02
8.250  20.750  5.9462e-02
8.250  21.000  5.9463e-02
8.250  21.250  5.9464e-02
8.250  21.500  5.9464e-02
8.250  21.750  5.9464e-02
8.250  22.000  5.9464e-02
8.250  22.250  5.9464e-02
8.250  22.500  5.9464e-02
8.250  22.750  5.9464e-02
8.250  23.000  5.9464e-02
8.250  23.250  5.9464e-02
8.250  23.500  5.9464e-02
8.250  23.750  5.9464e-02
8.250  24.000  5.9464e-02
8.500  17.000  2.7740e-03
8.500  17.250  4.0017e-03
8.500  17.500  5.9483e-03
8.500  17.750  9.2819e-03
8.500  18.000  1.5049e-02
8.500  18.250  2.4264e-02
8.500  18.500  3.6004e-02
8.500  18.750  4.5528e-02
8.500  19.000  5.1497e-02
8.500  19.250  5.6917e-02
8.500  19.500  5.8824e-02
8.500  19.750  5.9484e-02
8.500  20.000  5.9516e-02
8.500  20.250  5.9448e-02
8.500  20.500  5.9454e-02
8.500  20.750  5.9461e-02
8.500  21.000  5.9463e-02
8.500  21.250  5.9463e-02
8.500  21.500  5.9464e-02
8.500  21.750  5.9464e-02
8.500  22.000  5.9464e-02
8.500  22.250  5.9464e-02
8.500  22.500  5.9464e-02
8.500  22.750  5.9464e-02
8.500  23.000  5.9464e-02
8.500  23.250  5.9464e-02
8.500  23.500  5.9464e-02
8.500  23.750  5.9464e-02
8.500  24.000  5.9464e-02
8.750  17.000  2.0044e-03
8.750  17.250  2.8812e-03
8.750  17.500  4.2398e-03
8.750  17.750  6.5194e-03
8.750  18.000  1.0621e-02
8.750  18.250  1.7629e-02
8.750  18.500  2.7440e-02
8.750  18.750  3.8880e-02
8.750  19.000  4.6386e-02
8.750  19.250  5.2400e-02
8.750  19.500  5.6783e-02
8.750  19.750  5.8840e-02
8.750  20.000  5.9483e-02
8.750  20.250  5.9517e-02
8.750  20.500  5.9448e-02
8.750  20.750  5.9454e-02
8.750  21.000  5.9461e-02
8.750  21.250  5.9462e-02
8.750  21.500  5.9463e-02
8.750  21.750  5.9464e-02
8.750  22.000  5.9464e-02
8.750  22.250  5.9464e-02
8.750  22.500  5.9464e-02
8.750  22.750  5.9464e-02
8.750  23.000  5.9464e-02
8.750  23.250  5.9464e-02
8.750  23.500  5.9464e-02
8.750  23.750  5.9464e-02
8.750  24.000  5.9464e-02
9.000  17.000  1.4487e-03
9.000  17.250  2.0822e-03
9.000  17.500  3.0556e-03
9.000  17.750  4.6660e-03
9.000  18.000  7.5551e-03
9.000  18.250  1.2709e-02
9.000  18.500  2.0513e-02
9.000  18.750  3.0443e-02
9.000  19.000  4.0871e-02
9.000  19.250  4.7481e-02
9.000  19.500  5.2950e-02
9.000  19.750  5.6617e-02
9.000  20.000  5.8845e-02
9.000  20.250  5.9482e-02
9.000  20.500  5.9515e-02
9.000  20.750  5.9447e-02
9.000  21.000  5.9454e-02
9.000  21.250  5.9461e-02
9.000  21.500  5.9463e-02
9.000  21.750  5.9463e-02
9.000  22.000  5.9464e-02
9.000  22.250  5.9464e-02
9.000  22.500  5.9464e-02
9.000  22.750  5.9464e-02
9.000  23.000  5.9464e-02
9.000  23.250  5.9464e-02
9.000  23.500  5.9464e-02
9.000  23.750  5.9464e-02
9.000  24.000  5.9464e-02
9.250  17.000  1.0445e-03
9.250  17.250  1.5053e-03
9.250  17.500  2.2124e-03
9.250  17.750  3.3739e-03
9.250  18.000  5.4714e-03
9.250  18.250  9.2460e-03
9.250  18.500  1.5024e-02
9.250  18.750  2.3029e-02
9.250  19.000  3.2207e-02
9.250  19.250  4.2316e-02
9.250  19.500  4.7991e-02
9.250  19.750  5.3692e-02
9.250  20.000  5.6372e-02
9.250  20.250  5.8831e-02
9.250  20.500  5.9479e-02
9.250  20.750  5.9517e-02
9.250  21.000  5.9447e-02
9.250  21.250  5.9454e-02
9.250  21.500  5.9459e-02
9.250  21.750  5.9443e-02
9.250  22.000  5.9389e-02
9.250  22.250  5.9444e-02
9.250  22.500  5.9464e-02
9.250  22.750  5.9464e-02
9.250  23.000  5.9464e-02
9.250  23.250  5.9464e-02
9.250  23.500  5.9464e-02
9.250  23.750  5.9464e-02
9.250  24.000  5.9464e-02
9.500  17.000  7.5111e-04
9.500  17.250  1.0856e-03
9.500  17.500  1.6023e-03
9.500  17.750  2.4582e-03
9.500  18.000  4.0176e-03
9.500  18.250  6.8439e-03
9.500  18.500  1.1159e-02
9.500  18.750  1.6981e-02
9.500  19.000  2.4496e-02
9.500  19.250  3.3370e-02
9.500  19.500  4.2176e-02
9.500  19.750  4.8324e-02
9.500  20.000  5.3554e-02
9.500  20.250  5.6082e-02
9.500  20.500  5.8781e-02
9.500  20.750  5.9470e-02
9.500  21.000  5.9511e-02
9.500  21.250  5.9437e-02
9.500  21.500  5.9405e-02
9.500  21.750  5.9371e-02
9.500  22.000  5.9360e-02
9.500  22.250  5.9339e-02
9.500  22.500  5.9319e-02
9.500  22.750  5.9307e-02
9.500  23.000  5.9301e-02
9.500  23.250  5.9302e-02
9.500  23.500  5.9374e-02
9.500  23.750  5.9373e-02
9.500  24.000  5.9373e-02
9.750  17.000  5.3984e-04
9.750  17.250  7.8230e-04
9.750  17.500  1.1590e-03
9.750  17.750  1.7945e-03
9.750  18.000  2.9678e-03
9.750  18.250  5.1146e-03
9.750  18.500  8.3599e-03
9.750  18.750  1.2633e-02
9.750  19.000  1.8073e-02
9.750  19.250  2.5081e-02
9.750  19.500  3.4135e-02
9.750  19.750  4.1777e-02
9.750  20.000  4.8656e-02
9.750  20.250  5.2901e-02
9.750  20.500  5.5704e-02
9.750  20.750  5.8670e-02
9.750  21.000  5.9448e-02
9.750  21.250  5.9512e-02
9.750  21.500  5.9443e-02
9.750  21.750  5.9438e-02
9.750  22.000  5.9373e-02
9.750  22.250  5.9368e-02
9.750  22.500  5.9355e-02
9.750  22.750  5.9340e-02
9.750  23.000  5.9329e-02
9.750  23.250  5.9321e-02
9.750  23.500  5.9318e-02
9.750  23.750  5.9316e-02
9.750  24.000  5.9314e-02
10.000  17.000  3.8872e-04
10.000  17.250  5.6346e-04
10.000  17.500  8.3811e-04
10.000  17.750  1.3109e-03
10.000  18.000  2.2000e-03
10.000  18.250  3.7964e-03
10.000  18.500  6.2220e-03
10.000  18.750  9.3615e-03
10.000  19.000  1.3346e-02
10.000  19.250  1.8322e-02
10.000  19.500  2.4815e-02
10.000  19.750  3.2719e-02
10.000  20.000  4.1215e-02
10.000  20.250  4.8950e-02
10.000  20.500  5.2305e-02
10.000  20.750  5.5308e-02
10.000  21.000  5.8560e-02
10.000  21.250  5.9410e-02
10.000  21.500  5.9508e-02
10.000  21.750  5.9444e-02
10.000  22.000  5.9447e-02
10.000  22.250  5.9389e-02
10.000  22.500  5.9373e-02
10.000  22.750  5.9366e-02
10.000  23.000  5.9357e-02
10.000  23.250  5.9349e-02
10.000  23.500  5.9343e-02
10.000  23.750  5.9340e-02
10.000  24.000  5.9338e-02
10.250  17.000  2.8066e-04
10.250  17.250  4.0601e-04
10.250  17.500  6.0527e-04
10.250  17.750  9.5687e-04
10.250  18.000  1.6266e-03
10.250  18.250  2.8188e-03
10.250  18.500  4.6137e-03
10.250  18.750  6.8921e-03
10.250  19.000  9.7875e-03
10.250  19.250  1.3527e-02
10.250  19.500  1.8406e-02
10.250  19.750  2.5052e-02
10.250  20.000  3.2622e-02
10.250  20.250  4.1643e-02
10.250  20.500  4.8411e-02
10.250  20.750  5.1678e-02
10.250  21.000  5.5030e-02
10.250  21.250  5.8469e-02
10.250  21.500  5.9352e-02
10.250  21.750  5.9502e-02
10.250  22.000  5.9442e-02
10.250  22.250  5.9449e-02
10.250  22.500  5.9430e-02
10.250  22.750  5.9375e-02
10.250  23.000  5.9372e-02
10.250  23.250  5.9367e-02
10.250  23.500  5.9362e-02
10.250  23.750  5.9358e-02
10.250  24.000  5.9356e-02
10.500  17.000  2.0280e-04
10.500  17.250  2.9284e-04
10.500  17.500  4.3811e-04
10.500  17.750  6.9778e-04
10.500  18.000  1.1979e-03
10.500  18.250  2.0728e-03
10.500  18.500  3.3703e-03
10.500  18.750  5.0205e-03
10.500  19.000  7.1917e-03
10.500  19.250  1.0008e-02
10.500  19.500  1.3707e-02
10.500  19.750  1.8651e-02
10.500  20.000  2.5174e-02
10.500  20.250  3.2983e-02
10.500  20.500  4.2286e-02
10.500  20.750  4.7914e-02
10.500  21.000  5.1182e-02
10.500  21.250  5.4772e-02
10.500  21.500  5.8284e-02
10.500  21.750  5.9267e-02
10.500  22.000  5.9490e-02
10.500  22.250  5.9439e-02
10.500  22.500  5.9448e-02
10.500  22.750  5.9450e-02
10.500  23.000  5.9389e-02
10.500  23.250  5.9375e-02
10.500  23.500  5.9372e-02
10.500  23.750  5.9370e-02
10.500  24.000  5.9367e-02
10.750  17.000  1.4733e-04
10.750  17.250  2.1128e-04
10.750  17.500  3.1630e-04
10.750  17.750  5.0733e-04
10.750  18.000  8.7152e-04
10.750  18.250  1.5139e-03
10.750  18.500  2.4359e-03
10.750  18.750  3.6560e-03
10.750  19.000  5.2458e-03
10.750  19.250  7.4130e-03
10.750  19.500  1.0199e-02
10.750  19.750  1.3881e-02
10.750  20.000  1.8798e-02
10.750  20.250  2.5321e-02
10.750  20.500  3.3394e-02
10.750  20.750  4.2647e-02
10.750  21.000  4.7504e-02
10.750  21.250  5.0919e-02
10.750  21.500  5.4718e-02
10.750  21.750  5.8139e-02
10.750  22.000  5.9149e-02
10.750  22.250  5.9470e-02
10.750  22.500  5.9432e-02
10.750  22.750  5.9445e-02
10.750  23.000  5.9455e-02
10.750  23.250  5.9430e-02
10.750  23.500  5.9380e-02
10.750  23.750  5.9375e-02
10.750  24.000  5.9374e-02
11.000  17.000  1.0724e-04
11.000  17.250  1.5300e-04
11.000  17.500  2.2823e-04
11.000  17.750  3.6551e-04
11.000  18.000  6.2683e-04
11.000  18.250  1.0815e-03
11.000  18.500  1.7238e-03
11.000  18.750  2.6094e-03
11.000  19.000  3.7955e-03
11.000  19.250  5.4082e-03
11.000  19.500  7.5306e-03
11.000  19.750  1.0307e-02
11.000  20.000  1.3964e-02
11.000  20.250  1.8865e-02
11.000  20.500  2.5423e-02
11.000  20.750  3.3751e-02
11.000  21.000  4.2679e-02
11.000  21.250  4.7198e-02
11.000  21.500  5.0880e-02
11.000  21.750  5.4879e-02
11.000  22.000  5.7979e-02
11.000  22.250  5.9003e-02
11.000  22.500  5.9436e-02
11.000  22.750  5.9421e-02
11.000  23.000  5.9439e-02
11.000  23.250  5.9456e-02
11.000  23.500  5.9451e-02
11.000  23.750  5.9409e-02
11.000  24.000  5.9382e-02
11.250  17.000  7.9095e-05
11.250  17.250  1.1070e-04
11.250  17.500  1.6453e-04
11.250  17.750  2.6214e-04
11.250  18.000  4.4593e-04
11.250  18.250  7.6033e-04
11.250  18.500  1.2062e-03
11.250  18.750  1.8490e-03
11.250  19.000  2.7295e-03
11.250  19.250  3.9115e-03
11.250  19.500  5.4953e-03
11.250  19.750  7.5998e-03
11.250  20.000  1.0368e-02
11.250  20.250  1.3991e-02
11.250  20.500  1.8844e-02
11.250  20.750  2.5406e-02
11.250  21.000  3.3936e-02
11.250  21.250  4.2196e-02
11.250  21.500  4.7210e-02
11.250  21.750  5.0979e-02
11.250  22.000  5.5138e-02
11.250  22.250  5.7748e-02
11.250  22.500  5.8829e-02
11.250  22.750  5.9384e-02
11.250  23.000  5.9403e-02
11.250  23.250  5.9429e-02
11.250  23.500  5.9454e-02
11.250  23.750  5.9457e-02
11.250  24.000  5.9445e-02
11.500  17.000  5.9835e-05
11.500  17.250  8.1317e-05
11.500  17.500  1.1827e-04
11.500  17.750  1.8675e-04
11.500  18.000  3.1399e-04
11.500  18.250  5.2782e-04
11.500  18.500  8.3687e-04
11.500  18.750  1.2880e-03
11.500  19.000  1.9197e-03
11.500  19.250  2.7856e-03
11.500  19.500  3.9634e-03
11.500  19.750  5.5441e-03
11.500  20.000  7.6382e-03
11.500  20.250  1.0378e-02
11.500  20.500  1.3933e-02
11.500  20.750  1.8651e-02
11.500  21.000  2.5165e-02
11.500  21.250  3.3886e-02
11.500  21.500  4.1985e-02
11.500  21.750  4.7106e-02
11.500  22.000  5.1103e-02
11.500  22.250  5.5294e-02
11.500  22.500  5.7493e-02
11.500  22.750  5.8664e-02
11.500  23.000  5.9316e-02
11.500  23.250  5.9376e-02
11.500  23.500  5.9414e-02
11.500  23.750  5.9450e-02
11.500  24.000  5.9458e-02
11.750  17.000  4.6584e-05
11.750  17.250  6.1317e-05
11.750  17.500  8.6255e-05
11.750  17.750  1.3251e-04
11.750  18.000  2.1885e-04
11.750  18.250  3.6222e-04
11.750  18.500  5.7440e-04
11.750  18.750  8.9169e-04
11.750  19.000  1.3412e-03
11.750  19.250  1.9688e-03
11.750  19.500  2.8285e-03
11.750  19.750  4.0076e-03
11.750  20.000  5.5844e-03
11.750  20.250  7.6445e-03
11.750  20.500  1.0305e-02
11.750  20.750  1.3718e-02
11.750  21.000  1.8174e-02
11.750  21.250  2.4583e-02
11.750  21.500  3.3559e-02
11.750  21.750  4.1516e-02
11.750  22.000  4.7047e-02
11.750  22.250  5.1257e-02
11.750  22.500  5.5196e-02
11.750  22.750  5.7225e-02
11.750  23.000  5.8448e-02
11.750  23.250  5.9229e-02
11.750  23.500  5.9338e-02
11.750  23.750  5.9394e-02
11.750  24.000  5.9446e-02
12.000  17.000  2.9794e-05
12.000  17.250  4.7737e-05
12.000  17.500  6.4527e-05
12.000  17.750  9.5062e-05
12.000  18.000  1.5169e-04
12.000  18.250  2.4667e-04
12.000  18.500  3.9358e-04
12.000  18.750  6.1136e-04
12.000  19.000  9.2667e-04
12.000  19.250  1.3740e-03
12.000  19.500  1.9968e-03
12.000  19.750  2.8662e-03
12.000  20.000  4.0416e-03
12.000  20.250  5.5921e-03
12.000  20.500  7.5853e-03
12.000  20.750  1.0111e-02
12.000  21.000  1.3237e-02
12.000  21.250  1.7336e-02
12.000  21.500  2.3764e-02
12.000  21.750  3.2783e-02
12.000  22.000  4.0787e-02
12.000  22.250  4.6786e-02
12.000  22.500  5.1202e-02
12.000  22.750  5.4909e-02
12.000  23.000  5.6881e-02
12.000  23.250  5.8184e-02
12.000  23.500  5.9122e-02
12.000  23.750  5.9289e-02
12.000  24.000  5.9369e-02
12.250  17.000  1.4239e-05
12.250  17.250  3.2675e-05
12.250  17.500  5.0206e-05
12.250  17.750  7.0288e-05
12.250  18.000  1.0675e-04
12.250  18.250  1.7029e-04
12.250  18.500  2.6856e-04
12.250  18.750  4.1539e-04
12.250  19.000  6.3350e-04
12.250  19.250  9.4856e-04
12.250  19.500  1.3960e-03
12.250  19.750  2.0261e-03
12.250  20.000  2.8886e-03
12.250  20.250  4.0433e-03
12.250  20.500  5.5435e-03
12.250  20.750  7.4312e-03
12.250  21.000  9.7027e-03
12.250  21.250  1.2422e-02
12.250  21.500  1.6370e-02
12.250  21.750  2.2511e-02
12.250  22.000  3.1337e-02
12.250  22.250  3.9883e-02
12.250  22.500  4.6207e-02
12.250  22.750  5.0848e-02
12.250  23.000  5.4382e-02
12.250  23.250  5.6418e-02
12.250  23.500  5.7831e-02
12.250  23.750  5.8982e-02
12.250  24.000  5.9226e-02
12.500  17.000  6.9959e-06
12.500  17.250  1.5720e-05
12.500  17.500  3.4979e-05
12.500  17.750  5.4321e-05
12.500  18.000  7.8519e-05
12.500  18.250  1.1918e-04
12.500  18.500  1.8321e-04
12.500  18.750  2.8288e-04
12.500  19.000  4.3251e-04
12.500  19.250  6.4996e-04
12.500  19.500  9.6477e-04
12.500  19.750  1.4133e-03
12.500  20.000  2.0389e-03
12.500  20.250  2.8864e-03
12.500  20.500  4.0029e-03
12.500  20.750  5.4219e-03
12.500  21.000  7.1153e-03
12.500  21.250  9.0194e-03
12.500  21.500  1.1535e-02
12.500  21.750  1.4919e-02
12.500  22.000  2.0875e-02
12.500  22.250  2.9749e-02
12.500  22.500  3.8847e-02
12.500  22.750  4.4941e-02
12.500  23.000  4.9868e-02
12.500  23.250  5.3530e-02
12.500  23.500  5.5733e-02
12.500  23.750  5.7324e-02
12.500  24.000  5.8788e-02
12.750  17.000  3.6214e-06
12.750  17.250  7.8189e-06
12.750  17.500  1.6872e-05
12.750  17.750  3.6461e-05
12.750  18.000  5.8436e-05
12.750  18.250  8.4691e-05
12.750  18.500  1.2658e-04
12.750  18.750  1.9193e-04
12.750  19.000  2.9218e-04
12.750  19.250  4.4181e-04
12.750  19.500  6.6091e-04
12.750  19.750  9.7539e-04
12.750  20.000  1.4202e-03
12.750  20.250  2.0366e-03
12.750  20.500  2.8579e-03
12.750  20.750  3.9119e-03
12.750  21.000  5.1872e-03
12.750  21.250  6.5872e-03
12.750  21.500  8.2958e-03
12.750  21.750  1.0151e-02
12.750  22.000  1.3236e-02
12.750  22.250  1.9125e-02
12.750  22.500  2.7986e-02
12.750  22.750  3.6300e-02
12.750  23.000  4.2726e-02
12.750  23.250  4.8246e-02
12.750  23.500  5.2211e-02
12.750  23.750  5.4715e-02
12.750  24.000  5.6571e-02
13.000  17.000  9.8765e-07
13.000  17.250  2.2222e-06
13.000  17.500  6.0905e-06
13.000  17.750  1.5309e-05
13.000  18.000  3.1852e-05
13.000  18.250  5.2922e-05
13.000  18.500  8.4362e-05
13.000  18.750  1.3119e-04
13.000  19.000  1.9695e-04
13.000  19.250  2.9877e-04
13.000  19.500  4.4963e-04
13.000  19.750  6.6807e-04
13.000  20.000  9.7975e-04
13.000  20.250  1.4191e-03
13.000  20.500  2.0165e-03
13.000  20.750  2.7942e-03
13.000  21.000  3.7451e-03
13.000  21.250  4.7926e-03
13.000  21.500  6.0292e-03
13.000  21.750  7.0789e-03
13.000  22.000  8.5578e-03
13.000  22.250  1.1550e-02
13.000  22.500  1.7135e-02
13.000  22.750  2.5093e-02
13.000  23.000  3.2639e-02
13.000  23.250  3.9680e-02
13.000  23.500  4.5879e-02
13.000  23.750  5.0278e-02
13.000  24.000  5.3190e-02
13.250  17.000  1.0000e-07
13.250  17.250  1.0700e-06
13.250  17.500  2.4691e-06
13.250  17.750  5.9259e-06
13.250  18.000  1.4568e-05
13.250  18.250  3.1523e-05
13.250  18.500  5.5144e-05
13.250  18.750  8.5926e-05
13.250  19.000  1.3490e-04
13.250  19.250  1.9959e-04
13.250  19.500  3.0329e-04
13.250  19.750  4.5300e-04
13.250  20.000  6.6930e-04
13.250  20.250  9.7802e-04
13.250  20.500  1.4047e-03
13.250  20.750  1.9721e-03
13.250  21.000  2.6750e-03
13.250  21.250  3.4582e-03
13.250  21.500  4.3635e-03
13.250  21.750  5.0026e-03
13.250  22.000  5.6190e-03
13.250  22.250  7.0484e-03
13.250  22.500  9.9389e-03
13.250  22.750  1.4875e-02
13.250  23.000  2.1399e-02
13.250  23.250  2.8566e-02
13.250  23.500  3.5964e-02
13.250  23.750  4.2637e-02
13.250  24.000  4.7543e-02
13.500  17.000  1.0000e-07
13.500  17.250  1.0000e-07
13.500  17.500  1.3992e-06
13.500  17.750  2.9630e-06
13.500  18.000  7.2428e-06
13.500  18.250  1.6214e-05
13.500  18.500  3.3251e-05
13.500  18.750  5.8189e-05
13.500  19.000  9.0535e-05
13.500  19.250  1.3712e-04
13.500  19.500  2.0403e-04
13.500  19.750  3.0477e-04
13.500  20.000  4.5243e-04
13.500  20.250  6.6741e-04
13.500  20.500  9.6724e-04
13.500  20.750  1.3735e-03
13.500  21.000  1.8851e-03
13.500  21.250  2.4691e-03
13.500  21.500  3.1363e-03
13.500  21.750  3.5458e-03
13.500  22.000  3.7427e-03
13.500  22.250  4.2979e-03
13.500  22.500  5.8532e-03
13.500  22.750  8.5139e-03
13.500  23.000  1.2502e-02
13.500  23.250  1.8115e-02
13.500  23.500  2.4500e-02
13.500  23.750  3.1520e-02
13.500  24.000  3.8503e-02
13.750  17.000  1.0000e-07
13.750  17.250  1.0000e-07
13.750  17.500  1.0000e-07
13.750  17.750  1.6461e-06
13.750  18.000  3.7860e-06
13.750  18.250  8.4774e-06
13.750  18.500  1.7449e-05
13.750  18.750  3.4156e-05
13.750  19.000  6.2222e-05
13.750  19.250  9.4733e-05
13.750  19.500  1.3572e-04
13.750  19.750  2.0453e-04
13.750  20.000  3.0477e-04
13.750  20.250  4.5111e-04
13.750  20.500  6.5959e-04
13.750  20.750  9.4617e-04
13.750  21.000  1.3165e-03
13.750  21.250  1.7425e-03
13.750  21.500  2.2355e-03
13.750  21.750  2.5151e-03
13.750  22.000  2.5324e-03
13.750  22.250  2.6709e-03
13.750  22.500  3.4399e-03
13.750  22.750  4.9719e-03
13.750  23.000  7.2332e-03
13.750  23.250  1.0473e-02
13.750  23.500  1.4976e-02
13.750  23.750  2.0158e-02
13.750  24.000  2.6554e-02
14.000  17.000  1.0000e-07
14.000  17.250  1.0000e-07
14.000  17.500  1.0000e-07
14.000  17.750  9.8765e-07
14.000  18.000  1.9753e-06
14.000  18.250  4.4444e-06
14.000  18.500  9.3827e-06
14.000  18.750  1.8519e-05
14.000  19.000  3.5391e-05
14.000  19.250  6.4691e-05
14.000  19.500  9.5885e-05
14.000  19.750  1.3893e-04
14.000  20.000  2.0494e-04
14.000  20.250  3.0329e-04
14.000  20.500  4.4626e-04
14.000  20.750  6.4568e-04
14.000  21.000  9.0864e-04
14.000  21.250  1.2185e-03
14.000  21.500  1.5793e-03
14.000  21.750  1.7735e-03
14.000  22.000  1.7319e-03
14.000  22.250  1.6954e-03
14.000  22.500  2.0388e-03
14.000  22.750  2.9136e-03
14.000  23.000  4.2472e-03
14.000  23.250  6.0616e-03
14.000  23.500  8.6209e-03
14.000  23.750  1.1895e-02
14.000  24.000  1.5833e-02
