InwC 3645.00A  relative to Inci 1215.00A scaled to 1215A.
Hden   Phi(H)  Eq_Width (A)
 7.000	17.000	3.9638e-02
 7.000	17.250	5.2750e-02
 7.000	17.500	5.4514e-02
 7.000	17.750	5.5579e-02
 7.000	18.000	5.5607e-02
 7.000	18.250	5.5645e-02
 7.000	18.500	5.5652e-02
 7.000	18.750	5.5660e-02
 7.000	19.000	5.5666e-02
 7.000	19.250	5.5672e-02
 7.000	19.500	5.5674e-02
 7.000	19.750	5.5675e-02
 7.000	20.000	5.5675e-02
 7.000	20.250	5.5675e-02
 7.000	20.500	5.5675e-02
 7.000	20.750	5.5675e-02
 7.000	21.000	5.5675e-02
 7.000	21.250	5.5676e-02
 7.000	21.500	5.5676e-02
 7.000	21.750	5.5676e-02
 7.000	22.000	5.5676e-02
 7.000	22.250	5.5676e-02
 7.000	22.500	5.5677e-02
 7.000	22.750	5.5683e-02
 7.000	23.000	5.5678e-02
 7.000	23.250	5.5679e-02
 7.000	23.500	5.5679e-02
 7.000	23.750	5.5679e-02
 7.000	24.000	5.5679e-02
 7.250	17.000	2.9789e-02
 7.250	17.250	4.0087e-02
 7.250	17.500	5.2733e-02
 7.250	17.750	5.4524e-02
 7.250	18.000	5.5579e-02
 7.250	18.250	5.5607e-02
 7.250	18.500	5.5645e-02
 7.250	18.750	5.5652e-02
 7.250	19.000	5.5660e-02
 7.250	19.250	5.5666e-02
 7.250	19.500	5.5672e-02
 7.250	19.750	5.5674e-02
 7.250	20.000	5.5675e-02
 7.250	20.250	5.5675e-02
 7.250	20.500	5.5675e-02
 7.250	20.750	5.5675e-02
 7.250	21.000	5.5675e-02
 7.250	21.250	5.5675e-02
 7.250	21.500	5.5675e-02
 7.250	21.750	5.5676e-02
 7.250	22.000	5.5676e-02
 7.250	22.250	5.5676e-02
 7.250	22.500	5.5676e-02
 7.250	22.750	5.5676e-02
 7.250	23.000	5.5676e-02
 7.250	23.250	5.5676e-02
 7.250	23.500	5.5676e-02
 7.250	23.750	5.5676e-02
 7.250	24.000	5.5677e-02
 7.500	17.000	2.1205e-02
 7.500	17.250	3.0406e-02
 7.500	17.500	4.0442e-02
 7.500	17.750	5.2699e-02
 7.500	18.000	5.4532e-02
 7.500	18.250	5.5578e-02
 7.500	18.500	5.5607e-02
 7.500	18.750	5.5645e-02
 7.500	19.000	5.5652e-02
 7.500	19.250	5.5660e-02
 7.500	19.500	5.5666e-02
 7.500	19.750	5.5672e-02
 7.500	20.000	5.5674e-02
 7.500	20.250	5.5675e-02
 7.500	20.500	5.5675e-02
 7.500	20.750	5.5675e-02
 7.500	21.000	5.5675e-02
 7.500	21.250	5.5675e-02
 7.500	21.500	5.5675e-02
 7.500	21.750	5.5675e-02
 7.500	22.000	5.5675e-02
 7.500	22.250	5.5675e-02
 7.500	22.500	5.5675e-02
 7.500	22.750	5.5675e-02
 7.500	23.000	5.5676e-02
 7.500	23.250	5.5676e-02
 7.500	23.500	5.5676e-02
 7.500	23.750	5.5676e-02
 7.500	24.000	5.5676e-02
 7.750	17.000	1.4314e-02
 7.750	17.250	2.1637e-02
 7.750	17.500	3.0994e-02
 7.750	17.750	4.0760e-02
 7.750	18.000	5.2638e-02
 7.750	18.250	5.4535e-02
 7.750	18.500	5.5577e-02
 7.750	18.750	5.5607e-02
 7.750	19.000	5.5644e-02
 7.750	19.250	5.5652e-02
 7.750	19.500	5.5660e-02
 7.750	19.750	5.5666e-02
 7.750	20.000	5.5672e-02
 7.750	20.250	5.5674e-02
 7.750	20.500	5.5675e-02
 7.750	20.750	5.5675e-02
 7.750	21.000	5.5675e-02
 7.750	21.250	5.5675e-02
 7.750	21.500	5.5675e-02
 7.750	21.750	5.5675e-02
 7.750	22.000	5.5675e-02
 7.750	22.250	5.5675e-02
 7.750	22.500	5.5675e-02
 7.750	22.750	5.5675e-02
 7.750	23.000	5.5675e-02
 7.750	23.250	5.5675e-02
 7.750	23.500	5.5675e-02
 7.750	23.750	5.5675e-02
 7.750	24.000	5.5675e-02
 8.000	17.000	9.6898e-03
 8.000	17.250	1.4471e-02
 8.000	17.500	2.1912e-02
 8.000	17.750	3.1346e-02
 8.000	18.000	4.0882e-02
 8.000	18.250	5.2518e-02
 8.000	18.500	5.4524e-02
 8.000	18.750	5.5575e-02
 8.000	19.000	5.5606e-02
 8.000	19.250	5.5645e-02
 8.000	19.500	5.5652e-02
 8.000	19.750	5.5660e-02
 8.000	20.000	5.5666e-02
 8.000	20.250	5.5672e-02
 8.000	20.500	5.5674e-02
 8.000	20.750	5.5675e-02
 8.000	21.000	5.5675e-02
 8.000	21.250	5.5675e-02
 8.000	21.500	5.5675e-02
 8.000	21.750	5.5675e-02
 8.000	22.000	5.5675e-02
 8.000	22.250	5.5675e-02
 8.000	22.500	5.5675e-02
 8.000	22.750	5.5675e-02
 8.000	23.000	5.5675e-02
 8.000	23.250	5.5675e-02
 8.000	23.500	5.5675e-02
 8.000	23.750	5.5675e-02
 8.000	24.000	5.5676e-02
 8.250	17.000	6.7705e-03
 8.250	17.250	9.8293e-03
 8.250	17.500	1.4730e-02
 8.250	17.750	2.2382e-02
 8.250	18.000	3.1993e-02
 8.250	18.250	4.1236e-02
 8.250	18.500	5.2346e-02
 8.250	18.750	5.4514e-02
 8.250	19.000	5.5572e-02
 8.250	19.250	5.5605e-02
 8.250	19.500	5.5644e-02
 8.250	19.750	5.5652e-02
 8.250	20.000	5.5660e-02
 8.250	20.250	5.5666e-02
 8.250	20.500	5.5672e-02
 8.250	20.750	5.5674e-02
 8.250	21.000	5.5674e-02
 8.250	21.250	5.5675e-02
 8.250	21.500	5.5675e-02
 8.250	21.750	5.5675e-02
 8.250	22.000	5.5675e-02
 8.250	22.250	5.5675e-02
 8.250	22.500	5.5675e-02
 8.250	22.750	5.5675e-02
 8.250	23.000	5.5676e-02
 8.250	23.250	5.5675e-02
 8.250	23.500	5.5675e-02
 8.250	23.750	5.5675e-02
 8.250	24.000	5.5675e-02
 8.500	17.000	4.8322e-03
 8.500	17.250	6.8539e-03
 8.500	17.500	1.0000e-02
 8.500	17.750	1.5111e-02
 8.500	18.000	2.3012e-02
 8.500	18.250	3.2762e-02
 8.500	18.500	4.1583e-02
 8.500	18.750	5.2081e-02
 8.500	19.000	5.4490e-02
 8.500	19.250	5.5566e-02
 8.500	19.500	5.5604e-02
 8.500	19.750	5.5643e-02
 8.500	20.000	5.5652e-02
 8.500	20.250	5.5660e-02
 8.500	20.500	5.5666e-02
 8.500	20.750	5.5672e-02
 8.500	21.000	5.5674e-02
 8.500	21.250	5.5675e-02
 8.500	21.500	5.5675e-02
 8.500	21.750	5.5675e-02
 8.500	22.000	5.5675e-02
 8.500	22.250	5.5675e-02
 8.500	22.500	5.5675e-02
 8.500	22.750	5.5675e-02
 8.500	23.000	5.5675e-02
 8.500	23.250	5.5675e-02
 8.500	23.500	5.5675e-02
 8.500	23.750	5.5675e-02
 8.500	24.000	5.5675e-02
 8.750	17.000	3.4987e-03
 8.750	17.250	4.8802e-03
 8.750	17.500	6.9664e-03
 8.750	17.750	1.0251e-02
 8.750	18.000	1.5693e-02
 8.750	18.250	2.3973e-02
 8.750	18.500	3.3185e-02
 8.750	18.750	4.1834e-02
 8.750	19.000	5.1729e-02
 8.750	19.250	5.4443e-02
 8.750	19.500	5.5557e-02
 8.750	19.750	5.5602e-02
 8.750	20.000	5.5643e-02
 8.750	20.250	5.5652e-02
 8.750	20.500	5.5660e-02
 8.750	20.750	5.5666e-02
 8.750	21.000	5.5672e-02
 8.750	21.250	5.5674e-02
 8.750	21.500	5.5674e-02
 8.750	21.750	5.5675e-02
 8.750	22.000	5.5675e-02
 8.750	22.250	5.5675e-02
 8.750	22.500	5.5675e-02
 8.750	22.750	5.5675e-02
 8.750	23.000	5.5675e-02
 8.750	23.250	5.5675e-02
 8.750	23.500	5.5675e-02
 8.750	23.750	5.5675e-02
 8.750	24.000	5.5675e-02
 9.000	17.000	2.5621e-03
 9.000	17.250	3.5208e-03
 9.000	17.500	4.9434e-03
 9.000	17.750	7.1351e-03
 9.000	18.000	1.0738e-02
 9.000	18.250	1.6621e-02
 9.000	18.500	2.5077e-02
 9.000	18.750	3.3997e-02
 9.000	19.000	4.2794e-02
 9.000	19.250	5.1284e-02
 9.000	19.500	5.4360e-02
 9.000	19.750	5.5541e-02
 9.000	20.000	5.5599e-02
 9.000	20.250	5.5642e-02
 9.000	20.500	5.5651e-02
 9.000	20.750	5.5659e-02
 9.000	21.000	5.5666e-02
 9.000	21.250	5.5672e-02
 9.000	21.500	5.5674e-02
 9.000	21.750	5.5675e-02
 9.000	22.000	5.5675e-02
 9.000	22.250	5.5675e-02
 9.000	22.500	5.5675e-02
 9.000	22.750	5.5675e-02
 9.000	23.000	5.5675e-02
 9.000	23.250	5.5675e-02
 9.000	23.500	5.5675e-02
 9.000	23.750	5.5675e-02
 9.000	24.000	5.5675e-02
 9.250	17.000	1.9000e-03
 9.250	17.250	2.5686e-03
 9.250	17.500	3.5547e-03
 9.250	17.750	5.0610e-03
 9.250	18.000	7.4960e-03
 9.250	18.250	1.1525e-02
 9.250	18.500	1.7644e-02
 9.250	18.750	2.5780e-02
 9.250	19.000	3.4358e-02
 9.250	19.250	4.4154e-02
 9.250	19.500	5.0898e-02
 9.250	19.750	5.4220e-02
 9.250	20.000	5.5516e-02
 9.250	20.250	5.5593e-02
 9.250	20.500	5.5641e-02
 9.250	20.750	5.5651e-02
 9.250	21.000	5.5659e-02
 9.250	21.250	5.5666e-02
 9.250	21.500	5.5666e-02
 9.250	21.750	5.5647e-02
 9.250	22.000	5.5646e-02
 9.250	22.250	5.5648e-02
 9.250	22.500	5.5675e-02
 9.250	22.750	5.5675e-02
 9.250	23.000	5.5675e-02
 9.250	23.250	5.5675e-02
 9.250	23.500	5.5675e-02
 9.250	23.750	5.5675e-02
 9.250	24.000	5.5675e-02
 9.500	17.000	1.4291e-03
 9.500	17.250	1.8974e-03
 9.500	17.500	2.5874e-03
 9.500	17.750	3.6432e-03
 9.500	18.000	5.3616e-03
 9.500	18.250	8.1779e-03
 9.500	18.500	1.2245e-02
 9.500	18.750	1.7992e-02
 9.500	19.000	2.5926e-02
 9.500	19.250	3.4762e-02
 9.500	19.500	4.5044e-02
 9.500	19.750	5.0466e-02
 9.500	20.000	5.4023e-02
 9.500	20.250	5.5475e-02
 9.500	20.500	5.5582e-02
 9.500	20.750	5.5637e-02
 9.500	21.000	5.5643e-02
 9.500	21.250	5.5636e-02
 9.500	21.500	5.5637e-02
 9.500	21.750	5.5639e-02
 9.500	22.000	5.5629e-02
 9.500	22.250	5.5622e-02
 9.500	22.500	5.5624e-02
 9.500	22.750	5.5625e-02
 9.500	23.000	5.5624e-02
 9.500	23.250	5.5624e-02
 9.500	23.500	5.5641e-02
 9.500	23.750	5.5641e-02
 9.500	24.000	5.5641e-02
 9.750	17.000	1.0947e-03
 9.750	17.250	1.4235e-03
 9.750	17.500	1.9066e-03
 9.750	17.750	2.6545e-03
 9.750	18.000	3.8965e-03
 9.750	18.250	5.8628e-03
 9.750	18.500	8.5542e-03
 9.750	18.750	1.2217e-02
 9.750	19.000	1.7426e-02
 9.750	19.250	2.5206e-02
 9.750	19.500	3.5875e-02
 9.750	19.750	4.5679e-02
 9.750	20.000	5.0082e-02
 9.750	20.250	5.3790e-02
 9.750	20.500	5.5411e-02
 9.750	20.750	5.5566e-02
 9.750	21.000	5.5633e-02
 9.750	21.250	5.5648e-02
 9.750	21.500	5.5649e-02
 9.750	21.750	5.5640e-02
 9.750	22.000	5.5641e-02
 9.750	22.250	5.5636e-02
 9.750	22.500	5.5627e-02
 9.750	22.750	5.5622e-02
 9.750	23.000	5.5623e-02
 9.750	23.250	5.5624e-02
 9.750	23.500	5.5625e-02
 9.750	23.750	5.5625e-02
 9.750	24.000	5.5625e-02
10.000	17.000	8.5687e-04
10.000	17.250	1.0883e-03
10.000	17.500	1.4288e-03
10.000	17.750	1.9632e-03
10.000	18.000	2.8564e-03
10.000	18.250	4.2207e-03
10.000	18.500	5.9519e-03
10.000	18.750	8.2319e-03
10.000	19.000	1.1416e-02
10.000	19.250	1.6314e-02
10.000	19.500	2.4346e-02
10.000	19.750	3.6992e-02
10.000	20.000	4.5713e-02
10.000	20.250	4.9553e-02
10.000	20.500	5.3511e-02
10.000	20.750	5.5318e-02
10.000	21.000	5.5540e-02
10.000	21.250	5.5627e-02
10.000	21.500	5.5649e-02
10.000	21.750	5.5655e-02
10.000	22.000	5.5650e-02
10.000	22.250	5.5643e-02
10.000	22.500	5.5640e-02
10.000	22.750	5.5634e-02
10.000	23.000	5.5628e-02
10.000	23.250	5.5624e-02
10.000	23.500	5.5622e-02
10.000	23.750	5.5622e-02
10.000	24.000	5.5622e-02
10.250	17.000	6.8881e-04
10.250	17.250	8.5086e-04
10.250	17.500	1.0914e-03
10.250	17.750	1.4763e-03
10.250	18.000	2.1086e-03
10.250	18.250	3.0328e-03
10.250	18.500	4.1830e-03
10.250	18.750	5.6004e-03
10.250	19.000	7.5097e-03
10.250	19.250	1.0721e-02
10.250	19.500	1.6361e-02
10.250	19.750	2.5866e-02
10.250	20.000	3.8067e-02
10.250	20.250	4.4683e-02
10.250	20.500	4.9088e-02
10.250	20.750	5.3275e-02
10.250	21.000	5.5194e-02
10.250	21.250	5.5500e-02
10.250	21.500	5.5615e-02
10.250	21.750	5.5648e-02
10.250	22.000	5.5657e-02
10.250	22.250	5.5661e-02
10.250	22.500	5.5643e-02
10.250	22.750	5.5643e-02
10.250	23.000	5.5639e-02
10.250	23.250	5.5635e-02
10.250	23.500	5.5631e-02
10.250	23.750	5.5629e-02
10.250	24.000	5.5628e-02
10.500	17.000	5.7045e-04
10.500	17.250	6.8362e-04
10.500	17.500	8.5391e-04
10.500	17.750	1.1299e-03
10.500	18.000	1.5762e-03
10.500	18.250	2.2241e-03
10.500	18.500	3.0027e-03
10.500	18.750	4.0168e-03
10.500	19.000	5.4902e-03
10.500	19.250	7.8216e-03
10.500	19.500	1.1501e-02
10.500	19.750	1.7545e-02
10.500	20.000	2.7446e-02
10.500	20.250	3.7957e-02
10.500	20.500	4.3838e-02
10.500	20.750	4.8490e-02
10.500	21.000	5.3030e-02
10.500	21.250	5.5041e-02
10.500	21.500	5.5444e-02
10.500	21.750	5.5598e-02
10.500	22.000	5.5645e-02
10.500	22.250	5.5656e-02
10.500	22.500	5.5664e-02
10.500	22.750	5.5648e-02
10.500	23.000	5.5645e-02
10.500	23.250	5.5643e-02
10.500	23.500	5.5640e-02
10.500	23.750	5.5638e-02
10.500	24.000	5.5636e-02
10.750	17.000	4.8576e-04
10.750	17.250	5.6412e-04
10.750	17.500	6.8370e-04
10.750	17.750	8.7984e-04
10.750	18.000	1.2017e-03
10.750	18.250	1.6659e-03
10.750	18.500	2.2497e-03
10.750	18.750	3.0458e-03
10.750	19.000	4.1932e-03
10.750	19.250	5.8505e-03
10.750	19.500	8.3138e-03
10.750	19.750	1.2133e-02
10.750	20.000	1.8357e-02
10.750	20.250	2.8261e-02
10.750	20.500	3.7852e-02
10.750	20.750	4.3309e-02
10.750	21.000	4.8127e-02
10.750	21.250	5.2837e-02
10.750	21.500	5.4887e-02
10.750	21.750	5.5371e-02
10.750	22.000	5.5567e-02
10.750	22.250	5.5641e-02
10.750	22.500	5.5655e-02
10.750	22.750	5.5664e-02
10.750	23.000	5.5662e-02
10.750	23.250	5.5645e-02
10.750	23.500	5.5645e-02
10.750	23.750	5.5643e-02
10.750	24.000	5.5642e-02
11.000	17.000	4.2420e-04
11.000	17.250	4.7770e-04
11.000	17.500	5.5984e-04
11.000	17.750	7.0008e-04
11.000	18.000	9.3391e-04
11.000	18.250	1.2768e-03
11.000	18.500	1.7473e-03
11.000	18.750	2.3824e-03
11.000	19.000	3.2620e-03
11.000	19.250	4.4614e-03
11.000	19.500	6.1405e-03
11.000	19.750	8.6138e-03
11.000	20.000	1.2437e-02
11.000	20.250	1.8635e-02
11.000	20.500	2.8369e-02
11.000	20.750	3.6818e-02
11.000	21.000	4.2678e-02
11.000	21.250	4.7874e-02
11.000	21.500	5.2701e-02
11.000	21.750	5.4680e-02
11.000	22.000	5.5285e-02
11.000	22.250	5.5534e-02
11.000	22.500	5.5634e-02
11.000	22.750	5.5652e-02
11.000	23.000	5.5663e-02
11.000	23.250	5.5668e-02
11.000	23.500	5.5650e-02
11.000	23.750	5.5646e-02
11.000	24.000	5.5645e-02
11.250	17.000	3.7934e-04
11.250	17.250	4.1399e-04
11.250	17.500	4.6955e-04
11.250	17.750	5.6840e-04
11.250	18.000	7.3885e-04
11.250	18.250	9.9712e-04
11.250	18.500	1.3590e-03
11.250	18.750	1.8672e-03
11.250	19.000	2.5371e-03
11.250	19.250	3.4202e-03
11.250	19.500	4.6166e-03
11.250	19.750	6.2795e-03
11.250	20.000	8.6991e-03
11.250	20.250	1.2444e-02
11.250	20.500	1.8562e-02
11.250	20.750	2.7978e-02
11.250	21.000	3.6103e-02
11.250	21.250	4.2274e-02
11.250	21.500	4.7691e-02
11.250	21.750	5.2786e-02
11.250	22.000	5.4489e-02
11.250	22.250	5.5202e-02
11.250	22.500	5.5492e-02
11.250	22.750	5.5625e-02
11.250	23.000	5.5648e-02
11.250	23.250	5.5662e-02
11.250	23.500	5.5670e-02
11.250	23.750	5.5663e-02
11.250	24.000	5.5647e-02
11.500	17.000	3.4642e-04
11.500	17.250	3.6749e-04
11.500	17.500	4.0395e-04
11.500	17.750	4.7202e-04
11.500	18.000	5.9531e-04
11.500	18.250	7.9218e-04
11.500	18.500	1.0730e-03
11.500	18.750	1.4711e-03
11.500	19.000	1.9817e-03
11.500	19.250	2.6468e-03
11.500	19.500	3.5258e-03
11.500	19.750	4.7023e-03
11.500	20.000	6.3119e-03
11.500	20.250	8.6450e-03
11.500	20.500	1.2289e-02
11.500	20.750	1.8317e-02
11.500	21.000	2.6801e-02
11.500	21.250	3.5626e-02
11.500	21.500	4.2181e-02
11.500	21.750	4.7892e-02
11.500	22.000	5.2616e-02
11.500	22.250	5.4326e-02
11.500	22.500	5.5116e-02
11.500	22.750	5.5459e-02
11.500	23.000	5.5613e-02
11.500	23.250	5.5642e-02
11.500	23.500	5.5660e-02
11.500	23.750	5.5670e-02
11.500	24.000	5.5670e-02
11.750	17.000	3.2412e-04
11.750	17.250	3.3432e-04
11.750	17.500	3.5605e-04
11.750	17.750	4.0222e-04
11.750	18.000	4.9053e-04
11.750	18.250	6.3753e-04
11.750	18.500	8.5185e-04
11.750	18.750	1.1497e-03
11.750	19.000	1.5478e-03
11.750	19.250	2.0587e-03
11.750	19.500	2.7212e-03
11.750	19.750	3.5852e-03
11.750	20.000	4.7147e-03
11.750	20.250	6.2656e-03
11.750	20.500	8.5240e-03
11.750	20.750	1.2088e-02
11.750	21.000	1.8090e-02
11.750	21.250	2.6031e-02
11.750	21.500	3.5378e-02
11.750	21.750	4.2410e-02
11.750	22.000	4.8242e-02
11.750	22.250	5.2338e-02
11.750	22.500	5.4127e-02
11.750	22.750	5.5024e-02
11.750	23.000	5.5418e-02
11.750	23.250	5.5599e-02
11.750	23.500	5.5636e-02
11.750	23.750	5.5657e-02
11.750	24.000	5.5670e-02
12.000	17.000	3.0955e-04
12.000	17.250	3.1243e-04
12.000	17.500	3.2321e-04
12.000	17.750	3.5210e-04
12.000	18.000	4.1350e-04
12.000	18.250	5.2025e-04
12.000	18.500	6.8222e-04
12.000	18.750	9.0955e-04
12.000	19.000	1.2146e-03
12.000	19.250	1.6108e-03
12.000	19.500	2.1215e-03
12.000	19.750	2.7701e-03
12.000	20.000	3.6061e-03
12.000	20.250	4.7014e-03
12.000	20.500	6.1959e-03
12.000	20.750	8.3937e-03
12.000	21.000	1.1941e-02
12.000	21.250	1.8008e-02
12.000	21.500	2.5818e-02
12.000	21.750	3.5555e-02
12.000	22.000	4.2874e-02
12.000	22.250	4.8591e-02
12.000	22.500	5.2111e-02
12.000	22.750	5.4001e-02
12.000	23.000	5.4924e-02
12.000	23.250	5.5381e-02
12.000	23.500	5.5585e-02
12.000	23.750	5.5629e-02
12.000	24.000	5.5654e-02
12.250	17.000	2.6741e-04
12.250	17.250	2.9918e-04
12.250	17.500	3.0280e-04
12.250	17.750	3.1918e-04
12.250	18.000	3.6008e-04
12.250	18.250	4.3630e-04
12.250	18.500	5.5646e-04
12.250	18.750	7.2650e-04
12.250	19.000	9.5695e-04
12.250	19.250	1.2626e-03
12.250	19.500	1.6593e-03
12.250	19.750	2.1578e-03
12.250	20.000	2.7989e-03
12.250	20.250	3.6096e-03
12.250	20.500	4.6774e-03
12.250	20.750	6.1309e-03
12.250	21.000	8.3067e-03
12.250	21.250	1.1911e-02
12.250	21.500	1.7831e-02
12.250	21.750	2.6208e-02
12.250	22.000	3.6145e-02
12.250	22.250	4.3483e-02
12.250	22.500	4.8813e-02
12.250	22.750	5.1982e-02
12.250	23.000	5.3846e-02
12.250	23.250	5.4829e-02
12.250	23.500	5.5339e-02
12.250	23.750	5.5570e-02
12.250	24.000	5.5622e-02
12.500	17.000	1.4140e-04
12.500	17.250	2.7210e-04
12.500	17.500	2.9226e-04
12.500	17.750	3.0107e-04
12.500	18.000	3.2658e-04
12.500	18.250	3.7819e-04
12.500	18.500	4.6296e-04
12.500	18.750	5.8905e-04
12.500	19.000	7.6337e-04
12.500	19.250	9.9712e-04
12.500	19.500	1.3013e-03
12.500	19.750	1.6889e-03
12.500	20.000	2.1824e-03
12.500	20.250	2.8093e-03
12.500	20.500	3.6032e-03
12.500	20.750	4.6393e-03
12.500	21.000	6.0782e-03
12.500	21.250	8.2716e-03
12.500	21.500	1.1830e-02
12.500	21.750	1.8154e-02
12.500	22.000	2.6837e-02
12.500	22.250	3.7100e-02
12.500	22.500	4.4053e-02
12.500	22.750	4.8986e-02
12.500	23.000	5.1885e-02
12.500	23.250	5.3706e-02
12.500	23.500	5.4725e-02
12.500	23.750	5.5289e-02
12.500	24.000	5.5553e-02
12.750	17.000	7.4733e-05
12.750	17.250	1.6313e-04
12.750	17.500	2.8486e-04
12.750	17.750	2.9226e-04
12.750	18.000	3.0741e-04
12.750	18.250	3.4016e-04
12.750	18.500	3.9728e-04
12.750	18.750	4.8724e-04
12.750	19.000	6.1514e-04
12.750	19.250	7.9103e-04
12.750	19.500	1.0236e-03
12.750	19.750	1.3227e-03
12.750	20.000	1.7040e-03
12.750	20.250	2.1856e-03
12.750	20.500	2.7971e-03
12.750	20.750	3.5730e-03
12.750	21.000	4.5812e-03
12.750	21.250	6.0207e-03
12.750	21.500	8.1926e-03
12.750	21.750	1.2039e-02
12.750	22.000	1.8782e-02
12.750	22.250	2.7925e-02
12.750	22.500	3.8090e-02
12.750	22.750	4.4453e-02
12.750	23.000	4.9083e-02
12.750	23.250	5.1846e-02
12.750	23.500	5.3600e-02
12.750	23.750	5.4617e-02
12.750	24.000	5.5227e-02
13.000	17.000	1.3498e-05
13.000	17.250	3.1523e-05
13.000	17.500	1.1745e-04
13.000	17.750	2.3012e-04
13.000	18.000	2.7383e-04
13.000	18.250	3.1720e-04
13.000	18.500	3.5366e-04
13.000	18.750	4.1325e-04
13.000	19.000	5.0469e-04
13.000	19.250	6.3440e-04
13.000	19.500	8.1062e-04
13.000	19.750	1.0372e-03
13.000	20.000	1.3309e-03
13.000	20.250	1.7030e-03
13.000	20.500	2.1674e-03
13.000	20.750	2.7565e-03
13.000	21.000	3.5008e-03
13.000	21.250	4.4918e-03
13.000	21.500	5.8866e-03
13.000	21.750	8.2350e-03
13.000	22.000	1.2395e-02
13.000	22.250	1.9609e-02
13.000	22.500	2.8991e-02
13.000	22.750	3.8377e-02
13.000	23.000	4.4657e-02
13.000	23.250	4.9129e-02
13.000	23.500	5.1778e-02
13.000	23.750	5.3480e-02
13.000	24.000	5.4492e-02
13.250	17.000	8.1481e-06
13.250	17.250	1.5473e-05
13.250	17.500	3.7778e-05
13.250	17.750	9.1770e-05
13.250	18.000	1.8905e-04
13.250	18.250	2.5078e-04
13.250	18.500	3.2626e-04
13.250	18.750	3.6403e-04
13.250	19.000	4.2535e-04
13.250	19.250	5.1835e-04
13.250	19.500	6.4642e-04
13.250	19.750	8.1819e-04
13.250	20.000	1.0402e-03
13.250	20.250	1.3245e-03
13.250	20.500	1.6807e-03
13.250	20.750	2.1204e-03
13.250	21.000	2.6723e-03
13.250	21.250	3.3646e-03
13.250	21.500	4.2821e-03
13.250	21.750	5.6669e-03
13.250	22.000	8.2042e-03
13.250	22.250	1.2578e-02
13.250	22.500	2.0162e-02
13.250	22.750	2.9110e-02
13.250	23.000	3.8195e-02
13.250	23.250	4.4692e-02
13.250	23.500	4.9065e-02
13.250	23.750	5.1649e-02
13.250	24.000	5.3312e-02
13.500	17.000	4.9383e-06
13.500	17.250	9.1358e-06
13.500	17.500	2.0658e-05
13.500	17.750	4.8066e-05
13.500	18.000	1.1202e-04
13.500	18.250	2.1251e-04
13.500	18.500	2.6708e-04
13.500	18.750	3.3350e-04
13.500	19.000	3.7144e-04
13.500	19.250	4.3259e-04
13.500	19.500	5.2428e-04
13.500	19.750	6.4996e-04
13.500	20.000	8.1654e-04
13.500	20.250	1.0307e-03
13.500	20.500	1.3003e-03
13.500	20.750	1.6300e-03
13.500	21.000	2.0263e-03
13.500	21.250	2.5035e-03
13.500	21.500	3.0974e-03
13.500	21.750	3.9235e-03
13.500	22.000	5.3270e-03
13.500	22.250	8.1279e-03
13.500	22.500	1.2968e-02
13.500	22.750	2.0283e-02
13.500	23.000	2.9325e-02
13.500	23.250	3.7984e-02
13.500	23.500	4.4484e-02
13.500	23.750	4.8819e-02
13.500	24.000	5.1392e-02
13.750	17.000	2.9630e-06
13.750	17.250	5.9259e-06
13.750	17.500	1.2675e-05
13.750	17.750	2.5267e-05
13.750	18.000	6.2058e-05
13.750	18.250	1.3811e-04
13.750	18.500	2.2560e-04
13.750	18.750	2.8272e-04
13.750	19.000	3.3811e-04
13.750	19.250	3.7597e-04
13.750	19.500	4.3663e-04
13.750	19.750	5.2551e-04
13.750	20.000	6.4667e-04
13.750	20.250	8.0510e-04
13.750	20.500	1.0054e-03
13.750	20.750	1.2498e-03
13.750	21.000	1.5365e-03
13.750	21.250	1.8630e-03
13.750	21.500	2.2349e-03
13.750	21.750	2.7047e-03
13.750	22.000	3.4807e-03
13.750	22.250	5.0323e-03
13.750	22.500	7.9900e-03
13.750	22.750	1.3100e-02
13.750	23.000	2.0599e-02
13.750	23.250	2.9371e-02
13.750	23.500	3.7573e-02
13.750	23.750	4.4000e-02
13.750	24.000	4.8318e-02
14.000	17.000	1.7284e-06
14.000	17.250	3.4568e-06
14.000	17.500	7.8189e-06
14.000	17.750	1.5556e-05
14.000	18.000	3.1440e-05
14.000	18.250	7.2099e-05
14.000	18.500	1.4288e-04
14.000	18.750	2.3514e-04
14.000	19.000	3.1514e-04
14.000	19.250	3.4025e-04
14.000	19.500	3.7737e-04
14.000	19.750	4.3605e-04
14.000	20.000	5.2148e-04
14.000	20.250	6.3572e-04
14.000	20.500	7.8173e-04
14.000	20.750	9.5934e-04
14.000	21.000	1.1647e-03
14.000	21.250	1.3880e-03
14.000	21.500	1.6191e-03
14.000	21.750	1.8740e-03
14.000	22.000	2.2756e-03
14.000	22.250	3.1388e-03
14.000	22.500	4.8871e-03
14.000	22.750	8.1116e-03
14.000	23.000	1.3328e-02
14.000	23.250	2.0688e-02
14.000	23.500	2.9020e-02
14.000	23.750	3.6621e-02
14.000	24.000	4.3105e-02
