InwC 3400.00A  relative to Inci 1215.00A scaled to 1215A.
Hden   Phi(H)  Eq_Width (A)
 7.000	17.000	4.1523e-02
 7.000	17.250	5.5208e-02
 7.000	17.500	5.7072e-02
 7.000	17.750	5.8188e-02
 7.000	18.000	5.8216e-02
 7.000	18.250	5.8256e-02
 7.000	18.500	5.8263e-02
 7.000	18.750	5.8271e-02
 7.000	19.000	5.8278e-02
 7.000	19.250	5.8284e-02
 7.000	19.500	5.8286e-02
 7.000	19.750	5.8287e-02
 7.000	20.000	5.8287e-02
 7.000	20.250	5.8287e-02
 7.000	20.500	5.8288e-02
 7.000	20.750	5.8288e-02
 7.000	21.000	5.8288e-02
 7.000	21.250	5.8288e-02
 7.000	21.500	5.8288e-02
 7.000	21.750	5.8288e-02
 7.000	22.000	5.8289e-02
 7.000	22.250	5.8289e-02
 7.000	22.500	5.8289e-02
 7.000	22.750	5.8296e-02
 7.000	23.000	5.8290e-02
 7.000	23.250	5.8291e-02
 7.000	23.500	5.8291e-02
 7.000	23.750	5.8291e-02
 7.000	24.000	5.8292e-02
 7.250	17.000	3.1245e-02
 7.250	17.250	4.1993e-02
 7.250	17.500	5.5180e-02
 7.250	17.750	5.7082e-02
 7.250	18.000	5.8188e-02
 7.250	18.250	5.8216e-02
 7.250	18.500	5.8256e-02
 7.250	18.750	5.8263e-02
 7.250	19.000	5.8271e-02
 7.250	19.250	5.8278e-02
 7.250	19.500	5.8284e-02
 7.250	19.750	5.8286e-02
 7.250	20.000	5.8287e-02
 7.250	20.250	5.8287e-02
 7.250	20.500	5.8287e-02
 7.250	20.750	5.8287e-02
 7.250	21.000	5.8288e-02
 7.250	21.250	5.8288e-02
 7.250	21.500	5.8288e-02
 7.250	21.750	5.8288e-02
 7.250	22.000	5.8288e-02
 7.250	22.250	5.8288e-02
 7.250	22.500	5.8288e-02
 7.250	22.750	5.8288e-02
 7.250	23.000	5.8288e-02
 7.250	23.250	5.8289e-02
 7.250	23.500	5.8289e-02
 7.250	23.750	5.8289e-02
 7.250	24.000	5.8289e-02
 7.500	17.000	2.2283e-02
 7.500	17.250	3.1900e-02
 7.500	17.500	4.2367e-02
 7.500	17.750	5.5128e-02
 7.500	18.000	5.7088e-02
 7.500	18.250	5.8187e-02
 7.500	18.500	5.8216e-02
 7.500	18.750	5.8256e-02
 7.500	19.000	5.8263e-02
 7.500	19.250	5.8271e-02
 7.500	19.500	5.8278e-02
 7.500	19.750	5.8284e-02
 7.500	20.000	5.8286e-02
 7.500	20.250	5.8287e-02
 7.500	20.500	5.8287e-02
 7.500	20.750	5.8287e-02
 7.500	21.000	5.8288e-02
 7.500	21.250	5.8287e-02
 7.500	21.500	5.8288e-02
 7.500	21.750	5.8288e-02
 7.500	22.000	5.8288e-02
 7.500	22.250	5.8288e-02
 7.500	22.500	5.8288e-02
 7.500	22.750	5.8288e-02
 7.500	23.000	5.8288e-02
 7.500	23.250	5.8288e-02
 7.500	23.500	5.8288e-02
 7.500	23.750	5.8288e-02
 7.500	24.000	5.8288e-02
 7.750	17.000	1.5084e-02
 7.750	17.250	2.2749e-02
 7.750	17.500	3.2536e-02
 7.750	17.750	4.2706e-02
 7.750	18.000	5.5041e-02
 7.750	18.250	5.7091e-02
 7.750	18.500	5.8186e-02
 7.750	18.750	5.8216e-02
 7.750	19.000	5.8255e-02
 7.750	19.250	5.8263e-02
 7.750	19.500	5.8271e-02
 7.750	19.750	5.8278e-02
 7.750	20.000	5.8284e-02
 7.750	20.250	5.8286e-02
 7.750	20.500	5.8287e-02
 7.750	20.750	5.8287e-02
 7.750	21.000	5.8287e-02
 7.750	21.250	5.8288e-02
 7.750	21.500	5.8288e-02
 7.750	21.750	5.8288e-02
 7.750	22.000	5.8288e-02
 7.750	22.250	5.8288e-02
 7.750	22.500	5.8288e-02
 7.750	22.750	5.8288e-02
 7.750	23.000	5.8288e-02
 7.750	23.250	5.8288e-02
 7.750	23.500	5.8288e-02
 7.750	23.750	5.8288e-02
 7.750	24.000	5.8288e-02
 8.000	17.000	1.0253e-02
 8.000	17.250	1.5263e-02
 8.000	17.500	2.3062e-02
 8.000	17.750	3.2936e-02
 8.000	18.000	4.2848e-02
 8.000	18.250	5.4884e-02
 8.000	18.500	5.7078e-02
 8.000	18.750	5.8184e-02
 8.000	19.000	5.8216e-02
 8.000	19.250	5.8256e-02
 8.000	19.500	5.8263e-02
 8.000	19.750	5.8271e-02
 8.000	20.000	5.8278e-02
 8.000	20.250	5.8284e-02
 8.000	20.500	5.8286e-02
 8.000	20.750	5.8287e-02
 8.000	21.000	5.8287e-02
 8.000	21.250	5.8287e-02
 8.000	21.500	5.8288e-02
 8.000	21.750	5.8287e-02
 8.000	22.000	5.8288e-02
 8.000	22.250	5.8288e-02
 8.000	22.500	5.8288e-02
 8.000	22.750	5.8288e-02
 8.000	23.000	5.8288e-02
 8.000	23.250	5.8288e-02
 8.000	23.500	5.8288e-02
 8.000	23.750	5.8288e-02
 8.000	24.000	5.8288e-02
 8.250	17.000	7.2029e-03
 8.250	17.250	1.0412e-02
 8.250	17.500	1.5560e-02
 8.250	17.750	2.3605e-02
 8.250	18.000	3.3681e-02
 8.250	18.250	4.3246e-02
 8.250	18.500	5.4658e-02
 8.250	18.750	5.7066e-02
 8.250	19.000	5.8181e-02
 8.250	19.250	5.8215e-02
 8.250	19.500	5.8256e-02
 8.250	19.750	5.8263e-02
 8.250	20.000	5.8271e-02
 8.250	20.250	5.8278e-02
 8.250	20.500	5.8284e-02
 8.250	20.750	5.8286e-02
 8.250	21.000	5.8287e-02
 8.250	21.250	5.8287e-02
 8.250	21.500	5.8287e-02
 8.250	21.750	5.8287e-02
 8.250	22.000	5.8288e-02
 8.250	22.250	5.8287e-02
 8.250	22.500	5.8288e-02
 8.250	22.750	5.8288e-02
 8.250	23.000	5.8288e-02
 8.250	23.250	5.8288e-02
 8.250	23.500	5.8288e-02
 8.250	23.750	5.8288e-02
 8.250	24.000	5.8288e-02
 8.500	17.000	5.1769e-03
 8.500	17.250	7.3022e-03
 8.500	17.500	1.0615e-02
 8.500	17.750	1.6007e-02
 8.500	18.000	2.4356e-02
 8.500	18.250	3.4595e-02
 8.500	18.500	4.3656e-02
 8.500	18.750	5.4343e-02
 8.500	19.000	5.7039e-02
 8.500	19.250	5.8176e-02
 8.500	19.500	5.8214e-02
 8.500	19.750	5.8255e-02
 8.500	20.000	5.8263e-02
 8.500	20.250	5.8271e-02
 8.500	20.500	5.8278e-02
 8.500	20.750	5.8284e-02
 8.500	21.000	5.8286e-02
 8.500	21.250	5.8287e-02
 8.500	21.500	5.8287e-02
 8.500	21.750	5.8287e-02
 8.500	22.000	5.8287e-02
 8.500	22.250	5.8287e-02
 8.500	22.500	5.8287e-02
 8.500	22.750	5.8288e-02
 8.500	23.000	5.8288e-02
 8.500	23.250	5.8288e-02
 8.500	23.500	5.8287e-02
 8.500	23.750	5.8287e-02
 8.500	24.000	5.8288e-02
 8.750	17.000	3.7820e-03
 8.750	17.250	5.2379e-03
 8.750	17.500	7.4414e-03
 8.750	17.750	1.0921e-02
 8.750	18.000	1.6707e-02
 8.750	18.250	2.5522e-02
 8.750	18.500	3.5172e-02
 8.750	18.750	4.3918e-02
 8.750	19.000	5.3914e-02
 8.750	19.250	5.6990e-02
 8.750	19.500	5.8168e-02
 8.750	19.750	5.8213e-02
 8.750	20.000	5.8254e-02
 8.750	20.250	5.8263e-02
 8.750	20.500	5.8271e-02
 8.750	20.750	5.8278e-02
 8.750	21.000	5.8284e-02
 8.750	21.250	5.8286e-02
 8.750	21.500	5.8287e-02
 8.750	21.750	5.8287e-02
 8.750	22.000	5.8287e-02
 8.750	22.250	5.8287e-02
 8.750	22.500	5.8288e-02
 8.750	22.750	5.8288e-02
 8.750	23.000	5.8288e-02
 8.750	23.250	5.8288e-02
 8.750	23.500	5.8288e-02
 8.750	23.750	5.8288e-02
 8.750	24.000	5.8288e-02
 9.000	17.000	2.8014e-03
 9.000	17.250	3.8141e-03
 9.000	17.500	5.3223e-03
 9.000	17.750	7.6560e-03
 9.000	18.000	1.1512e-02
 9.000	18.250	1.7825e-02
 9.000	18.500	2.6835e-02
 9.000	18.750	3.6033e-02
 9.000	19.000	4.4779e-02
 9.000	19.250	5.3377e-02
 9.000	19.500	5.6909e-02
 9.000	19.750	5.8155e-02
 9.000	20.000	5.8209e-02
 9.000	20.250	5.8254e-02
 9.000	20.500	5.8263e-02
 9.000	20.750	5.8271e-02
 9.000	21.000	5.8278e-02
 9.000	21.250	5.8284e-02
 9.000	21.500	5.8286e-02
 9.000	21.750	5.8287e-02
 9.000	22.000	5.8287e-02
 9.000	22.250	5.8287e-02
 9.000	22.500	5.8287e-02
 9.000	22.750	5.8287e-02
 9.000	23.000	5.8288e-02
 9.000	23.250	5.8288e-02
 9.000	23.500	5.8288e-02
 9.000	23.750	5.8287e-02
 9.000	24.000	5.8287e-02
 9.250	17.000	2.1073e-03
 9.250	17.250	2.8152e-03
 9.250	17.500	3.8645e-03
 9.250	17.750	5.4772e-03
 9.250	18.000	8.1015e-03
 9.250	18.250	1.2458e-02
 9.250	18.500	1.9051e-02
 9.250	18.750	2.7635e-02
 9.250	19.000	3.6237e-02
 9.250	19.250	4.5881e-02
 9.250	19.500	5.2885e-02
 9.250	19.750	5.6773e-02
 9.250	20.000	5.8132e-02
 9.250	20.250	5.8204e-02
 9.250	20.500	5.8252e-02
 9.250	20.750	5.8263e-02
 9.250	21.000	5.8271e-02
 9.250	21.250	5.8278e-02
 9.250	21.500	5.8278e-02
 9.250	21.750	5.8258e-02
 9.250	22.000	5.8256e-02
 9.250	22.250	5.8259e-02
 9.250	22.500	5.8287e-02
 9.250	22.750	5.8287e-02
 9.250	23.000	5.8287e-02
 9.250	23.250	5.8287e-02
 9.250	23.500	5.8287e-02
 9.250	23.750	5.8287e-02
 9.250	24.000	5.8288e-02
 9.500	17.000	1.6130e-03
 9.500	17.250	2.1098e-03
 9.500	17.500	2.8463e-03
 9.500	17.750	3.9824e-03
 9.500	18.000	5.8463e-03
 9.500	18.250	8.9173e-03
 9.500	18.500	1.3355e-02
 9.500	18.750	1.9542e-02
 9.500	19.000	2.7792e-02
 9.500	19.250	3.6371e-02
 9.500	19.500	4.6590e-02
 9.500	19.750	5.2395e-02
 9.500	20.000	5.6589e-02
 9.500	20.250	5.8096e-02
 9.500	20.500	5.8195e-02
 9.500	20.750	5.8249e-02
 9.500	21.000	5.8254e-02
 9.500	21.250	5.8246e-02
 9.500	21.500	5.8248e-02
 9.500	21.750	5.8249e-02
 9.500	22.000	5.8240e-02
 9.500	22.250	5.8231e-02
 9.500	22.500	5.8234e-02
 9.500	22.750	5.8235e-02
 9.500	23.000	5.8234e-02
 9.500	23.250	5.8233e-02
 9.500	23.500	5.8251e-02
 9.500	23.750	5.8251e-02
 9.500	24.000	5.8251e-02
 9.750	17.000	1.2614e-03
 9.750	17.250	1.6105e-03
 9.750	17.500	2.1275e-03
 9.750	17.750	2.9354e-03
 9.750	18.000	4.2899e-03
 9.750	18.250	6.4570e-03
 9.750	18.500	9.4411e-03
 9.750	18.750	1.3464e-02
 9.750	19.000	1.9037e-02
 9.750	19.250	2.6992e-02
 9.750	19.500	3.7308e-02
 9.750	19.750	4.6990e-02
 9.750	20.000	5.2017e-02
 9.750	20.250	5.6382e-02
 9.750	20.500	5.8040e-02
 9.750	20.750	5.8181e-02
 9.750	21.000	5.8246e-02
 9.750	21.250	5.8259e-02
 9.750	21.500	5.8261e-02
 9.750	21.750	5.8251e-02
 9.750	22.000	5.8252e-02
 9.750	22.250	5.8246e-02
 9.750	22.500	5.8237e-02
 9.750	22.750	5.8232e-02
 9.750	23.000	5.8233e-02
 9.750	23.250	5.8234e-02
 9.750	23.500	5.8234e-02
 9.750	23.750	5.8235e-02
 9.750	24.000	5.8235e-02
10.000	17.000	1.0112e-03
10.000	17.250	1.2568e-03
10.000	17.500	1.6214e-03
10.000	17.750	2.2002e-03
10.000	18.000	3.1794e-03
10.000	18.250	4.7002e-03
10.000	18.500	6.6559e-03
10.000	18.750	9.2184e-03
10.000	19.000	1.2702e-02
10.000	19.250	1.7872e-02
10.000	19.500	2.6057e-02
10.000	19.750	3.8457e-02
10.000	20.000	4.6909e-02
10.000	20.250	5.1572e-02
10.000	20.500	5.6131e-02
10.000	20.750	5.7958e-02
10.000	21.000	5.8158e-02
10.000	21.250	5.8240e-02
10.000	21.500	5.8260e-02
10.000	21.750	5.8267e-02
10.000	22.000	5.8261e-02
10.000	22.250	5.8254e-02
10.000	22.500	5.8251e-02
10.000	22.750	5.8244e-02
10.000	23.000	5.8238e-02
10.000	23.250	5.8234e-02
10.000	23.500	5.8232e-02
10.000	23.750	5.8232e-02
10.000	24.000	5.8232e-02
10.250	17.000	8.3399e-04
10.250	17.250	1.0058e-03
10.250	17.500	1.2632e-03
10.250	17.750	1.6802e-03
10.250	18.000	2.3770e-03
10.250	18.250	3.4177e-03
10.250	18.500	4.7396e-03
10.250	18.750	6.3725e-03
10.250	19.000	8.5135e-03
10.250	19.250	1.1970e-02
10.250	19.500	1.7872e-02
10.250	19.750	2.7547e-02
10.250	20.000	3.9639e-02
10.250	20.250	4.6244e-02
10.250	20.500	5.1226e-02
10.250	20.750	5.5929e-02
10.250	21.000	5.7849e-02
10.250	21.250	5.8123e-02
10.250	21.500	5.8231e-02
10.250	21.750	5.8260e-02
10.250	22.000	5.8269e-02
10.250	22.250	5.8272e-02
10.250	22.500	5.8254e-02
10.250	22.750	5.8254e-02
10.250	23.000	5.8250e-02
10.250	23.250	5.8245e-02
10.250	23.500	5.8241e-02
10.250	23.750	5.8239e-02
10.250	24.000	5.8238e-02
10.500	17.000	7.0905e-04
10.500	17.250	8.2864e-04
10.500	17.500	1.0104e-03
10.500	17.750	1.3091e-03
10.500	18.000	1.8023e-03
10.500	18.250	2.5370e-03
10.500	18.500	3.4386e-03
10.500	18.750	4.6128e-03
10.500	19.000	6.2732e-03
10.500	19.250	8.8350e-03
10.500	19.500	1.2776e-02
10.500	19.750	1.9089e-02
10.500	20.000	2.9187e-02
10.500	20.250	3.9665e-02
10.500	20.500	4.5674e-02
10.500	20.750	5.0805e-02
10.500	21.000	5.5732e-02
10.500	21.250	5.7713e-02
10.500	21.500	5.8074e-02
10.500	21.750	5.8215e-02
10.500	22.000	5.8257e-02
10.500	22.250	5.8268e-02
10.500	22.500	5.8276e-02
10.500	22.750	5.8260e-02
10.500	23.000	5.8255e-02
10.500	23.250	5.8254e-02
10.500	23.500	5.8251e-02
10.500	23.750	5.8248e-02
10.500	24.000	5.8246e-02
10.750	17.000	6.1951e-04
10.750	17.250	7.0189e-04
10.750	17.500	8.2897e-04
10.750	17.750	1.0405e-03
10.750	18.000	1.3951e-03
10.750	18.250	1.9198e-03
10.750	18.500	2.5920e-03
10.750	18.750	3.5077e-03
10.750	19.000	4.8110e-03
10.750	19.250	6.6626e-03
10.750	19.500	9.3614e-03
10.750	19.750	1.3448e-02
10.750	20.000	1.9965e-02
10.750	20.250	3.0118e-02
10.750	20.500	3.9687e-02
10.750	20.750	4.5381e-02
10.750	21.000	5.0585e-02
10.750	21.250	5.5600e-02
10.750	21.500	5.7576e-02
10.750	21.750	5.8009e-02
10.750	22.000	5.8188e-02
10.750	22.250	5.8253e-02
10.750	22.500	5.8267e-02
10.750	22.750	5.8276e-02
10.750	23.000	5.8274e-02
10.750	23.250	5.8256e-02
10.750	23.500	5.8256e-02
10.750	23.750	5.8254e-02
10.750	24.000	5.8253e-02
11.000	17.000	5.5391e-04
11.000	17.250	6.1004e-04
11.000	17.500	6.9654e-04
11.000	17.750	8.4658e-04
11.000	18.000	1.1022e-03
11.000	18.250	1.4863e-03
11.000	18.500	2.0221e-03
11.000	18.750	2.7479e-03
11.000	19.000	3.7508e-03
11.000	19.250	5.1070e-03
11.000	19.500	6.9785e-03
11.000	19.750	9.6912e-03
11.000	20.000	1.3791e-02
11.000	20.250	2.0306e-02
11.000	20.500	3.0375e-02
11.000	20.750	3.8858e-02
11.000	21.000	4.4969e-02
11.000	21.250	5.0491e-02
11.000	21.500	5.5535e-02
11.000	21.750	5.7393e-02
11.000	22.000	5.7933e-02
11.000	22.250	5.8158e-02
11.000	22.500	5.8248e-02
11.000	22.750	5.8264e-02
11.000	23.000	5.8276e-02
11.000	23.250	5.8280e-02
11.000	23.500	5.8261e-02
11.000	23.750	5.8257e-02
11.000	24.000	5.8256e-02
11.250	17.000	5.0593e-04
11.250	17.250	5.4181e-04
11.250	17.500	5.9967e-04
11.250	17.750	7.0412e-04
11.250	18.000	8.8831e-04
11.250	18.250	1.1738e-03
11.250	18.500	1.5801e-03
11.250	18.750	2.1565e-03
11.250	19.000	2.9191e-03
11.250	19.250	3.9226e-03
11.250	19.500	5.2760e-03
11.250	19.750	7.1340e-03
11.250	20.000	9.7957e-03
11.250	20.250	1.3827e-02
11.250	20.500	2.0295e-02
11.250	20.750	3.0126e-02
11.250	21.000	3.8367e-02
11.250	21.250	4.4759e-02
11.250	21.500	5.0500e-02
11.250	21.750	5.5669e-02
11.250	22.000	5.7222e-02
11.250	22.250	5.7860e-02
11.250	22.500	5.8121e-02
11.250	22.750	5.8240e-02
11.250	23.000	5.8261e-02
11.250	23.250	5.8274e-02
11.250	23.500	5.8282e-02
11.250	23.750	5.8275e-02
11.250	24.000	5.8258e-02
11.500	17.000	4.7070e-04
11.500	17.250	4.9169e-04
11.500	17.500	5.2881e-04
11.500	17.750	5.9959e-04
11.500	18.000	7.3103e-04
11.500	18.250	9.4584e-04
11.500	18.500	1.2573e-03
11.500	18.750	1.7044e-03
11.500	19.000	2.2821e-03
11.500	19.250	3.0383e-03
11.500	19.500	4.0391e-03
11.500	19.750	5.3732e-03
11.500	20.000	7.1800e-03
11.500	20.250	9.7547e-03
11.500	20.500	1.3689e-02
11.500	20.750	2.0099e-02
11.500	21.000	2.9014e-02
11.500	21.250	3.8039e-02
11.500	21.500	4.4873e-02
11.500	21.750	5.0882e-02
11.500	22.000	5.5542e-02
11.500	22.250	5.7077e-02
11.500	22.500	5.7784e-02
11.500	22.750	5.8092e-02
11.500	23.000	5.8229e-02
11.500	23.250	5.8256e-02
11.500	23.500	5.8272e-02
11.500	23.750	5.8283e-02
11.500	24.000	5.8282e-02
11.750	17.000	4.4708e-04
11.750	17.250	4.5588e-04
11.750	17.500	4.7687e-04
11.750	17.750	5.2370e-04
11.750	18.000	6.1663e-04
11.750	18.250	7.7531e-04
11.750	18.500	1.0103e-03
11.750	18.750	1.3407e-03
11.750	19.000	1.7872e-03
11.750	19.250	2.3652e-03
11.750	19.500	3.1195e-03
11.750	19.750	4.1060e-03
11.750	20.000	5.3911e-03
11.750	20.250	7.1379e-03
11.750	20.500	9.6379e-03
11.750	20.750	1.3494e-02
11.750	21.000	1.9907e-02
11.750	21.250	2.8247e-02
11.750	21.500	3.7941e-02
11.750	21.750	4.5305e-02
11.750	22.000	5.1376e-02
11.750	22.250	5.5292e-02
11.750	22.500	5.6900e-02
11.750	22.750	5.7702e-02
11.750	23.000	5.8056e-02
11.750	23.250	5.8217e-02
11.750	23.500	5.8250e-02
11.750	23.750	5.8270e-02
11.750	24.000	5.8282e-02
12.000	17.000	4.3193e-04
12.000	17.250	4.3267e-04
12.000	17.500	4.4140e-04
12.000	17.750	4.6947e-04
12.000	18.000	5.3317e-04
12.000	18.250	6.4733e-04
12.000	18.500	8.2313e-04
12.000	18.750	1.0726e-03
12.000	19.000	1.4109e-03
12.000	19.250	1.8552e-03
12.000	19.500	2.4341e-03
12.000	19.750	3.1741e-03
12.000	20.000	4.1306e-03
12.000	20.250	5.3812e-03
12.000	20.500	7.0692e-03
12.000	20.750	9.5030e-03
12.000	21.000	1.3346e-02
12.000	21.250	1.9852e-02
12.000	21.500	2.8111e-02
12.000	21.750	3.8255e-02
12.000	22.000	4.5955e-02
12.000	22.250	5.1807e-02
12.000	22.500	5.5086e-02
12.000	22.750	5.6788e-02
12.000	23.000	5.7614e-02
12.000	23.250	5.8023e-02
12.000	23.500	5.8205e-02
12.000	23.750	5.8244e-02
12.000	24.000	5.8268e-02
12.250	17.000	3.7580e-04
12.250	17.250	4.1901e-04
12.250	17.500	4.2008e-04
12.250	17.750	4.3457e-04
12.250	18.000	4.7630e-04
12.250	18.250	5.5704e-04
12.250	18.500	6.8617e-04
12.250	18.750	8.7070e-04
12.250	19.000	1.1235e-03
12.250	19.250	1.4628e-03
12.250	19.500	1.9085e-03
12.250	19.750	2.4740e-03
12.250	20.000	3.2074e-03
12.250	20.250	4.1371e-03
12.250	20.500	5.3604e-03
12.250	20.750	7.0035e-03
12.250	21.000	9.4072e-03
12.250	21.250	1.3311e-02
12.250	21.500	1.9669e-02
12.250	21.750	2.8540e-02
12.250	22.000	3.8972e-02
12.250	22.250	4.6747e-02
12.250	22.500	5.2058e-02
12.250	22.750	5.4970e-02
12.250	23.000	5.6648e-02
12.250	23.250	5.7528e-02
12.250	23.500	5.7986e-02
12.250	23.750	5.8191e-02
12.250	24.000	5.8238e-02
12.500	17.000	1.9844e-04
12.500	17.250	3.8403e-04
12.500	17.500	4.1012e-04
12.500	17.750	4.1695e-04
12.500	18.000	4.4189e-04
12.500	18.250	4.9556e-04
12.500	18.500	5.8551e-04
12.500	18.750	7.2082e-04
12.500	19.000	9.1021e-04
12.500	19.250	1.1670e-03
12.500	19.500	1.5053e-03
12.500	19.750	1.9415e-03
12.500	20.000	2.5026e-03
12.500	20.250	3.2216e-03
12.500	20.500	4.1352e-03
12.500	20.750	5.3230e-03
12.500	21.000	6.9472e-03
12.500	21.250	9.3617e-03
12.500	21.500	1.3200e-02
12.500	21.750	2.0021e-02
12.500	22.000	2.9284e-02
12.500	22.250	4.0097e-02
12.500	22.500	4.7422e-02
12.500	22.750	5.2233e-02
12.500	23.000	5.4880e-02
12.500	23.250	5.6521e-02
12.500	23.500	5.7435e-02
12.500	23.750	5.7940e-02
12.500	24.000	5.8176e-02
12.750	17.000	1.0469e-04
12.750	17.250	2.2996e-04
12.750	17.500	4.0313e-04
12.750	17.750	4.0979e-04
12.750	18.000	4.2354e-04
12.750	18.250	4.5630e-04
12.750	18.500	5.1564e-04
12.750	18.750	6.1111e-04
12.750	19.000	7.4864e-04
12.750	19.250	9.4000e-04
12.750	19.500	1.1961e-03
12.750	19.750	1.5295e-03
12.750	20.000	1.9598e-03
12.750	20.250	2.5092e-03
12.750	20.500	3.2133e-03
12.750	20.750	4.1099e-03
12.750	21.000	5.2655e-03
12.750	21.250	6.8842e-03
12.750	21.500	9.2509e-03
12.750	21.750	1.3411e-02
12.750	22.000	2.0707e-02
12.750	22.250	3.0468e-02
12.750	22.500	4.1281e-02
12.750	22.750	4.7886e-02
12.750	23.000	5.2322e-02
12.750	23.250	5.4841e-02
12.750	23.500	5.6424e-02
12.750	23.750	5.7337e-02
12.750	24.000	5.7884e-02
13.000	17.000	1.8436e-05
13.000	17.250	4.3457e-05
13.000	17.500	1.6461e-04
13.000	17.750	3.2370e-04
13.000	18.000	3.8115e-04
13.000	18.250	4.3383e-04
13.000	18.500	4.7037e-04
13.000	18.750	5.3226e-04
13.000	19.000	6.2947e-04
13.000	19.250	7.6922e-04
13.000	19.500	9.6148e-04
13.000	19.750	1.2115e-03
13.000	20.000	1.5401e-03
13.000	20.250	1.9620e-03
13.000	20.500	2.4947e-03
13.000	20.750	3.1778e-03
13.000	21.000	4.0428e-03
13.000	21.250	5.1798e-03
13.000	21.500	6.7253e-03
13.000	21.750	9.2764e-03
13.000	22.000	1.3783e-02
13.000	22.250	2.1623e-02
13.000	22.500	3.1689e-02
13.000	22.750	4.1694e-02
13.000	23.000	4.8100e-02
13.000	23.250	5.2356e-02
13.000	23.500	5.4774e-02
13.000	23.750	5.6313e-02
13.000	24.000	5.7222e-02
13.250	17.000	1.1193e-05
13.250	17.250	2.1152e-05
13.250	17.500	5.2181e-05
13.250	17.750	1.2724e-04
13.250	18.000	2.6296e-04
13.250	18.250	3.4519e-04
13.250	18.500	4.4337e-04
13.250	18.750	4.8099e-04
13.250	19.000	5.4486e-04
13.250	19.250	6.4379e-04
13.250	19.500	7.8206e-04
13.250	19.750	9.6996e-04
13.250	20.000	1.2160e-03
13.250	20.250	1.5359e-03
13.250	20.500	1.9426e-03
13.250	20.750	2.4527e-03
13.250	21.000	3.0998e-03
13.250	21.250	3.9108e-03
13.250	21.500	4.9502e-03
13.250	21.750	6.4729e-03
13.250	22.000	9.2054e-03
13.250	22.250	1.3973e-02
13.250	22.500	2.2260e-02
13.250	22.750	3.1817e-02
13.250	23.000	4.1513e-02
13.250	23.250	4.8121e-02
13.250	23.500	5.2284e-02
13.250	23.750	5.4649e-02
13.250	24.000	5.6155e-02
13.500	17.000	6.8313e-06
13.500	17.250	1.2593e-05
13.500	17.500	2.8395e-05
13.500	17.750	6.6420e-05
13.500	18.000	1.5539e-04
13.500	18.250	2.9506e-04
13.500	18.500	3.6667e-04
13.500	18.750	4.5070e-04
13.500	19.000	4.8856e-04
13.500	19.250	5.5210e-04
13.500	19.500	6.4996e-04
13.500	19.750	7.8601e-04
13.500	20.000	9.6889e-04
13.500	20.250	1.2076e-03
13.500	20.500	1.5137e-03
13.500	20.750	1.8954e-03
13.500	21.000	2.3634e-03
13.500	21.250	2.9333e-03
13.500	21.500	3.6248e-03
13.500	21.750	4.5508e-03
13.500	22.000	6.0519e-03
13.500	22.250	9.0666e-03
13.500	22.500	1.4406e-02
13.500	22.750	2.2422e-02
13.500	23.000	3.2100e-02
13.500	23.250	4.1255e-02
13.500	23.500	4.7889e-02
13.500	23.750	5.2040e-02
13.500	24.000	5.4401e-02
13.750	17.000	4.0329e-06
13.750	17.250	8.1481e-06
13.750	17.500	1.7449e-05
13.750	17.750	3.4815e-05
13.750	18.000	8.5844e-05
13.750	18.250	1.9185e-04
13.750	18.500	3.1251e-04
13.750	18.750	3.8733e-04
13.750	19.000	4.5539e-04
13.750	19.250	4.9300e-04
13.750	19.500	5.5613e-04
13.750	19.750	6.5111e-04
13.750	20.000	7.8263e-04
13.750	20.250	9.5753e-04
13.750	20.500	1.1830e-03
13.750	20.750	1.4644e-03
13.750	21.000	1.8038e-03
13.750	21.250	2.2008e-03
13.750	21.500	2.6470e-03
13.750	21.750	3.1884e-03
13.750	22.000	4.0115e-03
13.750	22.250	5.6514e-03
13.750	22.500	8.8705e-03
13.750	22.750	1.4569e-02
13.750	23.000	2.2808e-02
13.750	23.250	3.2196e-02
13.750	23.500	4.0831e-02
13.750	23.750	4.7418e-02
13.750	24.000	5.1552e-02
14.000	17.000	2.3868e-06
14.000	17.250	4.7737e-06
14.000	17.500	1.0782e-05
14.000	17.750	2.1481e-05
14.000	18.000	4.3292e-05
14.000	18.250	9.9753e-05
14.000	18.500	1.9794e-04
14.000	18.750	3.2527e-04
14.000	19.000	4.3251e-04
14.000	19.250	4.5737e-04
14.000	19.500	4.9416e-04
14.000	19.750	5.5523e-04
14.000	20.000	6.4658e-04
14.000	20.250	7.7119e-04
14.000	20.500	9.3374e-04
14.000	20.750	1.1367e-03
14.000	21.000	1.3792e-03
14.000	21.250	1.6537e-03
14.000	21.500	1.9392e-03
14.000	21.750	2.2439e-03
14.000	22.000	2.6635e-03
14.000	22.250	3.5556e-03
14.000	22.500	5.4349e-03
14.000	22.750	9.0007e-03
14.000	23.000	1.4865e-02
14.000	23.250	2.2983e-02
14.000	23.500	3.1925e-02
14.000	23.750	3.9969e-02
14.000	24.000	4.6572e-02
