InwT 511.948A  relative to Inci 1215.00A scaled to 1215A.
Hden   Phi(H)  Eq_Width (A)
 7.000	17.000	3.9109e-02
 7.000	17.250	6.4911e-02
 7.000	17.500	9.8725e-02
 7.000	17.750	1.1025e-01
 7.000	18.000	9.9589e-02
 7.000	18.250	8.6596e-02
 7.000	18.500	7.7552e-02
 7.000	18.750	7.4210e-02
 7.000	19.000	7.2615e-02
 7.000	19.250	7.1716e-02
 7.000	19.500	7.1325e-02
 7.000	19.750	7.1154e-02
 7.000	20.000	7.1077e-02
 7.000	20.250	7.1041e-02
 7.000	20.500	7.1023e-02
 7.000	20.750	7.1013e-02
 7.000	21.000	7.1008e-02
 7.000	21.250	7.1006e-02
 7.000	21.500	7.1004e-02
 7.000	21.750	7.1003e-02
 7.000	22.000	7.1003e-02
 7.000	22.250	7.1003e-02
 7.000	22.500	7.1003e-02
 7.000	22.750	7.1011e-02
 7.000	23.000	7.1005e-02
 7.000	23.250	7.1006e-02
 7.000	23.500	7.1006e-02
 7.000	23.750	7.1006e-02
 7.000	24.000	7.1007e-02
 7.250	17.000	2.3460e-02
 7.250	17.250	3.8399e-02
 7.250	17.500	6.4248e-02
 7.250	17.750	9.8016e-02
 7.250	18.000	1.0963e-01
 7.250	18.250	9.9234e-02
 7.250	18.500	8.6409e-02
 7.250	18.750	7.7486e-02
 7.250	19.000	7.4184e-02
 7.250	19.250	7.2605e-02
 7.250	19.500	7.1714e-02
 7.250	19.750	7.1324e-02
 7.250	20.000	7.1154e-02
 7.250	20.250	7.1077e-02
 7.250	20.500	7.1041e-02
 7.250	20.750	7.1023e-02
 7.250	21.000	7.1013e-02
 7.250	21.250	7.1008e-02
 7.250	21.500	7.1005e-02
 7.250	21.750	7.1004e-02
 7.250	22.000	7.1003e-02
 7.250	22.250	7.1002e-02
 7.250	22.500	7.1002e-02
 7.250	22.750	7.1003e-02
 7.250	23.000	7.1002e-02
 7.250	23.250	7.1003e-02
 7.250	23.500	7.1003e-02
 7.250	23.750	7.1003e-02
 7.250	24.000	7.1003e-02
 7.500	17.000	1.4756e-02
 7.500	17.250	2.3070e-02
 7.500	17.500	3.8022e-02
 7.500	17.750	6.3967e-02
 7.500	18.000	9.7743e-02
 7.500	18.250	1.0934e-01
 7.500	18.500	9.9053e-02
 7.500	18.750	8.6294e-02
 7.500	19.000	7.7443e-02
 7.500	19.250	7.4166e-02
 7.500	19.500	7.2598e-02
 7.500	19.750	7.1713e-02
 7.500	20.000	7.1324e-02
 7.500	20.250	7.1154e-02
 7.500	20.500	7.1077e-02
 7.500	20.750	7.1041e-02
 7.500	21.000	7.1023e-02
 7.500	21.250	7.1013e-02
 7.500	21.500	7.1008e-02
 7.500	21.750	7.1005e-02
 7.500	22.000	7.1003e-02
 7.500	22.250	7.1003e-02
 7.500	22.500	7.1002e-02
 7.500	22.750	7.1002e-02
 7.500	23.000	7.1002e-02
 7.500	23.250	7.1002e-02
 7.500	23.500	7.1002e-02
 7.500	23.750	7.1002e-02
 7.500	24.000	7.1002e-02
 7.750	17.000	9.6567e-03
 7.750	17.250	1.4573e-02
 7.750	17.500	2.2862e-02
 7.750	17.750	3.7822e-02
 7.750	18.000	6.3885e-02
 7.750	18.250	9.7744e-02
 7.750	18.500	1.0928e-01
 7.750	18.750	9.8987e-02
 7.750	19.000	8.6225e-02
 7.750	19.250	7.7418e-02
 7.750	19.500	7.4155e-02
 7.750	19.750	7.2594e-02
 7.750	20.000	7.1712e-02
 7.750	20.250	7.1324e-02
 7.750	20.500	7.1154e-02
 7.750	20.750	7.1077e-02
 7.750	21.000	7.1041e-02
 7.750	21.250	7.1023e-02
 7.750	21.500	7.1013e-02
 7.750	21.750	7.1008e-02
 7.750	22.000	7.1005e-02
 7.750	22.250	7.1003e-02
 7.750	22.500	7.1002e-02
 7.750	22.750	7.1002e-02
 7.750	23.000	7.1002e-02
 7.750	23.250	7.1002e-02
 7.750	23.500	7.1002e-02
 7.750	23.750	7.1002e-02
 7.750	24.000	7.1001e-02
 8.000	17.000	6.4658e-03
 8.000	17.250	9.5235e-03
 8.000	17.500	1.4408e-02
 8.000	17.750	2.2684e-02
 8.000	18.000	3.7640e-02
 8.000	18.250	6.3811e-02
 8.000	18.500	9.7878e-02
 8.000	18.750	1.0937e-01
 8.000	19.000	9.9002e-02
 8.000	19.250	8.6188e-02
 8.000	19.500	7.7403e-02
 8.000	19.750	7.4149e-02
 8.000	20.000	7.2592e-02
 8.000	20.250	7.1712e-02
 8.000	20.500	7.1324e-02
 8.000	20.750	7.1153e-02
 8.000	21.000	7.1077e-02
 8.000	21.250	7.1041e-02
 8.000	21.500	7.1023e-02
 8.000	21.750	7.1013e-02
 8.000	22.000	7.1008e-02
 8.000	22.250	7.1005e-02
 8.000	22.500	7.1003e-02
 8.000	22.750	7.1002e-02
 8.000	23.000	7.1002e-02
 8.000	23.250	7.1002e-02
 8.000	23.500	7.1002e-02
 8.000	23.750	7.1001e-02
 8.000	24.000	7.1002e-02
 8.250	17.000	4.4658e-03
 8.250	17.250	6.4217e-03
 8.250	17.500	9.4742e-03
 8.250	17.750	1.4347e-02
 8.250	18.000	2.2614e-02
 8.250	18.250	3.7602e-02
 8.250	18.500	6.3908e-02
 8.250	18.750	9.8119e-02
 8.250	19.000	1.0957e-01
 8.250	19.250	9.9066e-02
 8.250	19.500	8.6167e-02
 8.250	19.750	7.7395e-02
 8.250	20.000	7.4146e-02
 8.250	20.250	7.2590e-02
 8.250	20.500	7.1711e-02
 8.250	20.750	7.1324e-02
 8.250	21.000	7.1153e-02
 8.250	21.250	7.1077e-02
 8.250	21.500	7.1041e-02
 8.250	21.750	7.1023e-02
 8.250	22.000	7.1013e-02
 8.250	22.250	7.1008e-02
 8.250	22.500	7.1005e-02
 8.250	22.750	7.1004e-02
 8.250	23.000	7.1003e-02
 8.250	23.250	7.1002e-02
 8.250	23.500	7.1002e-02
 8.250	23.750	7.1002e-02
 8.250	24.000	7.1002e-02
 8.500	17.000	3.1917e-03
 8.500	17.250	4.4412e-03
 8.500	17.500	6.3959e-03
 8.500	17.750	9.4403e-03
 8.500	18.000	1.4312e-02
 8.500	18.250	2.2568e-02
 8.500	18.500	3.7587e-02
 8.500	18.750	6.4081e-02
 8.500	19.000	9.8472e-02
 8.500	19.250	1.0984e-01
 8.500	19.500	9.9171e-02
 8.500	19.750	8.6157e-02
 8.500	20.000	7.7393e-02
 8.500	20.250	7.4146e-02
 8.500	20.500	7.2590e-02
 8.500	20.750	7.1711e-02
 8.500	21.000	7.1323e-02
 8.500	21.250	7.1153e-02
 8.500	21.500	7.1077e-02
 8.500	21.750	7.1041e-02
 8.500	22.000	7.1023e-02
 8.500	22.250	7.1013e-02
 8.500	22.500	7.1008e-02
 8.500	22.750	7.1005e-02
 8.500	23.000	7.1003e-02
 8.500	23.250	7.1003e-02
 8.500	23.500	7.1002e-02
 8.500	23.750	7.1002e-02
 8.500	24.000	7.1002e-02
 8.750	17.000	2.3633e-03
 8.750	17.250	3.1845e-03
 8.750	17.500	4.4313e-03
 8.750	17.750	6.3810e-03
 8.750	18.000	9.4235e-03
 8.750	18.250	1.4290e-02
 8.750	18.500	2.2536e-02
 8.750	18.750	3.7665e-02
 8.750	19.000	6.4441e-02
 8.750	19.250	9.8833e-02
 8.750	19.500	1.1015e-01
 8.750	19.750	9.9300e-02
 8.750	20.000	8.6155e-02
 8.750	20.250	7.7394e-02
 8.750	20.500	7.4146e-02
 8.750	20.750	7.2590e-02
 8.750	21.000	7.1711e-02
 8.750	21.250	7.1323e-02
 8.750	21.500	7.1153e-02
 8.750	21.750	7.1077e-02
 8.750	22.000	7.1041e-02
 8.750	22.250	7.1023e-02
 8.750	22.500	7.1013e-02
 8.750	22.750	7.1008e-02
 8.750	23.000	7.1005e-02
 8.750	23.250	7.1003e-02
 8.750	23.500	7.1003e-02
 8.750	23.750	7.1002e-02
 8.750	24.000	7.1002e-02
 9.000	17.000	1.7779e-03
 9.000	17.250	2.3814e-03
 9.000	17.500	3.2007e-03
 9.000	17.750	4.4418e-03
 9.000	18.000	6.3868e-03
 9.000	18.250	9.4263e-03
 9.000	18.500	1.4298e-02
 9.000	18.750	2.2602e-02
 9.000	19.000	3.7956e-02
 9.000	19.250	6.5145e-02
 9.000	19.500	9.9233e-02
 9.000	19.750	1.1046e-01
 9.000	20.000	9.9441e-02
 9.000	20.250	8.6158e-02
 9.000	20.500	7.7396e-02
 9.000	20.750	7.4148e-02
 9.000	21.000	7.2591e-02
 9.000	21.250	7.1711e-02
 9.000	21.500	7.1324e-02
 9.000	21.750	7.1153e-02
 9.000	22.000	7.1077e-02
 9.000	22.250	7.1041e-02
 9.000	22.500	7.1023e-02
 9.000	22.750	7.1013e-02
 9.000	23.000	7.1008e-02
 9.000	23.250	7.1005e-02
 9.000	23.500	7.1003e-02
 9.000	23.750	7.1002e-02
 9.000	24.000	7.1002e-02
 9.250	17.000	1.3243e-03
 9.250	17.250	1.8173e-03
 9.250	17.500	2.4289e-03
 9.250	17.750	3.2491e-03
 9.250	18.000	4.4821e-03
 9.250	18.250	6.4195e-03
 9.250	18.500	9.4681e-03
 9.250	18.750	1.4403e-02
 9.250	19.000	2.2907e-02
 9.250	19.250	3.8821e-02
 9.250	19.500	6.6580e-02
 9.250	19.750	9.9684e-02
 9.250	20.000	1.1076e-01
 9.250	20.250	9.9579e-02
 9.250	20.500	8.6159e-02
 9.250	20.750	7.7401e-02
 9.250	21.000	7.4150e-02
 9.250	21.250	7.2592e-02
 9.250	21.500	7.1704e-02
 9.250	21.750	7.1289e-02
 9.250	22.000	7.1116e-02
 9.250	22.250	7.1043e-02
 9.250	22.500	7.1040e-02
 9.250	22.750	7.1022e-02
 9.250	23.000	7.1013e-02
 9.250	23.250	7.1008e-02
 9.250	23.500	7.1005e-02
 9.250	23.750	7.1003e-02
 9.250	24.000	7.1002e-02
 9.500	17.000	9.4864e-04
 9.500	17.250	1.3731e-03
 9.500	17.500	1.8914e-03
 9.500	17.750	2.5173e-03
 9.500	18.000	3.3345e-03
 9.500	18.250	4.5606e-03
 9.500	18.500	6.5091e-03
 9.500	18.750	9.6300e-03
 9.500	19.000	1.4747e-02
 9.500	19.250	2.3715e-02
 9.500	19.500	4.0560e-02
 9.500	19.750	6.8661e-02
 9.500	20.000	1.0028e-01
 9.500	20.250	1.1103e-01
 9.500	20.500	9.9706e-02
 9.500	20.750	8.6167e-02
 9.500	21.000	7.7392e-02
 9.500	21.250	7.4120e-02
 9.500	21.500	7.2554e-02
 9.500	21.750	7.1669e-02
 9.500	22.000	7.1267e-02
 9.500	22.250	7.1086e-02
 9.500	22.500	7.1013e-02
 9.500	22.750	7.0977e-02
 9.500	23.000	7.0958e-02
 9.500	23.250	7.0947e-02
 9.500	23.500	7.0964e-02
 9.500	23.750	7.0961e-02
 9.500	24.000	7.0959e-02
 9.750	17.000	6.3317e-04
 9.750	17.250	9.8889e-04
 9.750	17.500	1.4523e-03
 9.750	17.750	2.0035e-03
 9.750	18.000	2.6415e-03
 9.750	18.250	3.4631e-03
 9.750	18.500	4.7122e-03
 9.750	18.750	6.7367e-03
 9.750	19.000	1.0052e-02
 9.750	19.250	1.5572e-02
 9.750	19.500	2.5315e-02
 9.750	19.750	4.3277e-02
 9.750	20.000	7.1099e-02
 9.750	20.250	1.0121e-01
 9.750	20.500	1.1128e-01
 9.750	20.750	9.9822e-02
 9.750	21.000	8.6184e-02
 9.750	21.250	7.7408e-02
 9.750	21.500	7.4143e-02
 9.750	21.750	7.2559e-02
 9.750	22.000	7.1672e-02
 9.750	22.250	7.1275e-02
 9.750	22.500	7.1093e-02
 9.750	22.750	7.1010e-02
 9.750	23.000	7.0975e-02
 9.750	23.250	7.0958e-02
 9.750	23.500	7.0948e-02
 9.750	23.750	7.0943e-02
 9.750	24.000	7.0941e-02
10.000	17.000	3.7564e-04
10.000	17.250	6.5778e-04
10.000	17.500	1.0527e-03
10.000	17.750	1.5591e-03
10.000	18.000	2.1444e-03
10.000	18.250	2.8099e-03
10.000	18.500	3.6707e-03
10.000	18.750	5.0084e-03
10.000	19.000	7.2236e-03
10.000	19.250	1.0882e-02
10.000	19.500	1.6999e-02
10.000	19.750	2.7904e-02
10.000	20.000	4.6226e-02
10.000	20.250	7.3806e-02
10.000	20.500	1.0244e-01
10.000	20.750	1.1159e-01
10.000	21.000	9.9947e-02
10.000	21.250	8.6207e-02
10.000	21.500	7.7418e-02
10.000	21.750	7.4156e-02
10.000	22.000	7.2574e-02
10.000	22.250	7.1675e-02
10.000	22.500	7.1281e-02
10.000	22.750	7.1102e-02
10.000	23.000	7.1017e-02
10.000	23.250	7.0976e-02
10.000	23.500	7.0955e-02
10.000	23.750	7.0946e-02
10.000	24.000	7.0941e-02
10.250	17.000	2.2362e-04
10.250	17.250	3.9037e-04
10.250	17.500	7.0140e-04
10.250	17.750	1.1363e-03
10.250	18.000	1.6920e-03
10.250	18.250	2.3335e-03
10.250	18.500	3.0659e-03
10.250	18.750	4.0357e-03
10.250	19.000	5.5511e-03
10.250	19.250	8.0624e-03
10.250	19.500	1.2208e-02
10.250	19.750	1.9163e-02
10.250	20.000	3.1518e-02
10.250	20.250	5.0628e-02
10.250	20.500	7.6784e-02
10.250	20.750	1.0416e-01
10.250	21.000	1.1203e-01
10.250	21.250	1.0009e-01
10.250	21.500	8.6240e-02
10.250	21.750	7.7428e-02
10.250	22.000	7.4164e-02
10.250	22.250	7.2591e-02
10.250	22.500	7.1676e-02
10.250	22.750	7.1285e-02
10.250	23.000	7.1109e-02
10.250	23.250	7.1026e-02
10.250	23.500	7.0985e-02
10.250	23.750	7.0963e-02
10.250	24.000	7.0953e-02
10.500	17.000	1.3646e-04
10.500	17.250	2.3202e-04
10.500	17.500	4.1893e-04
10.500	17.750	7.6560e-04
10.500	18.000	1.2559e-03
10.500	18.250	1.8876e-03
10.500	18.500	2.6184e-03
10.500	18.750	3.4643e-03
10.500	19.000	4.5974e-03
10.500	19.250	6.3700e-03
10.500	19.500	9.2824e-03
10.500	19.750	1.4043e-02
10.500	20.000	2.2052e-02
10.500	20.250	3.6049e-02
10.500	20.500	5.5121e-02
10.500	20.750	8.0093e-02
10.500	21.000	1.0628e-01
10.500	21.250	1.1266e-01
10.500	21.500	1.0027e-01
10.500	21.750	8.6292e-02
10.500	22.000	7.7440e-02
10.500	22.250	7.4171e-02
10.500	22.500	7.2598e-02
10.500	22.750	7.1683e-02
10.500	23.000	7.1287e-02
10.500	23.250	7.1113e-02
10.500	23.500	7.1033e-02
10.500	23.750	7.0993e-02
10.500	24.000	7.0972e-02
10.750	17.000	8.7819e-05
10.750	17.250	1.4173e-04
10.750	17.500	2.5276e-04
10.750	17.750	4.7967e-04
10.750	18.000	8.7704e-04
10.750	18.250	1.4551e-03
10.750	18.500	2.1811e-03
10.750	18.750	3.0152e-03
10.750	19.000	3.9965e-03
10.750	19.250	5.3465e-03
10.750	19.500	7.4565e-03
10.750	19.750	1.0871e-02
10.750	20.000	1.6379e-02
10.750	20.250	2.5622e-02
10.750	20.500	4.0256e-02
10.750	20.750	5.9868e-02
10.750	21.000	8.4439e-02
10.750	21.250	1.0932e-01
10.750	21.500	1.1352e-01
10.750	21.750	1.0052e-01
10.750	22.000	8.6378e-02
10.750	22.250	7.7456e-02
10.750	22.500	7.4180e-02
10.750	22.750	7.2603e-02
10.750	23.000	7.1701e-02
10.750	23.250	7.1288e-02
10.750	23.500	7.1116e-02
10.750	23.750	7.1037e-02
10.750	24.000	7.0999e-02
11.000	17.000	5.9835e-05
11.000	17.250	9.0864e-05
11.000	17.500	1.5564e-04
11.000	17.750	3.0049e-04
11.000	18.000	5.8593e-04
11.000	18.250	1.0523e-03
11.000	18.500	1.7179e-03
11.000	18.750	2.5380e-03
11.000	19.000	3.4794e-03
11.000	19.250	4.6376e-03
11.000	19.500	6.2804e-03
11.000	19.750	8.8300e-03
11.000	20.000	1.2854e-02
11.000	20.250	1.9215e-02
11.000	20.500	2.9911e-02
11.000	20.750	4.5615e-02
11.000	21.000	6.5629e-02
11.000	21.250	8.9950e-02
11.000	21.500	1.1345e-01
11.000	21.750	1.1453e-01
11.000	22.000	1.0084e-01
11.000	22.250	8.6498e-02
11.000	22.500	7.7479e-02
11.000	22.750	7.4192e-02
11.000	23.000	7.2609e-02
11.000	23.250	7.1711e-02
11.000	23.500	7.1294e-02
11.000	23.750	7.1117e-02
11.000	24.000	7.1040e-02
11.250	17.000	4.2963e-05
11.250	17.250	6.1070e-05
11.250	17.500	9.9342e-05
11.250	17.750	1.8856e-04
11.250	18.000	3.8156e-04
11.250	18.250	7.2148e-04
11.250	18.500	1.2513e-03
11.250	18.750	2.0026e-03
11.250	19.000	2.9164e-03
11.250	19.250	3.9913e-03
11.250	19.500	5.3984e-03
11.250	19.750	7.4410e-03
11.250	20.000	1.0543e-02
11.250	20.250	1.5286e-02
11.250	20.500	2.2660e-02
11.250	20.750	3.5004e-02
11.250	21.000	5.1640e-02
11.250	21.250	7.2919e-02
11.250	21.500	9.7340e-02
11.250	21.750	1.1893e-01
11.250	22.000	1.1585e-01
11.250	22.250	1.0121e-01
11.250	22.500	8.6675e-02
11.250	22.750	7.7512e-02
11.250	23.000	7.4207e-02
11.250	23.250	7.2616e-02
11.250	23.500	7.1715e-02
11.250	23.750	7.1312e-02
11.250	24.000	7.1120e-02
11.500	17.000	3.2510e-05
11.500	17.250	4.3292e-05
11.500	17.500	6.5926e-05
11.500	17.750	1.1811e-04
11.500	18.000	2.3877e-04
11.500	18.250	4.7152e-04
11.500	18.500	8.5374e-04
11.500	18.750	1.4479e-03
11.500	19.000	2.2905e-03
11.500	19.250	3.3133e-03
11.500	19.500	4.5732e-03
11.500	19.750	6.3260e-03
11.500	20.000	8.8852e-03
11.500	20.250	1.2636e-02
11.500	20.500	1.8187e-02
11.500	20.750	2.6730e-02
11.500	21.000	4.1002e-02
11.500	21.250	5.9087e-02
11.500	21.500	8.2362e-02
11.500	21.750	1.0658e-01
11.500	22.000	1.2493e-01
11.500	22.250	1.1735e-01
11.500	22.500	1.0157e-01
11.500	22.750	8.6872e-02
11.500	23.000	7.7558e-02
11.500	23.250	7.4229e-02
11.500	23.500	7.2626e-02
11.500	23.750	7.1718e-02
11.500	24.000	7.1321e-02
11.750	17.000	2.5679e-05
11.750	17.250	3.2263e-05
11.750	17.500	4.5679e-05
11.750	17.750	7.5226e-05
11.750	18.000	1.4354e-04
11.750	18.250	2.8938e-04
11.750	18.500	5.5440e-04
11.750	18.750	9.7802e-04
11.750	19.000	1.6417e-03
11.750	19.250	2.5865e-03
11.750	19.500	3.7453e-03
11.750	19.750	5.2638e-03
11.750	20.000	7.4667e-03
11.750	20.250	1.0651e-02
11.750	20.500	1.5143e-02
11.750	20.750	2.1652e-02
11.750	21.000	3.1699e-02
11.750	21.250	4.8035e-02
11.750	21.500	6.8319e-02
11.750	21.750	9.3959e-02
11.750	22.000	1.1737e-01
11.750	22.250	1.3040e-01
11.750	22.500	1.1888e-01
11.750	22.750	1.0190e-01
11.750	23.000	8.7084e-02
11.750	23.250	7.7619e-02
11.750	23.500	7.4257e-02
11.750	23.750	7.2638e-02
11.750	24.000	7.1721e-02
12.000	17.000	2.0988e-05
12.000	17.250	2.5021e-05
12.000	17.500	3.3086e-05
12.000	17.750	4.9877e-05
12.000	18.000	8.6667e-05
12.000	18.250	1.6815e-04
12.000	18.500	3.3523e-04
12.000	18.750	6.3012e-04
12.000	19.000	1.0973e-03
12.000	19.250	1.8399e-03
12.000	19.500	2.8995e-03
12.000	19.750	4.2393e-03
12.000	20.000	6.1205e-03
12.000	20.250	8.9086e-03
12.000	20.500	1.2827e-02
12.000	20.750	1.8177e-02
12.000	21.000	2.5970e-02
12.000	21.250	3.8055e-02
12.000	21.500	5.6861e-02
12.000	21.750	7.9823e-02
12.000	22.000	1.0713e-01
12.000	22.250	1.2861e-01
12.000	22.500	1.3543e-01
12.000	22.750	1.2041e-01
12.000	23.000	1.0216e-01
12.000	23.250	8.7276e-02
12.000	23.500	7.7694e-02
12.000	23.750	7.4288e-02
12.000	24.000	7.2650e-02
12.250	17.000	1.7695e-05
12.250	17.250	2.0165e-05
12.250	17.500	2.4938e-05
12.250	17.750	3.4650e-05
12.250	18.000	5.4650e-05
12.250	18.250	9.7860e-05
12.250	18.500	1.9128e-04
12.250	18.750	3.7918e-04
12.250	19.000	7.0288e-04
12.250	19.250	1.2175e-03
12.250	19.500	2.0529e-03
12.250	19.750	3.2531e-03
12.250	20.000	4.8531e-03
12.250	20.250	7.2273e-03
12.250	20.500	1.0720e-02
12.250	20.750	1.5504e-02
12.250	21.000	2.2084e-02
12.250	21.250	3.1595e-02
12.250	21.500	4.5733e-02
12.250	21.750	6.7518e-02
12.250	22.000	9.3218e-02
12.250	22.250	1.2134e-01
12.250	22.500	1.4016e-01
12.250	22.750	1.4021e-01
12.250	23.000	1.2159e-01
12.250	23.250	1.0235e-01
12.250	23.500	8.7443e-02
12.250	23.750	7.7752e-02
12.250	24.000	7.4316e-02
12.500	17.000	1.4815e-05
12.500	17.250	1.6708e-05
12.500	17.500	1.9671e-05
12.500	17.750	2.5267e-05
12.500	18.000	3.6543e-05
12.500	18.250	5.9588e-05
12.500	18.500	1.0922e-04
12.500	18.750	2.1547e-04
12.500	19.000	4.2329e-04
12.500	19.250	7.7119e-04
12.500	19.500	1.3398e-03
12.500	19.750	2.2852e-03
12.500	20.000	3.6853e-03
12.500	20.250	5.6472e-03
12.500	20.500	8.6399e-03
12.500	20.750	1.3069e-02
12.500	21.000	1.9077e-02
12.500	21.250	2.7133e-02
12.500	21.500	3.8547e-02
12.500	21.750	5.5351e-02
12.500	22.000	8.0300e-02
12.500	22.250	1.0810e-01
12.500	22.500	1.3571e-01
12.500	22.750	1.5172e-01
12.500	23.000	1.4465e-01
12.500	23.250	1.2311e-01
12.500	23.500	1.0246e-01
12.500	23.750	8.7561e-02
12.500	24.000	7.7809e-02
12.750	17.000	1.2510e-05
12.750	17.250	1.3827e-05
12.750	17.500	1.5802e-05
12.750	17.750	1.9424e-05
12.750	18.000	2.6008e-05
12.750	18.250	3.8765e-05
12.750	18.500	6.5185e-05
12.750	18.750	1.2181e-04
12.750	19.000	2.3992e-04
12.750	19.250	4.6395e-04
12.750	19.500	8.3259e-04
12.750	19.750	1.4648e-03
12.750	20.000	2.5444e-03
12.750	20.250	4.1995e-03
12.750	20.500	6.6640e-03
12.750	20.750	1.0488e-02
12.750	21.000	1.6065e-02
12.750	21.250	2.3641e-02
12.750	21.500	3.3409e-02
12.750	21.750	4.7146e-02
12.750	22.000	6.7281e-02
12.750	22.250	9.4534e-02
12.750	22.500	1.2459e-01
12.750	22.750	1.5033e-01
12.750	23.000	1.6280e-01
12.750	23.250	1.4913e-01
12.750	23.500	1.2407e-01
12.750	23.750	1.0248e-01
12.750	24.000	8.7616e-02
13.000	17.000	1.0617e-05
13.000	17.250	1.1523e-05
13.000	17.500	1.2922e-05
13.000	17.750	1.5226e-05
13.000	18.000	1.9342e-05
13.000	18.250	2.7078e-05
13.000	18.500	4.2058e-05
13.000	18.750	7.2510e-05
13.000	19.000	1.3564e-04
13.000	19.250	2.6165e-04
13.000	19.500	4.9086e-04
13.000	19.750	8.8420e-04
13.000	20.000	1.5702e-03
13.000	20.250	2.8092e-03
13.000	20.500	4.8198e-03
13.000	20.750	7.8712e-03
13.000	21.000	1.2621e-02
13.000	21.250	1.9734e-02
13.000	21.500	2.8754e-02
13.000	21.750	4.1254e-02
13.000	22.000	5.7716e-02
13.000	22.250	7.9982e-02
13.000	22.500	1.0881e-01
13.000	22.750	1.4156e-01
13.000	23.000	1.6538e-01
13.000	23.250	1.7370e-01
13.000	23.500	1.5270e-01
13.000	23.750	1.2475e-01
13.000	24.000	1.0244e-01
13.250	17.000	8.9712e-06
13.250	17.250	9.7119e-06
13.250	17.500	1.0617e-05
13.250	17.750	1.2181e-05
13.250	18.000	1.4979e-05
13.250	18.250	1.9918e-05
13.250	18.500	2.9300e-05
13.250	18.750	4.7243e-05
13.250	19.000	8.2140e-05
13.250	19.250	1.5062e-04
13.250	19.500	2.8049e-04
13.250	19.750	5.1951e-04
13.250	20.000	9.2922e-04
13.250	20.250	1.6672e-03
13.250	20.500	3.0342e-03
13.250	20.750	5.3156e-03
13.250	21.000	9.1230e-03
13.250	21.250	1.4887e-02
13.250	21.500	2.3175e-02
13.250	21.750	3.3888e-02
13.250	22.000	4.8637e-02
13.250	22.250	6.6964e-02
13.250	22.500	9.3143e-02
13.250	22.750	1.2387e-01
13.250	23.000	1.5852e-01
13.250	23.250	1.8220e-01
13.250	23.500	1.8366e-01
13.250	23.750	1.5585e-01
13.250	24.000	1.2510e-01
13.500	17.000	7.6543e-06
13.500	17.250	8.0658e-06
13.500	17.500	8.8066e-06
13.500	17.750	9.9588e-06
13.500	18.000	1.1852e-05
13.500	18.250	1.5391e-05
13.500	18.500	2.1728e-05
13.500	18.750	3.3580e-05
13.500	19.000	5.5391e-05
13.500	19.250	9.5720e-05
13.500	19.500	1.7136e-04
13.500	19.750	3.1276e-04
13.500	20.000	5.6774e-04
13.500	20.250	1.0151e-03
13.500	20.500	1.8048e-03
13.500	20.750	3.2443e-03
13.500	21.000	5.7339e-03
13.500	21.250	9.9671e-03
13.500	21.500	1.6740e-02
13.500	21.750	2.5893e-02
13.500	22.000	3.8498e-02
13.500	22.250	5.7614e-02
13.500	22.500	7.9740e-02
13.500	22.750	1.0864e-01
13.500	23.000	1.4409e-01
13.500	23.250	1.8173e-01
13.500	23.500	2.0211e-01
13.500	23.750	1.9407e-01
13.500	24.000	1.5878e-01
13.750	17.000	6.5021e-06
13.750	17.250	6.8313e-06
13.750	17.500	7.4074e-06
13.750	17.750	8.2305e-06
13.750	18.000	9.7119e-06
13.750	18.250	1.2263e-05
13.750	18.500	1.6872e-05
13.750	18.750	2.5432e-05
13.750	19.000	4.0905e-05
13.750	19.250	6.8724e-05
13.750	19.500	1.1835e-04
13.750	19.750	2.0905e-04
13.750	20.000	3.7580e-04
13.750	20.250	6.7342e-04
13.750	20.500	1.1875e-03
13.750	20.750	2.0656e-03
13.750	21.000	3.6226e-03
13.750	21.250	6.3462e-03
13.750	21.500	1.0933e-02
13.750	21.750	1.8231e-02
13.750	22.000	2.8939e-02
13.750	22.250	4.4493e-02
13.750	22.500	6.6402e-02
13.750	22.750	9.4728e-02
13.750	23.000	1.3098e-01
13.750	23.250	1.7261e-01
13.750	23.500	2.1117e-01
13.750	23.750	2.2418e-01
13.750	24.000	2.0399e-01
14.000	17.000	5.5967e-06
14.000	17.250	5.8436e-06
14.000	17.500	6.1728e-06
14.000	17.750	6.9136e-06
14.000	18.000	8.0658e-06
14.000	18.250	1.0041e-05
14.000	18.500	1.3663e-05
14.000	18.750	2.0247e-05
14.000	19.000	3.2181e-05
14.000	19.250	5.3663e-05
14.000	19.500	9.1358e-05
14.000	19.750	1.5728e-04
14.000	20.000	2.7531e-04
14.000	20.250	4.8840e-04
14.000	20.500	8.6494e-04
14.000	20.750	1.4999e-03
14.000	21.000	2.5598e-03
14.000	21.250	4.3943e-03
14.000	21.500	7.5025e-03
14.000	21.750	1.2805e-02
14.000	22.000	2.1121e-02
14.000	22.250	3.3686e-02
14.000	22.500	5.2986e-02
14.000	22.750	8.1037e-02
14.000	23.000	1.1712e-01
14.000	23.250	1.6537e-01
14.000	23.500	2.1445e-01
14.000	23.750	2.4859e-01
14.000	24.000	2.4826e-01
