InwT 10000.0A  relative to Inci 1215.00A scaled to 1215A.
Hden   Phi(H)  Eq_Width (A)
 7.000	17.000	3.4477e-02
 7.000	17.250	3.4038e-02
 7.000	17.500	2.5304e-02
 7.000	17.750	1.9735e-02
 7.000	18.000	1.6616e-02
 7.000	18.250	1.5024e-02
 7.000	18.500	1.4163e-02
 7.000	18.750	1.3811e-02
 7.000	19.000	1.3638e-02
 7.000	19.250	1.3541e-02
 7.000	19.500	1.3503e-02
 7.000	19.750	1.3489e-02
 7.000	20.000	1.3482e-02
 7.000	20.250	1.3479e-02
 7.000	20.500	1.3478e-02
 7.000	20.750	1.3477e-02
 7.000	21.000	1.3477e-02
 7.000	21.250	1.3477e-02
 7.000	21.500	1.3477e-02
 7.000	21.750	1.3477e-02
 7.000	22.000	1.3477e-02
 7.000	22.250	1.3477e-02
 7.000	22.500	1.3477e-02
 7.000	22.750	1.3478e-02
 7.000	23.000	1.3477e-02
 7.000	23.250	1.3477e-02
 7.000	23.500	1.3477e-02
 7.000	23.750	1.3477e-02
 7.000	24.000	1.3477e-02
 7.250	17.000	3.5600e-02
 7.250	17.250	3.4977e-02
 7.250	17.500	3.3996e-02
 7.250	17.750	2.5292e-02
 7.250	18.000	1.9727e-02
 7.250	18.250	1.6612e-02
 7.250	18.500	1.5024e-02
 7.250	18.750	1.4163e-02
 7.250	19.000	1.3811e-02
 7.250	19.250	1.3638e-02
 7.250	19.500	1.3541e-02
 7.250	19.750	1.3503e-02
 7.250	20.000	1.3489e-02
 7.250	20.250	1.3482e-02
 7.250	20.500	1.3480e-02
 7.250	20.750	1.3478e-02
 7.250	21.000	1.3477e-02
 7.250	21.250	1.3477e-02
 7.250	21.500	1.3477e-02
 7.250	21.750	1.3477e-02
 7.250	22.000	1.3477e-02
 7.250	22.250	1.3477e-02
 7.250	22.500	1.3477e-02
 7.250	22.750	1.3477e-02
 7.250	23.000	1.3477e-02
 7.250	23.250	1.3477e-02
 7.250	23.500	1.3477e-02
 7.250	23.750	1.3477e-02
 7.250	24.000	1.3477e-02
 7.500	17.000	3.5353e-02
 7.500	17.250	3.6619e-02
 7.500	17.500	3.5447e-02
 7.500	17.750	3.3961e-02
 7.500	18.000	2.5282e-02
 7.500	18.250	1.9720e-02
 7.500	18.500	1.6608e-02
 7.500	18.750	1.5023e-02
 7.500	19.000	1.4163e-02
 7.500	19.250	1.3811e-02
 7.500	19.500	1.3638e-02
 7.500	19.750	1.3541e-02
 7.500	20.000	1.3503e-02
 7.500	20.250	1.3489e-02
 7.500	20.500	1.3482e-02
 7.500	20.750	1.3480e-02
 7.500	21.000	1.3478e-02
 7.500	21.250	1.3477e-02
 7.500	21.500	1.3477e-02
 7.500	21.750	1.3477e-02
 7.500	22.000	1.3477e-02
 7.500	22.250	1.3477e-02
 7.500	22.500	1.3477e-02
 7.500	22.750	1.3476e-02
 7.500	23.000	1.3477e-02
 7.500	23.250	1.3477e-02
 7.500	23.500	1.3477e-02
 7.500	23.750	1.3477e-02
 7.500	24.000	1.3477e-02
 7.750	17.000	3.3923e-02
 7.750	17.250	3.6452e-02
 7.750	17.500	3.7787e-02
 7.750	17.750	3.5990e-02
 7.750	18.000	3.3933e-02
 7.750	18.250	2.5274e-02
 7.750	18.500	1.9713e-02
 7.750	18.750	1.6603e-02
 7.750	19.000	1.5023e-02
 7.750	19.250	1.4163e-02
 7.750	19.500	1.3811e-02
 7.750	19.750	1.3638e-02
 7.750	20.000	1.3541e-02
 7.750	20.250	1.3503e-02
 7.750	20.500	1.3489e-02
 7.750	20.750	1.3482e-02
 7.750	21.000	1.3479e-02
 7.750	21.250	1.3478e-02
 7.750	21.500	1.3477e-02
 7.750	21.750	1.3477e-02
 7.750	22.000	1.3477e-02
 7.750	22.250	1.3477e-02
 7.750	22.500	1.3477e-02
 7.750	22.750	1.3476e-02
 7.750	23.000	1.3476e-02
 7.750	23.250	1.3476e-02
 7.750	23.500	1.3476e-02
 7.750	23.750	1.3476e-02
 7.750	24.000	1.3476e-02
 8.000	17.000	3.2678e-02
 8.000	17.250	3.4558e-02
 8.000	17.500	3.7453e-02
 8.000	17.750	3.8909e-02
 8.000	18.000	3.6477e-02
 8.000	18.250	3.3897e-02
 8.000	18.500	2.5260e-02
 8.000	18.750	1.9705e-02
 8.000	19.000	1.6597e-02
 8.000	19.250	1.5022e-02
 8.000	19.500	1.4163e-02
 8.000	19.750	1.3811e-02
 8.000	20.000	1.3638e-02
 8.000	20.250	1.3541e-02
 8.000	20.500	1.3503e-02
 8.000	20.750	1.3489e-02
 8.000	21.000	1.3482e-02
 8.000	21.250	1.3479e-02
 8.000	21.500	1.3478e-02
 8.000	21.750	1.3477e-02
 8.000	22.000	1.3477e-02
 8.000	22.250	1.3477e-02
 8.000	22.500	1.3477e-02
 8.000	22.750	1.3477e-02
 8.000	23.000	1.3476e-02
 8.000	23.250	1.3476e-02
 8.000	23.500	1.3476e-02
 8.000	23.750	1.3476e-02
 8.000	24.000	1.3476e-02
 8.250	17.000	3.2533e-02
 8.250	17.250	3.3572e-02
 8.250	17.500	3.5894e-02
 8.250	17.750	3.9487e-02
 8.250	18.000	4.1151e-02
 8.250	18.250	3.7573e-02
 8.250	18.500	3.3881e-02
 8.250	18.750	2.5256e-02
 8.250	19.000	1.9696e-02
 8.250	19.250	1.6590e-02
 8.250	19.500	1.5021e-02
 8.250	19.750	1.4162e-02
 8.250	20.000	1.3811e-02
 8.250	20.250	1.3638e-02
 8.250	20.500	1.3541e-02
 8.250	20.750	1.3503e-02
 8.250	21.000	1.3489e-02
 8.250	21.250	1.3482e-02
 8.250	21.500	1.3480e-02
 8.250	21.750	1.3478e-02
 8.250	22.000	1.3477e-02
 8.250	22.250	1.3477e-02
 8.250	22.500	1.3477e-02
 8.250	22.750	1.3477e-02
 8.250	23.000	1.3477e-02
 8.250	23.250	1.3476e-02
 8.250	23.500	1.3476e-02
 8.250	23.750	1.3476e-02
 8.250	24.000	1.3476e-02
 8.500	17.000	3.2902e-02
 8.500	17.250	3.3433e-02
 8.500	17.500	3.4930e-02
 8.500	17.750	3.8210e-02
 8.500	18.000	4.2997e-02
 8.500	18.250	4.4744e-02
 8.500	18.500	3.9116e-02
 8.500	18.750	3.3872e-02
 8.500	19.000	2.5254e-02
 8.500	19.250	1.9686e-02
 8.500	19.500	1.6581e-02
 8.500	19.750	1.5019e-02
 8.500	20.000	1.4162e-02
 8.500	20.250	1.3811e-02
 8.500	20.500	1.3638e-02
 8.500	20.750	1.3541e-02
 8.500	21.000	1.3503e-02
 8.500	21.250	1.3489e-02
 8.500	21.500	1.3482e-02
 8.500	21.750	1.3480e-02
 8.500	22.000	1.3478e-02
 8.500	22.250	1.3477e-02
 8.500	22.500	1.3477e-02
 8.500	22.750	1.3477e-02
 8.500	23.000	1.3477e-02
 8.500	23.250	1.3477e-02
 8.500	23.500	1.3476e-02
 8.500	23.750	1.3476e-02
 8.500	24.000	1.3476e-02
 8.750	17.000	3.3517e-02
 8.750	17.250	3.3855e-02
 8.750	17.500	3.4907e-02
 8.750	17.750	3.7366e-02
 8.750	18.000	4.2562e-02
 8.750	18.250	4.9229e-02
 8.750	18.500	4.8718e-02
 8.750	18.750	4.0878e-02
 8.750	19.000	3.3868e-02
 8.750	19.250	2.5252e-02
 8.750	19.500	1.9675e-02
 8.750	19.750	1.6572e-02
 8.750	20.000	1.5018e-02
 8.750	20.250	1.4162e-02
 8.750	20.500	1.3811e-02
 8.750	20.750	1.3638e-02
 8.750	21.000	1.3541e-02
 8.750	21.250	1.3503e-02
 8.750	21.500	1.3489e-02
 8.750	21.750	1.3482e-02
 8.750	22.000	1.3480e-02
 8.750	22.250	1.3478e-02
 8.750	22.500	1.3477e-02
 8.750	22.750	1.3477e-02
 8.750	23.000	1.3477e-02
 8.750	23.250	1.3477e-02
 8.750	23.500	1.3477e-02
 8.750	23.750	1.3476e-02
 8.750	24.000	1.3476e-02
 9.000	17.000	3.4255e-02
 9.000	17.250	3.4540e-02
 9.000	17.500	3.5502e-02
 9.000	17.750	3.7689e-02
 9.000	18.000	4.2456e-02
 9.000	18.250	5.0578e-02
 9.000	18.500	5.7847e-02
 9.000	18.750	5.4078e-02
 9.000	19.000	4.3646e-02
 9.000	19.250	3.3877e-02
 9.000	19.500	2.5250e-02
 9.000	19.750	1.9664e-02
 9.000	20.000	1.6562e-02
 9.000	20.250	1.5016e-02
 9.000	20.500	1.4162e-02
 9.000	20.750	1.3811e-02
 9.000	21.000	1.3638e-02
 9.000	21.250	1.3541e-02
 9.000	21.500	1.3503e-02
 9.000	21.750	1.3489e-02
 9.000	22.000	1.3482e-02
 9.000	22.250	1.3480e-02
 9.000	22.500	1.3478e-02
 9.000	22.750	1.3477e-02
 9.000	23.000	1.3477e-02
 9.000	23.250	1.3477e-02
 9.000	23.500	1.3477e-02
 9.000	23.750	1.3476e-02
 9.000	24.000	1.3476e-02
 9.250	17.000	3.5091e-02
 9.250	17.250	3.5379e-02
 9.250	17.500	3.6468e-02
 9.250	17.750	3.8858e-02
 9.250	18.000	4.3717e-02
 9.250	18.250	5.2075e-02
 9.250	18.500	6.2012e-02
 9.250	18.750	6.6911e-02
 9.250	19.000	5.8351e-02
 9.250	19.250	4.6521e-02
 9.250	19.500	3.3894e-02
 9.250	19.750	2.5247e-02
 9.250	20.000	1.9655e-02
 9.250	20.250	1.6552e-02
 9.250	20.500	1.5014e-02
 9.250	20.750	1.4161e-02
 9.250	21.000	1.3811e-02
 9.250	21.250	1.3638e-02
 9.250	21.500	1.3539e-02
 9.250	21.750	1.3497e-02
 9.250	22.000	1.3482e-02
 9.250	22.250	1.3476e-02
 9.250	22.500	1.3479e-02
 9.250	22.750	1.3478e-02
 9.250	23.000	1.3477e-02
 9.250	23.250	1.3477e-02
 9.250	23.500	1.3477e-02
 9.250	23.750	1.3477e-02
 9.250	24.000	1.3477e-02
 9.500	17.000	3.6120e-02
 9.500	17.250	3.6408e-02
 9.500	17.500	3.7714e-02
 9.500	17.750	4.0626e-02
 9.500	18.000	4.6349e-02
 9.500	18.250	5.5497e-02
 9.500	18.500	6.5632e-02
 9.500	18.750	7.4769e-02
 9.500	19.000	7.7071e-02
 9.500	19.250	6.2623e-02
 9.500	19.500	4.8592e-02
 9.500	19.750	3.3880e-02
 9.500	20.000	2.5239e-02
 9.500	20.250	1.9647e-02
 9.500	20.500	1.6543e-02
 9.500	20.750	1.5013e-02
 9.500	21.000	1.4159e-02
 9.500	21.250	1.3805e-02
 9.500	21.500	1.3631e-02
 9.500	21.750	1.3533e-02
 9.500	22.000	1.3493e-02
 9.500	22.250	1.3476e-02
 9.500	22.500	1.3470e-02
 9.500	22.750	1.3467e-02
 9.500	23.000	1.3466e-02
 9.500	23.250	1.3465e-02
 9.500	23.500	1.3469e-02
 9.500	23.750	1.3468e-02
 9.500	24.000	1.3468e-02
 9.750	17.000	3.7358e-02
 9.750	17.250	3.7644e-02
 9.750	17.500	3.9192e-02
 9.750	17.750	4.2846e-02
 9.750	18.000	5.0129e-02
 9.750	18.250	6.0636e-02
 9.750	18.500	7.1235e-02
 9.750	18.750	8.0802e-02
 9.750	19.000	8.7883e-02
 9.750	19.250	8.5062e-02
 9.750	19.500	6.8224e-02
 9.750	19.750	4.9529e-02
 9.750	20.000	3.3820e-02
 9.750	20.250	2.5231e-02
 9.750	20.500	1.9640e-02
 9.750	20.750	1.6536e-02
 9.750	21.000	1.5011e-02
 9.750	21.250	1.4160e-02
 9.750	21.500	1.3808e-02
 9.750	21.750	1.3632e-02
 9.750	22.000	1.3533e-02
 9.750	22.250	1.3494e-02
 9.750	22.500	1.3477e-02
 9.750	22.750	1.3469e-02
 9.750	23.000	1.3467e-02
 9.750	23.250	1.3466e-02
 9.750	23.500	1.3465e-02
 9.750	23.750	1.3465e-02
 9.750	24.000	1.3464e-02
10.000	17.000	3.8840e-02
10.000	17.250	3.9202e-02
10.000	17.500	4.1069e-02
10.000	17.750	4.5723e-02
10.000	18.000	5.4848e-02
10.000	18.250	6.6976e-02
10.000	18.500	7.7884e-02
10.000	18.750	8.7615e-02
10.000	19.000	9.5740e-02
10.000	19.250	1.0143e-01
10.000	19.500	9.2850e-02
10.000	19.750	7.3151e-02
10.000	20.000	4.9245e-02
10.000	20.250	3.3723e-02
10.000	20.500	2.5219e-02
10.000	20.750	1.9635e-02
10.000	21.000	1.6529e-02
10.000	21.250	1.5009e-02
10.000	21.500	1.4160e-02
10.000	21.750	1.3810e-02
10.000	22.000	1.3634e-02
10.000	22.250	1.3534e-02
10.000	22.500	1.3495e-02
10.000	22.750	1.3479e-02
10.000	23.000	1.3471e-02
10.000	23.250	1.3467e-02
10.000	23.500	1.3465e-02
10.000	23.750	1.3464e-02
10.000	24.000	1.3464e-02
10.250	17.000	4.1112e-02
10.250	17.250	4.1201e-02
10.250	17.500	4.3625e-02
10.250	17.750	4.9607e-02
10.250	18.000	6.0460e-02
10.250	18.250	7.3719e-02
10.250	18.500	8.5510e-02
10.250	18.750	9.5411e-02
10.250	19.000	1.0358e-01
10.250	19.250	1.1107e-01
10.250	19.500	1.1153e-01
10.250	19.750	9.8833e-02
10.250	20.000	7.6112e-02
10.250	20.250	4.9180e-02
10.250	20.500	3.3580e-02
10.250	20.750	2.5207e-02
10.250	21.000	1.9628e-02
10.250	21.250	1.6523e-02
10.250	21.500	1.5008e-02
10.250	21.750	1.4160e-02
10.250	22.000	1.3810e-02
10.250	22.250	1.3637e-02
10.250	22.500	1.3534e-02
10.250	22.750	1.3496e-02
10.250	23.000	1.3480e-02
10.250	23.250	1.3473e-02
10.250	23.500	1.3469e-02
10.250	23.750	1.3467e-02
10.250	24.000	1.3466e-02
10.500	17.000	4.4555e-02
10.500	17.250	4.4288e-02
10.500	17.500	4.7228e-02
10.500	17.750	5.4892e-02
10.500	18.000	6.7174e-02
10.500	18.250	8.1445e-02
10.500	18.500	9.3060e-02
10.500	18.750	1.0288e-01
10.500	19.000	1.1077e-01
10.500	19.250	1.1757e-01
10.500	19.500	1.2203e-01
10.500	19.750	1.1932e-01
10.500	20.000	1.0514e-01
10.500	20.250	7.8053e-02
10.500	20.500	4.8962e-02
10.500	20.750	3.3431e-02
10.500	21.000	2.5199e-02
10.500	21.250	1.9617e-02
10.500	21.500	1.6519e-02
10.500	21.750	1.5007e-02
10.500	22.000	1.4159e-02
10.500	22.250	1.3810e-02
10.500	22.500	1.3638e-02
10.500	22.750	1.3535e-02
10.500	23.000	1.3496e-02
10.500	23.250	1.3481e-02
10.500	23.500	1.3474e-02
10.500	23.750	1.3470e-02
10.500	24.000	1.3468e-02
10.750	17.000	4.9465e-02
10.750	17.250	4.8692e-02
10.750	17.500	5.2444e-02
10.750	17.750	6.1620e-02
10.750	18.000	7.5057e-02
10.750	18.250	8.9095e-02
10.750	18.500	1.0053e-01
10.750	18.750	1.1012e-01
10.750	19.000	1.1796e-01
10.750	19.250	1.2399e-01
10.750	19.500	1.2915e-01
10.750	19.750	1.3205e-01
10.750	20.000	1.2783e-01
10.750	20.250	1.1203e-01
10.750	20.500	7.7712e-02
10.750	20.750	4.8709e-02
10.750	21.000	3.3322e-02
10.750	21.250	2.5233e-02
10.750	21.500	1.9603e-02
10.750	21.750	1.6513e-02
10.750	22.000	1.5005e-02
10.750	22.250	1.4158e-02
10.750	22.500	1.3810e-02
10.750	22.750	1.3638e-02
10.750	23.000	1.3538e-02
10.750	23.250	1.3496e-02
10.750	23.500	1.3481e-02
10.750	23.750	1.3475e-02
10.750	24.000	1.3471e-02
11.000	17.000	5.6147e-02
11.000	17.250	5.4631e-02
11.000	17.500	5.9095e-02
11.000	17.750	6.9640e-02
11.000	18.000	8.3515e-02
11.000	18.250	9.7091e-02
11.000	18.500	1.0881e-01
11.000	18.750	1.1813e-01
11.000	19.000	1.2569e-01
11.000	19.250	1.3126e-01
11.000	19.500	1.3546e-01
11.000	19.750	1.3969e-01
11.000	20.000	1.4195e-01
11.000	20.250	1.3652e-01
11.000	20.500	1.1924e-01
11.000	20.750	7.7456e-02
11.000	21.000	4.8275e-02
11.000	21.250	3.3276e-02
11.000	21.500	2.5333e-02
11.000	21.750	1.9574e-02
11.000	22.000	1.6506e-02
11.000	22.250	1.5001e-02
11.000	22.500	1.4157e-02
11.000	22.750	1.3809e-02
11.000	23.000	1.3637e-02
11.000	23.250	1.3540e-02
11.000	23.500	1.3498e-02
11.000	23.750	1.3482e-02
11.000	24.000	1.3475e-02
11.250	17.000	6.5126e-02
11.250	17.250	6.2210e-02
11.250	17.500	6.6905e-02
11.250	17.750	7.8312e-02
11.250	18.000	9.2430e-02
11.250	18.250	1.0541e-01
11.250	18.500	1.1610e-01
11.250	18.750	1.2549e-01
11.250	19.000	1.3252e-01
11.250	19.250	1.3770e-01
11.250	19.500	1.4199e-01
11.250	19.750	1.4563e-01
11.250	20.000	1.4950e-01
11.250	20.250	1.5159e-01
11.250	20.500	1.4545e-01
11.250	20.750	1.2504e-01
11.250	21.000	7.6864e-02
11.250	21.250	4.8019e-02
11.250	21.500	3.3501e-02
11.250	21.750	2.5405e-02
11.250	22.000	1.9530e-02
11.250	22.250	1.6494e-02
11.250	22.500	1.4997e-02
11.250	22.750	1.4154e-02
11.250	23.000	1.3808e-02
11.250	23.250	1.3637e-02
11.250	23.500	1.3540e-02
11.250	23.750	1.3501e-02
11.250	24.000	1.3482e-02
11.500	17.000	7.6527e-02
11.500	17.250	7.1898e-02
11.500	17.500	7.5988e-02
11.500	17.750	8.7417e-02
11.500	18.000	1.0143e-01
11.500	18.250	1.1402e-01
11.500	18.500	1.2404e-01
11.500	18.750	1.3299e-01
11.500	19.000	1.3944e-01
11.500	19.250	1.4448e-01
11.500	19.500	1.4852e-01
11.500	19.750	1.5209e-01
11.500	20.000	1.5525e-01
11.500	20.250	1.5910e-01
11.500	20.500	1.6130e-01
11.500	20.750	1.5435e-01
11.500	21.000	1.2913e-01
11.500	21.250	7.6377e-02
11.500	21.500	4.8100e-02
11.500	21.750	3.3977e-02
11.500	22.000	2.5289e-02
11.500	22.250	1.9465e-02
11.500	22.500	1.6478e-02
11.500	22.750	1.4989e-02
11.500	23.000	1.4151e-02
11.500	23.250	1.3806e-02
11.500	23.500	1.3636e-02
11.500	23.750	1.3540e-02
11.500	24.000	1.3502e-02
11.750	17.000	9.2056e-02
11.750	17.250	8.4150e-02
11.750	17.500	8.6497e-02
11.750	17.750	9.7167e-02
11.750	18.000	1.1060e-01
11.750	18.250	1.2263e-01
11.750	18.500	1.3215e-01
11.750	18.750	1.3994e-01
11.750	19.000	1.4651e-01
11.750	19.250	1.5134e-01
11.750	19.500	1.5508e-01
11.750	19.750	1.5810e-01
11.750	20.000	1.6058e-01
11.750	20.250	1.6370e-01
11.750	20.500	1.6819e-01
11.750	20.750	1.7061e-01
11.750	21.000	1.6237e-01
11.750	21.250	1.2733e-01
11.750	21.500	7.6354e-02
11.750	21.750	4.8254e-02
11.750	22.000	3.4588e-02
11.750	22.250	2.5024e-02
11.750	22.500	1.9376e-02
11.750	22.750	1.6453e-02
11.750	23.000	1.4978e-02
11.750	23.250	1.4146e-02
11.750	23.500	1.3804e-02
11.750	23.750	1.3635e-02
11.750	24.000	1.3540e-02
12.000	17.000	1.1318e-01
12.000	17.250	1.0055e-01
12.000	17.500	9.9316e-02
12.000	17.750	1.0753e-01
12.000	18.000	1.1952e-01
12.000	18.250	1.3095e-01
12.000	18.500	1.4061e-01
12.000	18.750	1.4837e-01
12.000	19.000	1.5441e-01
12.000	19.250	1.5894e-01
12.000	19.500	1.6216e-01
12.000	19.750	1.6416e-01
12.000	20.000	1.6596e-01
12.000	20.250	1.6807e-01
12.000	20.500	1.7139e-01
12.000	20.750	1.7647e-01
12.000	21.000	1.7919e-01
12.000	21.250	1.6845e-01
12.000	21.500	1.2651e-01
12.000	21.750	7.5598e-02
12.000	22.000	4.8614e-02
12.000	22.250	3.4898e-02
12.000	22.500	2.4740e-02
12.000	22.750	1.9254e-02
12.000	23.000	1.6413e-02
12.000	23.250	1.4960e-02
12.000	23.500	1.4139e-02
12.000	23.750	1.3800e-02
12.000	24.000	1.3633e-02
12.250	17.000	1.3342e-01
12.250	17.250	1.2281e-01
12.250	17.500	1.1610e-01
12.250	17.750	1.1961e-01
12.250	18.000	1.2907e-01
12.250	18.250	1.3996e-01
12.250	18.500	1.4984e-01
12.250	18.750	1.5757e-01
12.250	19.000	1.6303e-01
12.250	19.250	1.6685e-01
12.250	19.500	1.6940e-01
12.250	19.750	1.7050e-01
12.250	20.000	1.7161e-01
12.250	20.250	1.7244e-01
12.250	20.500	1.7476e-01
12.250	20.750	1.7851e-01
12.250	21.000	1.8409e-01
12.250	21.250	1.8632e-01
12.250	21.500	1.7152e-01
12.250	21.750	1.2227e-01
12.250	22.000	7.4523e-02
12.250	22.250	4.9236e-02
12.250	22.500	3.4582e-02
12.250	22.750	2.4401e-02
12.250	23.000	1.9110e-02
12.250	23.250	1.6349e-02
12.250	23.500	1.4930e-02
12.250	23.750	1.4128e-02
12.250	24.000	1.3793e-02
12.500	17.000	1.2451e-01
12.500	17.250	1.4570e-01
12.500	17.500	1.3800e-01
12.500	17.750	1.3546e-01
12.500	18.000	1.4081e-01
12.500	18.250	1.4975e-01
12.500	18.500	1.5925e-01
12.500	18.750	1.6742e-01
12.500	19.000	1.7269e-01
12.500	19.250	1.7557e-01
12.500	19.500	1.7690e-01
12.500	19.750	1.7715e-01
12.500	20.000	1.7716e-01
12.500	20.250	1.7732e-01
12.500	20.500	1.7797e-01
12.500	20.750	1.8031e-01
12.500	21.000	1.8497e-01
12.500	21.250	1.9044e-01
12.500	21.500	1.9017e-01
12.500	21.750	1.7124e-01
12.500	22.000	1.1702e-01
12.500	22.250	7.3130e-02
12.500	22.500	4.9442e-02
12.500	22.750	3.3829e-02
12.500	23.000	2.3989e-02
12.500	23.250	1.8896e-02
12.500	23.500	1.6251e-02
12.500	23.750	1.4880e-02
12.500	24.000	1.4111e-02
12.750	17.000	1.1295e-01
12.750	17.250	1.3771e-01
12.750	17.500	1.6066e-01
12.750	17.750	1.5495e-01
12.750	18.000	1.5544e-01
12.750	18.250	1.6147e-01
12.750	18.500	1.6960e-01
12.750	18.750	1.7746e-01
12.750	19.000	1.8242e-01
12.750	19.250	1.8488e-01
12.750	19.500	1.8481e-01
12.750	19.750	1.8394e-01
12.750	20.000	1.8286e-01
12.750	20.250	1.8191e-01
12.750	20.500	1.8181e-01
12.750	20.750	1.8286e-01
12.750	21.000	1.8559e-01
12.750	21.250	1.9107e-01
12.750	21.500	1.9492e-01
12.750	21.750	1.9280e-01
12.750	22.000	1.6620e-01
12.750	22.250	1.1059e-01
12.750	22.500	7.1471e-02
12.750	22.750	4.8511e-02
12.750	23.000	3.2757e-02
12.750	23.250	2.3453e-02
12.750	23.500	1.8624e-02
12.750	23.750	1.6102e-02
12.750	24.000	1.4797e-02
13.000	17.000	6.4218e-02
13.000	17.250	8.2105e-02
13.000	17.500	1.2521e-01
13.000	17.750	1.5897e-01
13.000	18.000	1.6799e-01
13.000	18.250	1.7669e-01
13.000	18.500	1.8223e-01
13.000	18.750	1.8772e-01
13.000	19.000	1.9206e-01
13.000	19.250	1.9407e-01
13.000	19.500	1.9332e-01
13.000	19.750	1.9111e-01
13.000	20.000	1.8876e-01
13.000	20.250	1.8704e-01
13.000	20.500	1.8583e-01
13.000	20.750	1.8592e-01
13.000	21.000	1.8761e-01
13.000	21.250	1.9179e-01
13.000	21.500	1.9614e-01
13.000	21.750	2.0032e-01
13.000	22.000	1.9148e-01
13.000	22.250	1.5561e-01
13.000	22.500	1.0287e-01
13.000	22.750	6.8402e-02
13.000	23.000	4.6310e-02
13.000	23.250	3.1406e-02
13.000	23.500	2.2790e-02
13.000	23.750	1.8252e-02
13.000	24.000	1.5872e-02
13.250	17.000	6.4035e-02
13.250	17.250	7.3495e-02
13.250	17.500	9.5744e-02
13.250	17.750	1.2915e-01
13.250	18.000	1.6765e-01
13.250	18.250	1.8392e-01
13.250	18.500	1.9756e-01
13.250	18.750	2.0039e-01
13.250	19.000	2.0263e-01
13.250	19.250	2.0359e-01
13.250	19.500	2.0167e-01
13.250	19.750	1.9914e-01
13.250	20.000	1.9528e-01
13.250	20.250	1.9226e-01
13.250	20.500	1.9019e-01
13.250	20.750	1.8916e-01
13.250	21.000	1.9040e-01
13.250	21.250	1.9289e-01
13.250	21.500	1.9661e-01
13.250	21.750	2.0081e-01
13.250	22.000	2.0112e-01
13.250	22.250	1.8056e-01
13.250	22.500	1.3914e-01
13.250	22.750	9.1761e-02
13.250	23.000	6.2785e-02
13.250	23.250	4.3166e-02
13.250	23.500	2.9778e-02
13.250	23.750	2.1926e-02
13.250	24.000	1.7736e-02
13.500	17.000	6.4177e-02
13.500	17.250	7.2209e-02
13.500	17.500	9.1208e-02
13.500	17.750	1.1838e-01
13.500	18.000	1.5849e-01
13.500	18.250	1.9646e-01
13.500	18.500	2.0635e-01
13.500	18.750	2.1630e-01
13.500	19.000	2.1539e-01
13.500	19.250	2.1370e-01
13.500	19.500	2.1119e-01
13.500	19.750	2.0716e-01
13.500	20.000	2.0292e-01
13.500	20.250	1.9903e-01
13.500	20.500	1.9549e-01
13.500	20.750	1.9299e-01
13.500	21.000	1.9207e-01
13.500	21.250	1.9329e-01
13.500	21.500	1.9609e-01
13.500	21.750	2.0054e-01
13.500	22.000	2.0137e-01
13.500	22.250	1.9187e-01
13.500	22.500	1.6229e-01
13.500	22.750	1.1861e-01
13.500	23.000	8.0262e-02
13.500	23.250	5.5459e-02
13.500	23.500	3.9186e-02
13.500	23.750	2.7714e-02
13.500	24.000	2.0788e-02
13.750	17.000	6.3677e-02
13.750	17.250	7.3909e-02
13.750	17.500	9.0937e-02
13.750	17.750	1.1029e-01
13.750	18.000	1.4758e-01
13.750	18.250	1.9162e-01
13.750	18.500	2.2009e-01
13.750	18.750	2.2835e-01
13.750	19.000	2.3163e-01
13.750	19.250	2.2740e-01
13.750	19.500	2.2286e-01
13.750	19.750	2.1764e-01
13.750	20.000	2.1203e-01
13.750	20.250	2.0683e-01
13.750	20.500	2.0239e-01
13.750	20.750	1.9859e-01
13.750	21.000	1.9594e-01
13.750	21.250	1.9519e-01
13.750	21.500	1.9596e-01
13.750	21.750	2.0010e-01
13.750	22.000	2.0212e-01
13.750	22.250	1.9198e-01
13.750	22.500	1.6634e-01
13.750	22.750	1.3368e-01
13.750	23.000	9.8591e-02
13.750	23.250	6.8296e-02
13.750	23.500	4.8057e-02
13.750	23.750	3.4948e-02
13.750	24.000	2.5216e-02
14.000	17.000	6.3557e-02
14.000	17.250	7.2988e-02
14.000	17.500	9.0822e-02
14.000	17.750	1.0970e-01
14.000	18.000	1.3596e-01
14.000	18.250	1.7527e-01
14.000	18.500	2.1217e-01
14.000	18.750	2.3959e-01
14.000	19.000	2.5077e-01
14.000	19.250	2.4392e-01
14.000	19.500	2.3719e-01
14.000	19.750	2.3043e-01
14.000	20.000	2.2372e-01
14.000	20.250	2.1707e-01
14.000	20.500	2.1129e-01
14.000	20.750	2.0635e-01
14.000	21.000	2.0249e-01
14.000	21.250	2.0042e-01
14.000	21.500	1.9949e-01
14.000	21.750	2.0294e-01
14.000	22.000	2.0453e-01
14.000	22.250	1.9366e-01
14.000	22.500	1.6664e-01
14.000	22.750	1.3562e-01
14.000	23.000	1.0624e-01
14.000	23.250	7.7620e-02
14.000	23.500	5.6554e-02
14.000	23.750	4.0801e-02
14.000	24.000	3.0296e-02
