InwC 1900.00A  relative to Inci 1215.00A scaled to 1215A.
Hden   Phi(H)  Eq_Width (A)
 7.000	17.000	5.2840e-02
 7.000	17.250	6.8077e-02
 7.000	17.500	7.1699e-02
 7.000	17.750	7.3330e-02
 7.000	18.000	7.3365e-02
 7.000	18.250	7.3415e-02
 7.000	18.500	7.3423e-02
 7.000	18.750	7.3433e-02
 7.000	19.000	7.3441e-02
 7.000	19.250	7.3448e-02
 7.000	19.500	7.3451e-02
 7.000	19.750	7.3452e-02
 7.000	20.000	7.3452e-02
 7.000	20.250	7.3452e-02
 7.000	20.500	7.3453e-02
 7.000	20.750	7.3453e-02
 7.000	21.000	7.3453e-02
 7.000	21.250	7.3453e-02
 7.000	21.500	7.3453e-02
 7.000	21.750	7.3453e-02
 7.000	22.000	7.3454e-02
 7.000	22.250	7.3454e-02
 7.000	22.500	7.3455e-02
 7.000	22.750	7.3463e-02
 7.000	23.000	7.3456e-02
 7.000	23.250	7.3457e-02
 7.000	23.500	7.3457e-02
 7.000	23.750	7.3457e-02
 7.000	24.000	7.3458e-02
 7.250	17.000	4.1787e-02
 7.250	17.250	5.3403e-02
 7.250	17.500	6.8108e-02
 7.250	17.750	7.1722e-02
 7.250	18.000	7.3330e-02
 7.250	18.250	7.3365e-02
 7.250	18.500	7.3415e-02
 7.250	18.750	7.3423e-02
 7.250	19.000	7.3433e-02
 7.250	19.250	7.3441e-02
 7.250	19.500	7.3448e-02
 7.250	19.750	7.3450e-02
 7.250	20.000	7.3452e-02
 7.250	20.250	7.3452e-02
 7.250	20.500	7.3452e-02
 7.250	20.750	7.3452e-02
 7.250	21.000	7.3453e-02
 7.250	21.250	7.3453e-02
 7.250	21.500	7.3453e-02
 7.250	21.750	7.3453e-02
 7.250	22.000	7.3453e-02
 7.250	22.250	7.3453e-02
 7.250	22.500	7.3453e-02
 7.250	22.750	7.3453e-02
 7.250	23.000	7.3454e-02
 7.250	23.250	7.3454e-02
 7.250	23.500	7.3454e-02
 7.250	23.750	7.3454e-02
 7.250	24.000	7.3454e-02
 7.500	17.000	3.2412e-02
 7.500	17.250	4.2572e-02
 7.500	17.500	5.3907e-02
 7.500	17.750	6.8133e-02
 7.500	18.000	7.1743e-02
 7.500	18.250	7.3330e-02
 7.500	18.500	7.3365e-02
 7.500	18.750	7.3415e-02
 7.500	19.000	7.3423e-02
 7.500	19.250	7.3433e-02
 7.500	19.500	7.3441e-02
 7.500	19.750	7.3448e-02
 7.500	20.000	7.3451e-02
 7.500	20.250	7.3452e-02
 7.500	20.500	7.3452e-02
 7.500	20.750	7.3452e-02
 7.500	21.000	7.3453e-02
 7.500	21.250	7.3452e-02
 7.500	21.500	7.3453e-02
 7.500	21.750	7.3453e-02
 7.500	22.000	7.3453e-02
 7.500	22.250	7.3453e-02
 7.500	22.500	7.3453e-02
 7.500	22.750	7.3453e-02
 7.500	23.000	7.3453e-02
 7.500	23.250	7.3453e-02
 7.500	23.500	7.3453e-02
 7.500	23.750	7.3453e-02
 7.500	24.000	7.3453e-02
 7.750	17.000	2.4928e-02
 7.750	17.250	3.3006e-02
 7.750	17.500	4.3413e-02
 7.750	17.750	5.4443e-02
 7.750	18.000	6.8149e-02
 7.750	18.250	7.1763e-02
 7.750	18.500	7.3329e-02
 7.750	18.750	7.3365e-02
 7.750	19.000	7.3414e-02
 7.750	19.250	7.3423e-02
 7.750	19.500	7.3433e-02
 7.750	19.750	7.3441e-02
 7.750	20.000	7.3448e-02
 7.750	20.250	7.3451e-02
 7.750	20.500	7.3452e-02
 7.750	20.750	7.3452e-02
 7.750	21.000	7.3452e-02
 7.750	21.250	7.3453e-02
 7.750	21.500	7.3453e-02
 7.750	21.750	7.3453e-02
 7.750	22.000	7.3453e-02
 7.750	22.250	7.3453e-02
 7.750	22.500	7.3453e-02
 7.750	22.750	7.3453e-02
 7.750	23.000	7.3453e-02
 7.750	23.250	7.3453e-02
 7.750	23.500	7.3453e-02
 7.750	23.750	7.3453e-02
 7.750	24.000	7.3453e-02
 8.000	17.000	1.9916e-02
 8.000	17.250	2.5205e-02
 8.000	17.500	3.3533e-02
 8.000	17.750	4.4156e-02
 8.000	18.000	5.4889e-02
 8.000	18.250	6.8143e-02
 8.000	18.500	7.1766e-02
 8.000	18.750	7.3329e-02
 8.000	19.000	7.3366e-02
 8.000	19.250	7.3415e-02
 8.000	19.500	7.3423e-02
 8.000	19.750	7.3433e-02
 8.000	20.000	7.3441e-02
 8.000	20.250	7.3448e-02
 8.000	20.500	7.3451e-02
 8.000	20.750	7.3452e-02
 8.000	21.000	7.3452e-02
 8.000	21.250	7.3452e-02
 8.000	21.500	7.3453e-02
 8.000	21.750	7.3453e-02
 8.000	22.000	7.3453e-02
 8.000	22.250	7.3453e-02
 8.000	22.500	7.3453e-02
 8.000	22.750	7.3453e-02
 8.000	23.000	7.3453e-02
 8.000	23.250	7.3453e-02
 8.000	23.500	7.3453e-02
 8.000	23.750	7.3453e-02
 8.000	24.000	7.3453e-02
 8.250	17.000	1.6747e-02
 8.250	17.250	2.0148e-02
 8.250	17.500	2.5668e-02
 8.250	17.750	3.4435e-02
 8.250	18.000	4.5480e-02
 8.250	18.250	5.5787e-02
 8.250	18.500	6.8140e-02
 8.250	18.750	7.1785e-02
 8.250	19.000	7.3329e-02
 8.250	19.250	7.3365e-02
 8.250	19.500	7.3415e-02
 8.250	19.750	7.3423e-02
 8.250	20.000	7.3433e-02
 8.250	20.250	7.3441e-02
 8.250	20.500	7.3448e-02
 8.250	20.750	7.3451e-02
 8.250	21.000	7.3452e-02
 8.250	21.250	7.3452e-02
 8.250	21.500	7.3452e-02
 8.250	21.750	7.3452e-02
 8.250	22.000	7.3453e-02
 8.250	22.250	7.3452e-02
 8.250	22.500	7.3452e-02
 8.250	22.750	7.3453e-02
 8.250	23.000	7.3453e-02
 8.250	23.250	7.3453e-02
 8.250	23.500	7.3453e-02
 8.250	23.750	7.3453e-02
 8.250	24.000	7.3453e-02
 8.500	17.000	1.4631e-02
 8.500	17.250	1.6898e-02
 8.500	17.500	2.0475e-02
 8.500	17.750	2.6418e-02
 8.500	18.000	3.5827e-02
 8.500	18.250	4.7333e-02
 8.500	18.500	5.6922e-02
 8.500	18.750	6.8115e-02
 8.500	19.000	7.1803e-02
 8.500	19.250	7.3328e-02
 8.500	19.500	7.3366e-02
 8.500	19.750	7.3414e-02
 8.500	20.000	7.3423e-02
 8.500	20.250	7.3433e-02
 8.500	20.500	7.3441e-02
 8.500	20.750	7.3448e-02
 8.500	21.000	7.3451e-02
 8.500	21.250	7.3452e-02
 8.500	21.500	7.3452e-02
 8.500	21.750	7.3452e-02
 8.500	22.000	7.3452e-02
 8.500	22.250	7.3452e-02
 8.500	22.500	7.3452e-02
 8.500	22.750	7.3453e-02
 8.500	23.000	7.3453e-02
 8.500	23.250	7.3453e-02
 8.500	23.500	7.3452e-02
 8.500	23.750	7.3452e-02
 8.500	24.000	7.3453e-02
 8.750	17.000	1.3161e-02
 8.750	17.250	1.4724e-02
 8.750	17.500	1.7125e-02
 8.750	17.750	2.1003e-02
 8.750	18.000	2.7667e-02
 8.750	18.250	3.8049e-02
 8.750	18.500	4.9038e-02
 8.750	18.750	5.8049e-02
 8.750	19.000	6.8073e-02
 8.750	19.250	7.1815e-02
 8.750	19.500	7.3326e-02
 8.750	19.750	7.3365e-02
 8.750	20.000	7.3414e-02
 8.750	20.250	7.3423e-02
 8.750	20.500	7.3433e-02
 8.750	20.750	7.3441e-02
 8.750	21.000	7.3448e-02
 8.750	21.250	7.3451e-02
 8.750	21.500	7.3452e-02
 8.750	21.750	7.3452e-02
 8.750	22.000	7.3452e-02
 8.750	22.250	7.3452e-02
 8.750	22.500	7.3453e-02
 8.750	22.750	7.3453e-02
 8.750	23.000	7.3453e-02
 8.750	23.250	7.3453e-02
 8.750	23.500	7.3453e-02
 8.750	23.750	7.3453e-02
 8.750	24.000	7.3453e-02
 9.000	17.000	1.2115e-02
 9.000	17.250	1.3206e-02
 9.000	17.500	1.4862e-02
 9.000	17.750	1.7494e-02
 9.000	18.000	2.2020e-02
 9.000	18.250	2.9715e-02
 9.000	18.500	4.0780e-02
 9.000	18.750	5.1288e-02
 9.000	19.000	5.9897e-02
 9.000	19.250	6.8009e-02
 9.000	19.500	7.1817e-02
 9.000	19.750	7.3322e-02
 9.000	20.000	7.3365e-02
 9.000	20.250	7.3414e-02
 9.000	20.500	7.3423e-02
 9.000	20.750	7.3433e-02
 9.000	21.000	7.3441e-02
 9.000	21.250	7.3448e-02
 9.000	21.500	7.3451e-02
 9.000	21.750	7.3452e-02
 9.000	22.000	7.3452e-02
 9.000	22.250	7.3452e-02
 9.000	22.500	7.3452e-02
 9.000	22.750	7.3452e-02
 9.000	23.000	7.3453e-02
 9.000	23.250	7.3453e-02
 9.000	23.500	7.3453e-02
 9.000	23.750	7.3452e-02
 9.000	24.000	7.3452e-02
 9.250	17.000	1.1366e-02
 9.250	17.250	1.2124e-02
 9.250	17.500	1.3277e-02
 9.250	17.750	1.5110e-02
 9.250	18.000	1.8239e-02
 9.250	18.250	2.3689e-02
 9.250	18.500	3.2225e-02
 9.250	18.750	4.3129e-02
 9.250	19.000	5.2661e-02
 9.250	19.250	6.1906e-02
 9.250	19.500	6.7945e-02
 9.250	19.750	7.1803e-02
 9.250	20.000	7.3316e-02
 9.250	20.250	7.3364e-02
 9.250	20.500	7.3414e-02
 9.250	20.750	7.3423e-02
 9.250	21.000	7.3433e-02
 9.250	21.250	7.3441e-02
 9.250	21.500	7.3441e-02
 9.250	21.750	7.3415e-02
 9.250	22.000	7.3413e-02
 9.250	22.250	7.3416e-02
 9.250	22.500	7.3452e-02
 9.250	22.750	7.3452e-02
 9.250	23.000	7.3452e-02
 9.250	23.250	7.3452e-02
 9.250	23.500	7.3452e-02
 9.250	23.750	7.3452e-02
 9.250	24.000	7.3453e-02
 9.500	17.000	1.0824e-02
 9.500	17.250	1.1347e-02
 9.500	17.500	1.2147e-02
 9.500	17.750	1.3436e-02
 9.500	18.000	1.5674e-02
 9.500	18.250	1.9602e-02
 9.500	18.500	2.5638e-02
 9.500	18.750	3.4346e-02
 9.500	19.000	4.5259e-02
 9.500	19.250	5.3963e-02
 9.500	19.500	6.3565e-02
 9.500	19.750	6.7886e-02
 9.500	20.000	7.1769e-02
 9.500	20.250	7.3306e-02
 9.500	20.500	7.3361e-02
 9.500	20.750	7.3412e-02
 9.500	21.000	7.3413e-02
 9.500	21.250	7.3402e-02
 9.500	21.500	7.3403e-02
 9.500	21.750	7.3405e-02
 9.500	22.000	7.3392e-02
 9.500	22.250	7.3382e-02
 9.500	22.500	7.3385e-02
 9.500	22.750	7.3386e-02
 9.500	23.000	7.3385e-02
 9.500	23.250	7.3384e-02
 9.500	23.500	7.3407e-02
 9.500	23.750	7.3407e-02
 9.500	24.000	7.3407e-02
 9.750	17.000	1.0434e-02
 9.750	17.250	1.0789e-02
 9.750	17.500	1.1333e-02
 9.750	17.750	1.2231e-02
 9.750	18.000	1.3849e-02
 9.750	18.250	1.6676e-02
 9.750	18.500	2.0946e-02
 9.750	18.750	2.7113e-02
 9.750	19.000	3.5695e-02
 9.750	19.250	4.6079e-02
 9.750	19.500	5.6168e-02
 9.750	19.750	6.4505e-02
 9.750	20.000	6.7883e-02
 9.750	20.250	7.1718e-02
 9.750	20.500	7.3290e-02
 9.750	20.750	7.3358e-02
 9.750	21.000	7.3412e-02
 9.750	21.250	7.3420e-02
 9.750	21.500	7.3420e-02
 9.750	21.750	7.3407e-02
 9.750	22.000	7.3408e-02
 9.750	22.250	7.3401e-02
 9.750	22.500	7.3389e-02
 9.750	22.750	7.3382e-02
 9.750	23.000	7.3384e-02
 9.750	23.250	7.3385e-02
 9.750	23.500	7.3386e-02
 9.750	23.750	7.3386e-02
 9.750	24.000	7.3386e-02
10.000	17.000	1.0152e-02
10.000	17.250	1.0387e-02
10.000	17.500	1.0749e-02
10.000	17.750	1.1363e-02
10.000	18.000	1.2503e-02
10.000	18.250	1.4498e-02
10.000	18.500	1.7420e-02
10.000	18.750	2.1686e-02
10.000	19.000	2.7738e-02
10.000	19.250	3.6304e-02
10.000	19.500	4.6548e-02
10.000	19.750	5.8387e-02
10.000	20.000	6.4675e-02
10.000	20.250	6.7869e-02
10.000	20.500	7.1666e-02
10.000	20.750	7.3266e-02
10.000	21.000	7.3351e-02
10.000	21.250	7.3411e-02
10.000	21.500	7.3422e-02
10.000	21.750	7.3429e-02
10.000	22.000	7.3420e-02
10.000	22.250	7.3410e-02
10.000	22.500	7.3407e-02
10.000	22.750	7.3398e-02
10.000	23.000	7.3390e-02
10.000	23.250	7.3385e-02
10.000	23.500	7.3382e-02
10.000	23.750	7.3383e-02
10.000	24.000	7.3383e-02
10.250	17.000	9.9486e-03
10.250	17.250	1.0097e-02
10.250	17.500	1.0328e-02
10.250	17.750	1.0732e-02
10.250	18.000	1.1493e-02
10.250	18.250	1.2821e-02
10.250	18.500	1.4830e-02
10.250	18.750	1.7723e-02
10.250	19.000	2.1795e-02
10.250	19.250	2.7966e-02
10.250	19.500	3.6860e-02
10.250	19.750	4.8423e-02
10.250	20.000	6.0338e-02
10.250	20.250	6.4683e-02
10.250	20.500	6.7878e-02
10.250	20.750	7.1646e-02
10.250	21.000	7.3234e-02
10.250	21.250	7.3342e-02
10.250	21.500	7.3409e-02
10.250	21.750	7.3422e-02
10.250	22.000	7.3431e-02
10.250	22.250	7.3435e-02
10.250	22.500	7.3411e-02
10.250	22.750	7.3410e-02
10.250	23.000	7.3405e-02
10.250	23.250	7.3399e-02
10.250	23.500	7.3394e-02
10.250	23.750	7.3391e-02
10.250	24.000	7.3390e-02
10.500	17.000	9.7987e-03
10.500	17.250	9.8877e-03
10.500	17.500	1.0023e-02
10.500	17.750	1.0267e-02
10.500	18.000	1.0738e-02
10.500	18.250	1.1610e-02
10.500	18.500	1.2922e-02
10.500	18.750	1.4940e-02
10.500	19.000	1.7949e-02
10.500	19.250	2.2552e-02
10.500	19.500	2.9229e-02
10.500	19.750	3.8502e-02
10.500	20.000	5.0691e-02
10.500	20.250	6.1345e-02
10.500	20.500	6.4649e-02
10.500	20.750	6.7856e-02
10.500	21.000	7.1651e-02
10.500	21.250	7.3193e-02
10.500	21.500	7.3327e-02
10.500	21.750	7.3405e-02
10.500	22.000	7.3421e-02
10.500	22.250	7.3432e-02
10.500	22.500	7.3439e-02
10.500	22.750	7.3418e-02
10.500	23.000	7.3412e-02
10.500	23.250	7.3410e-02
10.500	23.500	7.3406e-02
10.500	23.750	7.3403e-02
10.500	24.000	7.3400e-02
10.750	17.000	9.6791e-03
10.750	17.250	9.7291e-03
10.750	17.500	9.7952e-03
10.750	17.750	9.9153e-03
10.750	18.000	1.0183e-02
10.750	18.250	1.0722e-02
10.750	18.500	1.1605e-02
10.750	18.750	1.3051e-02
10.750	19.000	1.5313e-02
10.750	19.250	1.8625e-02
10.750	19.500	2.3425e-02
10.750	19.750	3.0290e-02
10.750	20.000	3.9916e-02
10.750	20.250	5.2484e-02
10.750	20.500	6.1550e-02
10.750	20.750	6.4703e-02
10.750	21.000	6.7882e-02
10.750	21.250	7.1717e-02
10.750	21.500	7.3148e-02
10.750	21.750	7.3308e-02
10.750	22.000	7.3395e-02
10.750	22.250	7.3420e-02
10.750	22.500	7.3432e-02
10.750	22.750	7.3440e-02
10.750	23.000	7.3436e-02
10.750	23.250	7.3413e-02
10.750	23.500	7.3413e-02
10.750	23.750	7.3410e-02
10.750	24.000	7.3409e-02
11.000	17.000	9.5720e-03
11.000	17.250	9.5993e-03
11.000	17.500	9.6142e-03
11.000	17.750	9.6495e-03
11.000	18.000	9.7748e-03
11.000	18.250	1.0093e-02
11.000	18.500	1.0733e-02
11.000	18.750	1.1798e-02
11.000	19.000	1.3458e-02
11.000	19.250	1.5830e-02
11.000	19.500	1.9174e-02
11.000	19.750	2.4052e-02
11.000	20.000	3.1065e-02
11.000	20.250	4.0906e-02
11.000	20.500	5.3882e-02
11.000	20.750	6.1260e-02
11.000	21.000	6.4642e-02
11.000	21.250	6.7956e-02
11.000	21.500	7.1872e-02
11.000	21.750	7.3082e-02
11.000	22.000	7.3285e-02
11.000	22.250	7.3387e-02
11.000	22.500	7.3419e-02
11.000	22.750	7.3431e-02
11.000	23.000	7.3440e-02
11.000	23.250	7.3444e-02
11.000	23.500	7.3419e-02
11.000	23.750	7.3414e-02
11.000	24.000	7.3413e-02
11.250	17.000	9.4784e-03
11.250	17.250	9.4787e-03
11.250	17.500	9.4626e-03
11.250	17.750	9.4411e-03
11.250	18.000	9.4721e-03
11.250	18.250	9.6542e-03
11.250	18.500	1.0085e-02
11.250	18.750	1.0879e-02
11.250	19.000	1.2061e-02
11.250	19.250	1.3728e-02
11.250	19.500	1.6113e-02
11.250	19.750	1.9500e-02
11.250	20.000	2.4418e-02
11.250	20.250	3.1533e-02
11.250	20.500	4.1640e-02
11.250	20.750	5.4721e-02
11.250	21.000	6.1133e-02
11.250	21.250	6.4622e-02
11.250	21.500	6.8131e-02
11.250	21.750	7.2113e-02
11.250	22.000	7.3002e-02
11.250	22.250	7.3260e-02
11.250	22.500	7.3372e-02
11.250	22.750	7.3417e-02
11.250	23.000	7.3430e-02
11.250	23.250	7.3440e-02
11.250	23.500	7.3447e-02
11.250	23.750	7.3437e-02
11.250	24.000	7.3416e-02
11.500	17.000	9.4114e-03
11.500	17.250	9.3726e-03
11.500	17.500	9.3285e-03
11.500	17.750	9.2702e-03
11.500	18.000	9.2463e-03
11.500	18.250	9.3540e-03
11.500	18.500	9.6613e-03
11.500	18.750	1.0241e-02
11.500	19.000	1.1069e-02
11.500	19.250	1.2245e-02
11.500	19.500	1.3930e-02
11.500	19.750	1.6328e-02
11.500	20.000	1.9728e-02
11.500	20.250	2.4670e-02
11.500	20.500	3.1896e-02
11.500	20.750	4.2269e-02
11.500	21.000	5.4620e-02
11.500	21.250	6.0982e-02
11.500	21.500	6.4739e-02
11.500	21.750	6.8569e-02
11.500	22.000	7.2133e-02
11.500	22.250	7.2908e-02
11.500	22.500	7.3228e-02
11.500	22.750	7.3365e-02
11.500	23.000	7.3413e-02
11.500	23.250	7.3428e-02
11.500	23.500	7.3440e-02
11.500	23.750	7.3448e-02
11.500	24.000	7.3446e-02
11.750	17.000	9.3797e-03
11.750	17.250	9.2970e-03
11.750	17.500	9.2145e-03
11.750	17.750	9.1305e-03
11.750	18.000	9.0818e-03
11.750	18.250	9.1505e-03
11.750	18.500	9.3733e-03
11.750	18.750	9.7665e-03
11.750	19.000	1.0357e-02
11.750	19.250	1.1186e-02
11.750	19.500	1.2372e-02
11.750	19.750	1.4062e-02
11.750	20.000	1.6425e-02
11.750	20.250	1.9828e-02
11.750	20.500	2.4853e-02
11.750	20.750	3.2200e-02
11.750	21.000	4.2905e-02
11.750	21.250	5.4051e-02
11.750	21.500	6.0897e-02
11.750	21.750	6.4982e-02
11.750	22.000	6.9115e-02
11.750	22.250	7.1951e-02
11.750	22.500	7.2784e-02
11.750	22.750	7.3180e-02
11.750	23.000	7.3351e-02
11.750	23.250	7.3410e-02
11.750	23.500	7.3427e-02
11.750	23.750	7.3439e-02
11.750	24.000	7.3448e-02
12.000	17.000	9.3764e-03
12.000	17.250	9.2632e-03
12.000	17.500	9.1412e-03
12.000	17.750	9.0295e-03
12.000	18.000	8.9714e-03
12.000	18.250	9.0188e-03
12.000	18.500	9.1809e-03
12.000	18.750	9.4537e-03
12.000	19.000	9.8604e-03
12.000	19.250	1.0444e-02
12.000	19.500	1.1285e-02
12.000	19.750	1.2462e-02
12.000	20.000	1.4129e-02
12.000	20.250	1.6496e-02
12.000	20.500	1.9921e-02
12.000	20.750	2.5007e-02
12.000	21.000	3.2585e-02
12.000	21.250	4.3655e-02
12.000	21.500	5.4095e-02
12.000	21.750	6.1007e-02
12.000	22.000	6.5287e-02
12.000	22.250	6.9541e-02
12.000	22.500	7.1753e-02
12.000	22.750	7.2671e-02
12.000	23.000	7.3116e-02
12.000	23.250	7.3333e-02
12.000	23.500	7.3406e-02
12.000	23.750	7.3425e-02
12.000	24.000	7.3438e-02
12.250	17.000	8.3129e-03
12.250	17.250	9.2672e-03
12.250	17.500	9.1229e-03
12.250	17.750	8.9879e-03
12.250	18.000	8.9182e-03
12.250	18.250	8.9430e-03
12.250	18.500	9.0544e-03
12.250	18.750	9.2334e-03
12.250	19.000	9.5066e-03
12.250	19.250	9.9137e-03
12.250	19.500	1.0509e-02
12.250	19.750	1.1337e-02
12.250	20.000	1.2526e-02
12.250	20.250	1.4175e-02
12.250	20.500	1.6574e-02
12.250	20.750	2.0041e-02
12.250	21.000	2.5218e-02
12.250	21.250	3.3104e-02
12.250	21.500	4.3942e-02
12.250	21.750	5.4384e-02
12.250	22.000	6.1232e-02
12.250	22.250	6.5658e-02
12.250	22.500	6.9703e-02
12.250	22.750	7.1592e-02
12.250	23.000	7.2554e-02
12.250	23.250	7.3046e-02
12.250	23.500	7.3308e-02
12.250	23.750	7.3401e-02
12.250	24.000	7.3422e-02
12.500	17.000	4.3495e-03
12.500	17.250	8.6258e-03
12.500	17.500	9.1563e-03
12.500	17.750	9.0234e-03
12.500	18.000	8.9302e-03
12.500	18.250	8.9129e-03
12.500	18.500	8.9592e-03
12.500	18.750	9.0695e-03
12.500	19.000	9.2559e-03
12.500	19.250	9.5418e-03
12.500	19.500	9.9576e-03
12.500	19.750	1.0546e-02
12.500	20.000	1.1380e-02
12.500	20.250	1.2563e-02
12.500	20.500	1.4228e-02
12.500	20.750	1.6625e-02
12.500	21.000	2.0170e-02
12.500	21.250	2.5512e-02
12.500	21.500	3.3286e-02
12.500	21.750	4.4976e-02
12.500	22.000	5.4882e-02
12.500	22.250	6.1583e-02
12.500	22.500	6.6082e-02
12.500	22.750	6.9735e-02
12.500	23.000	7.1459e-02
12.500	23.250	7.2437e-02
12.500	23.500	7.2973e-02
12.500	23.750	7.3278e-02
12.500	24.000	7.3394e-02
12.750	17.000	2.2624e-03
12.750	17.250	5.0891e-03
12.750	17.500	9.0956e-03
12.750	17.750	9.0800e-03
12.750	18.000	8.9788e-03
12.750	18.250	8.9091e-03
12.750	18.500	8.8937e-03
12.750	18.750	8.9459e-03
12.750	19.000	9.0670e-03
12.750	19.250	9.2653e-03
12.750	19.500	9.5600e-03
12.750	19.750	9.9765e-03
12.750	20.000	1.0563e-02
12.750	20.250	1.1390e-02
12.750	20.500	1.2570e-02
12.750	20.750	1.4255e-02
12.750	21.000	1.6660e-02
12.750	21.250	2.0308e-02
12.750	21.500	2.5569e-02
12.750	21.750	3.4131e-02
12.750	22.000	4.6254e-02
12.750	22.250	5.5489e-02
12.750	22.500	6.1885e-02
12.750	22.750	6.6327e-02
12.750	23.000	6.9717e-02
12.750	23.250	7.1366e-02
12.750	23.500	7.2353e-02
12.750	23.750	7.2912e-02
12.750	24.000	7.3243e-02
13.000	17.000	3.7111e-04
13.000	17.250	8.8881e-04
13.000	17.500	3.5613e-03
13.000	17.750	7.1239e-03
13.000	18.000	8.2105e-03
13.000	18.250	8.9348e-03
13.000	18.500	8.8706e-03
13.000	18.750	8.8612e-03
13.000	19.000	8.9249e-03
13.000	19.250	9.0572e-03
13.000	19.500	9.2662e-03
13.000	19.750	9.5597e-03
13.000	20.000	9.9753e-03
13.000	20.250	1.0556e-02
13.000	20.500	1.1367e-02
13.000	20.750	1.2543e-02
13.000	21.000	1.4234e-02
13.000	21.250	1.6718e-02
13.000	21.500	2.0248e-02
13.000	21.750	2.6013e-02
13.000	22.000	3.5193e-02
13.000	22.250	4.7583e-02
13.000	22.500	5.6191e-02
13.000	22.750	6.1986e-02
13.000	23.000	6.6456e-02
13.000	23.250	6.9719e-02
13.000	23.500	7.1301e-02
13.000	23.750	7.2288e-02
13.000	24.000	7.2846e-02
13.250	17.000	2.2469e-04
13.250	17.250	4.2634e-04
13.250	17.500	1.0727e-03
13.250	17.750	2.6678e-03
13.250	18.000	5.5709e-03
13.250	18.250	7.1440e-03
13.250	18.500	8.8965e-03
13.250	18.750	8.8312e-03
13.250	19.000	8.8293e-03
13.250	19.250	8.9020e-03
13.250	19.500	9.0407e-03
13.250	19.750	9.2496e-03
13.250	20.000	9.5403e-03
13.250	20.250	9.9471e-03
13.250	20.500	1.0512e-02
13.250	20.750	1.1305e-02
13.250	21.000	1.2463e-02
13.250	21.250	1.4145e-02
13.250	21.500	1.6502e-02
13.250	21.750	2.0185e-02
13.250	22.000	2.6213e-02
13.250	22.250	3.6040e-02
13.250	22.500	4.8482e-02
13.250	22.750	5.6365e-02
13.250	23.000	6.1942e-02
13.250	23.250	6.6523e-02
13.250	23.500	6.9690e-02
13.250	23.750	7.1246e-02
13.250	24.000	7.2194e-02
13.500	17.000	1.3728e-04
13.500	17.250	2.5350e-04
13.500	17.500	5.7844e-04
13.500	17.750	1.3679e-03
13.500	18.000	3.2412e-03
13.500	18.250	6.1856e-03
13.500	18.500	7.4955e-03
13.500	18.750	8.8602e-03
13.500	19.000	8.7941e-03
13.500	19.250	8.7956e-03
13.500	19.500	8.8728e-03
13.500	19.750	9.0114e-03
13.500	20.000	9.2142e-03
13.500	20.250	9.4942e-03
13.500	20.500	9.8802e-03
13.500	20.750	1.0414e-02
13.500	21.000	1.1165e-02
13.500	21.250	1.2254e-02
13.500	21.500	1.3779e-02
13.500	21.750	1.6079e-02
13.500	22.000	1.9553e-02
13.500	22.250	2.5796e-02
13.500	22.500	3.7059e-02
13.500	22.750	4.9078e-02
13.500	23.000	5.6548e-02
13.500	23.250	6.1912e-02
13.500	23.500	6.6461e-02
13.500	23.750	6.9591e-02
13.500	24.000	7.1133e-02
13.750	17.000	8.1728e-05
13.750	17.250	1.6486e-04
13.750	17.500	3.5605e-04
13.750	17.750	7.0815e-04
13.750	18.000	1.7694e-03
13.750	18.250	3.9907e-03
13.750	18.500	6.4786e-03
13.750	18.750	7.8309e-03
13.750	19.000	8.8254e-03
13.750	19.250	8.7591e-03
13.750	19.500	8.7616e-03
13.750	19.750	8.8360e-03
13.750	20.000	8.9668e-03
13.750	20.250	9.1529e-03
13.750	20.500	9.4066e-03
13.750	20.750	9.7500e-03
13.750	21.000	1.0221e-02
13.750	21.250	1.0890e-02
13.750	21.500	1.1795e-02
13.750	21.750	1.3121e-02
13.750	22.000	1.4970e-02
13.750	22.250	1.8060e-02
13.750	22.500	2.4691e-02
13.750	22.750	3.7624e-02
13.750	23.000	4.9668e-02
13.750	23.250	5.6681e-02
13.750	23.500	6.1794e-02
13.750	23.750	6.6381e-02
13.750	24.000	6.9405e-02
14.000	17.000	4.8971e-05
14.000	17.250	9.7860e-05
14.000	17.500	2.2025e-04
14.000	17.750	4.3753e-04
14.000	18.000	8.7992e-04
14.000	18.250	2.0433e-03
14.000	18.500	4.0752e-03
14.000	18.750	6.6905e-03
14.000	19.000	8.7727e-03
14.000	19.250	8.7898e-03
14.000	19.500	8.7208e-03
14.000	19.750	8.7202e-03
14.000	20.000	8.7858e-03
14.000	20.250	8.8979e-03
14.000	20.500	9.0528e-03
14.000	20.750	9.2562e-03
14.000	21.000	9.5240e-03
14.000	21.250	9.8877e-03
14.000	21.500	1.0356e-02
14.000	21.750	1.1002e-02
14.000	22.000	1.1773e-02
14.000	22.250	1.2981e-02
14.000	22.500	1.6160e-02
14.000	22.750	2.4106e-02
14.000	23.000	3.8441e-02
14.000	23.250	4.9901e-02
14.000	23.500	5.6451e-02
14.000	23.750	6.1376e-02
14.000	24.000	6.6173e-02
