nFnu 1035.92A  relative to Inci 1215.00A scaled to 1215A.
Hden   Phi(H)  Eq_Width (A)
 7.000	17.000	8.7875e-02
 7.000	17.250	1.1197e-01
 7.000	17.500	1.1359e-01
 7.000	17.750	1.1084e-01
 7.000	18.000	1.0059e-01
 7.000	18.250	9.1531e-02
 7.000	18.500	8.4511e-02
 7.000	18.750	8.0905e-02
 7.000	19.000	7.9039e-02
 7.000	19.250	7.7954e-02
 7.000	19.500	7.7495e-02
 7.000	19.750	7.7301e-02
 7.000	20.000	7.7215e-02
 7.000	20.250	7.7176e-02
 7.000	20.500	7.7156e-02
 7.000	20.750	7.7145e-02
 7.000	21.000	7.7140e-02
 7.000	21.250	7.7137e-02
 7.000	21.500	7.7135e-02
 7.000	21.750	7.7135e-02
 7.000	22.000	7.7135e-02
 7.000	22.250	7.7134e-02
 7.000	22.500	7.7135e-02
 7.000	22.750	7.7143e-02
 7.000	23.000	7.7136e-02
 7.000	23.250	7.7137e-02
 7.000	23.500	7.7137e-02
 7.000	23.750	7.7137e-02
 7.000	24.000	7.7138e-02
 7.250	17.000	5.7403e-02
 7.250	17.250	8.5357e-02
 7.250	17.500	1.0970e-01
 7.250	17.750	1.1280e-01
 7.250	18.000	1.1049e-01
 7.250	18.250	1.0042e-01
 7.250	18.500	9.1444e-02
 7.250	18.750	8.4480e-02
 7.250	19.000	8.0893e-02
 7.250	19.250	7.9035e-02
 7.250	19.500	7.7954e-02
 7.250	19.750	7.7494e-02
 7.250	20.000	7.7300e-02
 7.250	20.250	7.7216e-02
 7.250	20.500	7.7176e-02
 7.250	20.750	7.7156e-02
 7.250	21.000	7.7145e-02
 7.250	21.250	7.7140e-02
 7.250	21.500	7.7137e-02
 7.250	21.750	7.7135e-02
 7.250	22.000	7.7134e-02
 7.250	22.250	7.7134e-02
 7.250	22.500	7.7133e-02
 7.250	22.750	7.7134e-02
 7.250	23.000	7.7134e-02
 7.250	23.250	7.7134e-02
 7.250	23.500	7.7134e-02
 7.250	23.750	7.7134e-02
 7.250	24.000	7.7134e-02
 7.500	17.000	3.6591e-02
 7.500	17.250	5.4270e-02
 7.500	17.500	8.3078e-02
 7.500	17.750	1.0756e-01
 7.500	18.000	1.1227e-01
 7.500	18.250	1.1031e-01
 7.500	18.500	1.0034e-01
 7.500	18.750	9.1390e-02
 7.500	19.000	8.4460e-02
 7.500	19.250	8.0885e-02
 7.500	19.500	7.9032e-02
 7.500	19.750	7.7953e-02
 7.500	20.000	7.7494e-02
 7.500	20.250	7.7300e-02
 7.500	20.500	7.7216e-02
 7.500	20.750	7.7176e-02
 7.500	21.000	7.7156e-02
 7.500	21.250	7.7145e-02
 7.500	21.500	7.7140e-02
 7.500	21.750	7.7136e-02
 7.500	22.000	7.7135e-02
 7.500	22.250	7.7134e-02
 7.500	22.500	7.7133e-02
 7.500	22.750	7.7133e-02
 7.500	23.000	7.7133e-02
 7.500	23.250	7.7133e-02
 7.500	23.500	7.7133e-02
 7.500	23.750	7.7133e-02
 7.500	24.000	7.7133e-02
 7.750	17.000	2.5183e-02
 7.750	17.250	3.3859e-02
 7.750	17.500	5.1719e-02
 7.750	17.750	8.1175e-02
 7.750	18.000	1.0593e-01
 7.750	18.250	1.1196e-01
 7.750	18.500	1.1024e-01
 7.750	18.750	1.0031e-01
 7.750	19.000	9.1357e-02
 7.750	19.250	8.4448e-02
 7.750	19.500	8.0880e-02
 7.750	19.750	7.9030e-02
 7.750	20.000	7.7953e-02
 7.750	20.250	7.7494e-02
 7.750	20.500	7.7300e-02
 7.750	20.750	7.7215e-02
 7.750	21.000	7.7176e-02
 7.750	21.250	7.7156e-02
 7.750	21.500	7.7145e-02
 7.750	21.750	7.7140e-02
 7.750	22.000	7.7136e-02
 7.750	22.250	7.7135e-02
 7.750	22.500	7.7134e-02
 7.750	22.750	7.7133e-02
 7.750	23.000	7.7133e-02
 7.750	23.250	7.7133e-02
 7.750	23.500	7.7133e-02
 7.750	23.750	7.7133e-02
 7.750	24.000	7.7133e-02
 8.000	17.000	1.8225e-02
 8.000	17.250	2.2660e-02
 8.000	17.500	3.1388e-02
 8.000	17.750	4.9304e-02
 8.000	18.000	7.9234e-02
 8.000	18.250	1.0476e-01
 8.000	18.500	1.1179e-01
 8.000	18.750	1.1024e-01
 8.000	19.000	1.0033e-01
 8.000	19.250	9.1341e-02
 8.000	19.500	8.4440e-02
 8.000	19.750	8.0877e-02
 8.000	20.000	7.9029e-02
 8.000	20.250	7.7952e-02
 8.000	20.500	7.7494e-02
 8.000	20.750	7.7300e-02
 8.000	21.000	7.7215e-02
 8.000	21.250	7.7176e-02
 8.000	21.500	7.7156e-02
 8.000	21.750	7.7145e-02
 8.000	22.000	7.7140e-02
 8.000	22.250	7.7136e-02
 8.000	22.500	7.7135e-02
 8.000	22.750	7.7134e-02
 8.000	23.000	7.7133e-02
 8.000	23.250	7.7133e-02
 8.000	23.500	7.7133e-02
 8.000	23.750	7.7133e-02
 8.000	24.000	7.7133e-02
 8.250	17.000	1.4016e-02
 8.250	17.250	1.6345e-02
 8.250	17.500	2.1039e-02
 8.250	17.750	2.9999e-02
 8.250	18.000	4.8175e-02
 8.250	18.250	7.8540e-02
 8.250	18.500	1.0401e-01
 8.250	18.750	1.1175e-01
 8.250	19.000	1.1030e-01
 8.250	19.250	1.0037e-01
 8.250	19.500	9.1331e-02
 8.250	19.750	8.4435e-02
 8.250	20.000	8.0875e-02
 8.250	20.250	7.9028e-02
 8.250	20.500	7.7952e-02
 8.250	20.750	7.7494e-02
 8.250	21.000	7.7300e-02
 8.250	21.250	7.7215e-02
 8.250	21.500	7.7176e-02
 8.250	21.750	7.7156e-02
 8.250	22.000	7.7145e-02
 8.250	22.250	7.7139e-02
 8.250	22.500	7.7136e-02
 8.250	22.750	7.7135e-02
 8.250	23.000	7.7134e-02
 8.250	23.250	7.7133e-02
 8.250	23.500	7.7133e-02
 8.250	23.750	7.7133e-02
 8.250	24.000	7.7133e-02
 8.500	17.000	1.1383e-02
 8.500	17.250	1.2532e-02
 8.500	17.500	1.5091e-02
 8.500	17.750	1.9956e-02
 8.500	18.000	2.9243e-02
 8.500	18.250	4.8217e-02
 8.500	18.500	7.8986e-02
 8.500	18.750	1.0357e-01
 8.500	19.000	1.1181e-01
 8.500	19.250	1.1038e-01
 8.500	19.500	1.0044e-01
 8.500	19.750	9.1325e-02
 8.500	20.000	8.4431e-02
 8.500	20.250	8.0874e-02
 8.500	20.500	7.9027e-02
 8.500	20.750	7.7952e-02
 8.500	21.000	7.7494e-02
 8.500	21.250	7.7300e-02
 8.500	21.500	7.7216e-02
 8.500	21.750	7.7176e-02
 8.500	22.000	7.7156e-02
 8.500	22.250	7.7145e-02
 8.500	22.500	7.7140e-02
 8.500	22.750	7.7137e-02
 8.500	23.000	7.7135e-02
 8.500	23.250	7.7134e-02
 8.500	23.500	7.7133e-02
 8.500	23.750	7.7133e-02
 8.500	24.000	7.7133e-02
 8.750	17.000	9.8268e-03
 8.750	17.250	1.0261e-02
 8.750	17.500	1.1598e-02
 8.750	17.750	1.4313e-02
 8.750	18.000	1.9474e-02
 8.750	18.250	2.9432e-02
 8.750	18.500	5.0159e-02
 8.750	18.750	8.1243e-02
 8.750	19.000	1.0330e-01
 8.750	19.250	1.1190e-01
 8.750	19.500	1.1048e-01
 8.750	19.750	1.0052e-01
 8.750	20.000	9.1324e-02
 8.750	20.250	8.4428e-02
 8.750	20.500	8.0873e-02
 8.750	20.750	7.9027e-02
 8.750	21.000	7.7952e-02
 8.750	21.250	7.7494e-02
 8.750	21.500	7.7300e-02
 8.750	21.750	7.7215e-02
 8.750	22.000	7.7176e-02
 8.750	22.250	7.7156e-02
 8.750	22.500	7.7145e-02
 8.750	22.750	7.7140e-02
 8.750	23.000	7.7137e-02
 8.750	23.250	7.7135e-02
 8.750	23.500	7.7134e-02
 8.750	23.750	7.7133e-02
 8.750	24.000	7.7133e-02
 9.000	17.000	9.0033e-03
 9.000	17.250	8.9754e-03
 9.000	17.500	9.5844e-03
 9.000	17.750	1.1078e-02
 9.000	18.000	1.4029e-02
 9.000	18.250	1.9697e-02
 9.000	18.500	3.1119e-02
 9.000	18.750	5.4521e-02
 9.000	19.000	8.5543e-02
 9.000	19.250	1.0311e-01
 9.000	19.500	1.1200e-01
 9.000	19.750	1.1059e-01
 9.000	20.000	1.0060e-01
 9.000	20.250	9.1324e-02
 9.000	20.500	8.4426e-02
 9.000	20.750	8.0873e-02
 9.000	21.000	7.9027e-02
 9.000	21.250	7.7952e-02
 9.000	21.500	7.7494e-02
 9.000	21.750	7.7300e-02
 9.000	22.000	7.7215e-02
 9.000	22.250	7.7176e-02
 9.000	22.500	7.7156e-02
 9.000	22.750	7.7145e-02
 9.000	23.000	7.7140e-02
 9.000	23.250	7.7136e-02
 9.000	23.500	7.7135e-02
 9.000	23.750	7.7134e-02
 9.000	24.000	7.7133e-02
 9.250	17.000	8.6979e-03
 9.250	17.250	8.3284e-03
 9.250	17.500	8.4886e-03
 9.250	17.750	9.2790e-03
 9.250	18.000	1.1090e-02
 9.250	18.250	1.4459e-02
 9.250	18.500	2.1002e-02
 9.250	18.750	3.4515e-02
 9.250	19.000	6.1053e-02
 9.250	19.250	9.0737e-02
 9.250	19.500	1.0291e-01
 9.250	19.750	1.1205e-01
 9.250	20.000	1.1068e-01
 9.250	20.250	1.0069e-01
 9.250	20.500	9.1324e-02
 9.250	20.750	8.4424e-02
 9.250	21.000	8.0873e-02
 9.250	21.250	7.9027e-02
 9.250	21.500	7.7944e-02
 9.250	21.750	7.7456e-02
 9.250	22.000	7.7260e-02
 9.250	22.250	7.7178e-02
 9.250	22.500	7.7175e-02
 9.250	22.750	7.7155e-02
 9.250	23.000	7.7145e-02
 9.250	23.250	7.7139e-02
 9.250	23.500	7.7136e-02
 9.250	23.750	7.7134e-02
 9.250	24.000	7.7134e-02
 9.500	17.000	8.7932e-03
 9.500	17.250	8.1237e-03
 9.500	17.500	7.9761e-03
 9.500	17.750	8.3840e-03
 9.500	18.000	9.4984e-03
 9.500	18.250	1.1619e-02
 9.500	18.500	1.5597e-02
 9.500	18.750	2.3391e-02
 9.500	19.000	3.9914e-02
 9.500	19.250	6.8961e-02
 9.500	19.500	9.3865e-02
 9.500	19.750	1.0277e-01
 9.500	20.000	1.1207e-01
 9.500	20.250	1.1076e-01
 9.500	20.500	1.0076e-01
 9.500	20.750	9.1324e-02
 9.500	21.000	8.4411e-02
 9.500	21.250	8.0839e-02
 9.500	21.500	7.8986e-02
 9.500	21.750	7.7906e-02
 9.500	22.000	7.7432e-02
 9.500	22.250	7.7227e-02
 9.500	22.500	7.7145e-02
 9.500	22.750	7.7106e-02
 9.500	23.000	7.7085e-02
 9.500	23.250	7.7074e-02
 9.500	23.500	7.7092e-02
 9.500	23.750	7.7088e-02
 9.500	24.000	7.7087e-02
 9.750	17.000	9.2331e-03
 9.750	17.250	8.2469e-03
 9.750	17.500	7.8337e-03
 9.750	17.750	7.9941e-03
 9.750	18.000	8.7471e-03
 9.750	18.250	1.0190e-02
 9.750	18.500	1.2759e-02
 9.750	18.750	1.7571e-02
 9.750	19.000	2.7244e-02
 9.750	19.250	4.7523e-02
 9.750	19.500	7.7511e-02
 9.750	19.750	9.5001e-02
 9.750	20.000	1.0270e-01
 9.750	20.250	1.1199e-01
 9.750	20.500	1.1080e-01
 9.750	20.750	1.0082e-01
 9.750	21.000	9.1326e-02
 9.750	21.250	8.4417e-02
 9.750	21.500	8.0858e-02
 9.750	21.750	7.8990e-02
 9.750	22.000	7.7909e-02
 9.750	22.250	7.7441e-02
 9.750	22.500	7.7234e-02
 9.750	22.750	7.7142e-02
 9.750	23.000	7.7104e-02
 9.750	23.250	7.7085e-02
 9.750	23.500	7.7075e-02
 9.750	23.750	7.7069e-02
 9.750	24.000	7.7066e-02
10.000	17.000	1.0014e-02
10.000	17.250	8.6703e-03
10.000	17.500	7.9527e-03
10.000	17.750	7.9014e-03
10.000	18.000	8.5044e-03
10.000	18.250	9.5909e-03
10.000	18.500	1.1352e-02
10.000	18.750	1.4563e-02
10.000	19.000	2.0770e-02
10.000	19.250	3.4076e-02
10.000	19.500	6.0205e-02
10.000	19.750	8.4850e-02
10.000	20.000	9.5448e-02
10.000	20.250	1.0275e-01
10.000	20.500	1.1198e-01
10.000	20.750	1.1082e-01
10.000	21.000	1.0087e-01
10.000	21.250	9.1328e-02
10.000	21.500	8.4417e-02
10.000	21.750	8.0868e-02
10.000	22.000	7.9004e-02
10.000	22.250	7.7911e-02
10.000	22.500	7.7448e-02
10.000	22.750	7.7244e-02
10.000	23.000	7.7150e-02
10.000	23.250	7.7105e-02
10.000	23.500	7.7082e-02
10.000	23.750	7.7072e-02
10.000	24.000	7.7066e-02
10.250	17.000	1.1177e-02
10.250	17.250	9.4216e-03
10.250	17.500	8.3837e-03
10.250	17.750	8.1244e-03
10.250	18.000	8.5914e-03
10.250	18.250	9.4753e-03
10.250	18.500	1.0820e-02
10.250	18.750	1.3162e-02
10.250	19.000	1.7599e-02
10.250	19.250	2.6280e-02
10.250	19.500	4.3159e-02
10.250	19.750	6.8829e-02
10.250	20.000	8.7627e-02
10.250	20.250	9.5382e-02
10.250	20.500	1.0308e-01
10.250	20.750	1.1216e-01
10.250	21.000	1.1082e-01
10.250	21.250	1.0091e-01
10.250	21.500	9.1328e-02
10.250	21.750	8.4416e-02
10.250	22.000	8.0871e-02
10.250	22.250	7.9020e-02
10.250	22.500	7.7912e-02
10.250	22.750	7.7451e-02
10.250	23.000	7.7251e-02
10.250	23.250	7.7160e-02
10.250	23.500	7.7115e-02
10.250	23.750	7.7091e-02
10.250	24.000	7.7079e-02
10.500	17.000	1.2681e-02
10.500	17.250	1.0550e-02
10.500	17.500	9.1700e-03
10.500	17.750	8.6919e-03
10.500	18.000	8.9681e-03
10.500	18.250	9.7038e-03
10.500	18.500	1.0769e-02
10.500	18.750	1.2444e-02
10.500	19.000	1.5173e-02
10.500	19.250	2.0172e-02
10.500	19.500	2.9880e-02
10.500	19.750	4.8648e-02
10.500	20.000	7.4473e-02
10.500	20.250	8.9400e-02
10.500	20.500	9.5927e-02
10.500	20.750	1.0386e-01
10.500	21.000	1.1274e-01
10.500	21.250	1.1084e-01
10.500	21.500	1.0094e-01
10.500	21.750	9.1328e-02
10.500	22.000	8.4414e-02
10.500	22.250	8.0872e-02
10.500	22.500	7.9026e-02
10.500	22.750	7.7920e-02
10.500	23.000	7.7454e-02
10.500	23.250	7.7256e-02
10.500	23.500	7.7167e-02
10.500	23.750	7.7124e-02
10.500	24.000	7.7101e-02
10.750	17.000	1.4368e-02
10.750	17.250	1.1999e-02
10.750	17.500	1.0352e-02
10.750	17.750	9.6588e-03
10.750	18.000	9.6900e-03
10.750	18.250	1.0118e-02
10.750	18.500	1.0868e-02
10.750	18.750	1.1933e-02
10.750	19.000	1.3608e-02
10.750	19.250	1.6551e-02
10.750	19.500	2.2141e-02
10.750	19.750	3.3154e-02
10.750	20.000	5.3585e-02
10.750	20.250	7.8997e-02
10.750	20.500	9.0423e-02
10.750	20.750	9.7075e-02
10.750	21.000	1.0520e-01
10.750	21.250	1.1391e-01
10.750	21.500	1.1092e-01
10.750	21.750	1.0095e-01
10.750	22.000	9.1323e-02
10.750	22.250	8.4411e-02
10.750	22.500	8.0872e-02
10.750	22.750	7.9027e-02
10.750	23.000	7.7939e-02
10.750	23.250	7.7455e-02
10.750	23.500	7.7259e-02
10.750	23.750	7.7172e-02
10.750	24.000	7.7130e-02
11.000	17.000	1.5681e-02
11.000	17.250	1.3575e-02
11.000	17.500	1.1842e-02
11.000	17.750	1.0997e-02
11.000	18.000	1.0757e-02
11.000	18.250	1.0793e-02
11.000	18.500	1.1164e-02
11.000	18.750	1.1821e-02
11.000	19.000	1.2864e-02
11.000	19.250	1.4546e-02
11.000	19.500	1.7696e-02
11.000	19.750	2.3912e-02
11.000	20.000	3.6096e-02
11.000	20.250	5.7967e-02
11.000	20.500	8.2561e-02
11.000	20.750	9.1512e-02
11.000	21.000	9.9494e-02
11.000	21.250	1.0774e-01
11.000	21.500	1.1616e-01
11.000	21.750	1.1112e-01
11.000	22.000	1.0096e-01
11.000	22.250	9.1323e-02
11.000	22.500	8.4408e-02
11.000	22.750	8.0872e-02
11.000	23.000	7.9028e-02
11.000	23.250	7.7948e-02
11.000	23.500	7.7461e-02
11.000	23.750	7.7261e-02
11.000	24.000	7.7174e-02
11.250	17.000	1.3816e-02
11.250	17.250	1.4546e-02
11.250	17.500	1.3328e-02
11.250	17.750	1.2530e-02
11.250	18.000	1.2094e-02
11.250	18.250	1.1742e-02
11.250	18.500	1.1586e-02
11.250	18.750	1.1884e-02
11.250	19.000	1.2429e-02
11.250	19.250	1.3296e-02
11.250	19.500	1.5134e-02
11.250	19.750	1.8692e-02
11.250	20.000	2.5552e-02
11.250	20.250	3.8814e-02
11.250	20.500	6.1925e-02
11.250	20.750	8.5288e-02
11.250	21.000	9.3825e-02
11.250	21.250	1.0288e-01
11.250	21.500	1.1190e-01
11.250	21.750	1.1932e-01
11.250	22.000	1.1144e-01
11.250	22.250	1.0098e-01
11.250	22.500	9.1314e-02
11.250	22.750	8.4405e-02
11.250	23.000	8.0871e-02
11.250	23.250	7.9029e-02
11.250	23.500	7.7951e-02
11.250	23.750	7.7480e-02
11.250	24.000	7.7263e-02
11.500	17.000	1.4509e-02
11.500	17.250	1.3116e-02
11.500	17.500	1.3526e-02
11.500	17.750	1.3701e-02
11.500	18.000	1.3345e-02
11.500	18.250	1.2787e-02
11.500	18.500	1.2309e-02
11.500	18.750	1.2224e-02
11.500	19.000	1.2336e-02
11.500	19.250	1.2722e-02
11.500	19.500	1.3672e-02
11.500	19.750	1.5705e-02
11.500	20.000	1.9614e-02
11.500	20.250	2.7039e-02
11.500	20.500	4.1256e-02
11.500	20.750	6.5857e-02
11.500	21.000	8.7689e-02
11.500	21.250	9.7316e-02
11.500	21.500	1.0823e-01
11.500	21.750	1.1811e-01
11.500	22.000	1.2261e-01
11.500	22.250	1.1192e-01
11.500	22.500	1.0100e-01
11.500	22.750	9.1316e-02
11.500	23.000	8.4402e-02
11.500	23.250	8.0870e-02
11.500	23.500	7.9029e-02
11.500	23.750	7.7952e-02
11.500	24.000	7.7489e-02
11.750	17.000	1.4976e-02
11.750	17.250	1.3946e-02
11.750	17.500	1.3188e-02
11.750	17.750	1.2903e-02
11.750	18.000	1.2625e-02
11.750	18.250	1.2772e-02
11.750	18.500	1.2723e-02
11.750	18.750	1.2454e-02
11.750	19.000	1.2345e-02
11.750	19.250	1.2429e-02
11.750	19.500	1.2889e-02
11.750	19.750	1.3944e-02
11.750	20.000	1.6180e-02
11.750	20.250	2.0447e-02
11.750	20.500	2.8364e-02
11.750	20.750	4.3482e-02
11.750	21.000	7.0158e-02
11.750	21.250	9.1123e-02
11.750	21.500	1.0263e-01
11.750	21.750	1.1592e-01
11.750	22.000	1.2568e-01
11.750	22.250	1.2514e-01
11.750	22.500	1.1256e-01
11.750	22.750	1.0102e-01
11.750	23.000	9.1313e-02
11.750	23.250	8.4399e-02
11.750	23.500	8.0869e-02
11.750	23.750	7.9030e-02
11.750	24.000	7.7952e-02
12.000	17.000	1.4815e-02
12.000	17.250	1.4255e-02
12.000	17.500	1.3844e-02
12.000	17.750	1.3721e-02
12.000	18.000	1.3508e-02
12.000	18.250	1.2966e-02
12.000	18.500	1.2186e-02
12.000	18.750	1.1368e-02
12.000	19.000	1.1939e-02
12.000	19.250	1.2182e-02
12.000	19.500	1.2347e-02
12.000	19.750	1.2915e-02
12.000	20.000	1.4153e-02
12.000	20.250	1.6621e-02
12.000	20.500	2.1198e-02
12.000	20.750	2.9631e-02
12.000	21.000	4.5862e-02
12.000	21.250	7.5741e-02
12.000	21.500	9.6747e-02
12.000	21.750	1.1025e-01
12.000	22.000	1.2546e-01
12.000	22.250	1.3325e-01
12.000	22.500	1.2754e-01
12.000	22.750	1.1337e-01
12.000	23.000	1.0105e-01
12.000	23.250	9.1308e-02
12.000	23.500	8.4398e-02
12.000	23.750	8.0867e-02
12.000	24.000	7.9030e-02
12.250	17.000	1.4006e-02
12.250	17.250	1.3909e-02
12.250	17.500	1.3910e-02
12.250	17.750	1.4076e-02
12.250	18.000	1.4046e-02
12.250	18.250	1.3584e-02
12.250	18.500	1.2849e-02
12.250	18.750	1.2012e-02
12.250	19.000	1.1204e-02
12.250	19.250	1.0600e-02
12.250	19.500	1.1639e-02
12.250	19.750	1.2194e-02
12.250	20.000	1.2875e-02
12.250	20.250	1.4337e-02
12.250	20.500	1.7051e-02
12.250	20.750	2.2018e-02
12.250	21.000	3.1246e-02
12.250	21.250	4.9062e-02
12.250	21.500	8.2132e-02
12.250	21.750	1.0406e-01
12.250	22.000	1.2002e-01
12.250	22.250	1.3693e-01
12.250	22.500	1.4038e-01
12.250	22.750	1.3000e-01
12.250	23.000	1.1405e-01
12.250	23.250	1.0112e-01
12.250	23.500	9.1301e-02
12.250	23.750	8.4389e-02
12.250	24.000	8.0865e-02
12.500	17.000	1.2994e-02
12.500	17.250	1.3221e-02
12.500	17.500	1.3581e-02
12.500	17.750	1.3951e-02
12.500	18.000	1.4034e-02
12.500	18.250	1.3770e-02
12.500	18.500	1.3245e-02
12.500	18.750	1.2558e-02
12.500	19.000	1.1767e-02
12.500	19.250	1.0987e-02
12.500	19.500	1.0427e-02
12.500	19.750	1.0680e-02
12.500	20.000	1.1909e-02
12.500	20.250	1.2850e-02
12.500	20.500	1.4524e-02
12.500	20.750	1.7664e-02
12.500	21.000	2.3303e-02
12.500	21.250	3.3387e-02
12.500	21.500	5.2849e-02
12.500	21.750	9.1513e-02
12.500	22.000	1.1359e-01
12.500	22.250	1.3197e-01
12.500	22.500	1.4835e-01
12.500	22.750	1.4742e-01
12.500	23.000	1.3247e-01
12.500	23.250	1.1509e-01
12.500	23.500	1.0119e-01
12.500	23.750	9.1293e-02
12.500	24.000	8.4383e-02
12.750	17.000	1.2142e-02
12.750	17.250	1.2543e-02
12.750	17.500	1.2946e-02
12.750	17.750	1.3305e-02
12.750	18.000	1.3546e-02
12.750	18.250	1.3573e-02
12.750	18.500	1.3333e-02
12.750	18.750	1.2868e-02
12.750	19.000	1.2233e-02
12.750	19.250	1.1481e-02
12.750	19.500	1.0739e-02
12.750	19.750	1.0224e-02
12.750	20.000	1.0126e-02
12.750	20.250	1.1552e-02
12.750	20.500	1.2860e-02
12.750	20.750	1.4903e-02
12.750	21.000	1.8587e-02
12.750	21.250	2.5178e-02
12.750	21.500	3.6351e-02
12.750	21.750	5.8441e-02
12.750	22.000	1.0443e-01
12.750	22.250	1.2505e-01
12.750	22.500	1.4679e-01
12.750	22.750	1.5926e-01
12.750	23.000	1.5406e-01
12.750	23.250	1.3526e-01
12.750	23.500	1.1596e-01
12.750	23.750	1.0127e-01
12.750	24.000	9.1283e-02
13.000	17.000	2.1856e-02
13.000	17.250	1.3923e-02
13.000	17.500	1.2090e-02
13.000	17.750	1.2473e-02
13.000	18.000	1.2845e-02
13.000	18.250	1.3094e-02
13.000	18.500	1.3112e-02
13.000	18.750	1.2885e-02
13.000	19.000	1.2456e-02
13.000	19.250	1.1858e-02
13.000	19.500	1.1139e-02
13.000	19.750	1.0452e-02
13.000	20.000	9.9820e-03
13.000	20.250	9.9574e-03
13.000	20.500	1.0946e-02
13.000	20.750	1.2906e-02
13.000	21.000	1.5478e-02
13.000	21.250	2.0068e-02
13.000	21.500	2.7536e-02
13.000	21.750	4.0576e-02
13.000	22.000	6.6583e-02
13.000	22.250	1.1822e-01
13.000	22.500	1.3677e-01
13.000	22.750	1.6148e-01
13.000	23.000	1.6934e-01
13.000	23.250	1.6065e-01
13.000	23.500	1.3775e-01
13.000	23.750	1.1679e-01
13.000	24.000	1.0139e-01
13.250	17.000	2.0841e-02
13.250	17.250	1.8820e-02
13.250	17.500	1.1316e-02
13.250	17.750	1.1665e-02
13.250	18.000	1.2073e-02
13.250	18.250	1.2442e-02
13.250	18.500	1.2647e-02
13.250	18.750	1.2629e-02
13.250	19.000	1.2403e-02
13.250	19.250	1.1997e-02
13.250	19.500	1.1432e-02
13.250	19.750	1.0793e-02
13.250	20.000	1.0157e-02
13.250	20.250	9.7371e-03
13.250	20.500	9.7707e-03
13.250	20.750	1.0457e-02
13.250	21.000	1.2941e-02
13.250	21.250	1.6185e-02
13.250	21.500	2.1425e-02
13.250	21.750	2.9242e-02
13.250	22.000	4.4439e-02
13.250	22.250	7.4806e-02
13.250	22.500	1.3021e-01
13.250	22.750	1.4744e-01
13.250	23.000	1.7244e-01
13.250	23.250	1.8001e-01
13.250	23.500	1.6673e-01
13.250	23.750	1.4017e-01
13.250	24.000	1.1749e-01
13.500	17.000	1.9837e-02
13.500	17.250	1.8481e-02
13.500	17.500	1.0652e-02
13.500	17.750	1.0886e-02
13.500	18.000	1.1285e-02
13.500	18.250	1.1712e-02
13.500	18.500	1.2024e-02
13.500	18.750	1.2156e-02
13.500	19.000	1.2098e-02
13.500	19.250	1.1868e-02
13.500	19.500	1.1486e-02
13.500	19.750	1.0979e-02
13.500	20.000	1.0402e-02
13.500	20.250	9.8590e-03
13.500	20.500	9.4970e-03
13.500	20.750	9.5657e-03
13.500	21.000	1.0331e-02
13.500	21.250	1.2194e-02
13.500	21.500	1.6267e-02
13.500	21.750	2.1534e-02
13.500	22.000	3.0443e-02
13.500	22.250	4.8825e-02
13.500	22.500	8.9941e-02
13.500	22.750	1.4241e-01
13.500	23.000	1.6360e-01
13.500	23.250	1.8678e-01
13.500	23.500	1.9195e-01
13.500	23.750	1.7340e-01
13.500	24.000	1.4260e-01
13.750	17.000	1.8743e-02
13.750	17.250	1.7348e-02
13.750	17.500	1.0444e-02
13.750	17.750	1.0149e-02
13.750	18.000	1.0514e-02
13.750	18.250	1.0951e-02
13.750	18.500	1.1325e-02
13.750	18.750	1.1548e-02
13.750	19.000	1.1615e-02
13.750	19.250	1.1537e-02
13.750	19.500	1.1320e-02
13.750	19.750	1.0978e-02
13.750	20.000	1.0542e-02
13.750	20.250	1.0060e-02
13.750	20.500	9.6243e-03
13.750	20.750	9.3655e-03
13.750	21.000	9.5051e-03
13.750	21.250	1.0315e-02
13.750	21.500	1.2123e-02
13.750	21.750	1.5404e-02
13.750	22.000	2.1623e-02
13.750	22.250	3.2593e-02
13.750	22.500	5.3555e-02
13.750	22.750	1.0839e-01
13.750	23.000	1.6264e-01
13.750	23.250	1.8567e-01
13.750	23.500	2.0508e-01
13.750	23.750	2.0602e-01
13.750	24.000	1.7976e-01
14.000	17.000	1.7138e-02
14.000	17.250	1.7190e-02
14.000	17.500	1.1165e-02
14.000	17.750	9.4286e-03
14.000	18.000	9.7658e-03
14.000	18.250	1.0187e-02
14.000	18.500	1.0588e-02
14.000	18.750	1.0875e-02
14.000	19.000	1.1023e-02
14.000	19.250	1.1056e-02
14.000	19.500	1.0979e-02
14.000	19.750	1.0797e-02
14.000	20.000	1.0519e-02
14.000	20.250	1.0178e-02
14.000	20.500	9.8268e-03
14.000	20.750	9.5407e-03
14.000	21.000	9.4560e-03
14.000	21.250	9.7939e-03
14.000	21.500	1.0724e-02
14.000	21.750	1.2764e-02
14.000	22.000	1.6554e-02
14.000	22.250	2.3510e-02
14.000	22.500	3.7493e-02
14.000	22.750	6.4985e-02
14.000	23.000	1.3842e-01
14.000	23.250	1.9521e-01
14.000	23.500	2.1805e-01
14.000	23.750	2.3187e-01
14.000	24.000	2.2220e-01
