InwC 6209.66A  relative to Inci 1215.00A scaled to 1215A.
Hden   Phi(H)  Eq_Width (A)
 7.000	17.000	2.3149e-02
 7.000	17.250	3.0795e-02
 7.000	17.500	3.1803e-02
 7.000	17.750	3.2422e-02
 7.000	18.000	3.2437e-02
 7.000	18.250	3.2459e-02
 7.000	18.500	3.2462e-02
 7.000	18.750	3.2467e-02
 7.000	19.000	3.2470e-02
 7.000	19.250	3.2473e-02
 7.000	19.500	3.2474e-02
 7.000	19.750	3.2475e-02
 7.000	20.000	3.2475e-02
 7.000	20.250	3.2475e-02
 7.000	20.500	3.2475e-02
 7.000	20.750	3.2475e-02
 7.000	21.000	3.2475e-02
 7.000	21.250	3.2476e-02
 7.000	21.500	3.2476e-02
 7.000	21.750	3.2476e-02
 7.000	22.000	3.2476e-02
 7.000	22.250	3.2476e-02
 7.000	22.500	3.2476e-02
 7.000	22.750	3.2480e-02
 7.000	23.000	3.2477e-02
 7.000	23.250	3.2477e-02
 7.000	23.500	3.2477e-02
 7.000	23.750	3.2477e-02
 7.000	24.000	3.2478e-02
 7.250	17.000	1.7418e-02
 7.250	17.250	2.3456e-02
 7.250	17.500	3.0799e-02
 7.250	17.750	3.1810e-02
 7.250	18.000	3.2422e-02
 7.250	18.250	3.2437e-02
 7.250	18.500	3.2459e-02
 7.250	18.750	3.2462e-02
 7.250	19.000	3.2467e-02
 7.250	19.250	3.2471e-02
 7.250	19.500	3.2474e-02
 7.250	19.750	3.2474e-02
 7.250	20.000	3.2475e-02
 7.250	20.250	3.2475e-02
 7.250	20.500	3.2475e-02
 7.250	20.750	3.2475e-02
 7.250	21.000	3.2475e-02
 7.250	21.250	3.2475e-02
 7.250	21.500	3.2475e-02
 7.250	21.750	3.2476e-02
 7.250	22.000	3.2476e-02
 7.250	22.250	3.2476e-02
 7.250	22.500	3.2476e-02
 7.250	22.750	3.2476e-02
 7.250	23.000	3.2476e-02
 7.250	23.250	3.2476e-02
 7.250	23.500	3.2476e-02
 7.250	23.750	3.2476e-02
 7.250	24.000	3.2476e-02
 7.500	17.000	1.2396e-02
 7.500	17.250	1.7860e-02
 7.500	17.500	2.3737e-02
 7.500	17.750	3.0802e-02
 7.500	18.000	3.1817e-02
 7.500	18.250	3.2422e-02
 7.500	18.500	3.2437e-02
 7.500	18.750	3.2459e-02
 7.500	19.000	3.2462e-02
 7.500	19.250	3.2467e-02
 7.500	19.500	3.2470e-02
 7.500	19.750	3.2473e-02
 7.500	20.000	3.2474e-02
 7.500	20.250	3.2475e-02
 7.500	20.500	3.2475e-02
 7.500	20.750	3.2475e-02
 7.500	21.000	3.2475e-02
 7.500	21.250	3.2475e-02
 7.500	21.500	3.2475e-02
 7.500	21.750	3.2475e-02
 7.500	22.000	3.2475e-02
 7.500	22.250	3.2475e-02
 7.500	22.500	3.2475e-02
 7.500	22.750	3.2475e-02
 7.500	23.000	3.2476e-02
 7.500	23.250	3.2476e-02
 7.500	23.500	3.2476e-02
 7.500	23.750	3.2476e-02
 7.500	24.000	3.2476e-02
 7.750	17.000	8.3415e-03
 7.750	17.250	1.2739e-02
 7.750	17.500	1.8346e-02
 7.750	17.750	2.4050e-02
 7.750	18.000	3.0805e-02
 7.750	18.250	3.1824e-02
 7.750	18.500	3.2422e-02
 7.750	18.750	3.2437e-02
 7.750	19.000	3.2459e-02
 7.750	19.250	3.2462e-02
 7.750	19.500	3.2467e-02
 7.750	19.750	3.2470e-02
 7.750	20.000	3.2473e-02
 7.750	20.250	3.2474e-02
 7.750	20.500	3.2475e-02
 7.750	20.750	3.2475e-02
 7.750	21.000	3.2475e-02
 7.750	21.250	3.2475e-02
 7.750	21.500	3.2475e-02
 7.750	21.750	3.2475e-02
 7.750	22.000	3.2475e-02
 7.750	22.250	3.2475e-02
 7.750	22.500	3.2475e-02
 7.750	22.750	3.2475e-02
 7.750	23.000	3.2475e-02
 7.750	23.250	3.2475e-02
 7.750	23.500	3.2475e-02
 7.750	23.750	3.2475e-02
 7.750	24.000	3.2475e-02
 8.000	17.000	5.6159e-03
 8.000	17.250	8.5109e-03
 8.000	17.500	1.3056e-02
 8.000	17.750	1.8793e-02
 8.000	18.000	2.4330e-02
 8.000	18.250	3.0803e-02
 8.000	18.500	3.1826e-02
 8.000	18.750	3.2422e-02
 8.000	19.000	3.2437e-02
 8.000	19.250	3.2459e-02
 8.000	19.500	3.2463e-02
 8.000	19.750	3.2467e-02
 8.000	20.000	3.2471e-02
 8.000	20.250	3.2473e-02
 8.000	20.500	3.2474e-02
 8.000	20.750	3.2475e-02
 8.000	21.000	3.2475e-02
 8.000	21.250	3.2475e-02
 8.000	21.500	3.2475e-02
 8.000	21.750	3.2475e-02
 8.000	22.000	3.2475e-02
 8.000	22.250	3.2475e-02
 8.000	22.500	3.2475e-02
 8.000	22.750	3.2475e-02
 8.000	23.000	3.2475e-02
 8.000	23.250	3.2475e-02
 8.000	23.500	3.2475e-02
 8.000	23.750	3.2475e-02
 8.000	24.000	3.2475e-02
 8.250	17.000	3.8939e-03
 8.250	17.250	5.7646e-03
 8.250	17.500	8.8016e-03
 8.250	17.750	1.3615e-02
 8.250	18.000	1.9606e-02
 8.250	18.250	2.4886e-02
 8.250	18.500	3.0802e-02
 8.250	18.750	3.1833e-02
 8.250	19.000	3.2422e-02
 8.250	19.250	3.2437e-02
 8.250	19.500	3.2459e-02
 8.250	19.750	3.2462e-02
 8.250	20.000	3.2467e-02
 8.250	20.250	3.2471e-02
 8.250	20.500	3.2473e-02
 8.250	20.750	3.2474e-02
 8.250	21.000	3.2475e-02
 8.250	21.250	3.2475e-02
 8.250	21.500	3.2475e-02
 8.250	21.750	3.2475e-02
 8.250	22.000	3.2475e-02
 8.250	22.250	3.2475e-02
 8.250	22.500	3.2475e-02
 8.250	22.750	3.2475e-02
 8.250	23.000	3.2476e-02
 8.250	23.250	3.2475e-02
 8.250	23.500	3.2475e-02
 8.250	23.750	3.2475e-02
 8.250	24.000	3.2475e-02
 8.500	17.000	2.7490e-03
 8.500	17.250	4.0019e-03
 8.500	17.500	5.9848e-03
 8.500	17.750	9.2844e-03
 8.500	18.000	1.4500e-02
 8.500	18.250	2.0773e-02
 8.500	18.500	2.5612e-02
 8.500	18.750	3.0795e-02
 8.500	19.000	3.1840e-02
 8.500	19.250	3.2422e-02
 8.500	19.500	3.2438e-02
 8.500	19.750	3.2459e-02
 8.500	20.000	3.2462e-02
 8.500	20.250	3.2467e-02
 8.500	20.500	3.2470e-02
 8.500	20.750	3.2473e-02
 8.500	21.000	3.2474e-02
 8.500	21.250	3.2475e-02
 8.500	21.500	3.2475e-02
 8.500	21.750	3.2475e-02
 8.500	22.000	3.2475e-02
 8.500	22.250	3.2475e-02
 8.500	22.500	3.2475e-02
 8.500	22.750	3.2475e-02
 8.500	23.000	3.2475e-02
 8.500	23.250	3.2475e-02
 8.500	23.500	3.2475e-02
 8.500	23.750	3.2475e-02
 8.500	24.000	3.2475e-02
 8.750	17.000	1.9590e-03
 8.750	17.250	2.8294e-03
 8.750	17.500	4.1733e-03
 8.750	17.750	6.3540e-03
 8.750	18.000	1.0106e-02
 8.750	18.250	1.5930e-02
 8.750	18.500	2.1920e-02
 8.750	18.750	2.6353e-02
 8.750	19.000	3.0780e-02
 8.750	19.250	3.1846e-02
 8.750	19.500	3.2422e-02
 8.750	19.750	3.2438e-02
 8.750	20.000	3.2459e-02
 8.750	20.250	3.2462e-02
 8.750	20.500	3.2467e-02
 8.750	20.750	3.2471e-02
 8.750	21.000	3.2473e-02
 8.750	21.250	3.2474e-02
 8.750	21.500	3.2475e-02
 8.750	21.750	3.2475e-02
 8.750	22.000	3.2475e-02
 8.750	22.250	3.2475e-02
 8.750	22.500	3.2475e-02
 8.750	22.750	3.2475e-02
 8.750	23.000	3.2475e-02
 8.750	23.250	3.2475e-02
 8.750	23.500	3.2475e-02
 8.750	23.750	3.2475e-02
 8.750	24.000	3.2475e-02
 9.000	17.000	1.4021e-03
 9.000	17.250	2.0174e-03
 9.000	17.500	2.9579e-03
 9.000	17.750	4.4632e-03
 9.000	18.000	7.0574e-03
 9.000	18.250	1.1456e-02
 9.000	18.500	1.7701e-02
 9.000	18.750	2.3390e-02
 9.000	19.000	2.7485e-02
 9.000	19.250	3.0739e-02
 9.000	19.500	3.1850e-02
 9.000	19.750	3.2422e-02
 9.000	20.000	3.2438e-02
 9.000	20.250	3.2459e-02
 9.000	20.500	3.2462e-02
 9.000	20.750	3.2467e-02
 9.000	21.000	3.2470e-02
 9.000	21.250	3.2474e-02
 9.000	21.500	3.2474e-02
 9.000	21.750	3.2475e-02
 9.000	22.000	3.2475e-02
 9.000	22.250	3.2475e-02
 9.000	22.500	3.2475e-02
 9.000	22.750	3.2475e-02
 9.000	23.000	3.2475e-02
 9.000	23.250	3.2475e-02
 9.000	23.500	3.2475e-02
 9.000	23.750	3.2475e-02
 9.000	24.000	3.2475e-02
 9.250	17.000	1.0061e-03
 9.250	17.250	1.4444e-03
 9.250	17.500	2.1148e-03
 9.250	17.750	3.1890e-03
 9.250	18.000	5.0253e-03
 9.250	18.250	8.2028e-03
 9.250	18.500	1.3145e-02
 9.250	18.750	1.9336e-02
 9.250	19.000	2.4386e-02
 9.250	19.250	2.8587e-02
 9.250	19.500	3.0686e-02
 9.250	19.750	3.1846e-02
 9.250	20.000	3.2422e-02
 9.250	20.250	3.2438e-02
 9.250	20.500	3.2459e-02
 9.250	20.750	3.2462e-02
 9.250	21.000	3.2467e-02
 9.250	21.250	3.2470e-02
 9.250	21.500	3.2470e-02
 9.250	21.750	3.2459e-02
 9.250	22.000	3.2458e-02
 9.250	22.250	3.2459e-02
 9.250	22.500	3.2475e-02
 9.250	22.750	3.2475e-02
 9.250	23.000	3.2475e-02
 9.250	23.250	3.2475e-02
 9.250	23.500	3.2475e-02
 9.250	23.750	3.2475e-02
 9.250	24.000	3.2475e-02
 9.500	17.000	7.2255e-04
 9.500	17.250	1.0365e-03
 9.500	17.500	1.5196e-03
 9.500	17.750	2.3019e-03
 9.500	18.000	3.6551e-03
 9.500	18.250	6.0026e-03
 9.500	18.500	9.6160e-03
 9.500	18.750	1.4797e-02
 9.500	19.000	2.1032e-02
 9.500	19.250	2.5288e-02
 9.500	19.500	2.9344e-02
 9.500	19.750	3.0616e-02
 9.500	20.000	3.1833e-02
 9.500	20.250	3.2420e-02
 9.500	20.500	3.2437e-02
 9.500	20.750	3.2458e-02
 9.500	21.000	3.2458e-02
 9.500	21.250	3.2453e-02
 9.500	21.500	3.2454e-02
 9.500	21.750	3.2454e-02
 9.500	22.000	3.2449e-02
 9.500	22.250	3.2444e-02
 9.500	22.500	3.2446e-02
 9.500	22.750	3.2446e-02
 9.500	23.000	3.2446e-02
 9.500	23.250	3.2445e-02
 9.500	23.500	3.2455e-02
 9.500	23.750	3.2455e-02
 9.500	24.000	3.2455e-02
 9.750	17.000	5.1975e-04
 9.750	17.250	7.4519e-04
 9.750	17.500	1.0937e-03
 9.750	17.750	1.6684e-03
 9.750	18.000	2.6872e-03
 9.750	18.250	4.4510e-03
 9.750	18.500	7.1279e-03
 9.750	18.750	1.0988e-02
 9.750	19.000	1.6252e-02
 9.750	19.250	2.2044e-02
 9.750	19.500	2.6508e-02
 9.750	19.750	2.9720e-02
 9.750	20.000	3.0545e-02
 9.750	20.250	3.1791e-02
 9.750	20.500	3.2417e-02
 9.750	20.750	3.2437e-02
 9.750	21.000	3.2458e-02
 9.750	21.250	3.2461e-02
 9.750	21.500	3.2461e-02
 9.750	21.750	3.2455e-02
 9.750	22.000	3.2456e-02
 9.750	22.250	3.2452e-02
 9.750	22.500	3.2447e-02
 9.750	22.750	3.2444e-02
 9.750	23.000	3.2445e-02
 9.750	23.250	3.2446e-02
 9.750	23.500	3.2446e-02
 9.750	23.750	3.2446e-02
 9.750	24.000	3.2446e-02
10.000	17.000	3.7449e-04
10.000	17.250	5.3671e-04
10.000	17.500	7.8897e-04
10.000	17.750	1.2141e-03
10.000	18.000	1.9830e-03
10.000	18.250	3.3132e-03
10.000	18.500	5.2794e-03
10.000	18.750	8.1428e-03
10.000	19.000	1.2129e-02
10.000	19.250	1.7494e-02
10.000	19.500	2.2826e-02
10.000	19.750	2.7443e-02
10.000	20.000	2.9592e-02
10.000	20.250	3.0438e-02
10.000	20.500	3.1745e-02
10.000	20.750	3.2407e-02
10.000	21.000	3.2435e-02
10.000	21.250	3.2458e-02
10.000	21.500	3.2462e-02
10.000	21.750	3.2465e-02
10.000	22.000	3.2461e-02
10.000	22.250	3.2457e-02
10.000	22.500	3.2455e-02
10.000	22.750	3.2451e-02
10.000	23.000	3.2448e-02
10.000	23.250	3.2446e-02
10.000	23.500	3.2444e-02
10.000	23.750	3.2444e-02
10.000	24.000	3.2445e-02
10.250	17.000	2.7111e-04
10.250	17.250	3.8749e-04
10.250	17.500	5.7078e-04
10.250	17.750	8.8716e-04
10.250	18.000	1.4643e-03
10.250	18.250	2.4444e-03
10.250	18.500	3.9209e-03
10.250	18.750	6.0365e-03
10.250	19.000	8.9821e-03
10.250	19.250	1.3133e-02
10.250	19.500	1.8220e-02
10.250	19.750	2.3519e-02
10.250	20.000	2.8274e-02
10.250	20.250	2.9468e-02
10.250	20.500	3.0375e-02
10.250	20.750	3.1722e-02
10.250	21.000	3.2391e-02
10.250	21.250	3.2433e-02
10.250	21.500	3.2457e-02
10.250	21.750	3.2462e-02
10.250	22.000	3.2466e-02
10.250	22.250	3.2467e-02
10.250	22.500	3.2457e-02
10.250	22.750	3.2457e-02
10.250	23.000	3.2454e-02
10.250	23.250	3.2452e-02
10.250	23.500	3.2450e-02
10.250	23.750	3.2448e-02
10.250	24.000	3.2448e-02
10.500	17.000	1.9811e-04
10.500	17.250	2.8156e-04
10.500	17.500	4.1547e-04
10.500	17.750	6.5119e-04
10.500	18.000	1.0812e-03
10.500	18.250	1.8160e-03
10.500	18.500	2.8829e-03
10.500	18.750	4.4361e-03
10.500	19.000	6.5940e-03
10.500	19.250	9.6325e-03
10.500	19.500	1.3742e-02
10.500	19.750	1.8782e-02
10.500	20.000	2.4313e-02
10.500	20.250	2.8637e-02
10.500	20.500	2.9338e-02
10.500	20.750	3.0330e-02
10.500	21.000	3.1718e-02
10.500	21.250	3.2366e-02
10.500	21.500	3.2426e-02
10.500	21.750	3.2455e-02
10.500	22.000	3.2461e-02
10.500	22.250	3.2466e-02
10.500	22.500	3.2469e-02
10.500	22.750	3.2460e-02
10.500	23.000	3.2458e-02
10.500	23.250	3.2456e-02
10.500	23.500	3.2455e-02
10.500	23.750	3.2453e-02
10.500	24.000	3.2452e-02
10.750	17.000	1.4601e-04
10.750	17.250	2.0584e-04
10.750	17.500	3.0379e-04
10.750	17.750	4.7893e-04
10.750	18.000	7.9802e-04
10.750	18.250	1.3285e-03
10.750	18.500	2.1016e-03
10.750	18.750	3.2187e-03
10.750	19.000	4.8000e-03
10.750	19.250	6.9947e-03
10.750	19.500	1.0068e-02
10.750	19.750	1.4224e-02
10.750	20.000	1.9381e-02
10.750	20.250	2.5110e-02
10.750	20.500	2.8538e-02
10.750	20.750	2.9273e-02
10.750	21.000	3.0268e-02
10.750	21.250	3.1735e-02
10.750	21.500	3.2338e-02
10.750	21.750	3.2414e-02
10.750	22.000	3.2450e-02
10.750	22.250	3.2460e-02
10.750	22.500	3.2465e-02
10.750	22.750	3.2469e-02
10.750	23.000	3.2468e-02
10.750	23.250	3.2458e-02
10.750	23.500	3.2458e-02
10.750	23.750	3.2457e-02
10.750	24.000	3.2456e-02
11.000	17.000	1.0872e-04
11.000	17.250	1.5160e-04
11.000	17.500	2.2288e-04
11.000	17.750	3.5235e-04
11.000	18.000	5.8502e-04
11.000	18.250	9.6370e-04
11.000	18.500	1.5351e-03
11.000	18.750	2.3431e-03
11.000	19.000	3.4900e-03
11.000	19.250	5.0777e-03
11.000	19.500	7.2786e-03
11.000	19.750	1.0408e-02
11.000	20.000	1.4669e-02
11.000	20.250	1.9949e-02
11.000	20.500	2.5879e-02
11.000	20.750	2.8436e-02
11.000	21.000	2.9239e-02
11.000	21.250	3.0304e-02
11.000	21.500	3.1852e-02
11.000	21.750	3.2308e-02
11.000	22.000	3.2397e-02
11.000	22.250	3.2444e-02
11.000	22.500	3.2458e-02
11.000	22.750	3.2464e-02
11.000	23.000	3.2469e-02
11.000	23.250	3.2471e-02
11.000	23.500	3.2460e-02
11.000	23.750	3.2458e-02
11.000	24.000	3.2458e-02
11.250	17.000	8.2140e-05
11.250	17.250	1.1243e-04
11.250	17.500	1.6387e-04
11.250	17.750	2.5794e-04
11.250	18.000	4.2519e-04
11.250	18.250	6.9251e-04
11.250	18.500	1.0871e-03
11.250	18.750	1.6733e-03
11.250	19.000	2.4896e-03
11.250	19.250	3.6221e-03
11.250	19.500	5.2277e-03
11.250	19.750	7.4857e-03
11.250	20.000	1.0689e-02
11.250	20.250	1.5062e-02
11.250	20.500	2.0510e-02
11.250	20.750	2.6447e-02
11.250	21.000	2.8355e-02
11.250	21.250	2.9245e-02
11.250	21.500	3.0457e-02
11.250	21.750	3.1966e-02
11.250	22.000	3.2271e-02
11.250	22.250	3.2374e-02
11.250	22.500	3.2429e-02
11.250	22.750	3.2455e-02
11.250	23.000	3.2463e-02
11.250	23.250	3.2468e-02
11.250	23.500	3.2472e-02
11.250	23.750	3.2468e-02
11.250	24.000	3.2459e-02
11.500	17.000	6.2963e-05
11.500	17.250	8.4527e-05
11.500	17.500	1.2123e-04
11.500	17.750	1.8798e-04
11.500	18.000	3.0560e-04
11.500	18.250	4.9391e-04
11.500	18.500	7.7169e-04
11.500	18.750	1.1883e-03
11.500	19.000	1.7648e-03
11.500	19.250	2.5784e-03
11.500	19.500	3.7343e-03
11.500	19.750	5.3751e-03
11.500	20.000	7.6812e-03
11.500	20.250	1.0960e-02
11.500	20.500	1.5453e-02
11.500	20.750	2.1047e-02
11.500	21.000	2.6755e-02
11.500	21.250	2.8276e-02
11.500	21.500	2.9353e-02
11.500	21.750	3.0730e-02
11.500	22.000	3.2010e-02
11.500	22.250	3.2226e-02
11.500	22.500	3.2347e-02
11.500	22.750	3.2415e-02
11.500	23.000	3.2450e-02
11.500	23.250	3.2460e-02
11.500	23.500	3.2467e-02
11.500	23.750	3.2472e-02
11.500	24.000	3.2472e-02
11.750	17.000	4.9877e-05
11.750	17.250	6.4609e-05
11.750	17.500	9.0206e-05
11.750	17.750	1.3704e-04
11.750	18.000	2.1844e-04
11.750	18.250	3.4864e-04
11.750	18.500	5.4222e-04
11.750	18.750	8.2609e-04
11.750	19.000	1.2382e-03
11.750	19.250	1.8211e-03
11.750	19.500	2.6496e-03
11.750	19.750	3.8267e-03
11.750	20.000	5.4740e-03
11.750	20.250	7.8237e-03
11.750	20.500	1.1205e-02
11.750	20.750	1.5802e-02
11.750	21.000	2.1511e-02
11.750	21.250	2.6534e-02
11.750	21.500	2.8261e-02
11.750	21.750	2.9505e-02
11.750	22.000	3.1054e-02
11.750	22.250	3.1961e-02
11.750	22.500	3.2182e-02
11.750	22.750	3.2315e-02
11.750	23.000	3.2395e-02
11.750	23.250	3.2443e-02
11.750	23.500	3.2456e-02
11.750	23.750	3.2465e-02
11.750	24.000	3.2472e-02
12.000	17.000	4.0823e-05
12.000	17.250	5.1029e-05
12.000	17.500	6.8395e-05
12.000	17.750	1.0000e-04
12.000	18.000	1.5473e-04
12.000	18.250	2.4305e-04
12.000	18.500	3.7786e-04
12.000	18.750	5.7720e-04
12.000	19.000	8.6691e-04
12.000	19.250	1.2828e-03
12.000	19.500	1.8784e-03
12.000	19.750	2.7121e-03
12.000	20.000	3.8909e-03
12.000	20.250	5.5631e-03
12.000	20.500	7.9556e-03
12.000	20.750	1.1394e-02
12.000	21.000	1.6084e-02
12.000	21.250	2.1828e-02
12.000	21.500	2.6303e-02
12.000	21.750	2.8210e-02
12.000	22.000	2.9697e-02
12.000	22.250	3.1286e-02
12.000	22.500	3.1900e-02
12.000	22.750	3.2135e-02
12.000	23.000	3.2274e-02
12.000	23.250	3.2368e-02
12.000	23.500	3.2433e-02
12.000	23.750	3.2451e-02
12.000	24.000	3.2463e-02
12.250	17.000	3.1523e-05
12.250	17.250	4.1728e-05
12.250	17.500	5.3580e-05
12.250	17.750	7.4321e-05
12.250	18.000	1.1045e-04
12.250	18.250	1.7012e-04
12.250	18.500	2.6329e-04
12.250	18.750	4.0230e-04
12.250	19.000	6.0461e-04
12.250	19.250	8.9918e-04
12.250	19.500	1.3230e-03
12.250	19.750	1.9155e-03
12.250	20.000	2.7649e-03
12.250	20.250	3.9444e-03
12.250	20.500	5.6498e-03
12.250	20.750	8.0720e-03
12.250	21.000	1.1520e-02
12.250	21.250	1.6229e-02
12.250	21.500	2.1772e-02
12.250	21.750	2.5935e-02
12.250	22.000	2.8135e-02
12.250	22.250	2.9911e-02
12.250	22.500	3.1332e-02
12.250	22.750	3.1816e-02
12.250	23.000	3.2067e-02
12.250	23.250	3.2219e-02
12.250	23.500	3.2332e-02
12.250	23.750	3.2421e-02
12.250	24.000	3.2445e-02
12.500	17.000	1.6626e-05
12.500	17.250	3.3169e-05
12.500	17.500	4.3457e-05
12.500	17.750	5.7284e-05
12.500	18.000	8.0905e-05
12.500	18.250	1.2025e-04
12.500	18.500	1.8329e-04
12.500	18.750	2.8066e-04
12.500	19.000	4.2387e-04
12.500	19.250	6.3160e-04
12.500	19.500	9.2930e-04
12.500	19.750	1.3513e-03
12.500	20.000	1.9517e-03
12.500	20.250	2.8034e-03
12.500	20.500	3.9985e-03
12.500	20.750	5.6965e-03
12.500	21.000	8.1263e-03
12.500	21.250	1.1542e-02
12.500	21.500	1.6064e-02
12.500	21.750	2.1587e-02
12.500	22.000	2.5429e-02
12.500	22.250	2.8033e-02
12.500	22.500	2.9989e-02
12.500	22.750	3.1233e-02
12.500	23.000	3.1692e-02
12.500	23.250	3.1970e-02
12.500	23.500	3.2141e-02
12.500	23.750	3.2281e-02
12.500	24.000	3.2403e-02
12.750	17.000	8.6420e-06
12.750	17.250	1.8848e-05
12.750	17.500	3.5473e-05
12.750	17.750	4.5350e-05
12.750	18.000	6.0905e-05
12.750	18.250	8.6914e-05
12.750	18.500	1.2938e-04
12.750	18.750	1.9638e-04
12.750	19.000	2.9564e-04
12.750	19.250	4.4140e-04
12.750	19.500	6.5103e-04
12.750	19.750	9.4914e-04
12.750	20.000	1.3733e-03
12.750	20.250	1.9743e-03
12.750	20.500	2.8290e-03
12.750	20.750	4.0325e-03
12.750	21.000	5.7141e-03
12.750	21.250	8.1161e-03
12.750	21.500	1.1376e-02
12.750	21.750	1.5827e-02
12.750	22.000	2.1094e-02
12.750	22.250	2.4806e-02
12.750	22.500	2.7834e-02
12.750	22.750	2.9789e-02
12.750	23.000	3.0990e-02
12.750	23.250	3.1508e-02
12.750	23.500	3.1827e-02
12.750	23.750	3.2024e-02
12.750	24.000	3.2205e-02
13.000	17.000	1.9753e-06
13.000	17.250	4.6091e-06
13.000	17.500	1.4568e-05
13.000	17.750	3.0535e-05
13.000	18.000	4.4444e-05
13.000	18.250	6.4938e-05
13.000	18.500	9.3333e-05
13.000	18.750	1.3786e-04
13.000	19.000	2.0617e-04
13.000	19.250	3.0774e-04
13.000	19.500	4.5572e-04
13.000	19.750	6.6403e-04
13.000	20.000	9.6337e-04
13.000	20.250	1.3898e-03
13.000	20.500	1.9900e-03
13.000	20.750	2.8459e-03
13.000	21.000	4.0439e-03
13.000	21.250	5.7213e-03
13.000	21.500	8.0007e-03
13.000	21.750	1.1163e-02
13.000	22.000	1.5319e-02
13.000	22.250	2.0240e-02
13.000	22.500	2.4001e-02
13.000	22.750	2.7168e-02
13.000	23.000	2.9267e-02
13.000	23.250	3.0595e-02
13.000	23.500	3.1222e-02
13.000	23.750	3.1605e-02
13.000	24.000	3.1843e-02
13.250	17.000	1.1523e-06
13.250	17.250	2.3045e-06
13.250	17.500	5.3498e-06
13.250	17.750	1.2675e-05
13.250	18.000	2.7572e-05
13.250	18.250	4.3786e-05
13.250	18.500	6.8889e-05
13.250	18.750	9.8601e-05
13.250	19.000	1.4453e-04
13.250	19.250	2.1473e-04
13.250	19.500	3.1654e-04
13.250	19.750	4.6395e-04
13.250	20.000	6.7350e-04
13.250	20.250	9.7374e-04
13.250	20.500	1.4002e-03
13.250	20.750	2.0032e-03
13.250	21.000	2.8577e-03
13.250	21.250	4.0423e-03
13.250	21.500	5.6403e-03
13.250	21.750	7.7919e-03
13.250	22.000	1.0610e-02
13.250	22.250	1.4278e-02
13.250	22.500	1.8923e-02
13.250	22.750	2.2588e-02
13.250	23.000	2.5992e-02
13.250	23.250	2.8451e-02
13.250	23.500	3.0004e-02
13.250	23.750	3.0788e-02
13.250	24.000	3.1262e-02
13.500	17.000	1.0000e-07
13.500	17.250	1.3169e-06
13.500	17.500	2.8807e-06
13.500	17.750	6.5844e-06
13.500	18.000	1.5391e-05
13.500	18.250	3.1276e-05
13.500	18.500	4.7325e-05
13.500	18.750	7.2346e-05
13.500	19.000	1.0272e-04
13.500	19.250	1.4914e-04
13.500	19.500	2.1951e-04
13.500	19.750	3.2181e-04
13.500	20.000	4.6938e-04
13.500	20.250	6.8033e-04
13.500	20.500	9.8198e-04
13.500	20.750	1.4091e-03
13.500	21.000	2.0104e-03
13.500	21.250	2.8474e-03
13.500	21.500	3.9793e-03
13.500	21.750	5.4702e-03
13.500	22.000	7.2520e-03
13.500	22.250	9.5417e-03
13.500	22.500	1.3008e-02
13.500	22.750	1.7173e-02
13.500	23.000	2.1014e-02
13.500	23.250	2.4536e-02
13.500	23.500	2.7312e-02
13.500	23.750	2.9150e-02
13.500	24.000	3.0140e-02
13.750	17.000	1.0000e-07
13.750	17.250	1.0000e-07
13.750	17.500	1.7284e-06
13.750	17.750	3.4568e-06
13.750	18.000	8.3128e-06
13.750	18.250	1.8765e-05
13.750	18.500	3.3745e-05
13.750	18.750	5.0864e-05
13.750	19.000	7.4897e-05
13.750	19.250	1.0568e-04
13.750	19.500	1.5276e-04
13.750	19.750	2.2296e-04
13.750	20.000	3.2543e-04
13.750	20.250	4.7342e-04
13.750	20.500	6.8551e-04
13.750	20.750	9.8724e-04
13.750	21.000	1.4133e-03
13.750	21.250	2.0100e-03
13.750	21.500	2.8086e-03
13.750	21.750	3.8559e-03
13.750	22.000	5.0218e-03
13.750	22.250	6.2261e-03
13.750	22.500	8.0691e-03
13.750	22.750	1.1465e-02
13.750	23.000	1.5437e-02
13.750	23.250	1.9244e-02
13.750	23.500	2.2829e-02
13.750	23.750	2.5847e-02
13.750	24.000	2.7953e-02
14.000	17.000	1.0000e-07
14.000	17.250	1.0000e-07
14.000	17.500	9.8765e-07
14.000	17.750	2.0576e-06
14.000	18.000	4.2798e-06
14.000	18.250	9.7119e-06
14.000	18.500	1.9753e-05
14.000	18.750	3.5556e-05
14.000	19.000	5.5720e-05
14.000	19.250	7.6461e-05
14.000	19.500	1.0765e-04
14.000	19.750	1.5481e-04
14.000	20.000	2.2535e-04
14.000	20.250	3.2831e-04
14.000	20.500	4.7704e-04
14.000	20.750	6.8963e-04
14.000	21.000	9.9136e-04
14.000	21.250	1.4164e-03
14.000	21.500	1.9852e-03
14.000	21.750	2.7312e-03
14.000	22.000	3.5082e-03
14.000	22.250	4.1398e-03
14.000	22.500	4.9864e-03
14.000	22.750	6.8581e-03
14.000	23.000	1.0031e-02
14.000	23.250	1.3605e-02
14.000	23.500	1.7235e-02
14.000	23.750	2.0703e-02
14.000	24.000	2.3953e-02
