InwC 1175.06A  relative to Inci 1215.00A scaled to 1215A.
Hden   Phi(H)  Eq_Width (A)
 7.000	17.000	4.5110e-01
 7.000	17.250	7.2500e-02
 7.000	17.500	7.5505e-02
 7.000	17.750	7.7100e-02
 7.000	18.000	7.7137e-02
 7.000	18.250	7.7188e-02
 7.000	18.500	7.7197e-02
 7.000	18.750	7.7207e-02
 7.000	19.000	7.7216e-02
 7.000	19.250	7.7223e-02
 7.000	19.500	7.7225e-02
 7.000	19.750	7.7227e-02
 7.000	20.000	7.7227e-02
 7.000	20.250	7.7227e-02
 7.000	20.500	7.7227e-02
 7.000	20.750	7.7228e-02
 7.000	21.000	7.7228e-02
 7.000	21.250	7.7228e-02
 7.000	21.500	7.7228e-02
 7.000	21.750	7.7228e-02
 7.000	22.000	7.7229e-02
 7.000	22.250	7.7229e-02
 7.000	22.500	7.7230e-02
 7.000	22.750	7.7238e-02
 7.000	23.000	7.7231e-02
 7.000	23.250	7.7232e-02
 7.000	23.500	7.7232e-02
 7.000	23.750	7.7232e-02
 7.000	24.000	7.7233e-02
 7.250	17.000	6.3517e-01
 7.250	17.250	4.3691e-01
 7.250	17.500	7.2491e-02
 7.250	17.750	7.5526e-02
 7.250	18.000	7.7101e-02
 7.250	18.250	7.7137e-02
 7.250	18.500	7.7189e-02
 7.250	18.750	7.7197e-02
 7.250	19.000	7.7207e-02
 7.250	19.250	7.7216e-02
 7.250	19.500	7.7223e-02
 7.250	19.750	7.7225e-02
 7.250	20.000	7.7226e-02
 7.250	20.250	7.7227e-02
 7.250	20.500	7.7227e-02
 7.250	20.750	7.7227e-02
 7.250	21.000	7.7227e-02
 7.250	21.250	7.7227e-02
 7.250	21.500	7.7228e-02
 7.250	21.750	7.7228e-02
 7.250	22.000	7.7228e-02
 7.250	22.250	7.7228e-02
 7.250	22.500	7.7228e-02
 7.250	22.750	7.7228e-02
 7.250	23.000	7.7228e-02
 7.250	23.250	7.7229e-02
 7.250	23.500	7.7229e-02
 7.250	23.750	7.7229e-02
 7.250	24.000	7.7229e-02
 7.500	17.000	7.5073e-01
 7.500	17.250	6.2119e-01
 7.500	17.500	4.2337e-01
 7.500	17.750	7.2496e-02
 7.500	18.000	7.5546e-02
 7.500	18.250	7.7101e-02
 7.500	18.500	7.7137e-02
 7.500	18.750	7.7188e-02
 7.500	19.000	7.7197e-02
 7.500	19.250	7.7207e-02
 7.500	19.500	7.7216e-02
 7.500	19.750	7.7223e-02
 7.500	20.000	7.7225e-02
 7.500	20.250	7.7227e-02
 7.500	20.500	7.7227e-02
 7.500	20.750	7.7227e-02
 7.500	21.000	7.7227e-02
 7.500	21.250	7.7227e-02
 7.500	21.500	7.7227e-02
 7.500	21.750	7.7227e-02
 7.500	22.000	7.7227e-02
 7.500	22.250	7.7228e-02
 7.500	22.500	7.7228e-02
 7.500	22.750	7.7228e-02
 7.500	23.000	7.7228e-02
 7.500	23.250	7.7228e-02
 7.500	23.500	7.7228e-02
 7.500	23.750	7.7228e-02
 7.500	24.000	7.7228e-02
 7.750	17.000	8.1885e-01
 7.750	17.250	7.4351e-01
 7.750	17.500	6.0529e-01
 7.750	17.750	4.0761e-01
 7.750	18.000	7.2505e-02
 7.750	18.250	7.5566e-02
 7.750	18.500	7.7101e-02
 7.750	18.750	7.7137e-02
 7.750	19.000	7.7188e-02
 7.750	19.250	7.7197e-02
 7.750	19.500	7.7207e-02
 7.750	19.750	7.7216e-02
 7.750	20.000	7.7223e-02
 7.750	20.250	7.7225e-02
 7.750	20.500	7.7227e-02
 7.750	20.750	7.7227e-02
 7.750	21.000	7.7227e-02
 7.750	21.250	7.7227e-02
 7.750	21.500	7.7227e-02
 7.750	21.750	7.7227e-02
 7.750	22.000	7.7227e-02
 7.750	22.250	7.7227e-02
 7.750	22.500	7.7227e-02
 7.750	22.750	7.7227e-02
 7.750	23.000	7.7228e-02
 7.750	23.250	7.7228e-02
 7.750	23.500	7.7227e-02
 7.750	23.750	7.7228e-02
 7.750	24.000	7.7227e-02
 8.000	17.000	8.5451e-01
 8.000	17.250	8.1614e-01
 8.000	17.500	7.3639e-01
 8.000	17.750	5.8936e-01
 8.000	18.000	3.9186e-01
 8.000	18.250	7.2522e-02
 8.000	18.500	7.5570e-02
 8.000	18.750	7.7101e-02
 8.000	19.000	7.7137e-02
 8.000	19.250	7.7189e-02
 8.000	19.500	7.7197e-02
 8.000	19.750	7.7207e-02
 8.000	20.000	7.7216e-02
 8.000	20.250	7.7223e-02
 8.000	20.500	7.7225e-02
 8.000	20.750	7.7226e-02
 8.000	21.000	7.7227e-02
 8.000	21.250	7.7227e-02
 8.000	21.500	7.7227e-02
 8.000	21.750	7.7227e-02
 8.000	22.000	7.7227e-02
 8.000	22.250	7.7227e-02
 8.000	22.500	7.7227e-02
 8.000	22.750	7.7227e-02
 8.000	23.000	7.7227e-02
 8.000	23.250	7.7227e-02
 8.000	23.500	7.7227e-02
 8.000	23.750	7.7227e-02
 8.000	24.000	7.7228e-02
 8.250	17.000	8.7352e-01
 8.250	17.250	8.5222e-01
 8.250	17.500	8.1103e-01
 8.250	17.750	7.2305e-01
 8.250	18.000	5.5906e-01
 8.250	18.250	3.6093e-01
 8.250	18.500	7.2527e-02
 8.250	18.750	7.5590e-02
 8.250	19.000	7.7101e-02
 8.250	19.250	7.7137e-02
 8.250	19.500	7.7189e-02
 8.250	19.750	7.7197e-02
 8.250	20.000	7.7207e-02
 8.250	20.250	7.7216e-02
 8.250	20.500	7.7223e-02
 8.250	20.750	7.7225e-02
 8.250	21.000	7.7226e-02
 8.250	21.250	7.7227e-02
 8.250	21.500	7.7227e-02
 8.250	21.750	7.7227e-02
 8.250	22.000	7.7227e-02
 8.250	22.250	7.7227e-02
 8.250	22.500	7.7227e-02
 8.250	22.750	7.7228e-02
 8.250	23.000	7.7228e-02
 8.250	23.250	7.7227e-02
 8.250	23.500	7.7227e-02
 8.250	23.750	7.7227e-02
 8.250	24.000	7.7228e-02
 8.500	17.000	8.8438e-01
 8.500	17.250	8.7158e-01
 8.500	17.500	8.4845e-01
 8.500	17.750	8.0190e-01
 8.500	18.000	6.9970e-01
 8.500	18.250	5.1049e-01
 8.500	18.500	3.1784e-01
 8.500	18.750	7.2519e-02
 8.500	19.000	7.5611e-02
 8.500	19.250	7.7101e-02
 8.500	19.500	7.7138e-02
 8.500	19.750	7.7188e-02
 8.500	20.000	7.7197e-02
 8.500	20.250	7.7207e-02
 8.500	20.500	7.7216e-02
 8.500	20.750	7.7223e-02
 8.500	21.000	7.7225e-02
 8.500	21.250	7.7226e-02
 8.500	21.500	7.7227e-02
 8.500	21.750	7.7227e-02
 8.500	22.000	7.7227e-02
 8.500	22.250	7.7227e-02
 8.500	22.500	7.7227e-02
 8.500	22.750	7.7228e-02
 8.500	23.000	7.7227e-02
 8.500	23.250	7.7227e-02
 8.500	23.500	7.7227e-02
 8.500	23.750	7.7227e-02
 8.500	24.000	7.7227e-02
 8.750	17.000	8.9059e-01
 8.750	17.250	8.8259e-01
 8.750	17.500	8.6832e-01
 8.750	17.750	8.4158e-01
 8.750	18.000	7.8511e-01
 8.750	18.250	6.5725e-01
 8.750	18.500	4.5527e-01
 8.750	18.750	2.7172e-01
 8.750	19.000	7.2506e-02
 8.750	19.250	7.5631e-02
 8.750	19.500	7.7101e-02
 8.750	19.750	7.7138e-02
 8.750	20.000	7.7188e-02
 8.750	20.250	7.7197e-02
 8.750	20.500	7.7207e-02
 8.750	20.750	7.7216e-02
 8.750	21.000	7.7223e-02
 8.750	21.250	7.7225e-02
 8.750	21.500	7.7226e-02
 8.750	21.750	7.7227e-02
 8.750	22.000	7.7227e-02
 8.750	22.250	7.7227e-02
 8.750	22.500	7.7227e-02
 8.750	22.750	7.7227e-02
 8.750	23.000	7.7228e-02
 8.750	23.250	7.7227e-02
 8.750	23.500	7.7227e-02
 8.750	23.750	7.7227e-02
 8.750	24.000	7.7227e-02
 9.000	17.000	8.9355e-01
 9.000	17.250	8.8871e-01
 9.000	17.500	8.7945e-01
 9.000	17.750	8.6226e-01
 9.000	18.000	8.2828e-01
 9.000	18.250	7.5482e-01
 9.000	18.500	5.9704e-01
 9.000	18.750	3.7723e-01
 9.000	19.000	2.0119e-01
 9.000	19.250	7.2487e-02
 9.000	19.500	7.5646e-02
 9.000	19.750	7.7100e-02
 9.000	20.000	7.7138e-02
 9.000	20.250	7.7188e-02
 9.000	20.500	7.7197e-02
 9.000	20.750	7.7207e-02
 9.000	21.000	7.7216e-02
 9.000	21.250	7.7223e-02
 9.000	21.500	7.7225e-02
 9.000	21.750	7.7226e-02
 9.000	22.000	7.7227e-02
 9.000	22.250	7.7227e-02
 9.000	22.500	7.7227e-02
 9.000	22.750	7.7227e-02
 9.000	23.000	7.7227e-02
 9.000	23.250	7.7227e-02
 9.000	23.500	7.7227e-02
 9.000	23.750	7.7227e-02
 9.000	24.000	7.7227e-02
 9.250	17.000	8.9428e-01
 9.250	17.250	8.9156e-01
 9.250	17.500	8.8545e-01
 9.250	17.750	8.7361e-01
 9.250	18.000	8.5102e-01
 9.250	18.250	8.0606e-01
 9.250	18.500	7.1250e-01
 9.250	18.750	5.3020e-01
 9.250	19.000	3.1950e-01
 9.250	19.250	1.3507e-01
 9.250	19.500	7.2471e-02
 9.250	19.750	7.5654e-02
 9.250	20.000	7.7099e-02
 9.250	20.250	7.7138e-02
 9.250	20.500	7.7188e-02
 9.250	20.750	7.7197e-02
 9.250	21.000	7.7207e-02
 9.250	21.250	7.7216e-02
 9.250	21.500	7.7215e-02
 9.250	21.750	7.7188e-02
 9.250	22.000	7.7186e-02
 9.250	22.250	7.7189e-02
 9.250	22.500	7.7227e-02
 9.250	22.750	7.7227e-02
 9.250	23.000	7.7227e-02
 9.250	23.250	7.7227e-02
 9.250	23.500	7.7227e-02
 9.250	23.750	7.7227e-02
 9.250	24.000	7.7227e-02
 9.500	17.000	8.9324e-01
 9.500	17.250	8.9216e-01
 9.500	17.500	8.8810e-01
 9.500	17.750	8.7959e-01
 9.500	18.000	8.6328e-01
 9.500	18.250	8.3255e-01
 9.500	18.500	7.7517e-01
 9.500	18.750	6.6060e-01
 9.500	19.000	4.4708e-01
 9.500	19.250	2.6538e-01
 9.500	19.500	9.1530e-02
 9.500	19.750	7.2467e-02
 9.500	20.000	7.5652e-02
 9.500	20.250	7.7096e-02
 9.500	20.500	7.7138e-02
 9.500	20.750	7.7187e-02
 9.500	21.000	7.7186e-02
 9.500	21.250	7.7174e-02
 9.500	21.500	7.7176e-02
 9.500	21.750	7.7177e-02
 9.500	22.000	7.7164e-02
 9.500	22.250	7.7153e-02
 9.500	22.500	7.7157e-02
 9.500	22.750	7.7157e-02
 9.500	23.000	7.7157e-02
 9.500	23.250	7.7156e-02
 9.500	23.500	7.7179e-02
 9.500	23.750	7.7179e-02
 9.500	24.000	7.7179e-02
 9.750	17.000	8.9077e-01
 9.750	17.250	8.9090e-01
 9.750	17.500	8.8852e-01
 9.750	17.750	8.8212e-01
 9.750	18.000	8.6946e-01
 9.750	18.250	8.4623e-01
 9.750	18.500	8.0657e-01
 9.750	18.750	7.3583e-01
 9.750	19.000	6.0140e-01
 9.750	19.250	3.8497e-01
 9.750	19.500	1.8868e-01
 9.750	19.750	7.0313e-02
 9.750	20.000	7.2492e-02
 9.750	20.250	7.5640e-02
 9.750	20.500	7.7091e-02
 9.750	20.750	7.7137e-02
 9.750	21.000	7.7188e-02
 9.750	21.250	7.7193e-02
 9.750	21.500	7.7193e-02
 9.750	21.750	7.7179e-02
 9.750	22.000	7.7181e-02
 9.750	22.250	7.7173e-02
 9.750	22.500	7.7160e-02
 9.750	22.750	7.7153e-02
 9.750	23.000	7.7155e-02
 9.750	23.250	7.7157e-02
 9.750	23.500	7.7157e-02
 9.750	23.750	7.7157e-02
 9.750	24.000	7.7157e-02
10.000	17.000	8.8682e-01
10.000	17.250	8.8811e-01
10.000	17.500	8.8703e-01
10.000	17.750	8.8199e-01
10.000	18.000	8.7127e-01
10.000	18.250	8.5211e-01
10.000	18.500	8.2221e-01
10.000	18.750	7.7387e-01
10.000	19.000	6.9108e-01
10.000	19.250	5.3688e-01
10.000	19.500	3.2764e-01
10.000	19.750	1.2729e-01
10.000	20.000	7.0403e-02
10.000	20.250	7.2521e-02
10.000	20.500	7.5637e-02
10.000	20.750	7.7085e-02
10.000	21.000	7.7135e-02
10.000	21.250	7.7188e-02
10.000	21.500	7.7196e-02
10.000	21.750	7.7203e-02
10.000	22.000	7.7194e-02
10.000	22.250	7.7183e-02
10.000	22.500	7.7179e-02
10.000	22.750	7.7170e-02
10.000	23.000	7.7161e-02
10.000	23.250	7.7156e-02
10.000	23.500	7.7154e-02
10.000	23.750	7.7154e-02
10.000	24.000	7.7154e-02
10.250	17.000	8.8139e-01
10.250	17.250	8.8382e-01
10.250	17.500	8.8373e-01
10.250	17.750	8.7967e-01
10.250	18.000	8.6988e-01
10.250	18.250	8.5340e-01
10.250	18.500	8.2885e-01
10.250	18.750	7.9233e-01
10.250	19.000	7.3533e-01
10.250	19.250	6.4095e-01
10.250	19.500	4.9315e-01
10.250	19.750	2.8920e-01
10.250	20.000	8.9444e-02
10.250	20.250	7.0453e-02
10.250	20.500	7.2566e-02
10.250	20.750	7.5666e-02
10.250	21.000	7.7075e-02
10.250	21.250	7.7133e-02
10.250	21.500	7.7188e-02
10.250	21.750	7.7196e-02
10.250	22.000	7.7205e-02
10.250	22.250	7.7209e-02
10.250	22.500	7.7184e-02
10.250	22.750	7.7183e-02
10.250	23.000	7.7178e-02
10.250	23.250	7.7171e-02
10.250	23.500	7.7166e-02
10.250	23.750	7.7163e-02
10.250	24.000	7.7161e-02
10.500	17.000	8.7419e-01
10.500	17.250	8.7781e-01
10.500	17.500	8.7862e-01
10.500	17.750	8.7509e-01
10.500	18.000	8.6570e-01
10.500	18.250	8.5039e-01
10.500	18.500	8.3008e-01
10.500	18.750	8.0236e-01
10.500	19.000	7.6536e-01
10.500	19.250	7.1151e-01
10.500	19.500	6.2165e-01
10.500	19.750	4.7059e-01
10.500	20.000	2.4831e-01
10.500	20.250	6.8768e-02
10.500	20.500	7.0494e-02
10.500	20.750	7.2618e-02
10.500	21.000	7.5740e-02
10.500	21.250	7.7062e-02
10.500	21.500	7.7128e-02
10.500	21.750	7.7187e-02
10.500	22.000	7.7196e-02
10.500	22.250	7.7206e-02
10.500	22.500	7.7214e-02
10.500	22.750	7.7191e-02
10.500	23.000	7.7185e-02
10.500	23.250	7.7182e-02
10.500	23.500	7.7179e-02
10.500	23.750	7.7175e-02
10.500	24.000	7.7172e-02
10.750	17.000	8.6446e-01
10.750	17.250	8.6967e-01
10.750	17.500	8.7126e-01
10.750	17.750	8.6773e-01
10.750	18.000	8.5842e-01
10.750	18.250	8.4471e-01
10.750	18.500	8.2781e-01
10.750	18.750	8.0769e-01
10.750	19.000	7.8480e-01
10.750	19.250	7.5236e-01
10.750	19.500	6.9900e-01
10.750	19.750	6.0504e-01
10.750	20.000	4.4360e-01
10.750	20.250	2.0175e-01
10.750	20.500	6.8901e-02
10.750	20.750	7.0577e-02
10.750	21.000	7.2714e-02
10.750	21.250	7.5898e-02
10.750	21.500	7.7049e-02
10.750	21.750	7.7123e-02
10.750	22.000	7.7182e-02
10.750	22.250	7.7196e-02
10.750	22.500	7.7207e-02
10.750	22.750	7.7215e-02
10.750	23.000	7.7210e-02
10.750	23.250	7.7186e-02
10.750	23.500	7.7185e-02
10.750	23.750	7.7183e-02
10.750	24.000	7.7181e-02
11.000	17.000	8.5042e-01
11.000	17.250	8.5862e-01
11.000	17.500	8.6095e-01
11.000	17.750	8.5721e-01
11.000	18.000	8.4783e-01
11.000	18.250	8.3533e-01
11.000	18.500	8.2083e-01
11.000	18.750	8.0684e-01
11.000	19.000	7.9333e-01
11.000	19.250	7.7435e-01
11.000	19.500	7.4268e-01
11.000	19.750	6.8700e-01
11.000	20.000	5.8646e-01
11.000	20.250	4.1236e-01
11.000	20.500	1.5003e-01
11.000	20.750	6.8828e-02
11.000	21.000	7.0631e-02
11.000	21.250	7.2904e-02
11.000	21.500	7.6186e-02
11.000	21.750	7.7029e-02
11.000	22.000	7.7116e-02
11.000	22.250	7.7181e-02
11.000	22.500	7.7196e-02
11.000	22.750	7.7206e-02
11.000	23.000	7.7215e-02
11.000	23.250	7.7219e-02
11.000	23.500	7.7192e-02
11.000	23.750	7.7187e-02
11.000	24.000	7.7186e-02
11.250	17.000	8.3142e-01
11.250	17.250	8.4275e-01
11.250	17.500	8.4666e-01
11.250	17.750	8.4259e-01
11.250	18.000	8.3270e-01
11.250	18.250	8.2091e-01
11.250	18.500	8.0995e-01
11.250	18.750	8.0048e-01
11.250	19.000	7.9289e-01
11.250	19.250	7.8286e-01
11.250	19.500	7.6435e-01
11.250	19.750	7.3156e-01
11.250	20.000	6.7290e-01
11.250	20.250	5.6498e-01
11.250	20.500	3.7537e-01
11.250	20.750	1.0408e-01
11.250	21.000	6.8848e-02
11.250	21.250	7.0747e-02
11.250	21.500	7.3280e-02
11.250	21.750	7.6542e-02
11.250	22.000	7.7004e-02
11.250	22.250	7.7108e-02
11.250	22.500	7.7172e-02
11.250	22.750	7.7195e-02
11.250	23.000	7.7206e-02
11.250	23.250	7.7215e-02
11.250	23.500	7.7222e-02
11.250	23.750	7.7211e-02
11.250	24.000	7.7189e-02
11.500	17.000	8.0733e-01
11.500	17.250	8.2088e-01
11.500	17.500	8.2644e-01
11.500	17.750	8.2232e-01
11.500	18.000	8.1157e-01
11.500	18.250	8.0009e-01
11.500	18.500	7.9193e-01
11.500	18.750	7.8698e-01
11.500	19.000	7.8375e-01
11.500	19.250	7.7875e-01
11.500	19.500	7.6981e-01
11.500	19.750	7.5125e-01
11.500	20.000	7.1806e-01
11.500	20.250	6.5690e-01
11.500	20.500	5.4034e-01
11.500	20.750	3.3239e-01
11.500	21.000	6.5462e-02
11.500	21.250	6.8874e-02
11.500	21.500	7.1010e-02
11.500	21.750	7.3950e-02
11.500	22.000	7.6701e-02
11.500	22.250	7.6975e-02
11.500	22.500	7.7099e-02
11.500	22.750	7.7173e-02
11.500	23.000	7.7194e-02
11.500	23.250	7.7206e-02
11.500	23.500	7.7215e-02
11.500	23.750	7.7223e-02
11.500	24.000	7.7221e-02
11.750	17.000	7.7577e-01
11.750	17.250	7.9168e-01
11.750	17.500	7.9866e-01
11.750	17.750	7.9410e-01
11.750	18.000	7.8206e-01
11.750	18.250	7.7167e-01
11.750	18.500	7.6662e-01
11.750	18.750	7.6548e-01
11.750	19.000	7.6491e-01
11.750	19.250	7.6357e-01
11.750	19.500	7.5994e-01
11.750	19.750	7.5229e-01
11.750	20.000	7.3575e-01
11.750	20.250	7.0370e-01
11.750	20.500	6.3935e-01
11.750	20.750	5.1196e-01
11.750	21.000	2.8397e-01
11.750	21.250	6.5317e-02
11.750	21.500	6.8975e-02
11.750	21.750	7.1439e-02
11.750	22.000	7.4761e-02
11.750	22.250	7.6644e-02
11.750	22.500	7.6936e-02
11.750	22.750	7.7083e-02
11.750	23.000	7.7168e-02
11.750	23.250	7.7193e-02
11.750	23.500	7.7205e-02
11.750	23.750	7.7215e-02
11.750	24.000	7.7223e-02
12.000	17.000	7.3474e-01
12.000	17.250	7.5197e-01
12.000	17.500	7.5926e-01
12.000	17.750	7.5474e-01
12.000	18.000	7.4366e-01
12.000	18.250	7.3573e-01
12.000	18.500	7.3344e-01
12.000	18.750	7.3385e-01
12.000	19.000	7.3530e-01
12.000	19.250	7.3709e-01
12.000	19.500	7.3799e-01
12.000	19.750	7.3748e-01
12.000	20.000	7.3390e-01
12.000	20.250	7.1994e-01
12.000	20.500	6.8802e-01
12.000	20.750	6.2005e-01
12.000	21.000	4.7973e-01
12.000	21.250	2.3188e-01
12.000	21.500	6.5612e-02
12.000	21.750	6.9211e-02
12.000	22.000	7.2013e-02
12.000	22.250	7.5414e-02
12.000	22.500	7.6581e-02
12.000	22.750	7.6900e-02
12.000	23.000	7.7063e-02
12.000	23.250	7.7162e-02
12.000	23.500	7.7192e-02
12.000	23.750	7.7205e-02
12.000	24.000	7.7215e-02
12.250	17.000	6.6942e-01
12.250	17.250	6.9996e-01
12.250	17.500	7.0561e-01
12.250	17.750	7.0146e-01
12.250	18.000	6.9458e-01
12.250	18.250	6.9104e-01
12.250	18.500	6.9134e-01
12.250	18.750	6.9446e-01
12.250	19.000	6.9884e-01
12.250	19.250	7.0394e-01
12.250	19.500	7.0962e-01
12.250	19.750	7.1483e-01
12.250	20.000	7.1828e-01
12.250	20.250	7.1751e-01
12.250	20.500	7.0373e-01
12.250	20.750	6.7076e-01
12.250	21.000	5.9790e-01
12.250	21.250	4.4238e-01
12.250	21.500	1.9249e-01
12.250	21.750	6.5903e-02
12.250	22.000	6.9554e-02
12.250	22.250	7.2769e-02
12.250	22.500	7.5720e-02
12.250	22.750	7.6529e-02
12.250	23.000	7.6863e-02
12.250	23.250	7.7040e-02
12.250	23.500	7.7154e-02
12.250	23.750	7.7190e-02
12.250	24.000	7.7204e-02
12.500	17.000	5.1876e-01
12.500	17.250	6.3027e-01
12.500	17.500	6.4247e-01
12.500	17.750	6.4061e-01
12.500	18.000	6.3714e-01
12.500	18.250	6.3628e-01
12.500	18.500	6.4091e-01
12.500	18.750	6.4919e-01
12.500	19.000	6.5942e-01
12.500	19.250	6.6982e-01
12.500	19.500	6.7973e-01
12.500	19.750	6.8884e-01
12.500	20.000	6.9695e-01
12.500	20.250	7.0187e-01
12.500	20.500	7.0128e-01
12.500	20.750	6.8677e-01
12.500	21.000	6.5113e-01
12.500	21.250	5.7133e-01
12.500	21.500	4.1057e-01
12.500	21.750	1.4228e-01
12.500	22.000	6.6346e-02
12.500	22.250	7.0038e-02
12.500	22.500	7.3510e-02
12.500	22.750	7.5841e-02
12.500	23.000	7.6485e-02
12.500	23.250	7.6824e-02
12.500	23.500	7.7016e-02
12.500	23.750	7.7144e-02
12.500	24.000	7.7188e-02
12.750	17.000	3.4763e-01
12.750	17.250	5.0798e-01
12.750	17.500	5.7562e-01
12.750	17.750	5.7453e-01
12.750	18.000	5.7045e-01
12.750	18.250	5.7353e-01
12.750	18.500	5.8541e-01
12.750	18.750	6.0009e-01
12.750	19.000	6.1720e-01
12.750	19.250	6.3349e-01
12.750	19.500	6.4878e-01
12.750	19.750	6.6197e-01
12.750	20.000	6.7262e-01
12.750	20.250	6.8122e-01
12.750	20.500	6.8598e-01
12.750	20.750	6.8399e-01
12.750	21.000	6.6708e-01
12.750	21.250	6.2639e-01
12.750	21.500	5.4456e-01
12.750	21.750	3.5938e-01
12.750	22.000	9.8910e-02
12.750	22.250	6.6804e-02
12.750	22.500	7.0662e-02
12.750	22.750	7.3970e-02
12.750	23.000	7.5861e-02
12.750	23.250	7.6453e-02
12.750	23.500	7.6795e-02
12.750	23.750	7.6996e-02
12.750	24.000	7.7131e-02
13.000	17.000	8.1718e-02
13.000	17.250	1.7309e-01
13.000	17.500	4.0403e-01
13.000	17.750	4.8194e-01
13.000	18.000	4.9551e-01
13.000	18.250	5.0855e-01
13.000	18.500	5.2466e-01
13.000	18.750	5.4645e-01
13.000	19.000	5.7000e-01
13.000	19.250	5.9271e-01
13.000	19.500	6.1350e-01
13.000	19.750	6.3181e-01
13.000	20.000	6.4659e-01
13.000	20.250	6.5767e-01
13.000	20.500	6.6534e-01
13.000	20.750	6.6869e-01
13.000	21.000	6.6388e-01
13.000	21.250	6.4204e-01
13.000	21.500	5.9916e-01
13.000	21.750	4.9891e-01
13.000	22.000	2.9319e-01
13.000	22.250	7.2226e-02
13.000	22.500	6.7350e-02
13.000	22.750	7.1105e-02
13.000	23.000	7.4156e-02
13.000	23.250	7.5857e-02
13.000	23.500	7.6427e-02
13.000	23.750	7.6771e-02
13.000	24.000	7.6972e-02
13.250	17.000	5.1260e-02
13.250	17.250	9.1375e-02
13.250	17.500	1.9391e-01
13.250	17.750	3.2810e-01
13.250	18.000	4.1019e-01
13.250	18.250	4.3565e-01
13.250	18.500	4.6164e-01
13.250	18.750	4.8682e-01
13.250	19.000	5.1608e-01
13.250	19.250	5.4529e-01
13.250	19.500	5.7256e-01
13.250	19.750	5.9629e-01
13.250	20.000	6.1606e-01
13.250	20.250	6.3136e-01
13.250	20.500	6.4214e-01
13.250	20.750	6.4753e-01
13.250	21.000	6.4797e-01
13.250	21.250	6.3821e-01
13.250	21.500	6.1363e-01
13.250	21.750	5.5431e-01
13.250	22.000	4.3519e-01
13.250	22.250	2.2059e-01
13.250	22.500	6.2864e-02
13.250	22.750	6.7410e-02
13.250	23.000	7.1113e-02
13.250	23.250	7.4189e-02
13.250	23.500	7.5838e-02
13.250	23.750	7.6401e-02
13.250	24.000	7.6734e-02
13.500	17.000	3.2202e-02
13.500	17.250	5.6711e-02
13.500	17.500	1.1606e-01
13.500	17.750	2.1151e-01
13.500	18.000	3.1281e-01
13.500	18.250	3.6628e-01
13.500	18.500	3.9447e-01
13.500	18.750	4.2392e-01
13.500	19.000	4.5602e-01
13.500	19.250	4.9077e-01
13.500	19.500	5.2408e-01
13.500	19.750	5.5374e-01
13.500	20.000	5.7898e-01
13.500	20.250	5.9946e-01
13.500	20.500	6.1446e-01
13.500	20.750	6.2408e-01
13.500	21.000	6.2675e-01
13.500	21.250	6.2209e-01
13.500	21.500	6.0854e-01
13.500	21.750	5.6776e-01
13.500	22.000	4.9013e-01
13.500	22.250	3.5347e-01
13.500	22.500	1.4587e-01
13.500	22.750	6.3339e-02
13.500	23.000	6.7532e-02
13.500	23.250	7.0890e-02
13.500	23.500	7.4060e-02
13.500	23.750	7.5787e-02
13.500	24.000	7.6350e-02
13.750	17.000	1.9635e-02
13.750	17.250	3.7873e-02
13.750	17.500	7.5283e-02
13.750	17.750	1.2807e-01
13.750	18.000	2.1614e-01
13.750	18.250	2.8772e-01
13.750	18.500	3.2636e-01
13.750	18.750	3.5901e-01
13.750	19.000	3.9313e-01
13.750	19.250	4.2990e-01
13.750	19.500	4.6803e-01
13.750	19.750	5.0371e-01
13.750	20.000	5.3491e-01
13.750	20.250	5.6081e-01
13.750	20.500	5.8114e-01
13.750	20.750	5.9512e-01
13.750	21.000	6.0187e-01
13.750	21.250	6.0048e-01
13.750	21.500	5.9265e-01
13.750	21.750	5.6182e-01
13.750	22.000	5.0217e-01
13.750	22.250	4.0797e-01
13.750	22.500	2.7264e-01
13.750	22.750	9.8236e-02
13.750	23.000	6.3764e-02
13.750	23.250	6.7577e-02
13.750	23.500	7.0706e-02
13.750	23.750	7.4077e-02
13.750	24.000	7.5695e-02
14.000	17.000	1.1987e-02
14.000	17.250	2.3126e-02
14.000	17.500	4.8515e-02
14.000	17.750	8.4826e-02
14.000	18.000	1.3340e-01
14.000	18.250	2.0118e-01
14.000	18.500	2.5504e-01
14.000	18.750	2.9366e-01
14.000	19.000	3.2919e-01
14.000	19.250	3.6625e-01
14.000	19.500	4.0599e-01
14.000	19.750	4.4640e-01
14.000	20.000	4.8340e-01
14.000	20.250	5.1522e-01
14.000	20.500	5.4086e-01
14.000	20.750	5.6001e-01
14.000	21.000	5.7152e-01
14.000	21.250	5.7403e-01
14.000	21.500	5.6986e-01
14.000	21.750	5.4658e-01
14.000	22.000	4.9670e-01
14.000	22.250	4.1887e-01
14.000	22.500	3.2234e-01
14.000	22.750	2.0208e-01
14.000	23.000	7.1642e-02
14.000	23.250	6.3975e-02
14.000	23.500	6.7509e-02
14.000	23.750	7.0746e-02
14.000	24.000	7.4163e-02
