InwC 800.000A  relative to Inci 1215.00A scaled to 1215A.
Hden   Phi(H)  Eq_Width (A)
 7.000	17.000	6.7676e-03
 7.000	17.250	1.4920e-02
 7.000	17.500	3.2109e-02
 7.000	17.750	5.0809e-02
 7.000	18.000	6.1108e-02
 7.000	18.250	6.7802e-02
 7.000	18.500	7.3211e-02
 7.000	18.750	7.4788e-02
 7.000	19.000	7.5455e-02
 7.000	19.250	7.5758e-02
 7.000	19.500	7.5813e-02
 7.000	19.750	7.5825e-02
 7.000	20.000	7.5828e-02
 7.000	20.250	7.5829e-02
 7.000	20.500	7.5829e-02
 7.000	20.750	7.5830e-02
 7.000	21.000	7.5830e-02
 7.000	21.250	7.5830e-02
 7.000	21.500	7.5830e-02
 7.000	21.750	7.5831e-02
 7.000	22.000	7.5831e-02
 7.000	22.250	7.5831e-02
 7.000	22.500	7.5832e-02
 7.000	22.750	7.5840e-02
 7.000	23.000	7.5833e-02
 7.000	23.250	7.5834e-02
 7.000	23.500	7.5834e-02
 7.000	23.750	7.5834e-02
 7.000	24.000	7.5835e-02
 7.250	17.000	3.2849e-03
 7.250	17.250	6.8077e-03
 7.250	17.500	1.5014e-02
 7.250	17.750	3.2316e-02
 7.250	18.000	5.0976e-02
 7.250	18.250	6.1179e-02
 7.250	18.500	6.7823e-02
 7.250	18.750	7.3213e-02
 7.250	19.000	7.4789e-02
 7.250	19.250	7.5455e-02
 7.250	19.500	7.5758e-02
 7.250	19.750	7.5813e-02
 7.250	20.000	7.5825e-02
 7.250	20.250	7.5828e-02
 7.250	20.500	7.5829e-02
 7.250	20.750	7.5829e-02
 7.250	21.000	7.5830e-02
 7.250	21.250	7.5830e-02
 7.250	21.500	7.5830e-02
 7.250	21.750	7.5830e-02
 7.250	22.000	7.5830e-02
 7.250	22.250	7.5830e-02
 7.250	22.500	7.5830e-02
 7.250	22.750	7.5831e-02
 7.250	23.000	7.5831e-02
 7.250	23.250	7.5831e-02
 7.250	23.500	7.5831e-02
 7.250	23.750	7.5831e-02
 7.250	24.000	7.5831e-02
 7.500	17.000	1.6838e-03
 7.500	17.250	3.2973e-03
 7.500	17.500	6.8367e-03
 7.500	17.750	1.5101e-02
 7.500	18.000	3.2512e-02
 7.500	18.250	5.1155e-02
 7.500	18.500	6.1274e-02
 7.500	18.750	6.7836e-02
 7.500	19.000	7.3217e-02
 7.500	19.250	7.4790e-02
 7.500	19.500	7.5455e-02
 7.500	19.750	7.5758e-02
 7.500	20.000	7.5813e-02
 7.500	20.250	7.5825e-02
 7.500	20.500	7.5828e-02
 7.500	20.750	7.5829e-02
 7.500	21.000	7.5829e-02
 7.500	21.250	7.5829e-02
 7.500	21.500	7.5830e-02
 7.500	21.750	7.5830e-02
 7.500	22.000	7.5830e-02
 7.500	22.250	7.5830e-02
 7.500	22.500	7.5830e-02
 7.500	22.750	7.5830e-02
 7.500	23.000	7.5830e-02
 7.500	23.250	7.5830e-02
 7.500	23.500	7.5830e-02
 7.500	23.750	7.5830e-02
 7.500	24.000	7.5830e-02
 7.750	17.000	8.8206e-04
 7.750	17.250	1.6891e-03
 7.750	17.500	3.3060e-03
 7.750	17.750	6.8599e-03
 7.750	18.000	1.5179e-02
 7.750	18.250	3.2711e-02
 7.750	18.500	5.1360e-02
 7.750	18.750	6.1387e-02
 7.750	19.000	6.7860e-02
 7.750	19.250	7.3223e-02
 7.750	19.500	7.4791e-02
 7.750	19.750	7.5456e-02
 7.750	20.000	7.5758e-02
 7.750	20.250	7.5813e-02
 7.750	20.500	7.5825e-02
 7.750	20.750	7.5828e-02
 7.750	21.000	7.5829e-02
 7.750	21.250	7.5829e-02
 7.750	21.500	7.5830e-02
 7.750	21.750	7.5830e-02
 7.750	22.000	7.5830e-02
 7.750	22.250	7.5830e-02
 7.750	22.500	7.5830e-02
 7.750	22.750	7.5830e-02
 7.750	23.000	7.5830e-02
 7.750	23.250	7.5830e-02
 7.750	23.500	7.5830e-02
 7.750	23.750	7.5830e-02
 7.750	24.000	7.5830e-02
 8.000	17.000	4.6263e-04
 8.000	17.250	8.8091e-04
 8.000	17.500	1.6863e-03
 8.000	17.750	3.3044e-03
 8.000	18.000	6.8667e-03
 8.000	18.250	1.5233e-02
 8.000	18.500	3.2904e-02
 8.000	18.750	5.1590e-02
 8.000	19.000	6.1522e-02
 8.000	19.250	6.7906e-02
 8.000	19.500	7.3232e-02
 8.000	19.750	7.4794e-02
 8.000	20.000	7.5457e-02
 8.000	20.250	7.5758e-02
 8.000	20.500	7.5813e-02
 8.000	20.750	7.5825e-02
 8.000	21.000	7.5828e-02
 8.000	21.250	7.5829e-02
 8.000	21.500	7.5829e-02
 8.000	21.750	7.5829e-02
 8.000	22.000	7.5830e-02
 8.000	22.250	7.5830e-02
 8.000	22.500	7.5830e-02
 8.000	22.750	7.5830e-02
 8.000	23.000	7.5830e-02
 8.000	23.250	7.5830e-02
 8.000	23.500	7.5830e-02
 8.000	23.750	7.5830e-02
 8.000	24.000	7.5830e-02
 8.250	17.000	2.4354e-04
 8.250	17.250	4.6280e-04
 8.250	17.500	8.8148e-04
 8.250	17.750	1.6877e-03
 8.250	18.000	3.3097e-03
 8.250	18.250	6.8845e-03
 8.250	18.500	1.5301e-02
 8.250	18.750	3.3108e-02
 8.250	19.000	5.1857e-02
 8.250	19.250	6.1675e-02
 8.250	19.500	6.7946e-02
 8.250	19.750	7.3243e-02
 8.250	20.000	7.4798e-02
 8.250	20.250	7.5458e-02
 8.250	20.500	7.5758e-02
 8.250	20.750	7.5813e-02
 8.250	21.000	7.5825e-02
 8.250	21.250	7.5828e-02
 8.250	21.500	7.5829e-02
 8.250	21.750	7.5829e-02
 8.250	22.000	7.5829e-02
 8.250	22.250	7.5829e-02
 8.250	22.500	7.5830e-02
 8.250	22.750	7.5830e-02
 8.250	23.000	7.5830e-02
 8.250	23.250	7.5830e-02
 8.250	23.500	7.5830e-02
 8.250	23.750	7.5830e-02
 8.250	24.000	7.5830e-02
 8.500	17.000	1.2864e-04
 8.500	17.250	2.4329e-04
 8.500	17.500	4.6255e-04
 8.500	17.750	8.8189e-04
 8.500	18.000	1.6917e-03
 8.500	18.250	3.3155e-03
 8.500	18.500	6.9010e-03
 8.500	18.750	1.5374e-02
 8.500	19.000	3.3339e-02
 8.500	19.250	5.2145e-02
 8.500	19.500	6.1853e-02
 8.500	19.750	6.7999e-02
 8.500	20.000	7.3258e-02
 8.500	20.250	7.4802e-02
 8.500	20.500	7.5459e-02
 8.500	20.750	7.5758e-02
 8.500	21.000	7.5813e-02
 8.500	21.250	7.5825e-02
 8.500	21.500	7.5828e-02
 8.500	21.750	7.5829e-02
 8.500	22.000	7.5829e-02
 8.500	22.250	7.5829e-02
 8.500	22.500	7.5830e-02
 8.500	22.750	7.5830e-02
 8.500	23.000	7.5830e-02
 8.500	23.250	7.5830e-02
 8.500	23.500	7.5830e-02
 8.500	23.750	7.5830e-02
 8.500	24.000	7.5830e-02
 8.750	17.000	6.8642e-05
 8.750	17.250	1.2840e-04
 8.750	17.500	2.4321e-04
 8.750	17.750	4.6305e-04
 8.750	18.000	8.8444e-04
 8.750	18.250	1.6957e-03
 8.750	18.500	3.3230e-03
 8.750	18.750	6.9279e-03
 8.750	19.000	1.5479e-02
 8.750	19.250	3.3585e-02
 8.750	19.500	5.2461e-02
 8.750	19.750	6.2046e-02
 8.750	20.000	6.8064e-02
 8.750	20.250	7.3276e-02
 8.750	20.500	7.4809e-02
 8.750	20.750	7.5462e-02
 8.750	21.000	7.5759e-02
 8.750	21.250	7.5813e-02
 8.750	21.500	7.5825e-02
 8.750	21.750	7.5828e-02
 8.750	22.000	7.5829e-02
 8.750	22.250	7.5829e-02
 8.750	22.500	7.5829e-02
 8.750	22.750	7.5830e-02
 8.750	23.000	7.5830e-02
 8.750	23.250	7.5830e-02
 8.750	23.500	7.5830e-02
 8.750	23.750	7.5830e-02
 8.750	24.000	7.5830e-02
 9.000	17.000	3.6872e-05
 9.000	17.250	6.8642e-05
 9.000	17.500	1.2856e-04
 9.000	17.750	2.4420e-04
 9.000	18.000	4.6551e-04
 9.000	18.250	8.8864e-04
 9.000	18.500	1.7037e-03
 9.000	18.750	3.3398e-03
 9.000	19.000	6.9739e-03
 9.000	19.250	1.5626e-02
 9.000	19.500	3.3865e-02
 9.000	19.750	5.2783e-02
 9.000	20.000	6.2261e-02
 9.000	20.250	6.8137e-02
 9.000	20.500	7.3297e-02
 9.000	20.750	7.4816e-02
 9.000	21.000	7.5464e-02
 9.000	21.250	7.5759e-02
 9.000	21.500	7.5813e-02
 9.000	21.750	7.5825e-02
 9.000	22.000	7.5828e-02
 9.000	22.250	7.5829e-02
 9.000	22.500	7.5829e-02
 9.000	22.750	7.5829e-02
 9.000	23.000	7.5830e-02
 9.000	23.250	7.5830e-02
 9.000	23.500	7.5830e-02
 9.000	23.750	7.5830e-02
 9.000	24.000	7.5829e-02
 9.250	17.000	1.9671e-05
 9.250	17.250	3.6955e-05
 9.250	17.500	6.9053e-05
 9.250	17.750	1.2979e-04
 9.250	18.000	2.4642e-04
 9.250	18.250	4.6938e-04
 9.250	18.500	8.9588e-04
 9.250	18.750	1.7207e-03
 9.250	19.000	3.3799e-03
 9.250	19.250	7.0816e-03
 9.250	19.500	1.5910e-02
 9.250	19.750	3.4228e-02
 9.250	20.000	5.3098e-02
 9.250	20.250	6.2472e-02
 9.250	20.500	6.8197e-02
 9.250	20.750	7.3320e-02
 9.250	21.000	7.4825e-02
 9.250	21.250	7.5467e-02
 9.250	21.500	7.5752e-02
 9.250	21.750	7.5776e-02
 9.250	22.000	7.5785e-02
 9.250	22.250	7.5791e-02
 9.250	22.500	7.5828e-02
 9.250	22.750	7.5829e-02
 9.250	23.000	7.5829e-02
 9.250	23.250	7.5829e-02
 9.250	23.500	7.5829e-02
 9.250	23.750	7.5830e-02
 9.250	24.000	7.5830e-02
 9.500	17.000	1.0370e-05
 9.500	17.250	1.9918e-05
 9.500	17.500	3.7531e-05
 9.500	17.750	7.0288e-05
 9.500	18.000	1.3202e-04
 9.500	18.250	2.5004e-04
 9.500	18.500	4.7630e-04
 9.500	18.750	9.1218e-04
 9.500	19.000	1.7589e-03
 9.500	19.250	3.4798e-03
 9.500	19.500	7.3280e-03
 9.500	19.750	1.6446e-02
 9.500	20.000	3.4751e-02
 9.500	20.250	5.3411e-02
 9.500	20.500	6.2675e-02
 9.500	20.750	6.8269e-02
 9.500	21.000	7.3323e-02
 9.500	21.250	7.4791e-02
 9.500	21.500	7.5428e-02
 9.500	21.750	7.5714e-02
 9.500	22.000	7.5753e-02
 9.500	22.250	7.5753e-02
 9.500	22.500	7.5759e-02
 9.500	22.750	7.5760e-02
 9.500	23.000	7.5760e-02
 9.500	23.250	7.5759e-02
 9.500	23.500	7.5782e-02
 9.500	23.750	7.5782e-02
 9.500	24.000	7.5782e-02
 9.750	17.000	5.2675e-06
 9.750	17.250	1.0535e-05
 9.750	17.500	2.0412e-05
 9.750	17.750	3.8683e-05
 9.750	18.000	7.2263e-05
 9.750	18.250	1.3523e-04
 9.750	18.500	2.5654e-04
 9.750	18.750	4.9103e-04
 9.750	19.000	9.4897e-04
 9.750	19.250	1.8521e-03
 9.750	19.500	3.7022e-03
 9.750	19.750	7.8090e-03
 9.750	20.000	1.7328e-02
 9.750	20.250	3.5658e-02
 9.750	20.500	5.3737e-02
 9.750	20.750	6.2868e-02
 9.750	21.000	6.8364e-02
 9.750	21.250	7.3368e-02
 9.750	21.500	7.4828e-02
 9.750	21.750	7.5436e-02
 9.750	22.000	7.5719e-02
 9.750	22.250	7.5762e-02
 9.750	22.500	7.5760e-02
 9.750	22.750	7.5756e-02
 9.750	23.000	7.5758e-02
 9.750	23.250	7.5760e-02
 9.750	23.500	7.5760e-02
 9.750	23.750	7.5761e-02
 9.750	24.000	7.5761e-02
10.000	17.000	2.3868e-06
10.000	17.250	5.4321e-06
10.000	17.500	1.0947e-05
10.000	17.750	2.1235e-05
10.000	18.000	4.0165e-05
10.000	18.250	7.4979e-05
10.000	18.500	1.4091e-04
10.000	18.750	2.6963e-04
10.000	19.000	5.2420e-04
10.000	19.250	1.0308e-03
10.000	19.500	2.0388e-03
10.000	19.750	4.1150e-03
10.000	20.000	8.5293e-03
10.000	20.250	1.8616e-02
10.000	20.500	3.6879e-02
10.000	20.750	5.4181e-02
10.000	21.000	6.3078e-02
10.000	21.250	6.8465e-02
10.000	21.500	7.3405e-02
10.000	21.750	7.4853e-02
10.000	22.000	7.5456e-02
10.000	22.250	7.5722e-02
10.000	22.500	7.5768e-02
10.000	22.750	7.5770e-02
10.000	23.000	7.5763e-02
10.000	23.250	7.5759e-02
10.000	23.500	7.5757e-02
10.000	23.750	7.5757e-02
10.000	24.000	7.5758e-02
10.250	17.000	1.2346e-06
10.250	17.250	2.4691e-06
10.250	17.500	5.6790e-06
10.250	17.750	1.1523e-05
10.250	18.000	2.2387e-05
10.250	18.250	4.2469e-05
10.250	18.500	8.0082e-05
10.250	18.750	1.5317e-04
10.250	19.000	2.9951e-04
10.250	19.250	5.9424e-04
10.250	19.500	1.1854e-03
10.250	19.750	2.3589e-03
10.250	20.000	4.7429e-03
10.250	20.250	9.6698e-03
10.250	20.500	2.0239e-02
10.250	20.750	3.8496e-02
10.250	21.000	5.4814e-02
10.250	21.250	6.3316e-02
10.250	21.500	6.8576e-02
10.250	21.750	7.3445e-02
10.250	22.000	7.4872e-02
10.250	22.250	7.5478e-02
10.250	22.500	7.5724e-02
10.250	22.750	7.5772e-02
10.250	23.000	7.5777e-02
10.250	23.250	7.5773e-02
10.250	23.500	7.5769e-02
10.250	23.750	7.5766e-02
10.250	24.000	7.5765e-02
10.500	17.000	1.0000e-07
10.500	17.250	1.2346e-06
10.500	17.500	2.6337e-06
10.500	17.750	6.0905e-06
10.500	18.000	1.2346e-05
10.500	18.250	2.4362e-05
10.500	18.500	4.7243e-05
10.500	18.750	9.1605e-05
10.500	19.000	1.7975e-04
10.500	19.250	3.5794e-04
10.500	19.500	7.1630e-04
10.500	19.750	1.4274e-03
10.500	20.000	2.8240e-03
10.500	20.250	5.6181e-03
10.500	20.500	1.1115e-02
10.500	20.750	2.2039e-02
10.500	21.000	4.0181e-02
10.500	21.250	5.5657e-02
10.500	21.500	6.3625e-02
10.500	21.750	6.8713e-02
10.500	22.000	7.3491e-02
10.500	22.250	7.4892e-02
10.500	22.500	7.5490e-02
10.500	22.750	7.5733e-02
10.500	23.000	7.5775e-02
10.500	23.250	7.5782e-02
10.500	23.500	7.5780e-02
10.500	23.750	7.5778e-02
10.500	24.000	7.5776e-02
10.750	17.000	1.0000e-07
10.750	17.250	1.0000e-07
10.750	17.500	1.3169e-06
10.750	17.750	2.9630e-06
10.750	18.000	6.6667e-06
10.750	18.250	1.4239e-05
10.750	18.500	2.8889e-05
10.750	18.750	5.7860e-05
10.750	19.000	1.1440e-04
10.750	19.250	2.2642e-04
10.750	19.500	4.5012e-04
10.750	19.750	8.9407e-04
10.750	20.000	1.7588e-03
10.750	20.250	3.4284e-03
10.750	20.500	6.5763e-03
10.750	20.750	1.2751e-02
10.750	21.000	2.4218e-02
10.750	21.250	4.2186e-02
10.750	21.500	5.6686e-02
10.750	21.750	6.4054e-02
10.750	22.000	6.8896e-02
10.750	22.250	7.3549e-02
10.750	22.500	7.4918e-02
10.750	22.750	7.5502e-02
10.750	23.000	7.5754e-02
10.750	23.250	7.5777e-02
10.750	23.500	7.5785e-02
10.750	23.750	7.5785e-02
10.750	24.000	7.5784e-02
11.000	17.000	1.0000e-07
11.000	17.250	1.0000e-07
11.000	17.500	1.0000e-07
11.000	17.750	1.5638e-06
11.000	18.000	3.5391e-06
11.000	18.250	8.2305e-06
11.000	18.500	1.8189e-05
11.000	18.750	3.8025e-05
11.000	19.000	7.6214e-05
11.000	19.250	1.4955e-04
11.000	19.500	2.9202e-04
11.000	19.750	5.7259e-04
11.000	20.000	1.1199e-03
11.000	20.250	2.1649e-03
11.000	20.500	4.1604e-03
11.000	20.750	7.8098e-03
11.000	21.000	1.4549e-02
11.000	21.250	2.6490e-02
11.000	21.500	4.4171e-02
11.000	21.750	5.7647e-02
11.000	22.000	6.4587e-02
11.000	22.250	6.9168e-02
11.000	22.500	7.3626e-02
11.000	22.750	7.4953e-02
11.000	23.000	7.5518e-02
11.000	23.250	7.5767e-02
11.000	23.500	7.5784e-02
11.000	23.750	7.5787e-02
11.000	24.000	7.5788e-02
11.250	17.000	1.0000e-07
11.250	17.250	1.0000e-07
11.250	17.500	1.0000e-07
11.250	17.750	1.0000e-07
11.250	18.000	1.8930e-06
11.250	18.250	4.6914e-06
11.250	18.500	1.1276e-05
11.250	18.750	2.4938e-05
11.250	19.000	5.1029e-05
11.250	19.250	1.0016e-04
11.250	19.500	1.9292e-04
11.250	19.750	3.7128e-04
11.250	20.000	7.1737e-04
11.250	20.250	1.3830e-03
11.250	20.500	2.6355e-03
11.250	20.750	5.0022e-03
11.250	21.000	9.1729e-03
11.250	21.250	1.6610e-02
11.250	21.500	2.9118e-02
11.250	21.750	4.6372e-02
11.250	22.000	5.8773e-02
11.250	22.250	6.5199e-02
11.250	22.500	6.9504e-02
11.250	22.750	7.3731e-02
11.250	23.000	7.5001e-02
11.250	23.250	7.5539e-02
11.250	23.500	7.5775e-02
11.250	23.750	7.5804e-02
11.250	24.000	7.5790e-02
11.500	17.000	1.0000e-07
11.500	17.250	1.0000e-07
11.500	17.500	1.0000e-07
11.500	17.750	1.0000e-07
11.500	18.000	9.8765e-07
11.500	18.250	2.6337e-06
11.500	18.500	6.5844e-06
11.500	18.750	1.5391e-05
11.500	19.000	3.3004e-05
11.500	19.250	6.5679e-05
11.500	19.500	1.2609e-04
11.500	19.750	2.4025e-04
11.500	20.000	4.5786e-04
11.500	20.250	8.7267e-04
11.500	20.500	1.6595e-03
11.500	20.750	3.1286e-03
11.500	21.000	5.9017e-03
11.500	21.250	1.0667e-02
11.500	21.500	1.8919e-02
11.500	21.750	3.1879e-02
11.500	22.000	4.8263e-02
11.500	22.250	5.9845e-02
11.500	22.500	6.5790e-02
11.500	22.750	6.9919e-02
11.500	23.000	7.3875e-02
11.500	23.250	7.5069e-02
11.500	23.500	7.5567e-02
11.500	23.750	7.5782e-02
11.500	24.000	7.5815e-02
11.750	17.000	1.0000e-07
11.750	17.250	1.0000e-07
11.750	17.500	1.0000e-07
11.750	17.750	1.0000e-07
11.750	18.000	1.0000e-07
11.750	18.250	1.3992e-06
11.750	18.500	3.6214e-06
11.750	18.750	8.8889e-06
11.750	19.000	1.9835e-05
11.750	19.250	4.1070e-05
11.750	19.500	7.9753e-05
11.750	19.750	1.5119e-04
11.750	20.000	2.8667e-04
11.750	20.250	5.4428e-04
11.750	20.500	1.0292e-03
11.750	20.750	1.9386e-03
11.750	21.000	3.6316e-03
11.750	21.250	6.7923e-03
11.750	21.500	1.2261e-02
11.750	21.750	2.1280e-02
11.750	22.000	3.4763e-02
11.750	22.250	4.9813e-02
11.750	22.500	6.0641e-02
11.750	22.750	6.6334e-02
11.750	23.000	7.0331e-02
11.750	23.250	7.4059e-02
11.750	23.500	7.5157e-02
11.750	23.750	7.5602e-02
11.750	24.000	7.5790e-02
12.000	17.000	1.0000e-07
12.000	17.250	1.0000e-07
12.000	17.500	1.0000e-07
12.000	17.750	1.0000e-07
12.000	18.000	1.0000e-07
12.000	18.250	1.0000e-07
12.000	18.500	1.8930e-06
12.000	18.750	4.6914e-06
12.000	19.000	1.0947e-05
12.000	19.250	2.3786e-05
12.000	19.500	4.8148e-05
12.000	19.750	9.2099e-05
12.000	20.000	1.7416e-04
12.000	20.250	3.3021e-04
12.000	20.500	6.2617e-04
12.000	20.750	1.1804e-03
12.000	21.000	2.2170e-03
12.000	21.250	4.1491e-03
12.000	21.500	7.7168e-03
12.000	21.750	1.3903e-02
12.000	22.000	2.3579e-02
12.000	22.250	3.7355e-02
12.000	22.500	5.1089e-02
12.000	22.750	6.1134e-02
12.000	23.000	6.6740e-02
12.000	23.250	7.0707e-02
12.000	23.500	7.4266e-02
12.000	23.750	7.5256e-02
12.000	24.000	7.5638e-02
12.250	17.000	1.0000e-07
12.250	17.250	1.0000e-07
12.250	17.500	1.0000e-07
12.250	17.750	1.0000e-07
12.250	18.000	1.0000e-07
12.250	18.250	1.0000e-07
12.250	18.500	9.8765e-07
12.250	18.750	2.3868e-06
12.250	19.000	5.5967e-06
12.250	19.250	1.2675e-05
12.250	19.500	2.7078e-05
12.250	19.750	5.3909e-05
12.250	20.000	1.0288e-04
12.250	20.250	1.9481e-04
12.250	20.500	3.7045e-04
12.250	20.750	7.0313e-04
12.250	21.000	1.3321e-03
12.250	21.250	2.5007e-03
12.250	21.500	4.6430e-03
12.250	21.750	8.6434e-03
12.250	22.000	1.5483e-02
12.250	22.250	2.5578e-02
12.250	22.500	3.9384e-02
12.250	22.750	5.2065e-02
12.250	23.000	6.1589e-02
12.250	23.250	6.6991e-02
12.250	23.500	7.1017e-02
12.250	23.750	7.4476e-02
12.250	24.000	7.5350e-02
12.500	17.000	1.0000e-07
12.500	17.250	1.0000e-07
12.500	17.500	1.0000e-07
12.500	17.750	1.0000e-07
12.500	18.000	1.0000e-07
12.500	18.250	1.0000e-07
12.500	18.500	1.0000e-07
12.500	18.750	1.1523e-06
12.500	19.000	2.7160e-06
12.500	19.250	6.2551e-06
12.500	19.500	1.3909e-05
12.500	19.750	2.9465e-05
12.500	20.000	5.8683e-05
12.500	20.250	1.1210e-04
12.500	20.500	2.1350e-04
12.500	20.750	4.0971e-04
12.500	21.000	7.8354e-04
12.500	21.250	1.4811e-03
12.500	21.500	2.7651e-03
12.500	21.750	5.1479e-03
12.500	22.000	9.5845e-03
12.500	22.250	1.6930e-02
12.500	22.500	2.7333e-02
12.500	22.750	4.0720e-02
12.500	23.000	5.2829e-02
12.500	23.250	6.1889e-02
12.500	23.500	6.7178e-02
12.500	23.750	7.1259e-02
12.500	24.000	7.4657e-02
12.750	17.000	1.0000e-07
12.750	17.250	1.0000e-07
12.750	17.500	1.0000e-07
12.750	17.750	1.0000e-07
12.750	18.000	1.0000e-07
12.750	18.250	1.0000e-07
12.750	18.500	1.0000e-07
12.750	18.750	1.0000e-07
12.750	19.000	1.3169e-06
12.750	19.250	2.8807e-06
12.750	19.500	6.5844e-06
12.750	19.750	1.4733e-05
12.750	20.000	3.1193e-05
12.750	20.250	6.2387e-05
12.750	20.500	1.2066e-04
12.750	20.750	2.3251e-04
12.750	21.000	4.5029e-04
12.750	21.250	8.6543e-04
12.750	21.500	1.6240e-03
12.750	21.750	3.0266e-03
12.750	22.000	5.6596e-03
12.750	22.250	1.0507e-02
12.750	22.500	1.8199e-02
12.750	22.750	2.8694e-02
12.750	23.000	4.1626e-02
12.750	23.250	5.3287e-02
12.750	23.500	6.1987e-02
12.750	23.750	6.7267e-02
12.750	24.000	7.1449e-02
13.000	17.000	1.0000e-07
13.000	17.250	1.0000e-07
13.000	17.500	1.0000e-07
13.000	17.750	1.0000e-07
13.000	18.000	1.0000e-07
13.000	18.250	1.0000e-07
13.000	18.500	1.0000e-07
13.000	18.750	1.0000e-07
13.000	19.000	1.0000e-07
13.000	19.250	1.3169e-06
13.000	19.500	2.9630e-06
13.000	19.750	6.7490e-06
13.000	20.000	1.5062e-05
13.000	20.250	3.2346e-05
13.000	20.500	6.5844e-05
13.000	20.750	1.2905e-04
13.000	21.000	2.5177e-04
13.000	21.250	4.9333e-04
13.000	21.500	9.3959e-04
13.000	21.750	1.7709e-03
13.000	22.000	3.2968e-03
13.000	22.250	6.1716e-03
13.000	22.500	1.1345e-02
13.000	22.750	1.9230e-02
13.000	23.000	2.9755e-02
13.000	23.250	4.2313e-02
13.000	23.500	5.3551e-02
13.000	23.750	6.1960e-02
13.000	24.000	6.7278e-02
13.250	17.000	1.0000e-07
13.250	17.250	1.0000e-07
13.250	17.500	1.0000e-07
13.250	17.750	1.0000e-07
13.250	18.000	1.0000e-07
13.250	18.250	1.0000e-07
13.250	18.500	1.0000e-07
13.250	18.750	1.0000e-07
13.250	19.000	1.0000e-07
13.250	19.250	1.0000e-07
13.250	19.500	1.3992e-06
13.250	19.750	2.9630e-06
13.250	20.000	6.7490e-06
13.250	20.250	1.5144e-05
13.250	20.500	3.2922e-05
13.250	20.750	6.7819e-05
13.250	21.000	1.3695e-04
13.250	21.250	2.6979e-04
13.250	21.500	5.2658e-04
13.250	21.750	9.9687e-04
13.250	22.000	1.8975e-03
13.250	22.250	3.4981e-03
13.250	22.500	6.5914e-03
13.250	22.750	1.1900e-02
13.250	23.000	2.0197e-02
13.250	23.250	3.0657e-02
13.250	23.500	4.2904e-02
13.250	23.750	5.3724e-02
13.250	24.000	6.1823e-02
13.500	17.000	1.0000e-07
13.500	17.250	1.0000e-07
13.500	17.500	1.0000e-07
13.500	17.750	1.0000e-07
13.500	18.000	1.0000e-07
13.500	18.250	1.0000e-07
13.500	18.500	1.0000e-07
13.500	18.750	1.0000e-07
13.500	19.000	1.0000e-07
13.500	19.250	1.0000e-07
13.500	19.500	1.0000e-07
13.500	19.750	1.3992e-06
13.500	20.000	3.0453e-06
13.500	20.250	6.7490e-06
13.500	20.500	1.5144e-05
13.500	20.750	3.3004e-05
13.500	21.000	6.8477e-05
13.500	21.250	1.3909e-04
13.500	21.500	2.7877e-04
13.500	21.750	5.4066e-04
13.500	22.000	1.0376e-03
13.500	22.250	2.0193e-03
13.500	22.500	3.7594e-03
13.500	22.750	6.9338e-03
13.500	23.000	1.2567e-02
13.500	23.250	2.1063e-02
13.500	23.500	3.1591e-02
13.500	23.750	4.3367e-02
13.500	24.000	5.3889e-02
13.750	17.000	1.0000e-07
13.750	17.250	1.0000e-07
13.750	17.500	1.0000e-07
13.750	17.750	1.0000e-07
13.750	18.000	1.0000e-07
13.750	18.250	1.0000e-07
13.750	18.500	1.0000e-07
13.750	18.750	1.0000e-07
13.750	19.000	1.0000e-07
13.750	19.250	1.0000e-07
13.750	19.500	1.0000e-07
13.750	19.750	1.0000e-07
13.750	20.000	1.4815e-06
13.750	20.250	3.1276e-06
13.750	20.500	6.8313e-06
13.750	20.750	1.5391e-05
13.750	21.000	3.3416e-05
13.750	21.250	6.8971e-05
13.750	21.500	1.3877e-04
13.750	21.750	2.7663e-04
13.750	22.000	5.4881e-04
13.750	22.250	1.0840e-03
13.750	22.500	2.1058e-03
13.750	22.750	3.9826e-03
13.750	23.000	7.3724e-03
13.750	23.250	1.3341e-02
13.750	23.500	2.2111e-02
13.750	23.750	3.2728e-02
13.750	24.000	4.4042e-02
14.000	17.000	1.0000e-07
14.000	17.250	1.0000e-07
14.000	17.500	1.0000e-07
14.000	17.750	1.0000e-07
14.000	18.000	1.0000e-07
14.000	18.250	1.0000e-07
14.000	18.500	1.0000e-07
14.000	18.750	1.0000e-07
14.000	19.000	1.0000e-07
14.000	19.250	1.0000e-07
14.000	19.500	1.0000e-07
14.000	19.750	1.0000e-07
14.000	20.000	1.0000e-07
14.000	20.250	1.5638e-06
14.000	20.500	3.2922e-06
14.000	20.750	7.1605e-06
14.000	21.000	1.5885e-05
14.000	21.250	3.4568e-05
14.000	21.500	7.0700e-05
14.000	21.750	1.4107e-04
14.000	22.000	2.8041e-04
14.000	22.250	5.6403e-04
14.000	22.500	1.1388e-03
14.000	22.750	2.2506e-03
14.000	23.000	4.2753e-03
14.000	23.250	7.9462e-03
14.000	23.500	1.4338e-02
14.000	23.750	2.3458e-02
14.000	24.000	3.4110e-02
