nFnu 399.153A  relative to Inci 1215.00A scaled to 1215A.
Hden   Phi(H)  Eq_Width (A)
 7.000	17.000	2.9473e-02
 7.000	17.250	5.0716e-02
 7.000	17.500	9.9860e-02
 7.000	17.750	1.1196e-01
 7.000	18.000	1.1093e-01
 7.000	18.250	9.9219e-02
 7.000	18.500	8.3173e-02
 7.000	18.750	7.5206e-02
 7.000	19.000	7.1266e-02
 7.000	19.250	6.9047e-02
 7.000	19.500	6.8099e-02
 7.000	19.750	6.7686e-02
 7.000	20.000	6.7501e-02
 7.000	20.250	6.7413e-02
 7.000	20.500	6.7369e-02
 7.000	20.750	6.7346e-02
 7.000	21.000	6.7333e-02
 7.000	21.250	6.7326e-02
 7.000	21.500	6.7323e-02
 7.000	21.750	6.7320e-02
 7.000	22.000	6.7320e-02
 7.000	22.250	6.7319e-02
 7.000	22.500	6.7319e-02
 7.000	22.750	6.7326e-02
 7.000	23.000	6.7320e-02
 7.000	23.250	6.7321e-02
 7.000	23.500	6.7321e-02
 7.000	23.750	6.7321e-02
 7.000	24.000	6.7322e-02
 7.250	17.000	1.7863e-02
 7.250	17.250	2.8044e-02
 7.250	17.500	4.9792e-02
 7.250	17.750	9.6625e-02
 7.250	18.000	1.0965e-01
 7.250	18.250	1.0987e-01
 7.250	18.500	9.8679e-02
 7.250	18.750	8.2982e-02
 7.250	19.000	7.5129e-02
 7.250	19.250	7.1238e-02
 7.250	19.500	6.9042e-02
 7.250	19.750	6.8097e-02
 7.250	20.000	6.7686e-02
 7.250	20.250	6.7501e-02
 7.250	20.500	6.7413e-02
 7.250	20.750	6.7369e-02
 7.250	21.000	6.7346e-02
 7.250	21.250	6.7333e-02
 7.250	21.500	6.7326e-02
 7.250	21.750	6.7322e-02
 7.250	22.000	6.7320e-02
 7.250	22.250	6.7319e-02
 7.250	22.500	6.7318e-02
 7.250	22.750	6.7318e-02
 7.250	23.000	6.7318e-02
 7.250	23.250	6.7318e-02
 7.250	23.500	6.7318e-02
 7.250	23.750	6.7318e-02
 7.250	24.000	6.7318e-02
 7.500	17.000	1.2095e-02
 7.500	17.250	1.7055e-02
 7.500	17.500	2.7236e-02
 7.500	17.750	4.9484e-02
 7.500	18.000	9.4800e-02
 7.500	18.250	1.0839e-01
 7.500	18.500	1.0932e-01
 7.500	18.750	9.8345e-02
 7.500	19.000	8.2858e-02
 7.500	19.250	7.5079e-02
 7.500	19.500	7.1219e-02
 7.500	19.750	6.9038e-02
 7.500	20.000	6.8096e-02
 7.500	20.250	6.7685e-02
 7.500	20.500	6.7501e-02
 7.500	20.750	6.7413e-02
 7.500	21.000	6.7369e-02
 7.500	21.250	6.7345e-02
 7.500	21.500	6.7333e-02
 7.500	21.750	6.7326e-02
 7.500	22.000	6.7322e-02
 7.500	22.250	6.7320e-02
 7.500	22.500	6.7319e-02
 7.500	22.750	6.7318e-02
 7.500	23.000	6.7318e-02
 7.500	23.250	6.7317e-02
 7.500	23.500	6.7317e-02
 7.500	23.750	6.7317e-02
 7.500	24.000	6.7317e-02
 7.750	17.000	8.9545e-03
 7.750	17.250	1.1659e-02
 7.750	17.500	1.6588e-02
 7.750	17.750	2.6776e-02
 7.750	18.000	4.9448e-02
 7.750	18.250	9.3861e-02
 7.750	18.500	1.0781e-01
 7.750	18.750	1.0912e-01
 7.750	19.000	9.8150e-02
 7.750	19.250	8.2782e-02
 7.750	19.500	7.5047e-02
 7.750	19.750	7.1207e-02
 7.750	20.000	6.9035e-02
 7.750	20.250	6.8096e-02
 7.750	20.500	6.7685e-02
 7.750	20.750	6.7501e-02
 7.750	21.000	6.7413e-02
 7.750	21.250	6.7369e-02
 7.750	21.500	6.7345e-02
 7.750	21.750	6.7333e-02
 7.750	22.000	6.7326e-02
 7.750	22.250	6.7322e-02
 7.750	22.500	6.7320e-02
 7.750	22.750	6.7318e-02
 7.750	23.000	6.7318e-02
 7.750	23.250	6.7317e-02
 7.750	23.500	6.7317e-02
 7.750	23.750	6.7317e-02
 7.750	24.000	6.7317e-02
 8.000	17.000	7.0999e-03
 8.000	17.250	8.6775e-03
 8.000	17.500	1.1353e-02
 8.000	17.750	1.6288e-02
 8.000	18.000	2.6430e-02
 8.000	18.250	4.8665e-02
 8.000	18.500	9.3462e-02
 8.000	18.750	1.0768e-01
 8.000	19.000	1.0916e-01
 8.000	19.250	9.8052e-02
 8.000	19.500	8.2735e-02
 8.000	19.750	7.5028e-02
 8.000	20.000	7.1200e-02
 8.000	20.250	6.9034e-02
 8.000	20.500	6.8096e-02
 8.000	20.750	6.7685e-02
 8.000	21.000	6.7501e-02
 8.000	21.250	6.7413e-02
 8.000	21.500	6.7369e-02
 8.000	21.750	6.7345e-02
 8.000	22.000	6.7333e-02
 8.000	22.250	6.7326e-02
 8.000	22.500	6.7322e-02
 8.000	22.750	6.7320e-02
 8.000	23.000	6.7318e-02
 8.000	23.250	6.7318e-02
 8.000	23.500	6.7317e-02
 8.000	23.750	6.7317e-02
 8.000	24.000	6.7317e-02
 8.250	17.000	5.9928e-03
 8.250	17.250	6.9698e-03
 8.250	17.500	8.5365e-03
 8.250	17.750	1.1211e-02
 8.250	18.000	1.6159e-02
 8.250	18.250	2.6339e-02
 8.250	18.500	4.9018e-02
 8.250	18.750	9.3319e-02
 8.250	19.000	1.0783e-01
 8.250	19.250	1.0937e-01
 8.250	19.500	9.8004e-02
 8.250	19.750	8.2708e-02
 8.250	20.000	7.5018e-02
 8.250	20.250	7.1195e-02
 8.250	20.500	6.9033e-02
 8.250	20.750	6.8095e-02
 8.250	21.000	6.7685e-02
 8.250	21.250	6.7501e-02
 8.250	21.500	6.7413e-02
 8.250	21.750	6.7369e-02
 8.250	22.000	6.7345e-02
 8.250	22.250	6.7333e-02
 8.250	22.500	6.7326e-02
 8.250	22.750	6.7322e-02
 8.250	23.000	6.7320e-02
 8.250	23.250	6.7318e-02
 8.250	23.500	6.7318e-02
 8.250	23.750	6.7317e-02
 8.250	24.000	6.7317e-02
 8.500	17.000	5.2616e-03
 8.500	17.250	5.9244e-03
 8.500	17.500	6.8997e-03
 8.500	17.750	8.4580e-03
 8.500	18.000	1.1154e-02
 8.500	18.250	1.6109e-02
 8.500	18.500	2.6340e-02
 8.500	18.750	4.9949e-02
 8.500	19.000	9.3502e-02
 8.500	19.250	1.0817e-01
 8.500	19.500	1.0971e-01
 8.500	19.750	9.7987e-02
 8.500	20.000	8.2692e-02
 8.500	20.250	7.5012e-02
 8.500	20.500	7.1193e-02
 8.500	20.750	6.9032e-02
 8.500	21.000	6.8095e-02
 8.500	21.250	6.7685e-02
 8.500	21.500	6.7501e-02
 8.500	21.750	6.7413e-02
 8.500	22.000	6.7369e-02
 8.500	22.250	6.7345e-02
 8.500	22.500	6.7333e-02
 8.500	22.750	6.7326e-02
 8.500	23.000	6.7322e-02
 8.500	23.250	6.7320e-02
 8.500	23.500	6.7318e-02
 8.500	23.750	6.7318e-02
 8.500	24.000	6.7317e-02
 8.750	17.000	4.7062e-03
 8.750	17.250	5.2347e-03
 8.750	17.500	5.8959e-03
 8.750	17.750	6.8733e-03
 8.750	18.000	8.4472e-03
 8.750	18.250	1.1169e-02
 8.750	18.500	1.6154e-02
 8.750	18.750	2.6563e-02
 8.750	19.000	5.1968e-02
 8.750	19.250	9.3701e-02
 8.750	19.500	1.0863e-01
 8.750	19.750	1.1013e-01
 8.750	20.000	9.7995e-02
 8.750	20.250	8.2682e-02
 8.750	20.500	7.5009e-02
 8.750	20.750	7.1192e-02
 8.750	21.000	6.9032e-02
 8.750	21.250	6.8095e-02
 8.750	21.500	6.7685e-02
 8.750	21.750	6.7501e-02
 8.750	22.000	6.7413e-02
 8.750	22.250	6.7369e-02
 8.750	22.500	6.7345e-02
 8.750	22.750	6.7333e-02
 8.750	23.000	6.7326e-02
 8.750	23.250	6.7322e-02
 8.750	23.500	6.7320e-02
 8.750	23.750	6.7318e-02
 8.750	24.000	6.7318e-02
 9.000	17.000	4.2146e-03
 9.000	17.250	4.7256e-03
 9.000	17.500	5.2560e-03
 9.000	17.750	5.9260e-03
 9.000	18.000	6.9141e-03
 9.000	18.250	8.5114e-03
 9.000	18.500	1.1286e-02
 9.000	18.750	1.6441e-02
 9.000	19.000	2.7231e-02
 9.000	19.250	5.5992e-02
 9.000	19.500	9.4037e-02
 9.000	19.750	1.0914e-01
 9.000	20.000	1.1059e-01
 9.000	20.250	9.8013e-02
 9.000	20.500	8.2676e-02
 9.000	20.750	7.5007e-02
 9.000	21.000	7.1191e-02
 9.000	21.250	6.9032e-02
 9.000	21.500	6.8095e-02
 9.000	21.750	6.7685e-02
 9.000	22.000	6.7501e-02
 9.000	22.250	6.7413e-02
 9.000	22.500	6.7369e-02
 9.000	22.750	6.7345e-02
 9.000	23.000	6.7333e-02
 9.000	23.250	6.7326e-02
 9.000	23.500	6.7322e-02
 9.000	23.750	6.7320e-02
 9.000	24.000	6.7318e-02
 9.250	17.000	3.6974e-03
 9.250	17.250	4.2758e-03
 9.250	17.500	4.8100e-03
 9.250	17.750	5.3588e-03
 9.250	18.000	6.0348e-03
 9.250	18.250	7.0385e-03
 9.250	18.500	8.6945e-03
 9.250	18.750	1.1642e-02
 9.250	19.000	1.7194e-02
 9.250	19.250	2.8746e-02
 9.250	19.500	6.1499e-02
 9.250	19.750	9.4435e-02
 9.250	20.000	1.0962e-01
 9.250	20.250	1.1105e-01
 9.250	20.500	9.8029e-02
 9.250	20.750	8.2672e-02
 9.250	21.000	7.5007e-02
 9.250	21.250	7.1192e-02
 9.250	21.500	6.9024e-02
 9.250	21.750	6.8062e-02
 9.250	22.000	6.7650e-02
 9.250	22.250	6.7468e-02
 9.250	22.500	6.7413e-02
 9.250	22.750	6.7368e-02
 9.250	23.000	6.7345e-02
 9.250	23.250	6.7332e-02
 9.250	23.500	6.7326e-02
 9.250	23.750	6.7322e-02
 9.250	24.000	6.7320e-02
 9.500	17.000	3.1077e-03
 9.500	17.250	3.7920e-03
 9.500	17.500	4.4222e-03
 9.500	17.750	4.9960e-03
 9.500	18.000	5.5548e-03
 9.500	18.250	6.2461e-03
 9.500	18.500	7.3105e-03
 9.500	18.750	9.1505e-03
 9.500	19.000	1.2425e-02
 9.500	19.250	1.8599e-02
 9.500	19.500	3.1080e-02
 9.500	19.750	6.6256e-02
 9.500	20.000	9.5035e-02
 9.500	20.250	1.1004e-01
 9.500	20.500	1.1147e-01
 9.500	20.750	9.8053e-02
 9.500	21.000	8.2658e-02
 9.500	21.250	7.4975e-02
 9.500	21.500	7.1154e-02
 9.500	21.750	6.8991e-02
 9.500	22.000	6.8041e-02
 9.500	22.250	6.7621e-02
 9.500	22.500	6.7440e-02
 9.500	22.750	6.7352e-02
 9.500	23.000	6.7307e-02
 9.500	23.250	6.7283e-02
 9.500	23.500	6.7291e-02
 9.500	23.750	6.7284e-02
 9.500	24.000	6.7280e-02
 9.750	17.000	2.4060e-03
 9.750	17.250	3.2119e-03
 9.750	17.500	3.9795e-03
 9.750	17.750	4.6776e-03
 9.750	18.000	5.2768e-03
 9.750	18.250	5.8677e-03
 9.750	18.500	6.6425e-03
 9.750	18.750	7.8794e-03
 9.750	19.000	1.0029e-02
 9.750	19.250	1.3785e-02
 9.750	19.500	2.0695e-02
 9.750	19.750	3.7026e-02
 9.750	20.000	7.0318e-02
 9.750	20.250	9.5922e-02
 9.750	20.500	1.1037e-01
 9.750	20.750	1.1182e-01
 9.750	21.000	9.8082e-02
 9.750	21.250	8.2663e-02
 9.750	21.500	7.4995e-02
 9.750	21.750	7.1158e-02
 9.750	22.000	6.8994e-02
 9.750	22.250	6.8049e-02
 9.750	22.500	6.7627e-02
 9.750	22.750	6.7437e-02
 9.750	23.000	6.7351e-02
 9.750	23.250	6.7307e-02
 9.750	23.500	6.7284e-02
 9.750	23.750	6.7272e-02
 9.750	24.000	6.7265e-02
10.000	17.000	1.5972e-03
10.000	17.250	2.4928e-03
10.000	17.500	3.4026e-03
10.000	17.750	4.2622e-03
10.000	18.000	5.0318e-03
10.000	18.250	5.6962e-03
10.000	18.500	6.3720e-03
10.000	18.750	7.3051e-03
10.000	19.000	8.8112e-03
10.000	19.250	1.1315e-02
10.000	19.500	1.5546e-02
10.000	19.750	2.3317e-02
10.000	20.000	4.3881e-02
10.000	20.250	7.4227e-02
10.000	20.500	9.6888e-02
10.000	20.750	1.1066e-01
10.000	21.000	1.1214e-01
10.000	21.250	9.8111e-02
10.000	21.500	8.2665e-02
10.000	21.750	7.5006e-02
10.000	22.000	7.1172e-02
10.000	22.250	6.8996e-02
10.000	22.500	6.8054e-02
10.000	22.750	6.7636e-02
10.000	23.000	6.7444e-02
10.000	23.250	6.7352e-02
10.000	23.500	6.7305e-02
10.000	23.750	6.7281e-02
10.000	24.000	6.7269e-02
10.250	17.000	9.8996e-04
10.250	17.250	1.6551e-03
10.250	17.500	2.6523e-03
10.250	17.750	3.6680e-03
10.250	18.000	4.6376e-03
10.250	18.250	5.5204e-03
10.250	18.500	6.2893e-03
10.250	18.750	7.1295e-03
10.250	19.000	8.2634e-03
10.250	19.250	1.0036e-02
10.250	19.500	1.2902e-02
10.250	19.750	1.7685e-02
10.250	20.000	2.6257e-02
10.250	20.250	5.5474e-02
10.250	20.500	7.8185e-02
10.250	20.750	9.8085e-02
10.250	21.000	1.1096e-01
10.250	21.250	1.1240e-01
10.250	21.500	9.8140e-02
10.250	21.750	8.2664e-02
10.250	22.000	7.5011e-02
10.250	22.250	7.1188e-02
10.250	22.500	6.8997e-02
10.250	22.750	6.8058e-02
10.250	23.000	6.7642e-02
10.250	23.250	6.7452e-02
10.250	23.500	6.7360e-02
10.250	23.750	6.7313e-02
10.250	24.000	6.7288e-02
10.500	17.000	5.9473e-04
10.500	17.250	1.0135e-03
10.500	17.500	1.7545e-03
10.500	17.750	2.8693e-03
10.500	18.000	4.0170e-03
10.500	18.250	5.1206e-03
10.500	18.500	6.1242e-03
10.500	18.750	7.0441e-03
10.500	19.000	8.0467e-03
10.500	19.250	9.4126e-03
10.500	19.500	1.1492e-02
10.500	19.750	1.4761e-02
10.500	20.000	2.0189e-02
10.500	20.250	2.9398e-02
10.500	20.500	6.2582e-02
10.500	20.750	8.2475e-02
10.500	21.000	9.9171e-02
10.500	21.250	1.1136e-01
10.500	21.500	1.1264e-01
10.500	21.750	9.8173e-02
10.500	22.000	8.2665e-02
10.500	22.250	7.5014e-02
10.500	22.500	7.1194e-02
10.500	22.750	6.9004e-02
10.500	23.000	6.8060e-02
10.500	23.250	6.7647e-02
10.500	23.500	6.7459e-02
10.500	23.750	6.7368e-02
10.500	24.000	6.7321e-02
10.750	17.000	3.7276e-04
10.750	17.250	5.9778e-04
10.750	17.500	1.0602e-03
10.750	17.750	1.9240e-03
10.750	18.000	3.1463e-03
10.750	18.250	4.4572e-03
10.750	18.500	5.6902e-03
10.750	18.750	6.8202e-03
10.750	19.000	7.8914e-03
10.750	19.250	9.0977e-03
10.750	19.500	1.0751e-02
10.750	19.750	1.3194e-02
10.750	20.000	1.6909e-02
10.750	20.250	2.2945e-02
10.750	20.500	3.6788e-02
10.750	20.750	6.9476e-02
10.750	21.000	8.6870e-02
10.750	21.250	1.0029e-01
10.750	21.500	1.1197e-01
10.750	21.750	1.1286e-01
10.750	22.000	9.8209e-02
10.750	22.250	8.2667e-02
10.750	22.500	7.5018e-02
10.750	22.750	7.1198e-02
10.750	23.000	6.9021e-02
10.750	23.250	6.8061e-02
10.750	23.500	6.7649e-02
10.750	23.750	6.7463e-02
10.750	24.000	6.7373e-02
11.000	17.000	2.4914e-04
11.000	17.250	3.6535e-04
11.000	17.500	6.0601e-04
11.000	17.750	1.1306e-03
11.000	18.000	2.1042e-03
11.000	18.250	3.4487e-03
11.000	18.500	4.9193e-03
11.000	18.750	6.2978e-03
11.000	19.000	7.5678e-03
11.000	19.250	8.8386e-03
11.000	19.500	1.0312e-02
11.000	19.750	1.2294e-02
11.000	20.000	1.5104e-02
11.000	20.250	1.9215e-02
11.000	20.500	2.5869e-02
11.000	20.750	4.6357e-02
11.000	21.000	7.7388e-02
11.000	21.250	9.1714e-02
11.000	21.500	1.0126e-01
11.000	21.750	1.1284e-01
11.000	22.000	1.1308e-01
11.000	22.250	9.8274e-02
11.000	22.500	8.2672e-02
11.000	22.750	7.5024e-02
11.000	23.000	7.1201e-02
11.000	23.250	6.9030e-02
11.000	23.500	6.8066e-02
11.000	23.750	6.7651e-02
11.000	24.000	6.7465e-02
11.250	17.000	1.7210e-04
11.250	17.250	2.3605e-04
11.250	17.500	3.5613e-04
11.250	17.750	6.1556e-04
11.250	18.000	1.1922e-03
11.250	18.250	2.2682e-03
11.250	18.500	3.7627e-03
11.250	18.750	5.4076e-03
11.250	19.000	6.9273e-03
11.250	19.250	8.3798e-03
11.250	19.500	9.9142e-03
11.250	19.750	1.1707e-02
11.250	20.000	1.4034e-02
11.250	20.250	1.7203e-02
11.250	20.500	2.1691e-02
11.250	20.750	2.8884e-02
11.250	21.000	5.5007e-02
11.250	21.250	8.5061e-02
11.250	21.500	9.6061e-02
11.250	21.750	1.0226e-01
11.250	22.000	1.1419e-01
11.250	22.250	1.1332e-01
11.250	22.500	9.8337e-02
11.250	22.750	8.2682e-02
11.250	23.000	7.5031e-02
11.250	23.250	7.1206e-02
11.250	23.500	6.9033e-02
11.250	23.750	6.8083e-02
11.250	24.000	6.7653e-02
11.500	17.000	1.2091e-04
11.500	17.250	1.5852e-04
11.500	17.500	2.2181e-04
11.500	17.750	3.4321e-04
11.500	18.000	6.1523e-04
11.500	18.250	1.2447e-03
11.500	18.500	2.4347e-03
11.500	18.750	4.1054e-03
11.500	19.000	5.9293e-03
11.500	19.250	7.6086e-03
11.500	19.500	9.2872e-03
11.500	19.750	1.1156e-02
11.500	20.000	1.3302e-02
11.500	20.250	1.5949e-02
11.500	20.500	1.9406e-02
11.500	20.750	2.4183e-02
11.500	21.000	3.1435e-02
11.500	21.250	6.2167e-02
11.500	21.500	9.3032e-02
11.500	21.750	9.9132e-02
11.500	22.000	1.0512e-01
11.500	22.250	1.1604e-01
11.500	22.500	1.1361e-01
11.500	22.750	9.8433e-02
11.500	23.000	8.2701e-02
11.500	23.250	7.5040e-02
11.500	23.500	7.1211e-02
11.500	23.750	6.9035e-02
11.500	24.000	6.8092e-02
11.750	17.000	8.5432e-05
11.750	17.250	1.0856e-04
11.750	17.500	1.4477e-04
11.750	17.750	2.0593e-04
11.750	18.000	3.2741e-04
11.750	18.250	6.1728e-04
11.750	18.500	1.3120e-03
11.750	18.750	2.6400e-03
11.750	19.000	4.5049e-03
11.750	19.250	6.5156e-03
11.750	19.500	8.3782e-03
11.750	19.750	1.0340e-02
11.750	20.000	1.2571e-02
11.750	20.250	1.5082e-02
11.750	20.500	1.8039e-02
11.750	20.750	2.1738e-02
11.750	21.000	2.6625e-02
11.750	21.250	3.4081e-02
11.750	21.500	6.8582e-02
11.750	21.750	1.0076e-01
11.750	22.000	1.0032e-01
11.750	22.250	1.1018e-01
11.750	22.500	1.1838e-01
11.750	22.750	1.1391e-01
11.750	23.000	9.8522e-02
11.750	23.250	8.2725e-02
11.750	23.500	7.5053e-02
11.750	23.750	7.1218e-02
11.750	24.000	6.9036e-02
12.000	17.000	6.0741e-05
12.000	17.250	7.5720e-05
12.000	17.500	9.7695e-05
12.000	17.750	1.3226e-04
12.000	18.000	1.9276e-04
12.000	18.250	3.2123e-04
12.000	18.500	6.4008e-04
12.000	18.750	1.4158e-03
12.000	19.000	2.9107e-03
12.000	19.250	4.9955e-03
12.000	19.500	7.1952e-03
12.000	19.750	9.2770e-03
12.000	20.000	1.1590e-02
12.000	20.250	1.4223e-02
12.000	20.500	1.7080e-02
12.000	20.750	2.0280e-02
12.000	21.000	2.3950e-02
12.000	21.250	2.8734e-02
12.000	21.500	3.6494e-02
12.000	21.750	7.6330e-02
12.000	22.000	1.0745e-01
12.000	22.250	1.0163e-01
12.000	22.500	1.1599e-01
12.000	22.750	1.2129e-01
12.000	23.000	1.1426e-01
12.000	23.250	9.8599e-02
12.000	23.500	8.2763e-02
12.000	23.750	7.5066e-02
12.000	24.000	7.1225e-02
12.250	17.000	4.4033e-05
12.250	17.250	5.3992e-05
12.250	17.500	6.7819e-05
12.250	17.750	8.9465e-05
12.250	18.000	1.2477e-04
12.250	18.250	1.9103e-04
12.250	18.500	3.3712e-04
12.250	18.750	7.0041e-04
12.250	19.000	1.5842e-03
12.250	19.250	3.2798e-03
12.250	19.500	5.6033e-03
12.250	19.750	8.0086e-03
12.250	20.000	1.0389e-02
12.250	20.250	1.3091e-02
12.250	20.500	1.6067e-02
12.250	20.750	1.9161e-02
12.250	21.000	2.2346e-02
12.250	21.250	2.5839e-02
12.250	21.500	3.0304e-02
12.250	21.750	3.9687e-02
12.250	22.000	8.5674e-02
12.250	22.250	1.1112e-01
12.250	22.500	1.0654e-01
12.250	22.750	1.2266e-01
12.250	23.000	1.2424e-01
12.250	23.250	1.1475e-01
12.250	23.500	9.8661e-02
12.250	23.750	8.2776e-02
12.250	24.000	7.5076e-02
12.500	17.000	3.1852e-05
12.500	17.250	3.9424e-05
12.500	17.500	4.8889e-05
12.500	17.750	6.3128e-05
12.500	18.000	8.6502e-05
12.500	18.250	1.2823e-04
12.500	18.500	2.1078e-04
12.500	18.750	3.8930e-04
12.500	19.000	8.2025e-04
12.500	19.250	1.8383e-03
12.500	19.500	3.7695e-03
12.500	19.750	6.3351e-03
12.500	20.000	9.0057e-03
12.500	20.250	1.1707e-02
12.500	20.500	1.4761e-02
12.500	20.750	1.8011e-02
12.500	21.000	2.1145e-02
12.500	21.250	2.4387e-02
12.500	21.500	2.7228e-02
12.500	21.750	3.2428e-02
12.500	22.000	4.3745e-02
12.500	22.250	9.8614e-02
12.500	22.500	1.1288e-01
12.500	22.750	1.1469e-01
12.500	23.000	1.3008e-01
12.500	23.250	1.2827e-01
12.500	23.500	1.1529e-01
12.500	23.750	9.8714e-02
12.500	24.000	8.2798e-02
12.750	17.000	2.3292e-05
12.750	17.250	2.9136e-05
12.750	17.500	3.6296e-05
12.750	17.750	4.6749e-05
12.750	18.000	6.3539e-05
12.750	18.250	9.3909e-05
12.750	18.500	1.5259e-04
12.750	18.750	2.6543e-04
12.750	19.000	4.9424e-04
12.750	19.250	1.0170e-03
12.750	19.500	2.1986e-03
12.750	19.750	4.3737e-03
12.750	20.000	7.1764e-03
12.750	20.250	1.0106e-02
12.750	20.500	1.3153e-02
12.750	20.750	1.6516e-02
12.750	21.000	1.9904e-02
12.750	21.250	2.3052e-02
12.750	21.500	2.5728e-02
12.750	21.750	2.9098e-02
12.750	22.000	3.4992e-02
12.750	22.250	5.1361e-02
12.750	22.500	1.1556e-01
12.750	22.750	1.1654e-01
12.750	23.000	1.2567e-01
12.750	23.250	1.3860e-01
12.750	23.500	1.3201e-01
12.750	23.750	1.1585e-01
12.750	24.000	9.8760e-02
13.000	17.000	1.7366e-05
13.000	17.250	2.1811e-05
13.000	17.500	2.7490e-05
13.000	17.750	3.5556e-05
13.000	18.000	4.8889e-05
13.000	18.250	7.3333e-05
13.000	18.500	1.2181e-04
13.000	18.750	2.1284e-04
13.000	19.000	3.7399e-04
13.000	19.250	6.7251e-04
13.000	19.500	1.2994e-03
13.000	19.750	2.6444e-03
13.000	20.000	4.9814e-03
13.000	20.250	8.0474e-03
13.000	20.500	1.1271e-02
13.000	20.750	1.4657e-02
13.000	21.000	1.8169e-02
13.000	21.250	2.1695e-02
13.000	21.500	2.4269e-02
13.000	21.750	2.7415e-02
13.000	22.000	3.1710e-02
13.000	22.250	3.8533e-02
13.000	22.500	6.9392e-02
13.000	22.750	1.2945e-01
13.000	23.000	1.2607e-01
13.000	23.250	1.3874e-01
13.000	23.500	1.4702e-01
13.000	23.750	1.3570e-01
13.000	24.000	1.1661e-01
13.250	17.000	1.2757e-05
13.250	17.250	1.6543e-05
13.250	17.500	2.1152e-05
13.250	17.750	2.7901e-05
13.250	18.000	3.9424e-05
13.250	18.250	6.0412e-05
13.250	18.500	1.0313e-04
13.250	18.750	1.8642e-04
13.250	19.000	3.2930e-04
13.250	19.250	5.5975e-04
13.250	19.500	9.4930e-04
13.250	19.750	1.6929e-03
13.250	20.000	3.1531e-03
13.250	20.250	5.6268e-03
13.250	20.500	8.9262e-03
13.250	20.750	1.2501e-02
13.250	21.000	1.6137e-02
13.250	21.250	1.9980e-02
13.250	21.500	2.3387e-02
13.250	21.750	2.7520e-02
13.250	22.000	3.0013e-02
13.250	22.250	3.5318e-02
13.250	22.500	4.4889e-02
13.250	22.750	8.9461e-02
13.250	23.000	1.4534e-01
13.250	23.250	1.4126e-01
13.250	23.500	1.5309e-01
13.250	23.750	1.5573e-01
13.250	24.000	1.3910e-01
13.500	17.000	9.3827e-06
13.500	17.250	1.2510e-05
13.500	17.500	1.6543e-05
13.500	17.750	2.2551e-05
13.500	18.000	3.3004e-05
13.500	18.250	5.3004e-05
13.500	18.500	9.1687e-05
13.500	18.750	1.6988e-04
13.500	19.000	3.0938e-04
13.500	19.250	5.2708e-04
13.500	19.500	8.5531e-04
13.500	19.750	1.3763e-03
13.500	20.000	2.2677e-03
13.500	20.250	3.8687e-03
13.500	20.500	6.4873e-03
13.500	20.750	9.9784e-03
13.500	21.000	1.3875e-02
13.500	21.250	1.8006e-02
13.500	21.500	2.2336e-02
13.500	21.750	2.7035e-02
13.500	22.000	3.1516e-02
13.500	22.250	3.6577e-02
13.500	22.500	4.2731e-02
13.500	22.750	5.5929e-02
13.500	23.000	1.2864e-01
13.500	23.250	1.8115e-01
13.500	23.500	1.6490e-01
13.500	23.750	1.6973e-01
13.500	24.000	1.6500e-01
13.750	17.000	6.9959e-06
13.750	17.250	9.4650e-06
13.750	17.500	1.3086e-05
13.750	17.750	1.8519e-05
13.750	18.000	2.8395e-05
13.750	18.250	4.7901e-05
13.750	18.500	8.6255e-05
13.750	18.750	1.5992e-04
13.750	19.000	2.9366e-04
13.750	19.250	5.1333e-04
13.750	19.500	8.3737e-04
13.750	19.750	1.3077e-03
13.750	20.000	2.0172e-03
13.750	20.250	3.1356e-03
13.750	20.500	4.9573e-03
13.750	20.750	7.7681e-03
13.750	21.000	1.1556e-02
13.750	21.250	1.6000e-02
13.750	21.500	2.0679e-02
13.750	21.750	2.6248e-02
13.750	22.000	3.2311e-02
13.750	22.250	3.8480e-02
13.750	22.500	4.5103e-02
13.750	22.750	5.4511e-02
13.750	23.000	7.2324e-02
13.750	23.250	1.8136e-01
13.750	23.500	2.2254e-01
13.750	23.750	1.8752e-01
13.750	24.000	1.8857e-01
14.000	17.000	5.1852e-06
14.000	17.250	7.2428e-06
14.000	17.500	1.0123e-05
14.000	17.750	1.5473e-05
14.000	18.000	2.5021e-05
14.000	18.250	4.4115e-05
14.000	18.500	8.1811e-05
14.000	18.750	1.5342e-04
14.000	19.000	2.8148e-04
14.000	19.250	4.9333e-04
14.000	19.500	8.2049e-04
14.000	19.750	1.2891e-03
14.000	20.000	1.9521e-03
14.000	20.250	2.9120e-03
14.000	20.500	4.3380e-03
14.000	20.750	6.4690e-03
14.000	21.000	9.6021e-03
14.000	21.250	1.3869e-02
14.000	21.500	1.8879e-02
14.000	21.750	2.4676e-02
14.000	22.000	3.1136e-02
14.000	22.250	3.8446e-02
14.000	22.500	4.6607e-02
14.000	22.750	5.5840e-02
14.000	23.000	6.9348e-02
14.000	23.250	9.4447e-02
14.000	23.500	2.4638e-01
14.000	23.750	2.5595e-01
14.000	24.000	2.0841e-01
