InwC 4885.36A  relative to Inci 1215.00A scaled to 1215A.
Hden   Phi(H)  Eq_Width (A)
 7.000	17.000	3.0885e-02
 7.000	17.250	4.1075e-02
 7.000	17.500	4.2419e-02
 7.000	17.750	4.3244e-02
 7.000	18.000	4.3265e-02
 7.000	18.250	4.3294e-02
 7.000	18.500	4.3299e-02
 7.000	18.750	4.3305e-02
 7.000	19.000	4.3310e-02
 7.000	19.250	4.3314e-02
 7.000	19.500	4.3315e-02
 7.000	19.750	4.3316e-02
 7.000	20.000	4.3316e-02
 7.000	20.250	4.3316e-02
 7.000	20.500	4.3316e-02
 7.000	20.750	4.3316e-02
 7.000	21.000	4.3316e-02
 7.000	21.250	4.3316e-02
 7.000	21.500	4.3317e-02
 7.000	21.750	4.3317e-02
 7.000	22.000	4.3317e-02
 7.000	22.250	4.3317e-02
 7.000	22.500	4.3317e-02
 7.000	22.750	4.3322e-02
 7.000	23.000	4.3318e-02
 7.000	23.250	4.3319e-02
 7.000	23.500	4.3319e-02
 7.000	23.750	4.3319e-02
 7.000	24.000	4.3319e-02
 7.250	17.000	2.3249e-02
 7.250	17.250	3.1294e-02
 7.250	17.500	4.1080e-02
 7.250	17.750	4.2429e-02
 7.250	18.000	4.3245e-02
 7.250	18.250	4.3265e-02
 7.250	18.500	4.3294e-02
 7.250	18.750	4.3299e-02
 7.250	19.000	4.3305e-02
 7.250	19.250	4.3310e-02
 7.250	19.500	4.3314e-02
 7.250	19.750	4.3315e-02
 7.250	20.000	4.3316e-02
 7.250	20.250	4.3316e-02
 7.250	20.500	4.3316e-02
 7.250	20.750	4.3316e-02
 7.250	21.000	4.3316e-02
 7.250	21.250	4.3316e-02
 7.250	21.500	4.3316e-02
 7.250	21.750	4.3316e-02
 7.250	22.000	4.3316e-02
 7.250	22.250	4.3316e-02
 7.250	22.500	4.3317e-02
 7.250	22.750	4.3317e-02
 7.250	23.000	4.3317e-02
 7.250	23.250	4.3317e-02
 7.250	23.500	4.3317e-02
 7.250	23.750	4.3317e-02
 7.250	24.000	4.3317e-02
 7.500	17.000	1.6558e-02
 7.500	17.250	2.3838e-02
 7.500	17.500	3.1670e-02
 7.500	17.750	4.1084e-02
 7.500	18.000	4.2438e-02
 7.500	18.250	4.3245e-02
 7.500	18.500	4.3265e-02
 7.500	18.750	4.3294e-02
 7.500	19.000	4.3299e-02
 7.500	19.250	4.3305e-02
 7.500	19.500	4.3310e-02
 7.500	19.750	4.3314e-02
 7.500	20.000	4.3315e-02
 7.500	20.250	4.3316e-02
 7.500	20.500	4.3316e-02
 7.500	20.750	4.3316e-02
 7.500	21.000	4.3316e-02
 7.500	21.250	4.3316e-02
 7.500	21.500	4.3316e-02
 7.500	21.750	4.3316e-02
 7.500	22.000	4.3316e-02
 7.500	22.250	4.3316e-02
 7.500	22.500	4.3316e-02
 7.500	22.750	4.3316e-02
 7.500	23.000	4.3317e-02
 7.500	23.250	4.3316e-02
 7.500	23.500	4.3316e-02
 7.500	23.750	4.3316e-02
 7.500	24.000	4.3316e-02
 7.750	17.000	1.1155e-02
 7.750	17.250	1.7015e-02
 7.750	17.500	2.4486e-02
 7.750	17.750	3.2087e-02
 7.750	18.000	4.1088e-02
 7.750	18.250	4.2448e-02
 7.750	18.500	4.3245e-02
 7.750	18.750	4.3265e-02
 7.750	19.000	4.3294e-02
 7.750	19.250	4.3299e-02
 7.750	19.500	4.3305e-02
 7.750	19.750	4.3310e-02
 7.750	20.000	4.3314e-02
 7.750	20.250	4.3315e-02
 7.750	20.500	4.3316e-02
 7.750	20.750	4.3316e-02
 7.750	21.000	4.3316e-02
 7.750	21.250	4.3316e-02
 7.750	21.500	4.3316e-02
 7.750	21.750	4.3316e-02
 7.750	22.000	4.3316e-02
 7.750	22.250	4.3316e-02
 7.750	22.500	4.3316e-02
 7.750	22.750	4.3316e-02
 7.750	23.000	4.3316e-02
 7.750	23.250	4.3316e-02
 7.750	23.500	4.3316e-02
 7.750	23.750	4.3316e-02
 7.750	24.000	4.3316e-02
 8.000	17.000	7.5240e-03
 8.000	17.250	1.1382e-02
 8.000	17.500	1.7439e-02
 8.000	17.750	2.5085e-02
 8.000	18.000	3.2464e-02
 8.000	18.250	4.1086e-02
 8.000	18.500	4.2450e-02
 8.000	18.750	4.3245e-02
 8.000	19.000	4.3266e-02
 8.000	19.250	4.3295e-02
 8.000	19.500	4.3299e-02
 8.000	19.750	4.3305e-02
 8.000	20.000	4.3310e-02
 8.000	20.250	4.3314e-02
 8.000	20.500	4.3315e-02
 8.000	20.750	4.3316e-02
 8.000	21.000	4.3316e-02
 8.000	21.250	4.3316e-02
 8.000	21.500	4.3316e-02
 8.000	21.750	4.3316e-02
 8.000	22.000	4.3316e-02
 8.000	22.250	4.3316e-02
 8.000	22.500	4.3316e-02
 8.000	22.750	4.3316e-02
 8.000	23.000	4.3316e-02
 8.000	23.250	4.3316e-02
 8.000	23.500	4.3316e-02
 8.000	23.750	4.3316e-02
 8.000	24.000	4.3316e-02
 8.250	17.000	5.2297e-03
 8.250	17.250	7.7226e-03
 8.250	17.500	1.1770e-02
 8.250	17.750	1.8189e-02
 8.250	18.000	2.6177e-02
 8.250	18.250	3.3212e-02
 8.250	18.500	4.1087e-02
 8.250	18.750	4.2459e-02
 8.250	19.000	4.3245e-02
 8.250	19.250	4.3266e-02
 8.250	19.500	4.3294e-02
 8.250	19.750	4.3299e-02
 8.250	20.000	4.3305e-02
 8.250	20.250	4.3310e-02
 8.250	20.500	4.3314e-02
 8.250	20.750	4.3315e-02
 8.250	21.000	4.3316e-02
 8.250	21.250	4.3316e-02
 8.250	21.500	4.3316e-02
 8.250	21.750	4.3316e-02
 8.250	22.000	4.3316e-02
 8.250	22.250	4.3316e-02
 8.250	22.500	4.3316e-02
 8.250	22.750	4.3316e-02
 8.250	23.000	4.3316e-02
 8.250	23.250	4.3316e-02
 8.250	23.500	4.3316e-02
 8.250	23.750	4.3316e-02
 8.250	24.000	4.3316e-02
 8.500	17.000	3.7044e-03
 8.500	17.250	5.3741e-03
 8.500	17.500	8.0173e-03
 8.500	17.750	1.2418e-02
 8.500	18.000	1.9382e-02
 8.500	18.250	2.7757e-02
 8.500	18.500	3.4197e-02
 8.500	18.750	4.1085e-02
 8.500	19.000	4.2469e-02
 8.500	19.250	4.3245e-02
 8.500	19.500	4.3266e-02
 8.500	19.750	4.3294e-02
 8.500	20.000	4.3299e-02
 8.500	20.250	4.3305e-02
 8.500	20.500	4.3310e-02
 8.500	20.750	4.3314e-02
 8.500	21.000	4.3315e-02
 8.500	21.250	4.3316e-02
 8.500	21.500	4.3316e-02
 8.500	21.750	4.3316e-02
 8.500	22.000	4.3316e-02
 8.500	22.250	4.3316e-02
 8.500	22.500	4.3316e-02
 8.500	22.750	4.3316e-02
 8.500	23.000	4.3316e-02
 8.500	23.250	4.3316e-02
 8.500	23.500	4.3316e-02
 8.500	23.750	4.3316e-02
 8.500	24.000	4.3316e-02
 8.750	17.000	2.6519e-03
 8.750	17.250	3.8119e-03
 8.750	17.500	5.6036e-03
 8.750	17.750	8.5134e-03
 8.750	18.000	1.3527e-02
 8.750	18.250	2.1322e-02
 8.750	18.500	2.9331e-02
 8.750	18.750	3.5216e-02
 8.750	19.000	4.1075e-02
 8.750	19.250	4.2478e-02
 8.750	19.500	4.3246e-02
 8.750	19.750	4.3266e-02
 8.750	20.000	4.3294e-02
 8.750	20.250	4.3299e-02
 8.750	20.500	4.3305e-02
 8.750	20.750	4.3310e-02
 8.750	21.000	4.3314e-02
 8.750	21.250	4.3315e-02
 8.750	21.500	4.3316e-02
 8.750	21.750	4.3316e-02
 8.750	22.000	4.3316e-02
 8.750	22.250	4.3316e-02
 8.750	22.500	4.3316e-02
 8.750	22.750	4.3316e-02
 8.750	23.000	4.3316e-02
 8.750	23.250	4.3316e-02
 8.750	23.500	4.3316e-02
 8.750	23.750	4.3316e-02
 8.750	24.000	4.3316e-02
 9.000	17.000	1.9098e-03
 9.000	17.250	2.7301e-03
 9.000	17.500	3.9843e-03
 9.000	17.750	5.9938e-03
 9.000	18.000	9.4629e-03
 9.000	18.250	1.5359e-02
 9.000	18.500	2.3744e-02
 9.000	18.750	3.1355e-02
 9.000	19.000	3.6772e-02
 9.000	19.250	4.1046e-02
 9.000	19.500	4.2485e-02
 9.000	19.750	4.3246e-02
 9.000	20.000	4.3266e-02
 9.000	20.250	4.3294e-02
 9.000	20.500	4.3299e-02
 9.000	20.750	4.3305e-02
 9.000	21.000	4.3310e-02
 9.000	21.250	4.3314e-02
 9.000	21.500	4.3315e-02
 9.000	21.750	4.3316e-02
 9.000	22.000	4.3316e-02
 9.000	22.250	4.3316e-02
 9.000	22.500	4.3316e-02
 9.000	22.750	4.3316e-02
 9.000	23.000	4.3316e-02
 9.000	23.250	4.3316e-02
 9.000	23.500	4.3316e-02
 9.000	23.750	4.3316e-02
 9.000	24.000	4.3316e-02
 9.250	17.000	1.3821e-03
 9.250	17.250	1.9665e-03
 9.250	17.500	2.8611e-03
 9.250	17.750	4.2956e-03
 9.250	18.000	6.7532e-03
 9.250	18.250	1.1016e-02
 9.250	18.500	1.7667e-02
 9.250	18.750	2.6008e-02
 9.250	19.000	3.2759e-02
 9.250	19.250	3.8308e-02
 9.250	19.500	4.1008e-02
 9.250	19.750	4.2485e-02
 9.250	20.000	4.3245e-02
 9.250	20.250	4.3266e-02
 9.250	20.500	4.3294e-02
 9.250	20.750	4.3299e-02
 9.250	21.000	4.3305e-02
 9.250	21.250	4.3310e-02
 9.250	21.500	4.3309e-02
 9.250	21.750	4.3294e-02
 9.250	22.000	4.3293e-02
 9.250	22.250	4.3295e-02
 9.250	22.500	4.3316e-02
 9.250	22.750	4.3316e-02
 9.250	23.000	4.3316e-02
 9.250	23.250	4.3316e-02
 9.250	23.500	4.3316e-02
 9.250	23.750	4.3316e-02
 9.250	24.000	4.3316e-02
 9.500	17.000	1.0044e-03
 9.500	17.250	1.4231e-03
 9.500	17.500	2.0678e-03
 9.500	17.750	3.1132e-03
 9.500	18.000	4.9253e-03
 9.500	18.250	8.0774e-03
 9.500	18.500	1.2948e-02
 9.500	18.750	1.9960e-02
 9.500	19.000	2.8400e-02
 9.500	19.250	3.4064e-02
 9.500	19.500	3.9405e-02
 9.500	19.750	4.0956e-02
 9.500	20.000	4.2478e-02
 9.500	20.250	4.3244e-02
 9.500	20.500	4.3266e-02
 9.500	20.750	4.3293e-02
 9.500	21.000	4.3293e-02
 9.500	21.250	4.3286e-02
 9.500	21.500	4.3287e-02
 9.500	21.750	4.3288e-02
 9.500	22.000	4.3281e-02
 9.500	22.250	4.3274e-02
 9.500	22.500	4.3276e-02
 9.500	22.750	4.3277e-02
 9.500	23.000	4.3276e-02
 9.500	23.250	4.3276e-02
 9.500	23.500	4.3289e-02
 9.500	23.750	4.3289e-02
 9.500	24.000	4.3289e-02
 9.750	17.000	7.3407e-04
 9.750	17.250	1.0348e-03
 9.750	17.500	1.5000e-03
 9.750	17.750	2.2686e-03
 9.750	18.000	3.6336e-03
 9.750	18.250	6.0041e-03
 9.750	18.500	9.6179e-03
 9.750	18.750	1.4859e-02
 9.750	19.000	2.2042e-02
 9.750	19.250	2.9914e-02
 9.750	19.500	3.5827e-02
 9.750	19.750	3.9968e-02
 9.750	20.000	4.0902e-02
 9.750	20.250	4.2448e-02
 9.750	20.500	4.3242e-02
 9.750	20.750	4.3266e-02
 9.750	21.000	4.3294e-02
 9.750	21.250	4.3297e-02
 9.750	21.500	4.3297e-02
 9.750	21.750	4.3289e-02
 9.750	22.000	4.3290e-02
 9.750	22.250	4.3286e-02
 9.750	22.500	4.3279e-02
 9.750	22.750	4.3275e-02
 9.750	23.000	4.3276e-02
 9.750	23.250	4.3276e-02
 9.750	23.500	4.3277e-02
 9.750	23.750	4.3277e-02
 9.750	24.000	4.3277e-02
10.000	17.000	5.4049e-04
10.000	17.250	7.5695e-04
10.000	17.500	1.0938e-03
10.000	17.750	1.6625e-03
10.000	18.000	2.6933e-03
10.000	18.250	4.4827e-03
10.000	18.500	7.1416e-03
10.000	18.750	1.1039e-02
10.000	19.000	1.6505e-02
10.000	19.250	2.3904e-02
10.000	19.500	3.1161e-02
10.000	19.750	3.7236e-02
10.000	20.000	3.9870e-02
10.000	20.250	4.0822e-02
10.000	20.500	4.2418e-02
10.000	20.750	4.3235e-02
10.000	21.000	4.3265e-02
10.000	21.250	4.3294e-02
10.000	21.500	4.3298e-02
10.000	21.750	4.3302e-02
10.000	22.000	4.3297e-02
10.000	22.250	4.3291e-02
10.000	22.500	4.3289e-02
10.000	22.750	4.3284e-02
10.000	23.000	4.3279e-02
10.000	23.250	4.3276e-02
10.000	23.500	4.3275e-02
10.000	23.750	4.3275e-02
10.000	24.000	4.3275e-02
10.250	17.000	4.0272e-04
10.250	17.250	5.5794e-04
10.250	17.500	8.0296e-04
10.250	17.750	1.2263e-03
10.250	18.000	2.0005e-03
10.250	18.250	3.3205e-03
10.250	18.500	5.3199e-03
10.250	18.750	8.2056e-03
10.250	19.000	1.2257e-02
10.250	19.250	1.8007e-02
10.250	19.500	2.5042e-02
10.250	19.750	3.2199e-02
10.250	20.000	3.8373e-02
10.250	20.250	3.9776e-02
10.250	20.500	4.0779e-02
10.250	20.750	4.2412e-02
10.250	21.000	4.3223e-02
10.250	21.250	4.3263e-02
10.250	21.500	4.3294e-02
10.250	21.750	4.3298e-02
10.250	22.000	4.3304e-02
10.250	22.250	4.3306e-02
10.250	22.500	4.3292e-02
10.250	22.750	4.3291e-02
10.250	23.000	4.3288e-02
10.250	23.250	4.3285e-02
10.250	23.500	4.3282e-02
10.250	23.750	4.3280e-02
10.250	24.000	4.3279e-02
10.500	17.000	3.0519e-04
10.500	17.250	4.1663e-04
10.500	17.500	5.9564e-04
10.500	17.750	9.1128e-04
10.500	18.000	1.4887e-03
10.500	18.250	2.4794e-03
10.500	18.500	3.9258e-03
10.500	18.750	6.0448e-03
10.500	19.000	9.0073e-03
10.500	19.250	1.3205e-02
10.500	19.500	1.8911e-02
10.500	19.750	2.5886e-02
10.500	20.000	3.3348e-02
10.500	20.250	3.8976e-02
10.500	20.500	3.9679e-02
10.500	20.750	4.0755e-02
10.500	21.000	4.2432e-02
10.500	21.250	4.3206e-02
10.500	21.500	4.3258e-02
10.500	21.750	4.3292e-02
10.500	22.000	4.3298e-02
10.500	22.250	4.3304e-02
10.500	22.500	4.3308e-02
10.500	22.750	4.3296e-02
10.500	23.000	4.3292e-02
10.500	23.250	4.3291e-02
10.500	23.500	4.3289e-02
10.500	23.750	4.3287e-02
10.500	24.000	4.3285e-02
10.750	17.000	2.3556e-04
10.750	17.250	3.1556e-04
10.750	17.500	4.4658e-04
10.750	17.750	6.8132e-04
10.750	18.000	1.1101e-03
10.750	18.250	1.8259e-03
10.750	18.500	2.8745e-03
10.750	18.750	4.3963e-03
10.750	19.000	6.5612e-03
10.750	19.250	9.5830e-03
10.750	19.500	1.3844e-02
10.750	19.750	1.9634e-02
10.750	20.000	2.6785e-02
10.750	20.250	3.4522e-02
10.750	20.500	3.8910e-02
10.750	20.750	3.9634e-02
10.750	21.000	4.0729e-02
10.750	21.250	4.2490e-02
10.750	21.500	4.3185e-02
10.750	21.750	4.3250e-02
10.750	22.000	4.3287e-02
10.750	22.250	4.3297e-02
10.750	22.500	4.3304e-02
10.750	22.750	4.3309e-02
10.750	23.000	4.3306e-02
10.750	23.250	4.3293e-02
10.750	23.500	4.3293e-02
10.750	23.750	4.3291e-02
10.750	24.000	4.3290e-02
11.000	17.000	1.8543e-04
11.000	17.250	2.4296e-04
11.000	17.500	3.3844e-04
11.000	17.750	5.1202e-04
11.000	18.000	8.2502e-04
11.000	18.250	1.3366e-03
11.000	18.500	2.1115e-03
11.000	18.750	3.2109e-03
11.000	19.000	4.7769e-03
11.000	19.250	6.9559e-03
11.000	19.500	9.9959e-03
11.000	19.750	1.4352e-02
11.000	20.000	2.0317e-02
11.000	20.250	2.7668e-02
11.000	20.500	3.5691e-02
11.000	20.750	3.8834e-02
11.000	21.000	3.9620e-02
11.000	21.250	4.0800e-02
11.000	21.500	4.2654e-02
11.000	21.750	4.3163e-02
11.000	22.000	4.3237e-02
11.000	22.250	4.3283e-02
11.000	22.500	4.3296e-02
11.000	22.750	4.3303e-02
11.000	23.000	4.3309e-02
11.000	23.250	4.3311e-02
11.000	23.500	4.3296e-02
11.000	23.750	4.3293e-02
11.000	24.000	4.3293e-02
11.250	17.000	1.4963e-04
11.250	17.250	1.9037e-04
11.250	17.500	2.5942e-04
11.250	17.750	3.8560e-04
11.250	18.000	6.1078e-04
11.250	18.250	9.7226e-04
11.250	18.500	1.5072e-03
11.250	18.750	2.3040e-03
11.250	19.000	3.4165e-03
11.250	19.250	4.9658e-03
11.250	19.500	7.1750e-03
11.250	19.750	1.0305e-02
11.250	20.000	1.4786e-02
11.250	20.250	2.0950e-02
11.250	20.500	2.8579e-02
11.250	20.750	3.6624e-02
11.250	21.000	3.8777e-02
11.250	21.250	3.9647e-02
11.250	21.500	4.0998e-02
11.250	21.750	4.2826e-02
11.250	22.000	4.3134e-02
11.250	22.250	4.3220e-02
11.250	22.500	4.3271e-02
11.250	22.750	4.3294e-02
11.250	23.000	4.3302e-02
11.250	23.250	4.3308e-02
11.250	23.500	4.3313e-02
11.250	23.750	4.3307e-02
11.250	24.000	4.3294e-02
11.500	17.000	1.2370e-04
11.500	17.250	1.5251e-04
11.500	17.500	2.0189e-04
11.500	17.750	2.9160e-04
11.500	18.000	4.5012e-04
11.500	18.250	7.0494e-04
11.500	18.500	1.0816e-03
11.500	18.750	1.6474e-03
11.500	19.000	2.4319e-03
11.500	19.250	3.5425e-03
11.500	19.500	5.1275e-03
11.500	19.750	7.3923e-03
11.500	20.000	1.0605e-02
11.500	20.250	1.5225e-02
11.500	20.500	2.1618e-02
11.500	20.750	2.9517e-02
11.500	21.000	3.7265e-02
11.500	21.250	3.8727e-02
11.500	21.500	3.9770e-02
11.500	21.750	4.1350e-02
11.500	22.000	4.2900e-02
11.500	22.250	4.3096e-02
11.500	22.500	4.3199e-02
11.500	22.750	4.3261e-02
11.500	23.000	4.3290e-02
11.500	23.250	4.3300e-02
11.500	23.500	4.3307e-02
11.500	23.750	4.3313e-02
11.500	24.000	4.3312e-02
11.750	17.000	1.0609e-04
11.750	17.250	1.2551e-04
11.750	17.500	1.5984e-04
11.750	17.750	2.2272e-04
11.750	18.000	3.3251e-04
11.750	18.250	5.0881e-04
11.750	18.500	7.7136e-04
11.750	18.750	1.1569e-03
11.750	19.000	1.7173e-03
11.750	19.250	2.5119e-03
11.750	19.500	3.6450e-03
11.750	19.750	5.2638e-03
11.750	20.000	7.5477e-03
11.750	20.250	1.0843e-02
11.750	20.500	1.5658e-02
11.750	20.750	2.2288e-02
11.750	21.000	3.0433e-02
11.750	21.250	3.7151e-02
11.750	21.500	3.8719e-02
11.750	21.750	3.9959e-02
11.750	22.000	4.1779e-02
11.750	22.250	4.2849e-02
11.750	22.500	4.3054e-02
11.750	22.750	4.3172e-02
11.750	23.000	4.3245e-02
11.750	23.250	4.3284e-02
11.750	23.500	4.3297e-02
11.750	23.750	4.3306e-02
11.750	24.000	4.3313e-02
12.000	17.000	9.4156e-05
12.000	17.250	1.0724e-04
12.000	17.500	1.3021e-04
12.000	17.750	1.7243e-04
12.000	18.000	2.4626e-04
12.000	18.250	3.6593e-04
12.000	18.500	5.4889e-04
12.000	18.750	8.1967e-04
12.000	19.000	1.2137e-03
12.000	19.250	1.7805e-03
12.000	19.500	2.5939e-03
12.000	19.750	3.7371e-03
12.000	20.000	5.3649e-03
12.000	20.250	7.6990e-03
12.000	20.500	1.1091e-02
12.000	20.750	1.6063e-02
12.000	21.000	2.2955e-02
12.000	21.250	3.1247e-02
12.000	21.500	3.6989e-02
12.000	21.750	3.8699e-02
12.000	22.000	4.0212e-02
12.000	22.250	4.2104e-02
12.000	22.500	4.2785e-02
12.000	22.750	4.3008e-02
12.000	23.000	4.3136e-02
12.000	23.250	4.3223e-02
12.000	23.500	4.3277e-02
12.000	23.750	4.3293e-02
12.000	24.000	4.3304e-02
12.250	17.000	7.7366e-05
12.250	17.250	9.5062e-05
12.250	17.500	1.1029e-04
12.250	17.750	1.3761e-04
12.250	18.000	1.8626e-04
12.250	18.250	2.6708e-04
12.250	18.500	3.9350e-04
12.250	18.750	5.8247e-04
12.250	19.000	8.5786e-04
12.250	19.250	1.2594e-03
12.250	19.500	1.8379e-03
12.250	19.750	2.6491e-03
12.250	20.000	3.8186e-03
12.250	20.250	5.4581e-03
12.250	20.500	7.8644e-03
12.250	20.750	1.1354e-02
12.250	21.000	1.6455e-02
12.250	21.250	2.3557e-02
12.250	21.500	3.1518e-02
12.250	21.750	3.6688e-02
12.250	22.000	3.8666e-02
12.250	22.250	4.0528e-02
12.250	22.500	4.2202e-02
12.250	22.750	4.2704e-02
12.250	23.000	4.2942e-02
12.250	23.250	4.3085e-02
12.250	23.500	4.3192e-02
12.250	23.750	4.3266e-02
12.250	24.000	4.3287e-02
12.500	17.000	4.0741e-05
12.500	17.250	8.1235e-05
12.500	17.500	9.7202e-05
12.500	17.750	1.1514e-04
12.500	18.000	1.4642e-04
12.500	18.250	1.9934e-04
12.500	18.500	2.8477e-04
12.500	18.750	4.1728e-04
12.500	19.000	6.1251e-04
12.500	19.250	8.9597e-04
12.500	19.500	1.3024e-03
12.500	19.750	1.8798e-03
12.500	20.000	2.7049e-03
12.500	20.250	3.8853e-03
12.500	20.500	5.5643e-03
12.500	20.750	7.9999e-03
12.500	21.000	1.1587e-02
12.500	21.250	1.6808e-02
12.500	21.500	2.3701e-02
12.500	21.750	3.1796e-02
12.500	22.000	3.6252e-02
12.500	22.250	3.8615e-02
12.500	22.500	4.0734e-02
12.500	22.750	4.2139e-02
12.500	23.000	4.2590e-02
12.500	23.250	4.2852e-02
12.500	23.500	4.3013e-02
12.500	23.750	4.3147e-02
12.500	24.000	4.3251e-02
12.750	17.000	2.1235e-05
12.750	17.250	4.7160e-05
12.750	17.500	8.6914e-05
12.750	17.750	1.0000e-04
12.750	18.000	1.2008e-04
12.750	18.250	1.5440e-04
12.750	18.500	2.1160e-04
12.750	18.750	3.0255e-04
12.750	19.000	4.3802e-04
12.750	19.250	6.3704e-04
12.750	19.500	9.2362e-04
12.750	19.750	1.3317e-03
12.750	20.000	1.9143e-03
12.750	20.250	2.7454e-03
12.750	20.500	3.9422e-03
12.750	20.750	5.6613e-03
12.750	21.000	8.1347e-03
12.750	21.250	1.1812e-02
12.750	21.500	1.6887e-02
12.750	21.750	2.4013e-02
12.750	22.000	3.1691e-02
12.750	22.250	3.5675e-02
12.750	22.500	3.8503e-02
12.750	22.750	4.0637e-02
12.750	23.000	4.1929e-02
12.750	23.250	4.2424e-02
12.750	23.500	4.2724e-02
12.750	23.750	4.2909e-02
12.750	24.000	4.3079e-02
13.000	17.000	4.2798e-06
13.000	17.250	9.9588e-06
13.000	17.500	3.4979e-05
13.000	17.750	7.1852e-05
13.000	18.000	9.4979e-05
13.000	18.250	1.2510e-04
13.000	18.500	1.6272e-04
13.000	18.750	2.2280e-04
13.000	19.000	3.1597e-04
13.000	19.250	4.5481e-04
13.000	19.500	6.5745e-04
13.000	19.750	9.4280e-04
13.000	20.000	1.3540e-03
13.000	20.250	1.9432e-03
13.000	20.500	2.7817e-03
13.000	20.750	4.0002e-03
13.000	21.000	5.7555e-03
13.000	21.250	8.3202e-03
13.000	21.500	1.1888e-02
13.000	21.750	1.7172e-02
13.000	22.000	2.4094e-02
13.000	22.250	3.1060e-02
13.000	22.500	3.4887e-02
13.000	22.750	3.7951e-02
13.000	23.000	4.0194e-02
13.000	23.250	4.1578e-02
13.000	23.500	4.2172e-02
13.000	23.750	4.2529e-02
13.000	24.000	4.2751e-02
13.250	17.000	2.5514e-06
13.250	17.250	4.8560e-06
13.250	17.500	1.1687e-05
13.250	17.750	2.8477e-05
13.250	18.000	6.0988e-05
13.250	18.250	8.9300e-05
13.250	18.500	1.3012e-04
13.250	18.750	1.6955e-04
13.250	19.000	2.3185e-04
13.250	19.250	3.2774e-04
13.250	19.500	4.6733e-04
13.250	19.750	6.6963e-04
13.250	20.000	9.5770e-04
13.250	20.250	1.3726e-03
13.250	20.500	1.9675e-03
13.250	20.750	2.8237e-03
13.250	21.000	4.0716e-03
13.250	21.250	5.8784e-03
13.250	21.500	8.3830e-03
13.250	21.750	1.2071e-02
13.250	22.000	1.7177e-02
13.250	22.250	2.3461e-02
13.250	22.500	2.9777e-02
13.250	22.750	3.3496e-02
13.250	23.000	3.6848e-02
13.250	23.250	3.9448e-02
13.250	23.500	4.1050e-02
13.250	23.750	4.1789e-02
13.250	24.000	4.2228e-02
13.500	17.000	1.4815e-06
13.500	17.250	2.7984e-06
13.500	17.500	6.3374e-06
13.500	17.750	1.4733e-05
13.500	18.000	3.4650e-05
13.500	18.250	6.8724e-05
13.500	18.500	9.5473e-05
13.500	18.750	1.3457e-04
13.500	19.000	1.7506e-04
13.500	19.250	2.3811e-04
13.500	19.500	3.3449e-04
13.500	19.750	4.7514e-04
13.500	20.000	6.7835e-04
13.500	20.250	9.7004e-04
13.500	20.500	1.3908e-03
13.500	20.750	1.9962e-03
13.500	21.000	2.8719e-03
13.500	21.250	4.1457e-03
13.500	21.500	5.9202e-03
13.500	21.750	8.5149e-03
13.500	22.000	1.1977e-02
13.500	22.250	1.6488e-02
13.500	22.500	2.2312e-02
13.500	22.750	2.7867e-02
13.500	23.000	3.1873e-02
13.500	23.250	3.5417e-02
13.500	23.500	3.8368e-02
13.500	23.750	4.0276e-02
13.500	24.000	4.1213e-02
13.750	17.000	9.0535e-07
13.750	17.250	1.8107e-06
13.750	17.500	3.7860e-06
13.750	17.750	7.7366e-06
13.750	18.000	1.8765e-05
13.750	18.250	4.2387e-05
13.750	18.500	7.3251e-05
13.750	18.750	1.0165e-04
13.750	19.000	1.3786e-04
13.750	19.250	1.7901e-04
13.750	19.500	2.4305e-04
13.750	19.750	3.3951e-04
13.750	20.000	4.8091e-04
13.750	20.250	6.8584e-04
13.750	20.500	9.8189e-04
13.750	20.750	1.4094e-03
13.750	21.000	2.0287e-03
13.750	21.250	2.9346e-03
13.750	21.500	4.1864e-03
13.750	21.750	6.0286e-03
13.750	22.000	8.4212e-03
13.750	22.250	1.1174e-02
13.750	22.500	1.4807e-02
13.750	22.750	2.0435e-02
13.750	23.000	2.5830e-02
13.750	23.250	2.9975e-02
13.750	23.500	3.3706e-02
13.750	23.750	3.6988e-02
13.750	24.000	3.9174e-02
14.000	17.000	1.0000e-07
14.000	17.250	1.0700e-06
14.000	17.500	2.3045e-06
14.000	17.750	4.6091e-06
14.000	18.000	9.5473e-06
14.000	18.250	2.1811e-05
14.000	18.500	4.4198e-05
14.000	18.750	7.6626e-05
14.000	19.000	1.1243e-04
14.000	19.250	1.3992e-04
14.000	19.500	1.8156e-04
14.000	19.750	2.4593e-04
14.000	20.000	3.4337e-04
14.000	20.250	4.8609e-04
14.000	20.500	6.9407e-04
14.000	20.750	9.9539e-04
14.000	21.000	1.4340e-03
14.000	21.250	2.0785e-03
14.000	21.500	2.9701e-03
14.000	21.750	4.2925e-03
14.000	22.000	5.9620e-03
14.000	22.250	7.6658e-03
14.000	22.500	9.5879e-03
14.000	22.750	1.2966e-02
14.000	23.000	1.8437e-02
14.000	23.250	2.3520e-02
14.000	23.500	2.7711e-02
14.000	23.750	3.1519e-02
14.000	24.000	3.5160e-02
