H  1 1025.73A  relative to Inci 1215.00A scaled to 1215A.
Hden   Phi(H)  Eq_Width (A)
 7.000	17.000	4.4494e-04
 7.000	17.250	5.2370e-04
 7.000	17.500	5.4321e-04
 7.000	17.750	1.0363e-03
 7.000	18.000	6.4568e-04
 7.000	18.250	5.9827e-04
 7.000	18.500	6.4568e-04
 7.000	18.750	4.0971e-04
 7.000	19.000	1.6132e-04
 7.000	19.250	2.6831e-05
 7.000	19.500	5.3498e-06
 7.000	19.750	1.3992e-06
 7.000	20.000	1.0000e-07
 7.000	20.250	1.0000e-07
 7.000	20.500	1.0000e-07
 7.000	20.750	1.0000e-07
 7.000	21.000	1.0000e-07
 7.000	21.250	1.0000e-07
 7.000	21.500	1.0000e-07
 7.000	21.750	1.0000e-07
 7.000	22.000	1.0000e-07
 7.000	22.250	1.0000e-07
 7.000	22.500	1.0000e-07
 7.000	22.750	1.0000e-07
 7.000	23.000	1.0000e-07
 7.000	23.250	1.0000e-07
 7.000	23.500	1.0000e-07
 7.000	23.750	1.0000e-07
 7.000	24.000	1.0000e-07
 7.250	17.000	4.2214e-04
 7.250	17.250	5.1844e-04
 7.250	17.500	6.1580e-04
 7.250	17.750	5.7128e-04
 7.250	18.000	7.6198e-04
 7.250	18.250	6.3350e-04
 7.250	18.500	5.9794e-04
 7.250	18.750	6.4667e-04
 7.250	19.000	4.0988e-04
 7.250	19.250	1.6140e-04
 7.250	19.500	2.6831e-05
 7.250	19.750	5.3498e-06
 7.250	20.000	1.3992e-06
 7.250	20.250	1.0000e-07
 7.250	20.500	1.0000e-07
 7.250	20.750	1.0000e-07
 7.250	21.000	1.0000e-07
 7.250	21.250	1.0000e-07
 7.250	21.500	1.0000e-07
 7.250	21.750	1.0000e-07
 7.250	22.000	1.0000e-07
 7.250	22.250	1.0000e-07
 7.250	22.500	1.0000e-07
 7.250	22.750	1.0000e-07
 7.250	23.000	1.0000e-07
 7.250	23.250	1.0000e-07
 7.250	23.500	1.0000e-07
 7.250	23.750	1.0000e-07
 7.250	24.000	1.0000e-07
 7.500	17.000	4.1498e-04
 7.500	17.250	4.9720e-04
 7.500	17.500	6.3885e-04
 7.500	17.750	7.7358e-04
 7.500	18.000	6.2305e-04
 7.500	18.250	7.3185e-04
 7.500	18.500	6.6782e-04
 7.500	18.750	6.0370e-04
 7.500	19.000	6.4798e-04
 7.500	19.250	4.1004e-04
 7.500	19.500	1.6140e-04
 7.500	19.750	2.6831e-05
 7.500	20.000	5.3498e-06
 7.500	20.250	1.3992e-06
 7.500	20.500	1.0000e-07
 7.500	20.750	1.0000e-07
 7.500	21.000	1.0000e-07
 7.500	21.250	1.0000e-07
 7.500	21.500	1.0000e-07
 7.500	21.750	1.0000e-07
 7.500	22.000	1.0000e-07
 7.500	22.250	1.0000e-07
 7.500	22.500	1.0000e-07
 7.500	22.750	1.0000e-07
 7.500	23.000	1.0000e-07
 7.500	23.250	1.0000e-07
 7.500	23.500	1.0000e-07
 7.500	23.750	1.0000e-07
 7.500	24.000	1.0000e-07
 7.750	17.000	4.1251e-04
 7.750	17.250	4.8914e-04
 7.750	17.500	6.1761e-04
 7.750	17.750	8.3490e-04
 7.750	18.000	1.0246e-03
 7.750	18.250	6.9119e-04
 7.750	18.500	7.8560e-04
 7.750	18.750	6.8922e-04
 7.750	19.000	6.0947e-04
 7.750	19.250	6.5021e-04
 7.750	19.500	4.0741e-04
 7.750	19.750	1.6148e-04
 7.750	20.000	2.6831e-05
 7.750	20.250	5.3498e-06
 7.750	20.500	1.3992e-06
 7.750	20.750	1.0000e-07
 7.750	21.000	1.0000e-07
 7.750	21.250	1.0000e-07
 7.750	21.500	1.0000e-07
 7.750	21.750	1.0000e-07
 7.750	22.000	1.0000e-07
 7.750	22.250	1.0000e-07
 7.750	22.500	1.0000e-07
 7.750	22.750	1.0000e-07
 7.750	23.000	1.0000e-07
 7.750	23.250	1.0000e-07
 7.750	23.500	1.0000e-07
 7.750	23.750	1.0000e-07
 7.750	24.000	1.0000e-07
 8.000	17.000	4.0626e-04
 8.000	17.250	4.7794e-04
 8.000	17.500	6.0198e-04
 8.000	17.750	8.1037e-04
 8.000	18.000	1.1546e-03
 8.000	18.250	1.4131e-03
 8.000	18.500	8.2502e-04
 8.000	18.750	9.2716e-04
 8.000	19.000	6.8494e-04
 8.000	19.250	6.1572e-04
 8.000	19.500	6.5350e-04
 8.000	19.750	4.1095e-04
 8.000	20.000	1.6156e-04
 8.000	20.250	2.6831e-05
 8.000	20.500	5.3498e-06
 8.000	20.750	1.3992e-06
 8.000	21.000	1.0000e-07
 8.000	21.250	1.0000e-07
 8.000	21.500	1.0000e-07
 8.000	21.750	1.0000e-07
 8.000	22.000	1.0000e-07
 8.000	22.250	1.0000e-07
 8.000	22.500	1.0000e-07
 8.000	22.750	1.0000e-07
 8.000	23.000	1.0000e-07
 8.000	23.250	1.0000e-07
 8.000	23.500	1.0000e-07
 8.000	23.750	1.0000e-07
 8.000	24.000	1.0000e-07
 8.250	17.000	3.9860e-04
 8.250	17.250	4.7021e-04
 8.250	17.500	5.9432e-04
 8.250	17.750	8.1021e-04
 8.250	18.000	1.1665e-03
 8.250	18.250	1.7339e-03
 8.250	18.500	2.1331e-03
 8.250	18.750	9.4230e-04
 8.250	19.000	7.2461e-04
 8.250	19.250	7.3119e-04
 8.250	19.500	6.2379e-04
 8.250	19.750	6.5761e-04
 8.250	20.000	4.1152e-04
 8.250	20.250	1.6165e-04
 8.250	20.500	2.6914e-05
 8.250	20.750	5.3498e-06
 8.250	21.000	1.3992e-06
 8.250	21.250	1.0000e-07
 8.250	21.500	1.0000e-07
 8.250	21.750	1.0000e-07
 8.250	22.000	1.0000e-07
 8.250	22.250	1.0000e-07
 8.250	22.500	1.0000e-07
 8.250	22.750	1.0000e-07
 8.250	23.000	1.0000e-07
 8.250	23.250	1.0000e-07
 8.250	23.500	1.0000e-07
 8.250	23.750	1.0000e-07
 8.250	24.000	1.0000e-07
 8.500	17.000	3.8733e-04
 8.500	17.250	4.6049e-04
 8.500	17.500	5.9021e-04
 8.500	17.750	8.1671e-04
 8.500	18.000	1.2003e-03
 8.500	18.250	1.7975e-03
 8.500	18.500	2.6993e-03
 8.500	18.750	3.3449e-03
 8.500	19.000	1.1734e-03
 8.500	19.250	7.9399e-04
 8.500	19.500	7.2527e-04
 8.500	19.750	6.2988e-04
 8.500	20.000	6.6082e-04
 8.500	20.250	4.1177e-04
 8.500	20.500	1.6165e-04
 8.500	20.750	2.6914e-05
 8.500	21.000	5.3498e-06
 8.500	21.250	1.3992e-06
 8.500	21.500	1.0000e-07
 8.500	21.750	1.0000e-07
 8.500	22.000	1.0000e-07
 8.500	22.250	1.0000e-07
 8.500	22.500	1.0000e-07
 8.500	22.750	1.0000e-07
 8.500	23.000	1.0000e-07
 8.500	23.250	1.0000e-07
 8.500	23.500	1.0000e-07
 8.500	23.750	1.0000e-07
 8.500	24.000	1.0000e-07
 8.750	17.000	3.7679e-04
 8.750	17.250	4.5284e-04
 8.750	17.500	5.9169e-04
 8.750	17.750	8.3638e-04
 8.750	18.000	1.2481e-03
 8.750	18.250	1.9002e-03
 8.750	18.500	2.8435e-03
 8.750	18.750	4.1756e-03
 8.750	19.000	4.8388e-03
 8.750	19.250	1.5190e-03
 8.750	19.500	8.5235e-04
 8.750	19.750	7.6214e-04
 8.750	20.000	6.2856e-04
 8.750	20.250	6.6189e-04
 8.750	20.500	4.0807e-04
 8.750	20.750	1.6132e-04
 8.750	21.000	2.6831e-05
 8.750	21.250	5.3498e-06
 8.750	21.500	1.3992e-06
 8.750	21.750	1.0000e-07
 8.750	22.000	1.0000e-07
 8.750	22.250	1.0000e-07
 8.750	22.500	1.0000e-07
 8.750	22.750	1.0000e-07
 8.750	23.000	1.0000e-07
 8.750	23.250	1.0000e-07
 8.750	23.500	1.0000e-07
 8.750	23.750	1.0000e-07
 8.750	24.000	1.0000e-07
 9.000	17.000	3.8173e-04
 9.000	17.250	4.6444e-04
 9.000	17.500	6.1045e-04
 9.000	17.750	8.7712e-04
 9.000	18.000	1.3269e-03
 9.000	18.250	2.0284e-03
 9.000	18.500	3.0439e-03
 9.000	18.750	4.3911e-03
 9.000	19.000	6.1826e-03
 9.000	19.250	7.7846e-03
 9.000	19.500	2.0756e-03
 9.000	19.750	8.9926e-04
 9.000	20.000	6.7309e-04
 9.000	20.250	6.2107e-04
 9.000	20.500	6.5852e-04
 9.000	20.750	4.0905e-04
 9.000	21.000	1.6049e-04
 9.000	21.250	2.6749e-05
 9.000	21.500	5.3498e-06
 9.000	21.750	1.3992e-06
 9.000	22.000	1.0000e-07
 9.000	22.250	1.0000e-07
 9.000	22.500	1.0000e-07
 9.000	22.750	1.0000e-07
 9.000	23.000	1.0000e-07
 9.000	23.250	1.0000e-07
 9.000	23.500	1.0000e-07
 9.000	23.750	1.0000e-07
 9.000	24.000	1.0000e-07
 9.250	17.000	3.9399e-04
 9.250	17.250	4.9399e-04
 9.250	17.500	6.6996e-04
 9.250	17.750	9.7053e-04
 9.250	18.000	1.4599e-03
 9.250	18.250	2.2095e-03
 9.250	18.500	3.2680e-03
 9.250	18.750	4.6719e-03
 9.250	19.000	6.4255e-03
 9.250	19.250	8.7415e-03
 9.250	19.500	1.0713e-02
 9.250	19.750	3.3202e-03
 9.250	20.000	9.4272e-04
 9.250	20.250	6.8033e-04
 9.250	20.500	6.4765e-04
 9.250	20.750	6.4856e-04
 9.250	21.000	4.0107e-04
 9.250	21.250	1.5901e-04
 9.250	21.500	2.6584e-05
 9.250	21.750	5.2675e-06
 9.250	22.000	1.3992e-06
 9.250	22.250	1.0000e-07
 9.250	22.500	1.0000e-07
 9.250	22.750	1.0000e-07
 9.250	23.000	1.0000e-07
 9.250	23.250	1.0000e-07
 9.250	23.500	1.0000e-07
 9.250	23.750	1.0000e-07
 9.250	24.000	1.0000e-07
 9.500	17.000	4.1037e-04
 9.500	17.250	5.4033e-04
 9.500	17.500	7.6329e-04
 9.500	17.750	1.1210e-03
 9.500	18.000	1.6717e-03
 9.500	18.250	2.4667e-03
 9.500	18.500	3.5467e-03
 9.500	18.750	4.9711e-03
 9.500	19.000	6.7270e-03
 9.500	19.250	8.8887e-03
 9.500	19.500	1.2155e-02
 9.500	19.750	1.2548e-02
 9.500	20.000	4.5713e-03
 9.500	20.250	1.1567e-03
 9.500	20.500	6.2963e-04
 9.500	20.750	6.2519e-04
 9.500	21.000	6.3062e-04
 9.500	21.250	3.9325e-04
 9.500	21.500	1.5646e-04
 9.500	21.750	2.6255e-05
 9.500	22.000	5.2675e-06
 9.500	22.250	1.3169e-06
 9.500	22.500	1.0000e-07
 9.500	22.750	1.0000e-07
 9.500	23.000	1.0000e-07
 9.500	23.250	1.0000e-07
 9.500	23.500	1.0000e-07
 9.500	23.750	1.0000e-07
 9.500	24.000	1.0000e-07
 9.750	17.000	4.3835e-04
 9.750	17.250	6.0930e-04
 9.750	17.500	9.0049e-04
 9.750	17.750	1.3515e-03
 9.750	18.000	1.9756e-03
 9.750	18.250	2.8030e-03
 9.750	18.500	3.8881e-03
 9.750	18.750	5.2842e-03
 9.750	19.000	7.0171e-03
 9.750	19.250	9.0786e-03
 9.750	19.500	1.1590e-02
 9.750	19.750	1.3469e-02
 9.750	20.000	1.2998e-02
 9.750	20.250	1.0153e-02
 9.750	20.500	1.3807e-03
 9.750	20.750	6.4971e-04
 9.750	21.000	5.9942e-04
 9.750	21.250	6.0074e-04
 9.750	21.500	3.8091e-04
 9.750	21.750	1.5267e-04
 9.750	22.000	2.5679e-05
 9.750	22.250	5.1029e-06
 9.750	22.500	1.3169e-06
 9.750	22.750	1.0000e-07
 9.750	23.000	1.0000e-07
 9.750	23.250	1.0000e-07
 9.750	23.500	1.0000e-07
 9.750	23.750	1.0000e-07
 9.750	24.000	1.0000e-07
10.000	17.000	5.0790e-04
10.000	17.250	6.9728e-04
10.000	17.500	1.0742e-03
10.000	17.750	1.6405e-03
10.000	18.000	2.3737e-03
10.000	18.250	3.2307e-03
10.000	18.500	4.2926e-03
10.000	18.750	5.6250e-03
10.000	19.000	7.2282e-03
10.000	19.250	9.0792e-03
10.000	19.500	1.1241e-02
10.000	19.750	1.3985e-02
10.000	20.000	2.4321e-02
10.000	20.250	1.4083e-02
10.000	20.500	1.0898e-02
10.000	20.750	2.6461e-03
10.000	21.000	6.8938e-04
10.000	21.250	5.8922e-04
10.000	21.500	5.6329e-04
10.000	21.750	3.6387e-04
10.000	22.000	1.4741e-04
10.000	22.250	2.4938e-05
10.000	22.500	4.9383e-06
10.000	22.750	1.2346e-06
10.000	23.000	1.0000e-07
10.000	23.250	1.0000e-07
10.000	23.500	1.0000e-07
10.000	23.750	1.0000e-07
10.000	24.000	1.0000e-07
10.250	17.000	5.3465e-04
10.250	17.250	8.0593e-04
10.250	17.500	1.2650e-03
10.250	17.750	1.9435e-03
10.250	18.000	2.7762e-03
10.250	18.250	3.7074e-03
10.250	18.500	4.7489e-03
10.250	18.750	5.9612e-03
10.250	19.000	7.3354e-03
10.250	19.250	8.8487e-03
10.250	19.500	1.0544e-02
10.250	19.750	1.2566e-02
10.250	20.000	1.4914e-02
10.250	20.250	1.4975e-02
10.250	20.500	1.1442e-02
10.250	20.750	9.1697e-03
10.250	21.000	2.8680e-03
10.250	21.250	7.8173e-04
10.250	21.500	6.1605e-04
10.250	21.750	5.2222e-04
10.250	22.000	3.4263e-04
10.250	22.250	1.4049e-04
10.250	22.500	2.3786e-05
10.250	22.750	4.6914e-06
10.250	23.000	1.1523e-06
10.250	23.250	1.0000e-07
10.250	23.500	1.0000e-07
10.250	23.750	1.0000e-07
10.250	24.000	1.0000e-07
10.500	17.000	5.7119e-04
10.500	17.250	8.8494e-04
10.500	17.500	1.4126e-03
10.500	17.750	2.2002e-03
10.500	18.000	3.1138e-03
10.500	18.250	4.1068e-03
10.500	18.500	5.1452e-03
10.500	18.750	6.1933e-03
10.500	19.000	7.2711e-03
10.500	19.250	8.3963e-03
10.500	19.500	9.5958e-03
10.500	19.750	1.0965e-02
10.500	20.000	1.2704e-02
10.500	20.250	1.4292e-02
10.500	20.500	1.3259e-02
10.500	20.750	9.1709e-03
10.500	21.000	6.4974e-03
10.500	21.250	2.9690e-03
10.500	21.500	1.1622e-03
10.500	21.750	6.8807e-04
10.500	22.000	4.8815e-04
10.500	22.250	3.2066e-04
10.500	22.500	1.3243e-04
10.500	22.750	2.2305e-05
10.500	23.000	4.3621e-06
10.500	23.250	1.0700e-06
10.500	23.500	1.0000e-07
10.500	23.750	1.0000e-07
10.500	24.000	1.0000e-07
10.750	17.000	6.1103e-04
10.750	17.250	9.5654e-04
10.750	17.500	1.5156e-03
10.750	17.750	2.3363e-03
10.750	18.000	3.3211e-03
10.750	18.250	4.3441e-03
10.750	18.500	5.3271e-03
10.750	18.750	6.2122e-03
10.750	19.000	7.0125e-03
10.750	19.250	7.7723e-03
10.750	19.500	8.5466e-03
10.750	19.750	9.3866e-03
10.750	20.000	1.0402e-02
10.750	20.250	1.1812e-02
10.750	20.500	1.4324e-02
10.750	20.750	1.1695e-02
10.750	21.000	8.3002e-03
10.750	21.250	6.0796e-03
10.750	21.500	3.1183e-03
10.750	21.750	1.2619e-03
10.750	22.000	6.4115e-04
10.750	22.250	4.6955e-04
10.750	22.500	3.0206e-04
10.750	22.750	1.2412e-04
10.750	23.000	2.0576e-05
10.750	23.250	3.8683e-06
10.750	23.500	9.0535e-07
10.750	23.750	1.0000e-07
10.750	24.000	1.0000e-07
11.000	17.000	6.4601e-04
11.000	17.250	9.9951e-04
11.000	17.500	1.5422e-03
11.000	17.750	2.3387e-03
11.000	18.000	3.3091e-03
11.000	18.250	4.3009e-03
11.000	18.500	5.2135e-03
11.000	18.750	5.9668e-03
11.000	19.000	6.5565e-03
11.000	19.250	7.0441e-03
11.000	19.500	7.4917e-03
11.000	19.750	7.9567e-03
11.000	20.000	8.4880e-03
11.000	20.250	9.1998e-03
11.000	20.500	1.0317e-02
11.000	20.750	1.1212e-02
11.000	21.000	8.9291e-03
11.000	21.250	7.3296e-03
11.000	21.500	4.0631e-03
11.000	21.750	2.6504e-03
11.000	22.000	1.3197e-03
11.000	22.250	7.0181e-04
11.000	22.500	4.6922e-04
11.000	22.750	2.8914e-04
11.000	23.000	1.1613e-04
11.000	23.250	1.8436e-05
11.000	23.500	3.3745e-06
11.000	23.750	1.0000e-07
11.000	24.000	1.0000e-07
11.250	17.000	6.6477e-04
11.250	17.250	1.0073e-03
11.250	17.500	1.4994e-03
11.250	17.750	2.2100e-03
11.250	18.000	3.1007e-03
11.250	18.250	3.9958e-03
11.250	18.500	4.8096e-03
11.250	18.750	5.4782e-03
11.250	19.000	5.9434e-03
11.250	19.250	6.2525e-03
11.250	19.500	6.4829e-03
11.250	19.750	6.6988e-03
11.250	20.000	6.9422e-03
11.250	20.250	7.2663e-03
11.250	20.500	7.7564e-03
11.250	20.750	8.6234e-03
11.250	21.000	9.1809e-03
11.250	21.250	7.2191e-03
11.250	21.500	5.1229e-03
11.250	21.750	4.3597e-03
11.250	22.000	2.1338e-03
11.250	22.250	1.3818e-03
11.250	22.500	8.2790e-04
11.250	22.750	4.8140e-04
11.250	23.000	2.8247e-04
11.250	23.250	1.0765e-04
11.250	23.500	1.6049e-05
11.250	23.750	2.7160e-06
11.250	24.000	1.0000e-07
11.500	17.000	6.6996e-04
11.500	17.250	9.8691e-04
11.500	17.500	1.4128e-03
11.500	17.750	1.9998e-03
11.500	18.000	2.7519e-03
11.500	18.250	3.5203e-03
11.500	18.500	4.2104e-03
11.500	18.750	4.7905e-03
11.500	19.000	5.2113e-03
11.500	19.250	5.4410e-03
11.500	19.500	5.5488e-03
11.500	19.750	5.6161e-03
11.500	20.000	5.6973e-03
11.500	20.250	5.8179e-03
11.500	20.500	6.0142e-03
11.500	20.750	6.3694e-03
11.500	21.000	7.2305e-03
11.500	21.250	7.5956e-03
11.500	21.500	5.2368e-03
11.500	21.750	4.6160e-03
11.500	22.000	3.4063e-03
11.500	22.250	2.0428e-03
11.500	22.500	1.2830e-03
11.500	22.750	8.5852e-04
11.500	23.000	4.9152e-04
11.500	23.250	2.7053e-04
11.500	23.500	9.6872e-05
11.500	23.750	1.3251e-05
11.500	24.000	2.0576e-06
11.750	17.000	6.6148e-04
11.750	17.250	9.4263e-04
11.750	17.500	1.3000e-03
11.750	17.750	1.7606e-03
11.750	18.000	2.3456e-03
11.750	18.250	2.9715e-03
11.750	18.500	3.5445e-03
11.750	18.750	4.0209e-03
11.750	19.000	4.3995e-03
11.750	19.250	4.6307e-03
11.750	19.500	4.7106e-03
11.750	19.750	4.7052e-03
11.750	20.000	4.6987e-03
11.750	20.250	4.7211e-03
11.750	20.500	4.7817e-03
11.750	20.750	4.9156e-03
11.750	21.000	5.1858e-03
11.750	21.250	6.3403e-03
11.750	21.500	5.6084e-03
11.750	21.750	4.1417e-03
11.750	22.000	3.1382e-03
11.750	22.250	2.2774e-03
11.750	22.500	1.5477e-03
11.750	22.750	1.0823e-03
11.750	23.000	7.4288e-04
11.750	23.250	4.8206e-04
11.750	23.500	2.4889e-04
11.750	23.750	8.2305e-05
11.750	24.000	1.0288e-05
12.000	17.000	6.4230e-04
12.000	17.250	8.8156e-04
12.000	17.500	1.1792e-03
12.000	17.750	1.5307e-03
12.000	18.000	1.9647e-03
12.000	18.250	2.4412e-03
12.000	18.500	2.9025e-03
12.000	18.750	3.2887e-03
12.000	19.000	3.5948e-03
12.000	19.250	3.8356e-03
12.000	19.500	3.9577e-03
12.000	19.750	3.9586e-03
12.000	20.000	3.9166e-03
12.000	20.250	3.8878e-03
12.000	20.500	3.8919e-03
12.000	20.750	3.9336e-03
12.000	21.000	4.0435e-03
12.000	21.250	4.2554e-03
12.000	21.500	5.1551e-03
12.000	21.750	4.3029e-03
12.000	22.000	3.0088e-03
12.000	22.250	2.4793e-03
12.000	22.500	1.7702e-03
12.000	22.750	1.8286e-03
12.000	23.000	8.8765e-04
12.000	23.250	6.4782e-04
12.000	23.500	4.5177e-04
12.000	23.750	2.1449e-04
12.000	24.000	6.5103e-05
12.250	17.000	5.9959e-04
12.250	17.250	8.3152e-04
12.250	17.500	1.0669e-03
12.250	17.750	1.3373e-03
12.250	18.000	1.6512e-03
12.250	18.250	2.0008e-03
12.250	18.500	2.3542e-03
12.250	18.750	2.6742e-03
12.250	19.000	2.9198e-03
12.250	19.250	3.1142e-03
12.250	19.500	3.2742e-03
12.250	19.750	3.3440e-03
12.250	20.000	3.3211e-03
12.250	20.250	3.2743e-03
12.250	20.500	3.2468e-03
12.250	20.750	3.2507e-03
12.250	21.000	3.2965e-03
12.250	21.250	3.3941e-03
12.250	21.500	3.5551e-03
12.250	21.750	4.9318e-03
12.250	22.000	3.3060e-03
12.250	22.250	2.2853e-03
12.250	22.500	1.5953e-03
12.250	22.750	1.6818e-03
12.250	23.000	1.3838e-03
12.250	23.250	8.1671e-04
12.250	23.500	5.3218e-04
12.250	23.750	3.8165e-04
12.250	24.000	1.7218e-04
12.500	17.000	5.8601e-04
12.500	17.250	7.7292e-04
12.500	17.500	9.8091e-04
12.500	17.750	1.1898e-03
12.500	18.000	1.4223e-03
12.500	18.250	1.6749e-03
12.500	18.500	1.9390e-03
12.500	18.750	2.1947e-03
12.500	19.000	2.4090e-03
12.500	19.250	2.5571e-03
12.500	19.500	2.6867e-03
12.500	19.750	2.8071e-03
12.500	20.000	2.8589e-03
12.500	20.250	2.8337e-03
12.500	20.500	2.7933e-03
12.500	20.750	2.7763e-03
12.500	21.000	2.7863e-03
12.500	21.250	2.8281e-03
12.500	21.500	2.9150e-03
12.500	21.750	3.0410e-03
12.500	22.000	4.3770e-03
12.500	22.250	2.7183e-03
12.500	22.500	1.9021e-03
12.500	22.750	1.4347e-03
12.500	23.000	1.5829e-03
12.500	23.250	7.8831e-04
12.500	23.500	6.2214e-04
12.500	23.750	4.1481e-04
12.500	24.000	3.1103e-04
12.750	17.000	5.5992e-04
12.750	17.250	7.2395e-04
12.750	17.500	9.1128e-04
12.750	17.750	1.0909e-03
12.750	18.000	1.2740e-03
12.750	18.250	1.4592e-03
12.750	18.500	1.6551e-03
12.750	18.750	1.8512e-03
12.750	19.000	2.0330e-03
12.750	19.250	2.1716e-03
12.750	19.500	2.2537e-03
12.750	19.750	2.3508e-03
12.750	20.000	2.4571e-03
12.750	20.250	2.5045e-03
12.750	20.500	2.4866e-03
12.750	20.750	2.4558e-03
12.750	21.000	2.4439e-03
12.750	21.250	2.4572e-03
12.750	21.500	2.4928e-03
12.750	21.750	2.5618e-03
12.750	22.000	2.6639e-03
12.750	22.250	3.1513e-03
12.750	22.500	2.9588e-03
12.750	22.750	1.4419e-03
12.750	23.000	1.2788e-03
12.750	23.250	1.0207e-03
12.750	23.500	5.7235e-04
12.750	23.750	4.7539e-04
12.750	24.000	3.2667e-04
13.000	17.000	5.3202e-04
13.000	17.250	6.8667e-04
13.000	17.500	8.2691e-04
13.000	17.750	1.0121e-03
13.000	18.000	1.1716e-03
13.000	18.250	1.3292e-03
13.000	18.500	1.4817e-03
13.000	18.750	1.6336e-03
13.000	19.000	1.7746e-03
13.000	19.250	1.8941e-03
13.000	19.500	1.9701e-03
13.000	19.750	2.0253e-03
13.000	20.000	2.1050e-03
13.000	20.250	2.2119e-03
13.000	20.500	2.2655e-03
13.000	20.750	2.2524e-03
13.000	21.000	2.2233e-03
13.000	21.250	2.2126e-03
13.000	21.500	2.2154e-03
13.000	21.750	2.2489e-03
13.000	22.000	2.2965e-03
13.000	22.250	2.3889e-03
13.000	22.500	3.0654e-03
13.000	22.750	4.3134e-03
13.000	23.000	1.5303e-03
13.000	23.250	1.3477e-03
13.000	23.500	9.3951e-04
13.000	23.750	4.3514e-04
13.000	24.000	3.5465e-04
13.250	17.000	5.4099e-04
13.250	17.250	6.4798e-04
13.250	17.500	7.8823e-04
13.250	17.750	9.2724e-04
13.250	18.000	1.1010e-03
13.250	18.250	1.2605e-03
13.250	18.500	1.3988e-03
13.250	18.750	1.5237e-03
13.250	19.000	1.6350e-03
13.250	19.250	1.7256e-03
13.250	19.500	1.7905e-03
13.250	19.750	1.8381e-03
13.250	20.000	1.8725e-03
13.250	20.250	1.9421e-03
13.250	20.500	2.0458e-03
13.250	20.750	2.1037e-03
13.250	21.000	2.0998e-03
13.250	21.250	2.0681e-03
13.250	21.500	2.0431e-03
13.250	21.750	2.0235e-03
13.250	22.000	2.0470e-03
13.250	22.250	2.0637e-03
13.250	22.500	2.2175e-03
13.250	22.750	3.7186e-03
13.250	23.000	1.4137e-03
13.250	23.250	1.1179e-03
13.250	23.500	1.5082e-03
13.250	23.750	6.3457e-04
13.250	24.000	4.3078e-04
13.500	17.000	5.5564e-04
13.500	17.250	6.5984e-04
13.500	17.500	7.6510e-04
13.500	17.750	8.9062e-04
13.500	18.000	1.0578e-03
13.500	18.250	1.2207e-03
13.500	18.500	1.3517e-03
13.500	18.750	1.4887e-03
13.500	19.000	1.5881e-03
13.500	19.250	1.6656e-03
13.500	19.500	1.7179e-03
13.500	19.750	1.7523e-03
13.500	20.000	1.7757e-03
13.500	20.250	1.8027e-03
13.500	20.500	1.8568e-03
13.500	20.750	1.9494e-03
13.500	21.000	2.0090e-03
13.500	21.250	2.0025e-03
13.500	21.500	1.9653e-03
13.500	21.750	1.9128e-03
13.500	22.000	1.8784e-03
13.500	22.250	1.8915e-03
13.500	22.500	1.8994e-03
13.500	22.750	2.0783e-03
13.500	23.000	2.7179e-03
13.500	23.250	1.6158e-03
13.500	23.500	9.8576e-04
13.500	23.750	7.7753e-04
13.500	24.000	4.3975e-04
13.750	17.000	5.2889e-04
13.750	17.250	6.4658e-04
13.750	17.500	7.7218e-04
13.750	17.750	8.8642e-04
13.750	18.000	1.0247e-03
13.750	18.250	1.1539e-03
13.750	18.500	1.3054e-03
13.750	18.750	1.4683e-03
13.750	19.000	1.5858e-03
13.750	19.250	1.6793e-03
13.750	19.500	1.7322e-03
13.750	19.750	1.7652e-03
13.750	20.000	1.7805e-03
13.750	20.250	1.7914e-03
13.750	20.500	1.8073e-03
13.750	20.750	1.8456e-03
13.750	21.000	1.9289e-03
13.750	21.250	1.9944e-03
13.750	21.500	1.9820e-03
13.750	21.750	1.9225e-03
13.750	22.000	1.8584e-03
13.750	22.250	1.8066e-03
13.750	22.500	1.7764e-03
13.750	22.750	1.7611e-03
13.750	23.000	2.0529e-03
13.750	23.250	1.7066e-03
13.750	23.500	1.2771e-03
13.750	23.750	1.0608e-03
13.750	24.000	4.5572e-04
14.000	17.000	5.2634e-04
14.000	17.250	6.3811e-04
14.000	17.500	7.5235e-04
14.000	17.750	8.9235e-04
14.000	18.000	1.0236e-03
14.000	18.250	1.1594e-03
14.000	18.500	1.3032e-03
14.000	18.750	1.4542e-03
14.000	19.000	1.5936e-03
14.000	19.250	1.7180e-03
14.000	19.500	1.7953e-03
14.000	19.750	1.8488e-03
14.000	20.000	1.8657e-03
14.000	20.250	1.8695e-03
14.000	20.500	1.8719e-03
14.000	20.750	1.8793e-03
14.000	21.000	1.9083e-03
14.000	21.250	1.9906e-03
14.000	21.500	2.0693e-03
14.000	21.750	2.0670e-03
14.000	22.000	1.9968e-03
14.000	22.250	1.9017e-03
14.000	22.500	1.8133e-03
14.000	22.750	1.7472e-03
14.000	23.000	1.6937e-03
14.000	23.250	1.9826e-03
14.000	23.500	1.3389e-03
14.000	23.750	8.6617e-04
14.000	24.000	5.9959e-04
