nFnu 760.023A  relative to Inci 1215.00A scaled to 1215A.
Hden   Phi(H)  Eq_Width (A)
 7.000	17.000	1.6944e-01
 7.000	17.250	1.9159e-01
 7.000	17.500	3.9001e-01
 7.000	17.750	2.8903e-01
 7.000	18.000	1.6128e-01
 7.000	18.250	1.0357e-01
 7.000	18.500	8.4596e-02
 7.000	18.750	7.9839e-02
 7.000	19.000	7.7668e-02
 7.000	19.250	7.6438e-02
 7.000	19.500	7.5887e-02
 7.000	19.750	7.5646e-02
 7.000	20.000	7.5538e-02
 7.000	20.250	7.5487e-02
 7.000	20.500	7.5461e-02
 7.000	20.750	7.5448e-02
 7.000	21.000	7.5441e-02
 7.000	21.250	7.5437e-02
 7.000	21.500	7.5435e-02
 7.000	21.750	7.5434e-02
 7.000	22.000	7.5433e-02
 7.000	22.250	7.5433e-02
 7.000	22.500	7.5434e-02
 7.000	22.750	7.5442e-02
 7.000	23.000	7.5435e-02
 7.000	23.250	7.5436e-02
 7.000	23.500	7.5436e-02
 7.000	23.750	7.5436e-02
 7.000	24.000	7.5437e-02
 7.250	17.000	1.5706e-01
 7.250	17.250	1.6989e-01
 7.250	17.500	1.9269e-01
 7.250	17.750	3.9139e-01
 7.250	18.000	2.8812e-01
 7.250	18.250	1.6065e-01
 7.250	18.500	1.0340e-01
 7.250	18.750	8.4539e-02
 7.250	19.000	7.9816e-02
 7.250	19.250	7.7659e-02
 7.250	19.500	7.6437e-02
 7.250	19.750	7.5887e-02
 7.250	20.000	7.5646e-02
 7.250	20.250	7.5538e-02
 7.250	20.500	7.5487e-02
 7.250	20.750	7.5461e-02
 7.250	21.000	7.5448e-02
 7.250	21.250	7.5440e-02
 7.250	21.500	7.5436e-02
 7.250	21.750	7.5435e-02
 7.250	22.000	7.5433e-02
 7.250	22.250	7.5432e-02
 7.250	22.500	7.5432e-02
 7.250	22.750	7.5432e-02
 7.250	23.000	7.5432e-02
 7.250	23.250	7.5433e-02
 7.250	23.500	7.5433e-02
 7.250	23.750	7.5433e-02
 7.250	24.000	7.5433e-02
 7.500	17.000	1.4929e-01
 7.500	17.250	1.5730e-01
 7.500	17.500	1.7021e-01
 7.500	17.750	1.9377e-01
 7.500	18.000	3.9265e-01
 7.500	18.250	2.8749e-01
 7.500	18.500	1.6008e-01
 7.500	18.750	1.0329e-01
 7.500	19.000	8.4503e-02
 7.500	19.250	7.9801e-02
 7.500	19.500	7.7653e-02
 7.500	19.750	7.6436e-02
 7.500	20.000	7.5887e-02
 7.500	20.250	7.5646e-02
 7.500	20.500	7.5538e-02
 7.500	20.750	7.5487e-02
 7.500	21.000	7.5461e-02
 7.500	21.250	7.5448e-02
 7.500	21.500	7.5440e-02
 7.500	21.750	7.5436e-02
 7.500	22.000	7.5434e-02
 7.500	22.250	7.5433e-02
 7.500	22.500	7.5432e-02
 7.500	22.750	7.5432e-02
 7.500	23.000	7.5432e-02
 7.500	23.250	7.5432e-02
 7.500	23.500	7.5432e-02
 7.500	23.750	7.5432e-02
 7.500	24.000	7.5432e-02
 7.750	17.000	1.4206e-01
 7.750	17.250	1.4946e-01
 7.750	17.500	1.5742e-01
 7.750	17.750	1.7046e-01
 7.750	18.000	1.9471e-01
 7.750	18.250	3.9381e-01
 7.750	18.500	2.8704e-01
 7.750	18.750	1.5958e-01
 7.750	19.000	1.0320e-01
 7.750	19.250	8.4482e-02
 7.750	19.500	7.9792e-02
 7.750	19.750	7.7650e-02
 7.750	20.000	7.6435e-02
 7.750	20.250	7.5887e-02
 7.750	20.500	7.5646e-02
 7.750	20.750	7.5538e-02
 7.750	21.000	7.5487e-02
 7.750	21.250	7.5461e-02
 7.750	21.500	7.5448e-02
 7.750	21.750	7.5440e-02
 7.750	22.000	7.5436e-02
 7.750	22.250	7.5434e-02
 7.750	22.500	7.5433e-02
 7.750	22.750	7.5432e-02
 7.750	23.000	7.5432e-02
 7.750	23.250	7.5432e-02
 7.750	23.500	7.5431e-02
 7.750	23.750	7.5432e-02
 7.750	24.000	7.5431e-02
 8.000	17.000	1.3364e-01
 8.000	17.250	1.4136e-01
 8.000	17.500	1.4875e-01
 8.000	17.750	1.5700e-01
 8.000	18.000	1.7024e-01
 8.000	18.250	1.9423e-01
 8.000	18.500	3.9397e-01
 8.000	18.750	2.8666e-01
 8.000	19.000	1.5900e-01
 8.000	19.250	1.0313e-01
 8.000	19.500	8.4473e-02
 8.000	19.750	7.9788e-02
 8.000	20.000	7.7649e-02
 8.000	20.250	7.6434e-02
 8.000	20.500	7.5886e-02
 8.000	20.750	7.5646e-02
 8.000	21.000	7.5538e-02
 8.000	21.250	7.5487e-02
 8.000	21.500	7.5461e-02
 8.000	21.750	7.5448e-02
 8.000	22.000	7.5440e-02
 8.000	22.250	7.5436e-02
 8.000	22.500	7.5434e-02
 8.000	22.750	7.5433e-02
 8.000	23.000	7.5432e-02
 8.000	23.250	7.5432e-02
 8.000	23.500	7.5431e-02
 8.000	23.750	7.5431e-02
 8.000	24.000	7.5432e-02
 8.250	17.000	1.2569e-01
 8.250	17.250	1.3360e-01
 8.250	17.500	1.4131e-01
 8.250	17.750	1.4876e-01
 8.250	18.000	1.5715e-01
 8.250	18.250	1.7062e-01
 8.250	18.500	1.9521e-01
 8.250	18.750	3.9489e-01
 8.250	19.000	2.8638e-01
 8.250	19.250	1.5838e-01
 8.250	19.500	1.0307e-01
 8.250	19.750	8.4471e-02
 8.250	20.000	7.9788e-02
 8.250	20.250	7.7648e-02
 8.250	20.500	7.6434e-02
 8.250	20.750	7.5886e-02
 8.250	21.000	7.5645e-02
 8.250	21.250	7.5538e-02
 8.250	21.500	7.5487e-02
 8.250	21.750	7.5461e-02
 8.250	22.000	7.5448e-02
 8.250	22.250	7.5440e-02
 8.250	22.500	7.5436e-02
 8.250	22.750	7.5434e-02
 8.250	23.000	7.5433e-02
 8.250	23.250	7.5432e-02
 8.250	23.500	7.5432e-02
 8.250	23.750	7.5432e-02
 8.250	24.000	7.5432e-02
 8.500	17.000	1.1796e-01
 8.500	17.250	1.2558e-01
 8.500	17.500	1.3354e-01
 8.500	17.750	1.4134e-01
 8.500	18.000	1.4908e-01
 8.500	18.250	1.5751e-01
 8.500	18.500	1.7111e-01
 8.500	18.750	1.9695e-01
 8.500	19.000	3.9602e-01
 8.500	19.250	2.8603e-01
 8.500	19.500	1.5765e-01
 8.500	19.750	1.0302e-01
 8.500	20.000	8.4476e-02
 8.500	20.250	7.9790e-02
 8.500	20.500	7.7649e-02
 8.500	20.750	7.6434e-02
 8.500	21.000	7.5886e-02
 8.500	21.250	7.5646e-02
 8.500	21.500	7.5538e-02
 8.500	21.750	7.5487e-02
 8.500	22.000	7.5461e-02
 8.500	22.250	7.5448e-02
 8.500	22.500	7.5440e-02
 8.500	22.750	7.5436e-02
 8.500	23.000	7.5434e-02
 8.500	23.250	7.5433e-02
 8.500	23.500	7.5432e-02
 8.500	23.750	7.5432e-02
 8.500	24.000	7.5432e-02
 8.750	17.000	1.1097e-01
 8.750	17.250	1.1783e-01
 8.750	17.500	1.2556e-01
 8.750	17.750	1.3369e-01
 8.750	18.000	1.4177e-01
 8.750	18.250	1.4959e-01
 8.750	18.500	1.5807e-01
 8.750	18.750	1.7219e-01
 8.750	19.000	2.0078e-01
 8.750	19.250	3.9742e-01
 8.750	19.500	2.8567e-01
 8.750	19.750	1.5685e-01
 8.750	20.000	1.0297e-01
 8.750	20.250	8.4484e-02
 8.750	20.500	7.9795e-02
 8.750	20.750	7.7650e-02
 8.750	21.000	7.6435e-02
 8.750	21.250	7.5886e-02
 8.750	21.500	7.5646e-02
 8.750	21.750	7.5538e-02
 8.750	22.000	7.5487e-02
 8.750	22.250	7.5461e-02
 8.750	22.500	7.5448e-02
 8.750	22.750	7.5440e-02
 8.750	23.000	7.5437e-02
 8.750	23.250	7.5434e-02
 8.750	23.500	7.5433e-02
 8.750	23.750	7.5432e-02
 8.750	24.000	7.5432e-02
 9.000	17.000	1.0437e-01
 9.000	17.250	1.1112e-01
 9.000	17.500	1.1807e-01
 9.000	17.750	1.2608e-01
 9.000	18.000	1.3445e-01
 9.000	18.250	1.4262e-01
 9.000	18.500	1.5059e-01
 9.000	18.750	1.5952e-01
 9.000	19.000	1.7449e-01
 9.000	19.250	2.1211e-01
 9.000	19.500	3.9989e-01
 9.000	19.750	2.8536e-01
 9.000	20.000	1.5609e-01
 9.000	20.250	1.0291e-01
 9.000	20.500	8.4496e-02
 9.000	20.750	7.9800e-02
 9.000	21.000	7.7652e-02
 9.000	21.250	7.6435e-02
 9.000	21.500	7.5887e-02
 9.000	21.750	7.5646e-02
 9.000	22.000	7.5538e-02
 9.000	22.250	7.5487e-02
 9.000	22.500	7.5461e-02
 9.000	22.750	7.5448e-02
 9.000	23.000	7.5440e-02
 9.000	23.250	7.5436e-02
 9.000	23.500	7.5434e-02
 9.000	23.750	7.5433e-02
 9.000	24.000	7.5432e-02
 9.250	17.000	9.6881e-02
 9.250	17.250	1.0488e-01
 9.250	17.500	1.1198e-01
 9.250	17.750	1.1931e-01
 9.250	18.000	1.2738e-01
 9.250	18.250	1.3578e-01
 9.250	18.500	1.4417e-01
 9.250	18.750	1.5288e-01
 9.250	19.000	1.6313e-01
 9.250	19.250	1.8015e-01
 9.250	19.500	2.5100e-01
 9.250	19.750	4.0521e-01
 9.250	20.000	2.8516e-01
 9.250	20.250	1.5533e-01
 9.250	20.500	1.0286e-01
 9.250	20.750	8.4512e-02
 9.250	21.000	7.9808e-02
 9.250	21.250	7.7655e-02
 9.250	21.500	7.6427e-02
 9.250	21.750	7.5850e-02
 9.250	22.000	7.5606e-02
 9.250	22.250	7.5501e-02
 9.250	22.500	7.5486e-02
 9.250	22.750	7.5461e-02
 9.250	23.000	7.5447e-02
 9.250	23.250	7.5440e-02
 9.250	23.500	7.5436e-02
 9.250	23.750	7.5434e-02
 9.250	24.000	7.5433e-02
 9.500	17.000	8.7595e-02
 9.500	17.250	9.8059e-02
 9.500	17.500	1.0679e-01
 9.500	17.750	1.1435e-01
 9.500	18.000	1.2158e-01
 9.500	18.250	1.2959e-01
 9.500	18.500	1.3833e-01
 9.500	18.750	1.4794e-01
 9.500	19.000	1.5847e-01
 9.500	19.250	1.7165e-01
 9.500	19.500	1.9191e-01
 9.500	19.750	3.2023e-01
 9.500	20.000	4.1452e-01
 9.500	20.250	2.8519e-01
 9.500	20.500	1.5466e-01
 9.500	20.750	1.0283e-01
 9.500	21.000	8.4506e-02
 9.500	21.250	7.9773e-02
 9.500	21.500	7.7614e-02
 9.500	21.750	7.6390e-02
 9.500	22.000	7.5826e-02
 9.500	22.250	7.5574e-02
 9.500	22.500	7.5469e-02
 9.500	22.750	7.5419e-02
 9.500	23.000	7.5392e-02
 9.500	23.250	7.5378e-02
 9.500	23.500	7.5393e-02
 9.500	23.750	7.5389e-02
 9.500	24.000	7.5387e-02
 9.750	17.000	7.5750e-02
 9.750	17.250	8.9289e-02
 9.750	17.500	1.0106e-01
 9.750	17.750	1.1051e-01
 9.750	18.000	1.1789e-01
 9.750	18.250	1.2512e-01
 9.750	18.500	1.3390e-01
 9.750	18.750	1.4447e-01
 9.750	19.000	1.5718e-01
 9.750	19.250	1.7157e-01
 9.750	19.500	1.8884e-01
 9.750	19.750	2.1879e-01
 9.750	20.000	4.0077e-01
 9.750	20.250	4.3490e-01
 9.750	20.500	2.8562e-01
 9.750	20.750	1.5414e-01
 9.750	21.000	1.0281e-01
 9.750	21.250	8.4540e-02
 9.750	21.500	7.9808e-02
 9.750	21.750	7.7622e-02
 9.750	22.000	7.6394e-02
 9.750	22.250	7.5835e-02
 9.750	22.500	7.5581e-02
 9.750	22.750	7.5466e-02
 9.750	23.000	7.5417e-02
 9.750	23.250	7.5392e-02
 9.750	23.500	7.5379e-02
 9.750	23.750	7.5372e-02
 9.750	24.000	7.5368e-02
10.000	17.000	5.8581e-02
10.000	17.250	7.7715e-02
10.000	17.500	9.3180e-02
10.000	17.750	1.0597e-01
10.000	18.000	1.1571e-01
10.000	18.250	1.2348e-01
10.000	18.500	1.3219e-01
10.000	18.750	1.4396e-01
10.000	19.000	1.5900e-01
10.000	19.250	1.7646e-01
10.000	19.500	1.9524e-01
10.000	19.750	2.1762e-01
10.000	20.000	2.5469e-01
10.000	20.250	4.8677e-01
10.000	20.500	4.5515e-01
10.000	20.750	2.8683e-01
10.000	21.000	1.5377e-01
10.000	21.250	1.0283e-01
10.000	21.500	8.4568e-02
10.000	21.750	7.9832e-02
10.000	22.000	7.7642e-02
10.000	22.250	7.6397e-02
10.000	22.500	7.5842e-02
10.000	22.750	7.5591e-02
10.000	23.000	7.5474e-02
10.000	23.250	7.5418e-02
10.000	23.500	7.5389e-02
10.000	23.750	7.5376e-02
10.000	24.000	7.5369e-02
10.250	17.000	4.6195e-02
10.250	17.250	6.0932e-02
10.250	17.500	8.2124e-02
10.250	17.750	9.9069e-02
10.250	18.000	1.1305e-01
10.250	18.250	1.2467e-01
10.250	18.500	1.3554e-01
10.250	18.750	1.4916e-01
10.250	19.000	1.6640e-01
10.250	19.250	1.8675e-01
10.250	19.500	2.0892e-01
10.250	19.750	2.3217e-01
10.250	20.000	2.5884e-01
10.250	20.250	4.8938e-01
10.250	20.500	5.5787e-01
10.250	20.750	4.7992e-01
10.250	21.000	2.8895e-01
10.250	21.250	1.5362e-01
10.250	21.500	1.0288e-01
10.250	21.750	8.4597e-02
10.250	22.000	7.9850e-02
10.250	22.250	7.7664e-02
10.250	22.500	7.6399e-02
10.250	22.750	7.5846e-02
10.250	23.000	7.5598e-02
10.250	23.250	7.5484e-02
10.250	23.500	7.5428e-02
10.250	23.750	7.5398e-02
10.250	24.000	7.5383e-02
10.500	17.000	3.6236e-02
10.500	17.250	4.8265e-02
10.500	17.500	6.5345e-02
10.500	17.750	8.9069e-02
10.500	18.000	1.0884e-01
10.500	18.250	1.2716e-01
10.500	18.500	1.4466e-01
10.500	18.750	1.6235e-01
10.500	19.000	1.8200e-01
10.500	19.250	2.0431e-01
10.500	19.500	2.2875e-01
10.500	19.750	2.5424e-01
10.500	20.000	2.8147e-01
10.500	20.250	3.3528e-01
10.500	20.500	6.9572e-01
10.500	20.750	6.3024e-01
10.500	21.000	4.9610e-01
10.500	21.250	2.9171e-01
10.500	21.500	1.5376e-01
10.500	21.750	1.0299e-01
10.500	22.000	8.4632e-02
10.500	22.250	7.9869e-02
10.500	22.500	7.7677e-02
10.500	22.750	7.6408e-02
10.500	23.000	7.5848e-02
10.500	23.250	7.5603e-02
10.500	23.500	7.5491e-02
10.500	23.750	7.5436e-02
10.500	24.000	7.5408e-02
10.750	17.000	2.9410e-02
10.750	17.250	3.8172e-02
10.750	17.500	5.2553e-02
10.750	17.750	7.4718e-02
10.750	18.000	1.0247e-01
10.750	18.250	1.3095e-01
10.750	18.500	1.5789e-01
10.750	18.750	1.8301e-01
10.750	19.000	2.0608e-01
10.750	19.250	2.2934e-01
10.750	19.500	2.5440e-01
10.750	19.750	2.8114e-01
10.750	20.000	3.0888e-01
10.750	20.250	3.3944e-01
10.750	20.500	5.8842e-01
10.750	20.750	8.8713e-01
10.750	21.000	7.0282e-01
10.750	21.250	5.1998e-01
10.750	21.500	2.9462e-01
10.750	21.750	1.5423e-01
10.750	22.000	1.0323e-01
10.750	22.250	8.4678e-02
10.750	22.500	7.9892e-02
10.750	22.750	7.7688e-02
10.750	23.000	7.6429e-02
10.750	23.250	7.5850e-02
10.750	23.500	7.5606e-02
10.750	23.750	7.5495e-02
10.750	24.000	7.5442e-02
11.000	17.000	2.5068e-02
11.000	17.250	3.1297e-02
11.000	17.500	4.1975e-02
11.000	17.750	6.1846e-02
11.000	18.000	9.2984e-02
11.000	18.250	1.3136e-01
11.000	18.500	1.7087e-01
11.000	18.750	2.0535e-01
11.000	19.000	2.3415e-01
11.000	19.250	2.5913e-01
11.000	19.500	2.8357e-01
11.000	19.750	3.0986e-01
11.000	20.000	3.3774e-01
11.000	20.250	3.6667e-01
11.000	20.500	4.0108e-01
11.000	20.750	9.6389e-01
11.000	21.000	9.2215e-01
11.000	21.250	7.6493e-01
11.000	21.500	5.3088e-01
11.000	21.750	2.9573e-01
11.000	22.000	1.5498e-01
11.000	22.250	1.0353e-01
11.000	22.500	8.4741e-02
11.000	22.750	7.9924e-02
11.000	23.000	7.7703e-02
11.000	23.250	7.6441e-02
11.000	23.500	7.5857e-02
11.000	23.750	7.5608e-02
11.000	24.000	7.5498e-02
11.250	17.000	2.1994e-02
11.250	17.250	2.6850e-02
11.250	17.500	3.4856e-02
11.250	17.750	5.0832e-02
11.250	18.000	8.1282e-02
11.250	18.250	1.2528e-01
11.250	18.500	1.7454e-01
11.250	18.750	2.2082e-01
11.250	19.000	2.5760e-01
11.250	19.250	2.8692e-01
11.250	19.500	3.1234e-01
11.250	19.750	3.3769e-01
11.250	20.000	3.6486e-01
11.250	20.250	3.9355e-01
11.250	20.500	4.2408e-01
11.250	20.750	4.6206e-01
11.250	21.000	1.1442e+00
11.250	21.250	1.0401e+00
11.250	21.500	8.1678e-01
11.250	21.750	5.4902e-01
11.250	22.000	2.9666e-01
11.250	22.250	1.5585e-01
11.250	22.500	1.0406e-01
11.250	22.750	8.4832e-02
11.250	23.000	7.9967e-02
11.250	23.250	7.7723e-02
11.250	23.500	7.6449e-02
11.250	23.750	7.5877e-02
11.250	24.000	7.5610e-02
11.500	17.000	1.9695e-02
11.500	17.250	2.3865e-02
11.500	17.500	3.0420e-02
11.500	17.750	4.3069e-02
11.500	18.000	6.8922e-02
11.500	18.250	1.1165e-01
11.500	18.500	1.6512e-01
11.500	18.750	2.2049e-01
11.500	19.000	2.6907e-01
11.500	19.250	3.0540e-01
11.500	19.500	3.3416e-01
11.500	19.750	3.6111e-01
11.500	20.000	3.8803e-01
11.500	20.250	4.1574e-01
11.500	20.500	4.4481e-01
11.500	20.750	4.7743e-01
11.500	21.000	5.1766e-01
11.500	21.250	1.3283e+00
11.500	21.500	1.1801e+00
11.500	21.750	8.5304e-01
11.500	22.000	5.5788e-01
11.500	22.250	2.9596e-01
11.500	22.500	1.5654e-01
11.500	22.750	1.0459e-01
11.500	23.000	8.4959e-02
11.500	23.250	8.0029e-02
11.500	23.500	7.7749e-02
11.500	23.750	7.6455e-02
11.500	24.000	7.5888e-02
11.750	17.000	1.7787e-02
11.750	17.250	2.1585e-02
11.750	17.500	2.7428e-02
11.750	17.750	3.7836e-02
11.750	18.000	5.8079e-02
11.750	18.250	9.3981e-02
11.750	18.500	1.4460e-01
11.750	18.750	2.0320e-01
11.750	19.000	2.6138e-01
11.750	19.250	3.1012e-01
11.750	19.500	3.4540e-01
11.750	19.750	3.7464e-01
11.750	20.000	4.0351e-01
11.750	20.250	4.3303e-01
11.750	20.500	4.6219e-01
11.750	20.750	4.9274e-01
11.750	21.000	5.3024e-01
11.750	21.250	6.8187e-01
11.750	21.500	1.4537e+00
11.750	21.750	1.2609e+00
11.750	22.000	9.0132e-01
11.750	22.250	5.4993e-01
11.750	22.500	2.9194e-01
11.750	22.750	1.5709e-01
11.750	23.000	1.0520e-01
11.750	23.250	8.5124e-02
11.750	23.500	8.0108e-02
11.750	23.750	7.7781e-02
11.750	24.000	7.6462e-02
12.000	17.000	1.6150e-02
12.000	17.250	1.9770e-02
12.000	17.500	2.5096e-02
12.000	17.750	3.4079e-02
12.000	18.000	4.9792e-02
12.000	18.250	7.7161e-02
12.000	18.500	1.1878e-01
12.000	18.750	1.7306e-01
12.000	19.000	2.3496e-01
12.000	19.250	2.9512e-01
12.000	19.500	3.4338e-01
12.000	19.750	3.7822e-01
12.000	20.000	4.0983e-01
12.000	20.250	4.4194e-01
12.000	20.500	4.7427e-01
12.000	20.750	5.0653e-01
12.000	21.000	5.4284e-01
12.000	21.250	5.8946e-01
12.000	21.500	1.0830e+00
12.000	21.750	1.6115e+00
12.000	22.000	1.3459e+00
12.000	22.250	9.3926e-01
12.000	22.500	5.3765e-01
12.000	22.750	2.8436e-01
12.000	23.000	1.5718e-01
12.000	23.250	1.0576e-01
12.000	23.500	8.5323e-02
12.000	23.750	8.0195e-02
12.000	24.000	7.7815e-02
12.250	17.000	1.5402e-02
12.250	17.250	1.8457e-02
12.250	17.500	2.3077e-02
12.250	17.750	3.1057e-02
12.250	18.000	4.3704e-02
12.250	18.250	6.4122e-02
12.250	18.500	9.5486e-02
12.250	18.750	1.3929e-01
12.250	19.000	1.9587e-01
12.250	19.250	2.6093e-01
12.250	19.500	3.2322e-01
12.250	19.750	3.7175e-01
12.250	20.000	4.0849e-01
12.250	20.250	4.4299e-01
12.250	20.500	4.7861e-01
12.250	20.750	5.1546e-01
12.250	21.000	5.5749e-01
12.250	21.250	6.0257e-01
12.250	21.500	6.4865e-01
12.250	21.750	1.3523e+00
12.250	22.000	1.7617e+00
12.250	22.250	1.4241e+00
12.250	22.500	9.5571e-01
12.250	22.750	5.2049e-01
12.250	23.000	2.7792e-01
12.250	23.250	1.5642e-01
12.250	23.500	1.0626e-01
12.250	23.750	8.5489e-02
12.250	24.000	8.0276e-02
12.500	17.000	1.3891e-02
12.500	17.250	1.7649e-02
12.500	17.500	2.1928e-02
12.500	17.750	2.8548e-02
12.500	18.000	3.9157e-02
12.500	18.250	5.4731e-02
12.500	18.500	7.7999e-02
12.500	18.750	1.1103e-01
12.500	19.000	1.5609e-01
12.500	19.250	2.1440e-01
12.500	19.500	2.8285e-01
12.500	19.750	3.4725e-01
12.500	20.000	3.9822e-01
12.500	20.250	4.3789e-01
12.500	20.500	4.7626e-01
12.500	20.750	5.1955e-01
12.500	21.000	5.6758e-01
12.500	21.250	6.1658e-01
12.500	21.500	6.6442e-01
12.500	21.750	7.2297e-01
12.500	22.000	1.6698e+00
12.500	22.250	1.9100e+00
12.500	22.500	1.4834e+00
12.500	22.750	9.4461e-01
12.500	23.000	5.0215e-01
12.500	23.250	2.6811e-01
12.500	23.500	1.5544e-01
12.500	23.750	1.0659e-01
12.500	24.000	8.5648e-02
12.750	17.000	1.2428e-02
12.750	17.250	1.6268e-02
12.750	17.500	2.0876e-02
12.750	17.750	2.7393e-02
12.750	18.000	3.6120e-02
12.750	18.250	4.8187e-02
12.750	18.500	6.5692e-02
12.750	18.750	9.0095e-02
12.750	19.000	1.2367e-01
12.750	19.250	1.7014e-01
12.750	19.500	2.3050e-01
12.750	19.750	3.0237e-01
12.750	20.000	3.6966e-01
12.750	20.250	4.2419e-01
12.750	20.500	4.7007e-01
12.750	20.750	5.1619e-01
12.750	21.000	5.7011e-01
12.750	21.250	6.3144e-01
12.750	21.500	6.8328e-01
12.750	21.750	7.4008e-01
12.750	22.000	8.1493e-01
12.750	22.250	2.0928e+00
12.750	22.500	2.0867e+00
12.750	22.750	1.5146e+00
12.750	23.000	9.1509e-01
12.750	23.250	4.7930e-01
12.750	23.500	2.5860e-01
12.750	23.750	1.5406e-01
12.750	24.000	1.0669e-01
13.000	17.000	1.0896e-02
13.000	17.250	1.4554e-02
13.000	17.500	1.9399e-02
13.000	17.750	2.5180e-02
13.000	18.000	3.3164e-02
13.000	18.250	4.3567e-02
13.000	18.500	5.7443e-02
13.000	18.750	7.5919e-02
13.000	19.000	1.0058e-01
13.000	19.250	1.3416e-01
13.000	19.500	1.8068e-01
13.000	19.750	2.4373e-01
13.000	20.000	3.1721e-01
13.000	20.250	3.9044e-01
13.000	20.500	4.5400e-01
13.000	20.750	5.0791e-01
13.000	21.000	5.6584e-01
13.000	21.250	6.3641e-01
13.000	21.500	7.0057e-01
13.000	21.750	7.6571e-01
13.000	22.000	8.2922e-01
13.000	22.250	9.2026e-01
13.000	22.500	2.4508e+00
13.000	22.750	2.1830e+00
13.000	23.000	1.5133e+00
13.000	23.250	8.7487e-01
13.000	23.500	4.5713e-01
13.000	23.750	2.4905e-01
13.000	24.000	1.5192e-01
13.250	17.000	9.4315e-03
13.250	17.250	1.3075e-02
13.250	17.500	1.7403e-02
13.250	17.750	2.3107e-02
13.250	18.000	3.0226e-02
13.250	18.250	3.9612e-02
13.250	18.500	5.1627e-02
13.250	18.750	6.6686e-02
13.250	19.000	8.5624e-02
13.250	19.250	1.1015e-01
13.250	19.500	1.4319e-01
13.250	19.750	1.9007e-01
13.250	20.000	2.5351e-01
13.250	20.250	3.2984e-01
13.250	20.500	4.0904e-01
13.250	20.750	4.7963e-01
13.250	21.000	5.5342e-01
13.250	21.250	6.2246e-01
13.250	21.500	6.9548e-01
13.250	21.750	7.5207e-01
13.250	22.000	8.3823e-01
13.250	22.250	8.9397e-01
13.250	22.500	1.1321e+00
13.250	22.750	2.5723e+00
13.250	23.000	2.3042e+00
13.250	23.250	1.4893e+00
13.250	23.500	8.3532e-01
13.250	23.750	4.3505e-01
13.250	24.000	2.3977e-01
13.500	17.000	8.0292e-03
13.500	17.250	1.1088e-02
13.500	17.500	1.5635e-02
13.500	17.750	2.0863e-02
13.500	18.000	2.7507e-02
13.500	18.250	3.6015e-02
13.500	18.500	4.7004e-02
13.500	18.750	6.0569e-02
13.500	19.000	7.6667e-02
13.500	19.250	9.6079e-02
13.500	19.500	1.2092e-01
13.500	19.750	1.5457e-01
13.500	20.000	2.0144e-01
13.500	20.250	2.6600e-01
13.500	20.500	3.4450e-01
13.500	20.750	4.2519e-01
13.500	21.000	4.9972e-01
13.500	21.250	5.7598e-01
13.500	21.500	6.5167e-01
13.500	21.750	7.1675e-01
13.500	22.000	7.8676e-01
13.500	22.250	8.9561e-01
13.500	22.500	9.7984e-01
13.500	22.750	1.5920e+00
13.500	23.000	2.8981e+00
13.500	23.250	2.2481e+00
13.500	23.500	1.4353e+00
13.500	23.750	7.8692e-01
13.500	24.000	4.1269e-01
13.750	17.000	6.9660e-03
13.750	17.250	9.4439e-03
13.750	17.500	1.3792e-02
13.750	17.750	1.8680e-02
13.750	18.000	2.4872e-02
13.750	18.250	3.2860e-02
13.750	18.500	4.2914e-02
13.750	18.750	5.5530e-02
13.750	19.000	7.0759e-02
13.750	19.250	8.8315e-02
13.750	19.500	1.0911e-01
13.750	19.750	1.3547e-01
13.750	20.000	1.7097e-01
13.750	20.250	2.1956e-01
13.750	20.500	2.8515e-01
13.750	20.750	3.6434e-01
13.750	21.000	4.4512e-01
13.750	21.250	5.1728e-01
13.750	21.500	5.8358e-01
13.750	21.750	6.5134e-01
13.750	22.000	7.2786e-01
13.750	22.250	8.2144e-01
13.750	22.500	9.2603e-01
13.750	22.750	1.0358e+00
13.750	23.000	2.2109e+00
13.750	23.250	3.1170e+00
13.750	23.500	2.2064e+00
13.750	23.750	1.3847e+00
13.750	24.000	7.4206e-01
14.000	17.000	6.0567e-03
14.000	17.250	8.2468e-03
14.000	17.500	1.1362e-02
14.000	17.750	1.6634e-02
14.000	18.000	2.2445e-02
14.000	18.250	2.9930e-02
14.000	18.500	3.9471e-02
14.000	18.750	5.1362e-02
14.000	19.000	6.5867e-02
14.000	19.250	8.3023e-02
14.000	19.500	1.0264e-01
14.000	19.750	1.2564e-01
14.000	20.000	1.5439e-01
14.000	20.250	1.9256e-01
14.000	20.500	2.4428e-01
14.000	20.750	3.1166e-01
14.000	21.000	3.9252e-01
14.000	21.250	4.7538e-01
14.000	21.500	5.4141e-01
14.000	21.750	6.0469e-01
14.000	22.000	6.7283e-01
14.000	22.250	7.5989e-01
14.000	22.500	8.7144e-01
14.000	22.750	9.9879e-01
14.000	23.000	1.1193e+00
14.000	23.250	2.8206e+00
14.000	23.500	3.2115e+00
14.000	23.750	2.2021e+00
14.000	24.000	1.3441e+00
