InwT 1240.00A  relative to Inci 1215.00A scaled to 1215A.
Hden   Phi(H)  Eq_Width (A)
 7.000	17.000	7.7673e-01
 7.000	17.250	9.9405e-02
 7.000	17.500	1.0083e-01
 7.000	17.750	9.7326e-02
 7.000	18.000	8.9555e-02
 7.000	18.250	8.4085e-02
 7.000	18.500	8.0489e-02
 7.000	18.750	7.8830e-02
 7.000	19.000	7.7988e-02
 7.000	19.250	7.7503e-02
 7.000	19.500	7.7300e-02
 7.000	19.750	7.7215e-02
 7.000	20.000	7.7178e-02
 7.000	20.250	7.7161e-02
 7.000	20.500	7.7152e-02
 7.000	20.750	7.7148e-02
 7.000	21.000	7.7145e-02
 7.000	21.250	7.7144e-02
 7.000	21.500	7.7144e-02
 7.000	21.750	7.7143e-02
 7.000	22.000	7.7144e-02
 7.000	22.250	7.7144e-02
 7.000	22.500	7.7144e-02
 7.000	22.750	7.7153e-02
 7.000	23.000	7.7146e-02
 7.000	23.250	7.7147e-02
 7.000	23.500	7.7147e-02
 7.000	23.750	7.7147e-02
 7.000	24.000	7.7147e-02
 7.250	17.000	9.2135e-01
 7.250	17.250	7.6066e-01
 7.250	17.500	9.8642e-02
 7.250	17.750	1.0063e-01
 7.250	18.000	9.7204e-02
 7.250	18.250	8.9493e-02
 7.250	18.500	8.4055e-02
 7.250	18.750	8.0478e-02
 7.250	19.000	7.8826e-02
 7.250	19.250	7.7987e-02
 7.250	19.500	7.7503e-02
 7.250	19.750	7.7300e-02
 7.250	20.000	7.7215e-02
 7.250	20.250	7.7178e-02
 7.250	20.500	7.7161e-02
 7.250	20.750	7.7152e-02
 7.250	21.000	7.7147e-02
 7.250	21.250	7.7145e-02
 7.250	21.500	7.7144e-02
 7.250	21.750	7.7143e-02
 7.250	22.000	7.7143e-02
 7.250	22.250	7.7143e-02
 7.250	22.500	7.7143e-02
 7.250	22.750	7.7143e-02
 7.250	23.000	7.7143e-02
 7.250	23.250	7.7143e-02
 7.250	23.500	7.7143e-02
 7.250	23.750	7.7143e-02
 7.250	24.000	7.7144e-02
 7.500	17.000	9.7030e-01
 7.500	17.250	9.1233e-01
 7.500	17.500	7.4467e-01
 7.500	17.750	9.7951e-02
 7.500	18.000	1.0051e-01
 7.500	18.250	9.7137e-02
 7.500	18.500	8.9458e-02
 7.500	18.750	8.4036e-02
 7.500	19.000	8.0472e-02
 7.500	19.250	7.8823e-02
 7.500	19.500	7.7986e-02
 7.500	19.750	7.7503e-02
 7.500	20.000	7.7300e-02
 7.500	20.250	7.7215e-02
 7.500	20.500	7.7178e-02
 7.500	20.750	7.7161e-02
 7.500	21.000	7.7152e-02
 7.500	21.250	7.7147e-02
 7.500	21.500	7.7145e-02
 7.500	21.750	7.7144e-02
 7.500	22.000	7.7143e-02
 7.500	22.250	7.7143e-02
 7.500	22.500	7.7142e-02
 7.500	22.750	7.7142e-02
 7.500	23.000	7.7143e-02
 7.500	23.250	7.7142e-02
 7.500	23.500	7.7142e-02
 7.500	23.750	7.7142e-02
 7.500	24.000	7.7142e-02
 7.750	17.000	9.8771e-01
 7.750	17.250	9.6684e-01
 7.750	17.500	9.0191e-01
 7.750	17.750	7.2544e-01
 7.750	18.000	9.7447e-02
 7.750	18.250	1.0046e-01
 7.750	18.500	9.7106e-02
 7.750	18.750	8.9441e-02
 7.750	19.000	8.4023e-02
 7.750	19.250	8.0467e-02
 7.750	19.500	7.8822e-02
 7.750	19.750	7.7985e-02
 7.750	20.000	7.7503e-02
 7.750	20.250	7.7300e-02
 7.750	20.500	7.7215e-02
 7.750	20.750	7.7178e-02
 7.750	21.000	7.7160e-02
 7.750	21.250	7.7152e-02
 7.750	21.500	7.7147e-02
 7.750	21.750	7.7145e-02
 7.750	22.000	7.7144e-02
 7.750	22.250	7.7143e-02
 7.750	22.500	7.7142e-02
 7.750	22.750	7.7142e-02
 7.750	23.000	7.7142e-02
 7.750	23.250	7.7142e-02
 7.750	23.500	7.7142e-02
 7.750	23.750	7.7142e-02
 7.750	24.000	7.7142e-02
 8.000	17.000	9.9433e-01
 8.000	17.250	9.8571e-01
 8.000	17.500	9.6343e-01
 8.000	17.750	8.9099e-01
 8.000	18.000	7.0554e-01
 8.000	18.250	9.7125e-02
 8.000	18.500	1.0042e-01
 8.000	18.750	9.7099e-02
 8.000	19.000	8.9436e-02
 8.000	19.250	8.4016e-02
 8.000	19.500	8.0464e-02
 8.000	19.750	7.8821e-02
 8.000	20.000	7.7985e-02
 8.000	20.250	7.7503e-02
 8.000	20.500	7.7300e-02
 8.000	20.750	7.7215e-02
 8.000	21.000	7.7178e-02
 8.000	21.250	7.7161e-02
 8.000	21.500	7.7152e-02
 8.000	21.750	7.7147e-02
 8.000	22.000	7.7145e-02
 8.000	22.250	7.7144e-02
 8.000	22.500	7.7143e-02
 8.000	22.750	7.7142e-02
 8.000	23.000	7.7142e-02
 8.000	23.250	7.7142e-02
 8.000	23.500	7.7142e-02
 8.000	23.750	7.7142e-02
 8.000	24.000	7.7142e-02
 8.250	17.000	9.9741e-01
 8.250	17.250	9.9248e-01
 8.250	17.500	9.8326e-01
 8.250	17.750	9.5770e-01
 8.250	18.000	8.6901e-01
 8.250	18.250	6.6434e-01
 8.250	18.500	9.6895e-02
 8.250	18.750	1.0046e-01
 8.250	19.000	9.7107e-02
 8.250	19.250	8.9437e-02
 8.250	19.500	8.4010e-02
 8.250	19.750	8.0462e-02
 8.250	20.000	7.8820e-02
 8.250	20.250	7.7984e-02
 8.250	20.500	7.7503e-02
 8.250	20.750	7.7300e-02
 8.250	21.000	7.7215e-02
 8.250	21.250	7.7178e-02
 8.250	21.500	7.7161e-02
 8.250	21.750	7.7152e-02
 8.250	22.000	7.7147e-02
 8.250	22.250	7.7145e-02
 8.250	22.500	7.7143e-02
 8.250	22.750	7.7143e-02
 8.250	23.000	7.7143e-02
 8.250	23.250	7.7142e-02
 8.250	23.500	7.7142e-02
 8.250	23.750	7.7142e-02
 8.250	24.000	7.7142e-02
 8.500	17.000	9.9895e-01
 8.500	17.250	9.9564e-01
 8.500	17.500	9.9031e-01
 8.500	17.750	9.7965e-01
 8.500	18.000	9.4707e-01
 8.500	18.250	8.2899e-01
 8.500	18.500	6.0131e-01
 8.500	18.750	9.6740e-02
 8.500	19.000	1.0053e-01
 8.500	19.250	9.7123e-02
 8.500	19.500	8.9444e-02
 8.500	19.750	8.4005e-02
 8.500	20.000	8.0461e-02
 8.500	20.250	7.8820e-02
 8.500	20.500	7.7984e-02
 8.500	20.750	7.7502e-02
 8.500	21.000	7.7300e-02
 8.500	21.250	7.7215e-02
 8.500	21.500	7.7178e-02
 8.500	21.750	7.7161e-02
 8.500	22.000	7.7152e-02
 8.500	22.250	7.7147e-02
 8.500	22.500	7.7145e-02
 8.500	22.750	7.7144e-02
 8.500	23.000	7.7143e-02
 8.500	23.250	7.7142e-02
 8.500	23.500	7.7142e-02
 8.500	23.750	7.7142e-02
 8.500	24.000	7.7142e-02
 8.750	17.000	9.9958e-01
 8.750	17.250	9.9720e-01
 8.750	17.500	9.9343e-01
 8.750	17.750	9.8701e-01
 8.750	18.000	9.7312e-01
 8.750	18.250	9.2548e-01
 8.750	18.500	7.7466e-01
 8.750	18.750	5.2608e-01
 8.750	19.000	9.6610e-02
 8.750	19.250	1.0061e-01
 8.750	19.500	9.7144e-02
 8.750	19.750	8.9454e-02
 8.750	20.000	8.4002e-02
 8.750	20.250	8.0460e-02
 8.750	20.500	7.8819e-02
 8.750	20.750	7.7984e-02
 8.750	21.000	7.7503e-02
 8.750	21.250	7.7300e-02
 8.750	21.500	7.7215e-02
 8.750	21.750	7.7178e-02
 8.750	22.000	7.7161e-02
 8.750	22.250	7.7152e-02
 8.750	22.500	7.7147e-02
 8.750	22.750	7.7145e-02
 8.750	23.000	7.7144e-02
 8.750	23.250	7.7143e-02
 8.750	23.500	7.7142e-02
 8.750	23.750	7.7142e-02
 8.750	24.000	7.7142e-02
 9.000	17.000	9.9954e-01
 9.000	17.250	9.9775e-01
 9.000	17.500	9.9479e-01
 9.000	17.750	9.8992e-01
 9.000	18.000	9.8124e-01
 9.000	18.250	9.6105e-01
 9.000	18.500	8.8921e-01
 9.000	18.750	6.8238e-01
 9.000	19.000	3.9516e-01
 9.000	19.250	9.6450e-02
 9.000	19.500	1.0068e-01
 9.000	19.750	9.7165e-02
 9.000	20.000	8.9465e-02
 9.000	20.250	8.3998e-02
 9.000	20.500	8.0459e-02
 9.000	20.750	7.8819e-02
 9.000	21.000	7.7984e-02
 9.000	21.250	7.7503e-02
 9.000	21.500	7.7300e-02
 9.000	21.750	7.7215e-02
 9.000	22.000	7.7178e-02
 9.000	22.250	7.7161e-02
 9.000	22.500	7.7152e-02
 9.000	22.750	7.7147e-02
 9.000	23.000	7.7145e-02
 9.000	23.250	7.7144e-02
 9.000	23.500	7.7143e-02
 9.000	23.750	7.7142e-02
 9.000	24.000	7.7142e-02
 9.250	17.000	9.9904e-01
 9.250	17.250	9.9758e-01
 9.250	17.500	9.9507e-01
 9.250	17.750	9.9090e-01
 9.250	18.000	9.8406e-01
 9.250	18.250	9.7209e-01
 9.250	18.500	9.4270e-01
 9.250	18.750	8.3792e-01
 9.250	19.000	5.9999e-01
 9.250	19.250	2.5272e-01
 9.250	19.500	9.6252e-02
 9.250	19.750	1.0072e-01
 9.250	20.000	9.7181e-02
 9.250	20.250	8.9475e-02
 9.250	20.500	8.3995e-02
 9.250	20.750	8.0458e-02
 9.250	21.000	7.8819e-02
 9.250	21.250	7.7984e-02
 9.250	21.500	7.7494e-02
 9.250	21.750	7.7262e-02
 9.250	22.000	7.7175e-02
 9.250	22.250	7.7140e-02
 9.250	22.500	7.7160e-02
 9.250	22.750	7.7151e-02
 9.250	23.000	7.7147e-02
 9.250	23.250	7.7145e-02
 9.250	23.500	7.7143e-02
 9.250	23.750	7.7143e-02
 9.250	24.000	7.7142e-02
 9.500	17.000	9.9824e-01
 9.500	17.250	9.9690e-01
 9.500	17.500	9.9461e-01
 9.500	17.750	9.9078e-01
 9.500	18.000	9.8479e-01
 9.500	18.250	9.7552e-01
 9.500	18.500	9.5845e-01
 9.500	18.750	9.1419e-01
 9.500	19.000	7.5670e-01
 9.500	19.250	5.1174e-01
 9.500	19.500	1.4769e-01
 9.500	19.750	9.6143e-02
 9.500	20.000	1.0073e-01
 9.500	20.250	9.7190e-02
 9.500	20.500	8.9483e-02
 9.500	20.750	8.3992e-02
 9.500	21.000	8.0446e-02
 9.500	21.250	7.8786e-02
 9.500	21.500	7.7944e-02
 9.500	21.750	7.7456e-02
 9.500	22.000	7.7239e-02
 9.500	22.250	7.7142e-02
 9.500	22.500	7.7108e-02
 9.500	22.750	7.7091e-02
 9.500	23.000	7.7081e-02
 9.500	23.250	7.7076e-02
 9.500	23.500	7.7097e-02
 9.500	23.750	7.7096e-02
 9.500	24.000	7.7095e-02
 9.750	17.000	9.9725e-01
 9.750	17.250	9.9590e-01
 9.750	17.500	9.9368e-01
 9.750	17.750	9.8997e-01
 9.750	18.000	9.8431e-01
 9.750	18.250	9.7557e-01
 9.750	18.500	9.6185e-01
 9.750	18.750	9.3696e-01
 9.750	19.000	8.7266e-01
 9.750	19.250	6.8125e-01
 9.750	19.500	3.6834e-01
 9.750	19.750	9.3188e-02
 9.750	20.000	9.6165e-02
 9.750	20.250	1.0068e-01
 9.750	20.500	9.7190e-02
 9.750	20.750	8.9488e-02
 9.750	21.000	8.3990e-02
 9.750	21.250	8.0452e-02
 9.750	21.500	7.8805e-02
 9.750	21.750	7.7947e-02
 9.750	22.000	7.7460e-02
 9.750	22.250	7.7247e-02
 9.750	22.500	7.7149e-02
 9.750	22.750	7.7104e-02
 9.750	23.000	7.7089e-02
 9.750	23.250	7.7081e-02
 9.750	23.500	7.7077e-02
 9.750	23.750	7.7075e-02
 9.750	24.000	7.7074e-02
10.000	17.000	9.9619e-01
10.000	17.250	9.9472e-01
10.000	17.500	9.9247e-01
10.000	17.750	9.8867e-01
10.000	18.000	9.8279e-01
10.000	18.250	9.7371e-01
10.000	18.500	9.6059e-01
10.000	18.750	9.4133e-01
10.000	19.000	9.0711e-01
10.000	19.250	8.1792e-01
10.000	19.500	6.0044e-01
10.000	19.750	2.3495e-01
10.000	20.000	9.3762e-02
10.000	20.250	9.6337e-02
10.000	20.500	1.0070e-01
10.000	20.750	9.7180e-02
10.000	21.000	8.9492e-02
10.000	21.250	8.3987e-02
10.000	21.500	8.0453e-02
10.000	21.750	7.8815e-02
10.000	22.000	7.7962e-02
10.000	22.250	7.7462e-02
10.000	22.500	7.7254e-02
10.000	22.750	7.7159e-02
10.000	23.000	7.7112e-02
10.000	23.250	7.7090e-02
10.000	23.500	7.7078e-02
10.000	23.750	7.7074e-02
10.000	24.000	7.7072e-02
10.250	17.000	9.9529e-01
10.250	17.250	9.9353e-01
10.250	17.500	9.9104e-01
10.250	17.750	9.8697e-01
10.250	18.000	9.8036e-01
10.250	18.250	9.7079e-01
10.250	18.500	9.5759e-01
10.250	18.750	9.3960e-01
10.250	19.000	9.1344e-01
10.250	19.250	8.7046e-01
10.250	19.500	7.7587e-01
10.250	19.750	5.4277e-01
10.250	20.000	1.4386e-01
10.250	20.250	9.3714e-02
10.250	20.500	9.6762e-02
10.250	20.750	1.0088e-01
10.250	21.000	9.7165e-02
10.250	21.250	8.9494e-02
10.250	21.500	8.3986e-02
10.250	21.750	8.0453e-02
10.250	22.000	7.8817e-02
10.250	22.250	7.7977e-02
10.250	22.500	7.7463e-02
10.250	22.750	7.7258e-02
10.250	23.000	7.7166e-02
10.250	23.250	7.7122e-02
10.250	23.500	7.7100e-02
10.250	23.750	7.7087e-02
10.250	24.000	7.7081e-02
10.500	17.000	9.9455e-01
10.500	17.250	9.9248e-01
10.500	17.500	9.8952e-01
10.500	17.750	9.8486e-01
10.500	18.000	9.7728e-01
10.500	18.250	9.6672e-01
10.500	18.500	9.5379e-01
10.500	18.750	9.3857e-01
10.500	19.000	9.2215e-01
10.500	19.250	9.0080e-01
10.500	19.500	8.5970e-01
10.500	19.750	7.5619e-01
10.500	20.000	4.7612e-01
10.500	20.250	9.1102e-02
10.500	20.500	9.4290e-02
10.500	20.750	9.7532e-02
10.500	21.000	1.0135e-01
10.500	21.250	9.7154e-02
10.500	21.500	8.9493e-02
10.500	21.750	8.3983e-02
10.500	22.000	8.0452e-02
10.500	22.250	7.8818e-02
10.500	22.500	7.7982e-02
10.500	22.750	7.7470e-02
10.500	23.000	7.7260e-02
10.500	23.250	7.7171e-02
10.500	23.500	7.7130e-02
10.500	23.750	7.7109e-02
10.500	24.000	7.7097e-02
10.750	17.000	9.9374e-01
10.750	17.250	9.9146e-01
10.750	17.500	9.8790e-01
10.750	17.750	9.8197e-01
10.750	18.000	9.7326e-01
10.750	18.250	9.6246e-01
10.750	18.500	9.5061e-01
10.750	18.750	9.3922e-01
10.750	19.000	9.2880e-01
10.750	19.250	9.1558e-01
10.750	19.500	8.9396e-01
10.750	19.750	8.4845e-01
10.750	20.000	7.2919e-01
10.750	20.250	3.9078e-01
10.750	20.500	9.2120e-02
10.750	20.750	9.5331e-02
10.750	21.000	9.8642e-02
10.750	21.250	1.0222e-01
10.750	21.500	9.7166e-02
10.750	21.750	8.9490e-02
10.750	22.000	8.3978e-02
10.750	22.250	8.0450e-02
10.750	22.500	7.8818e-02
10.750	22.750	7.7984e-02
10.750	23.000	7.7489e-02
10.750	23.250	7.7261e-02
10.750	23.500	7.7174e-02
10.750	23.750	7.7134e-02
10.750	24.000	7.7115e-02
11.000	17.000	9.9246e-01
11.000	17.250	9.9022e-01
11.000	17.500	9.8572e-01
11.000	17.750	9.7827e-01
11.000	18.000	9.6819e-01
11.000	18.250	9.5681e-01
11.000	18.500	9.4598e-01
11.000	18.750	9.3783e-01
11.000	19.000	9.3093e-01
11.000	19.250	9.2244e-01
11.000	19.500	9.0927e-01
11.000	19.750	8.8549e-01
11.000	20.000	8.3358e-01
11.000	20.250	6.9399e-01
11.000	20.500	2.8510e-01
11.000	20.750	9.2831e-02
11.000	21.000	9.7421e-02
11.000	21.250	1.0061e-01
11.000	21.500	1.0384e-01
11.000	21.750	9.7205e-02
11.000	22.000	8.9486e-02
11.000	22.250	8.3977e-02
11.000	22.500	8.0448e-02
11.000	22.750	7.8818e-02
11.000	23.000	7.7984e-02
11.000	23.250	7.7498e-02
11.000	23.500	7.7267e-02
11.000	23.750	7.7175e-02
11.000	24.000	7.7137e-02
11.250	17.000	9.9059e-01
11.250	17.250	9.8816e-01
11.250	17.500	9.8251e-01
11.250	17.750	9.7313e-01
11.250	18.000	9.6097e-01
11.250	18.250	9.4857e-01
11.250	18.500	9.3904e-01
11.250	18.750	9.3279e-01
11.250	19.000	9.2841e-01
11.250	19.250	9.2325e-01
11.250	19.500	9.1495e-01
11.250	19.750	9.0059e-01
11.250	20.000	8.7400e-01
11.250	20.250	8.1470e-01
11.250	20.500	6.4896e-01
11.250	20.750	1.8141e-01
11.250	21.000	9.4708e-02
11.250	21.250	1.0005e-01
11.250	21.500	1.0376e-01
11.250	21.750	1.0595e-01
11.250	22.000	9.7279e-02
11.250	22.250	8.9482e-02
11.250	22.500	8.3971e-02
11.250	22.750	8.0446e-02
11.250	23.000	7.8818e-02
11.250	23.250	7.7985e-02
11.250	23.500	7.7501e-02
11.250	23.750	7.7286e-02
11.250	24.000	7.7177e-02
11.500	17.000	9.8850e-01
11.500	17.250	9.8495e-01
11.500	17.500	9.7769e-01
11.500	17.750	9.6557e-01
11.500	18.000	9.5038e-01
11.500	18.250	9.3679e-01
11.500	18.500	9.2819e-01
11.500	18.750	9.2345e-01
11.500	19.000	9.2069e-01
11.500	19.250	9.1802e-01
11.500	19.500	9.1355e-01
11.500	19.750	9.0512e-01
11.500	20.000	8.8995e-01
11.500	20.250	8.6053e-01
11.500	20.500	7.9228e-01
11.500	20.750	5.9281e-01
11.500	21.000	8.7533e-02
11.500	21.250	9.7313e-02
11.500	21.500	1.0414e-01
11.500	21.750	1.0851e-01
11.500	22.000	1.0774e-01
11.500	22.250	9.7389e-02
11.500	22.500	8.9477e-02
11.500	22.750	8.3973e-02
11.500	23.000	8.0444e-02
11.500	23.250	7.8817e-02
11.500	23.500	7.7985e-02
11.500	23.750	7.7502e-02
11.500	24.000	7.7295e-02
11.750	17.000	9.8588e-01
11.750	17.250	9.8045e-01
11.750	17.500	9.7045e-01
11.750	17.750	9.5410e-01
11.750	18.000	9.3477e-01
11.750	18.250	9.2067e-01
11.750	18.500	9.1295e-01
11.750	18.750	9.0924e-01
11.750	19.000	9.0741e-01
11.750	19.250	9.0644e-01
11.750	19.500	9.0513e-01
11.750	19.750	9.0179e-01
11.750	20.000	8.9412e-01
11.750	20.250	8.7847e-01
11.750	20.500	8.4572e-01
11.750	20.750	7.6631e-01
11.750	21.000	5.2431e-01
11.750	21.250	9.0218e-02
11.750	21.500	1.0129e-01
11.750	21.750	1.1007e-01
11.750	22.000	1.1410e-01
11.750	22.250	1.0867e-01
11.750	22.500	9.7528e-02
11.750	22.750	8.9466e-02
11.750	23.000	8.3972e-02
11.750	23.250	8.0441e-02
11.750	23.500	7.8816e-02
11.750	23.750	7.7985e-02
11.750	24.000	7.7502e-02
12.000	17.000	9.8188e-01
12.000	17.250	9.7344e-01
12.000	17.500	9.5879e-01
12.000	17.750	9.3642e-01
12.000	18.000	9.1420e-01
12.000	18.250	9.0044e-01
12.000	18.500	8.9338e-01
12.000	18.750	8.8995e-01
12.000	19.000	8.8882e-01
12.000	19.250	8.8926e-01
12.000	19.500	8.9042e-01
12.000	19.750	8.9147e-01
12.000	20.000	8.9015e-01
12.000	20.250	8.8307e-01
12.000	20.500	8.6639e-01
12.000	20.750	8.2989e-01
12.000	21.000	7.3693e-01
12.000	21.250	4.4351e-01
12.000	21.500	9.4899e-02
12.000	21.750	1.0727e-01
12.000	22.000	1.1739e-01
12.000	22.250	1.1918e-01
12.000	22.500	1.0944e-01
12.000	22.750	9.7709e-02
12.000	23.000	8.9449e-02
12.000	23.250	8.3968e-02
12.000	23.500	8.0440e-02
12.000	23.750	7.8815e-02
12.000	24.000	7.7985e-02
12.250	17.000	9.6987e-01
12.250	17.250	9.5973e-01
12.250	17.500	9.3832e-01
12.250	17.750	9.1061e-01
12.250	18.000	8.8882e-01
12.250	18.250	8.7670e-01
12.250	18.500	8.7039e-01
12.250	18.750	8.6780e-01
12.250	19.000	8.6770e-01
12.250	19.250	8.6951e-01
12.250	19.500	8.7271e-01
12.250	19.750	8.7656e-01
12.250	20.000	8.7969e-01
12.250	20.250	8.7945e-01
12.250	20.500	8.7210e-01
12.250	20.750	8.5393e-01
12.250	21.000	8.1312e-01
12.250	21.250	7.0319e-01
12.250	21.500	3.7735e-01
12.250	21.750	1.0140e-01
12.250	22.000	1.1516e-01
12.250	22.250	1.2627e-01
12.250	22.500	1.2315e-01
12.250	22.750	1.1019e-01
12.250	23.000	9.7828e-02
12.250	23.250	8.9434e-02
12.250	23.500	8.3962e-02
12.250	23.750	8.0433e-02
12.250	24.000	7.8813e-02
12.500	17.000	8.9667e-01
12.500	17.250	9.2918e-01
12.500	17.500	9.0446e-01
12.500	17.750	8.7795e-01
12.500	18.000	8.6036e-01
12.500	18.250	8.5030e-01
12.500	18.500	8.4600e-01
12.500	18.750	8.4525e-01
12.500	19.000	8.4695e-01
12.500	19.250	8.5031e-01
12.500	19.500	8.5487e-01
12.500	19.750	8.6015e-01
12.500	20.000	8.6543e-01
12.500	20.250	8.6923e-01
12.500	20.500	8.6900e-01
12.500	20.750	8.6096e-01
12.500	21.000	8.4091e-01
12.500	21.250	7.9434e-01
12.500	21.500	6.7331e-01
12.500	21.750	2.8425e-01
12.500	22.000	1.0993e-01
12.500	22.250	1.2516e-01
12.500	22.500	1.3466e-01
12.500	22.750	1.2653e-01
12.500	23.000	1.1089e-01
12.500	23.250	9.8042e-02
12.500	23.500	8.9413e-02
12.500	23.750	8.3951e-02
12.500	24.000	8.0429e-02
12.750	17.000	7.0536e-01
12.750	17.250	8.5193e-01
12.750	17.500	8.5998e-01
12.750	17.750	8.4265e-01
12.750	18.000	8.2877e-01
12.750	18.250	8.2282e-01
12.750	18.500	8.2169e-01
12.750	18.750	8.2324e-01
12.750	19.000	8.2712e-01
12.750	19.250	8.3213e-01
12.750	19.500	8.3795e-01
12.750	19.750	8.4406e-01
12.750	20.000	8.4997e-01
12.750	20.250	8.5539e-01
12.750	20.500	8.5910e-01
12.750	20.750	8.5811e-01
12.750	21.000	8.4862e-01
12.750	21.250	8.2536e-01
12.750	21.500	7.7559e-01
12.750	21.750	6.2277e-01
12.750	22.000	1.9681e-01
12.750	22.250	1.2038e-01
12.750	22.500	1.3818e-01
12.750	22.750	1.4172e-01
12.750	23.000	1.2927e-01
12.750	23.250	1.1169e-01
12.750	23.500	9.8196e-02
12.750	23.750	8.9393e-02
12.750	24.000	8.3933e-02
13.000	17.000	2.0498e-01
13.000	17.250	4.0290e-01
13.000	17.500	7.5314e-01
13.000	17.750	7.9973e-01
13.000	18.000	7.9677e-01
13.000	18.250	7.9520e-01
13.000	18.500	7.9664e-01
13.000	18.750	8.0094e-01
13.000	19.000	8.0705e-01
13.000	19.250	8.1399e-01
13.000	19.500	8.2111e-01
13.000	19.750	8.2814e-01
13.000	20.000	8.3457e-01
13.000	20.250	8.4031e-01
13.000	20.500	8.4532e-01
13.000	20.750	8.4806e-01
13.000	21.000	8.4554e-01
13.000	21.250	8.3354e-01
13.000	21.500	8.0804e-01
13.000	21.750	7.4324e-01
13.000	22.000	5.4732e-01
13.000	22.250	1.4170e-01
13.000	22.500	1.3151e-01
13.000	22.750	1.4978e-01
13.000	23.000	1.4715e-01
13.000	23.250	1.3174e-01
13.000	23.500	1.1234e-01
13.000	23.750	9.8330e-02
13.000	24.000	8.9369e-02
13.250	17.000	1.3140e-01
13.250	17.250	2.2774e-01
13.250	17.500	4.4665e-01
13.250	17.750	6.7600e-01
13.250	18.000	7.5693e-01
13.250	18.250	7.6446e-01
13.250	18.500	7.7025e-01
13.250	18.750	7.7686e-01
13.250	19.000	7.8538e-01
13.250	19.250	7.9460e-01
13.250	19.500	8.0363e-01
13.250	19.750	8.1191e-01
13.250	20.000	8.1925e-01
13.250	20.250	8.2536e-01
13.250	20.500	8.3030e-01
13.250	20.750	8.3354e-01
13.250	21.000	8.3474e-01
13.250	21.250	8.2902e-01
13.250	21.500	8.1460e-01
13.250	21.750	7.7463e-01
13.250	22.000	6.8862e-01
13.250	22.250	4.4435e-01
13.250	22.500	1.2748e-01
13.250	22.750	1.3986e-01
13.250	23.000	1.5609e-01
13.250	23.250	1.5213e-01
13.250	23.500	1.3379e-01
13.250	23.750	1.1293e-01
13.250	24.000	9.8406e-02
13.500	17.000	8.3670e-02
13.500	17.250	1.4498e-01
13.500	17.500	2.8516e-01
13.500	17.750	4.9765e-01
13.500	18.000	6.7938e-01
13.500	18.250	7.2985e-01
13.500	18.500	7.4030e-01
13.500	18.750	7.5033e-01
13.500	19.000	7.6122e-01
13.500	19.250	7.7292e-01
13.500	19.500	7.8415e-01
13.500	19.750	7.9417e-01
13.500	20.000	8.0277e-01
13.500	20.250	8.0985e-01
13.500	20.500	8.1500e-01
13.500	20.750	8.1828e-01
13.500	21.000	8.1904e-01
13.500	21.250	8.1610e-01
13.500	21.500	8.0694e-01
13.500	21.750	7.7798e-01
13.500	22.000	7.1871e-01
13.500	22.250	6.0302e-01
13.500	22.500	3.2021e-01
13.500	22.750	1.3963e-01
13.500	23.000	1.5296e-01
13.500	23.250	1.6325e-01
13.500	23.500	1.5694e-01
13.500	23.750	1.3594e-01
13.500	24.000	1.1346e-01
13.750	17.000	5.1567e-02
13.750	17.250	9.8127e-02
13.750	17.500	1.9075e-01
13.750	17.750	3.2232e-01
13.750	18.000	5.3995e-01
13.750	18.250	6.7253e-01
13.750	18.500	7.0463e-01
13.750	18.750	7.1985e-01
13.750	19.000	7.3387e-01
13.750	19.250	7.4813e-01
13.750	19.500	7.6194e-01
13.750	19.750	7.7430e-01
13.750	20.000	7.8477e-01
13.750	20.250	7.9323e-01
13.750	20.500	7.9954e-01
13.750	20.750	8.0315e-01
13.750	21.000	8.0347e-01
13.750	21.250	8.0011e-01
13.750	21.500	7.9284e-01
13.750	21.750	7.6859e-01
13.750	22.000	7.1960e-01
13.750	22.250	6.3411e-01
13.750	22.500	4.9916e-01
13.750	22.750	2.3260e-01
13.750	23.000	1.5897e-01
13.750	23.250	1.6909e-01
13.750	23.500	1.7237e-01
13.750	23.750	1.6292e-01
13.750	24.000	1.3772e-01
14.000	17.000	3.1799e-02
14.000	17.250	6.0662e-02
14.000	17.500	1.2533e-01
14.000	17.750	2.2020e-01
14.000	18.000	3.5935e-01
14.000	18.250	5.4654e-01
14.000	18.500	6.4820e-01
14.000	18.750	6.8311e-01
14.000	19.000	7.0246e-01
14.000	19.250	7.1950e-01
14.000	19.500	7.3614e-01
14.000	19.750	7.5144e-01
14.000	20.000	7.6438e-01
14.000	20.250	7.7490e-01
14.000	20.500	7.8264e-01
14.000	20.750	7.8748e-01
14.000	21.000	7.8860e-01
14.000	21.250	7.8496e-01
14.000	21.500	7.7765e-01
14.000	21.750	7.5641e-01
14.000	22.000	7.1186e-01
14.000	22.250	6.3483e-01
14.000	22.500	5.3124e-01
14.000	22.750	4.0608e-01
14.000	23.000	1.9546e-01
14.000	23.250	1.8690e-01
14.000	23.500	1.9069e-01
14.000	23.750	1.8699e-01
14.000	24.000	1.6983e-01
