InwC 1000.00A  relative to Inci 1215.00A scaled to 1215A.
Hden   Phi(H)  Eq_Width (A)
 7.000	17.000	5.8388e-02
 7.000	17.250	7.2363e-02
 7.000	17.500	7.5345e-02
 7.000	17.750	7.6912e-02
 7.000	18.000	7.6949e-02
 7.000	18.250	7.7001e-02
 7.000	18.500	7.7009e-02
 7.000	18.750	7.7020e-02
 7.000	19.000	7.7028e-02
 7.000	19.250	7.7036e-02
 7.000	19.500	7.7038e-02
 7.000	19.750	7.7039e-02
 7.000	20.000	7.7040e-02
 7.000	20.250	7.7040e-02
 7.000	20.500	7.7040e-02
 7.000	20.750	7.7040e-02
 7.000	21.000	7.7040e-02
 7.000	21.250	7.7041e-02
 7.000	21.500	7.7041e-02
 7.000	21.750	7.7041e-02
 7.000	22.000	7.7042e-02
 7.000	22.250	7.7042e-02
 7.000	22.500	7.7042e-02
 7.000	22.750	7.7051e-02
 7.000	23.000	7.7044e-02
 7.000	23.250	7.7045e-02
 7.000	23.500	7.7045e-02
 7.000	23.750	7.7045e-02
 7.000	24.000	7.7046e-02
 7.250	17.000	3.7217e-02
 7.250	17.250	5.8176e-02
 7.250	17.500	7.2383e-02
 7.250	17.750	7.5366e-02
 7.250	18.000	7.6913e-02
 7.250	18.250	7.6949e-02
 7.250	18.500	7.7001e-02
 7.250	18.750	7.7009e-02
 7.250	19.000	7.7020e-02
 7.250	19.250	7.7029e-02
 7.250	19.500	7.7036e-02
 7.250	19.750	7.7038e-02
 7.250	20.000	7.7039e-02
 7.250	20.250	7.7040e-02
 7.250	20.500	7.7040e-02
 7.250	20.750	7.7040e-02
 7.250	21.000	7.7040e-02
 7.250	21.250	7.7040e-02
 7.250	21.500	7.7040e-02
 7.250	21.750	7.7041e-02
 7.250	22.000	7.7041e-02
 7.250	22.250	7.7041e-02
 7.250	22.500	7.7041e-02
 7.250	22.750	7.7041e-02
 7.250	23.000	7.7041e-02
 7.250	23.250	7.7042e-02
 7.250	23.500	7.7041e-02
 7.250	23.750	7.7042e-02
 7.250	24.000	7.7042e-02
 7.500	17.000	2.2250e-02
 7.500	17.250	3.6548e-02
 7.500	17.500	5.8015e-02
 7.500	17.750	7.2402e-02
 7.500	18.000	7.5385e-02
 7.500	18.250	7.6913e-02
 7.500	18.500	7.6949e-02
 7.500	18.750	7.7001e-02
 7.500	19.000	7.7009e-02
 7.500	19.250	7.7020e-02
 7.500	19.500	7.7028e-02
 7.500	19.750	7.7036e-02
 7.500	20.000	7.7038e-02
 7.500	20.250	7.7039e-02
 7.500	20.500	7.7040e-02
 7.500	20.750	7.7040e-02
 7.500	21.000	7.7040e-02
 7.500	21.250	7.7040e-02
 7.500	21.500	7.7040e-02
 7.500	21.750	7.7040e-02
 7.500	22.000	7.7040e-02
 7.500	22.250	7.7040e-02
 7.500	22.500	7.7040e-02
 7.500	22.750	7.7040e-02
 7.500	23.000	7.7041e-02
 7.500	23.250	7.7041e-02
 7.500	23.500	7.7041e-02
 7.500	23.750	7.7041e-02
 7.500	24.000	7.7041e-02
 7.750	17.000	1.3828e-02
 7.750	17.250	2.1726e-02
 7.750	17.500	3.6071e-02
 7.750	17.750	5.7875e-02
 7.750	18.000	7.2418e-02
 7.750	18.250	7.5404e-02
 7.750	18.500	7.6913e-02
 7.750	18.750	7.6950e-02
 7.750	19.000	7.7000e-02
 7.750	19.250	7.7010e-02
 7.750	19.500	7.7020e-02
 7.750	19.750	7.7029e-02
 7.750	20.000	7.7036e-02
 7.750	20.250	7.7038e-02
 7.750	20.500	7.7039e-02
 7.750	20.750	7.7040e-02
 7.750	21.000	7.7040e-02
 7.750	21.250	7.7040e-02
 7.750	21.500	7.7040e-02
 7.750	21.750	7.7040e-02
 7.750	22.000	7.7040e-02
 7.750	22.250	7.7040e-02
 7.750	22.500	7.7040e-02
 7.750	22.750	7.7040e-02
 7.750	23.000	7.7040e-02
 7.750	23.250	7.7040e-02
 7.750	23.500	7.7040e-02
 7.750	23.750	7.7040e-02
 7.750	24.000	7.7040e-02
 8.000	17.000	9.1891e-03
 8.000	17.250	1.3365e-02
 8.000	17.500	2.1083e-02
 8.000	17.750	3.5345e-02
 8.000	18.000	5.7402e-02
 8.000	18.250	7.2422e-02
 8.000	18.500	7.5408e-02
 8.000	18.750	7.6913e-02
 8.000	19.000	7.6950e-02
 8.000	19.250	7.7002e-02
 8.000	19.500	7.7010e-02
 8.000	19.750	7.7020e-02
 8.000	20.000	7.7029e-02
 8.000	20.250	7.7036e-02
 8.000	20.500	7.7038e-02
 8.000	20.750	7.7039e-02
 8.000	21.000	7.7040e-02
 8.000	21.250	7.7040e-02
 8.000	21.500	7.7040e-02
 8.000	21.750	7.7040e-02
 8.000	22.000	7.7040e-02
 8.000	22.250	7.7040e-02
 8.000	22.500	7.7040e-02
 8.000	22.750	7.7040e-02
 8.000	23.000	7.7040e-02
 8.000	23.250	7.7040e-02
 8.000	23.500	7.7040e-02
 8.000	23.750	7.7040e-02
 8.000	24.000	7.7040e-02
 8.250	17.000	6.7691e-03
 8.250	17.250	8.9579e-03
 8.250	17.500	1.3083e-02
 8.250	17.750	2.0790e-02
 8.250	18.000	3.5181e-02
 8.250	18.250	5.7488e-02
 8.250	18.500	7.2437e-02
 8.250	18.750	7.5428e-02
 8.250	19.000	7.6913e-02
 8.250	19.250	7.6950e-02
 8.250	19.500	7.7001e-02
 8.250	19.750	7.7009e-02
 8.250	20.000	7.7020e-02
 8.250	20.250	7.7029e-02
 8.250	20.500	7.7036e-02
 8.250	20.750	7.7038e-02
 8.250	21.000	7.7039e-02
 8.250	21.250	7.7040e-02
 8.250	21.500	7.7040e-02
 8.250	21.750	7.7040e-02
 8.250	22.000	7.7040e-02
 8.250	22.250	7.7040e-02
 8.250	22.500	7.7040e-02
 8.250	22.750	7.7040e-02
 8.250	23.000	7.7041e-02
 8.250	23.250	7.7040e-02
 8.250	23.500	7.7040e-02
 8.250	23.750	7.7040e-02
 8.250	24.000	7.7040e-02
 8.500	17.000	5.4485e-03
 8.500	17.250	6.5935e-03
 8.500	17.500	8.7680e-03
 8.500	17.750	1.2863e-02
 8.500	18.000	2.0682e-02
 8.500	18.250	3.5613e-02
 8.500	18.500	5.8186e-02
 8.500	18.750	7.2447e-02
 8.500	19.000	7.5448e-02
 8.500	19.250	7.6913e-02
 8.500	19.500	7.6950e-02
 8.500	19.750	7.7001e-02
 8.500	20.000	7.7010e-02
 8.500	20.250	7.7020e-02
 8.500	20.500	7.7028e-02
 8.500	20.750	7.7036e-02
 8.500	21.000	7.7038e-02
 8.500	21.250	7.7039e-02
 8.500	21.500	7.7040e-02
 8.500	21.750	7.7040e-02
 8.500	22.000	7.7040e-02
 8.500	22.250	7.7040e-02
 8.500	22.500	7.7040e-02
 8.500	22.750	7.7040e-02
 8.500	23.000	7.7040e-02
 8.500	23.250	7.7040e-02
 8.500	23.500	7.7040e-02
 8.500	23.750	7.7040e-02
 8.500	24.000	7.7040e-02
 8.750	17.000	4.6970e-03
 8.750	17.250	5.3043e-03
 8.750	17.500	6.4505e-03
 8.750	17.750	8.6264e-03
 8.750	18.000	1.2854e-02
 8.750	18.250	2.1152e-02
 8.750	18.500	3.7373e-02
 8.750	18.750	6.0187e-02
 8.750	19.000	7.2458e-02
 8.750	19.250	7.5468e-02
 8.750	19.500	7.6914e-02
 8.750	19.750	7.6951e-02
 8.750	20.000	7.7001e-02
 8.750	20.250	7.7009e-02
 8.750	20.500	7.7020e-02
 8.750	20.750	7.7029e-02
 8.750	21.000	7.7036e-02
 8.750	21.250	7.7038e-02
 8.750	21.500	7.7039e-02
 8.750	21.750	7.7040e-02
 8.750	22.000	7.7040e-02
 8.750	22.250	7.7040e-02
 8.750	22.500	7.7040e-02
 8.750	22.750	7.7040e-02
 8.750	23.000	7.7040e-02
 8.750	23.250	7.7040e-02
 8.750	23.500	7.7040e-02
 8.750	23.750	7.7040e-02
 8.750	24.000	7.7040e-02
 9.000	17.000	4.2338e-03
 9.000	17.250	4.5677e-03
 9.000	17.500	5.1864e-03
 9.000	17.750	6.3676e-03
 9.000	18.000	8.6670e-03
 9.000	18.250	1.3288e-02
 9.000	18.500	2.2774e-02
 9.000	18.750	4.1039e-02
 9.000	19.000	6.3667e-02
 9.000	19.250	7.2466e-02
 9.000	19.500	7.5485e-02
 9.000	19.750	7.6913e-02
 9.000	20.000	7.6951e-02
 9.000	20.250	7.7001e-02
 9.000	20.500	7.7010e-02
 9.000	20.750	7.7020e-02
 9.000	21.000	7.7029e-02
 9.000	21.250	7.7036e-02
 9.000	21.500	7.7038e-02
 9.000	21.750	7.7039e-02
 9.000	22.000	7.7040e-02
 9.000	22.250	7.7040e-02
 9.000	22.500	7.7040e-02
 9.000	22.750	7.7040e-02
 9.000	23.000	7.7040e-02
 9.000	23.250	7.7040e-02
 9.000	23.500	7.7040e-02
 9.000	23.750	7.7040e-02
 9.000	24.000	7.7040e-02
 9.250	17.000	3.9125e-03
 9.250	17.250	4.1119e-03
 9.250	17.500	4.4683e-03
 9.250	17.750	5.1529e-03
 9.250	18.000	6.5555e-03
 9.250	18.250	9.1900e-03
 9.250	18.500	1.4584e-02
 9.250	18.750	2.5763e-02
 9.250	19.000	4.6538e-02
 9.250	19.250	6.7713e-02
 9.250	19.500	7.2473e-02
 9.250	19.750	7.5495e-02
 9.250	20.000	7.6912e-02
 9.250	20.250	7.6951e-02
 9.250	20.500	7.7001e-02
 9.250	20.750	7.7010e-02
 9.250	21.000	7.7020e-02
 9.250	21.250	7.7028e-02
 9.250	21.500	7.7028e-02
 9.250	21.750	7.7001e-02
 9.250	22.000	7.6999e-02
 9.250	22.250	7.7002e-02
 9.250	22.500	7.7039e-02
 9.250	22.750	7.7039e-02
 9.250	23.000	7.7040e-02
 9.250	23.250	7.7040e-02
 9.250	23.500	7.7040e-02
 9.250	23.750	7.7040e-02
 9.250	24.000	7.7040e-02
 9.500	17.000	3.6844e-03
 9.500	17.250	3.7991e-03
 9.500	17.500	4.0352e-03
 9.500	17.750	4.5026e-03
 9.500	18.000	5.4006e-03
 9.500	18.250	7.0424e-03
 9.500	18.500	1.0238e-02
 9.500	18.750	1.6787e-02
 9.500	19.000	3.0325e-02
 9.500	19.250	5.3234e-02
 9.500	19.500	6.9950e-02
 9.500	19.750	7.2481e-02
 9.500	20.000	7.5497e-02
 9.500	20.250	7.6911e-02
 9.500	20.500	7.6951e-02
 9.500	20.750	7.7000e-02
 9.500	21.000	7.6999e-02
 9.500	21.250	7.6987e-02
 9.500	21.500	7.6989e-02
 9.500	21.750	7.6990e-02
 9.500	22.000	7.6977e-02
 9.500	22.250	7.6966e-02
 9.500	22.500	7.6969e-02
 9.500	22.750	7.6970e-02
 9.500	23.000	7.6970e-02
 9.500	23.250	7.6969e-02
 9.500	23.500	7.6992e-02
 9.500	23.750	7.6992e-02
 9.500	24.000	7.6992e-02
 9.750	17.000	3.5399e-03
 9.750	17.250	3.5683e-03
 9.750	17.500	3.7328e-03
 9.750	17.750	4.0941e-03
 9.750	18.000	4.7554e-03
 9.750	18.250	5.9067e-03
 9.750	18.500	7.9844e-03
 9.750	18.750	1.1987e-02
 9.750	19.000	2.0177e-02
 9.750	19.250	3.6702e-02
 9.750	19.500	6.0303e-02
 9.750	19.750	7.0530e-02
 9.750	20.000	7.2508e-02
 9.750	20.250	7.5491e-02
 9.750	20.500	7.6908e-02
 9.750	20.750	7.6950e-02
 9.750	21.000	7.7001e-02
 9.750	21.250	7.7006e-02
 9.750	21.500	7.7006e-02
 9.750	21.750	7.6992e-02
 9.750	22.000	7.6993e-02
 9.750	22.250	7.6986e-02
 9.750	22.500	7.6973e-02
 9.750	22.750	7.6966e-02
 9.750	23.000	7.6968e-02
 9.750	23.250	7.6969e-02
 9.750	23.500	7.6970e-02
 9.750	23.750	7.6970e-02
 9.750	24.000	7.6970e-02
10.000	17.000	3.4896e-03
10.000	17.250	3.4075e-03
10.000	17.500	3.4803e-03
10.000	17.750	3.7716e-03
10.000	18.000	4.3611e-03
10.000	18.250	5.2705e-03
10.000	18.500	6.7622e-03
10.000	18.750	9.4793e-03
10.000	19.000	1.4736e-02
10.000	19.250	2.5757e-02
10.000	19.500	4.6974e-02
10.000	19.750	6.6163e-02
10.000	20.000	7.0617e-02
10.000	20.250	7.2539e-02
10.000	20.500	7.5496e-02
10.000	20.750	7.6904e-02
10.000	21.000	7.6950e-02
10.000	21.250	7.7001e-02
10.000	21.500	7.7008e-02
10.000	21.750	7.7015e-02
10.000	22.000	7.7006e-02
10.000	22.250	7.6995e-02
10.000	22.500	7.6992e-02
10.000	22.750	7.6983e-02
10.000	23.000	7.6974e-02
10.000	23.250	7.6969e-02
10.000	23.500	7.6966e-02
10.000	23.750	7.6967e-02
10.000	24.000	7.6967e-02
10.250	17.000	3.5321e-03
10.250	17.250	3.3378e-03
10.250	17.500	3.3159e-03
10.250	17.750	3.5423e-03
10.250	18.000	4.0784e-03
10.250	18.250	4.8715e-03
10.250	18.500	6.0681e-03
10.250	18.750	8.1160e-03
10.250	19.000	1.1912e-02
10.250	19.250	1.9065e-02
10.250	19.500	3.2818e-02
10.250	19.750	5.4168e-02
10.250	20.000	6.8276e-02
10.250	20.250	7.0686e-02
10.250	20.500	7.2585e-02
10.250	20.750	7.5531e-02
10.250	21.000	7.6897e-02
10.250	21.250	7.6948e-02
10.250	21.500	7.7002e-02
10.250	21.750	7.7009e-02
10.250	22.000	7.7018e-02
10.250	22.250	7.7022e-02
10.250	22.500	7.6996e-02
10.250	22.750	7.6996e-02
10.250	23.000	7.6990e-02
10.250	23.250	7.6984e-02
10.250	23.500	7.6979e-02
10.250	23.750	7.6976e-02
10.250	24.000	7.6974e-02
10.500	17.000	3.6370e-03
10.500	17.250	3.3544e-03
10.500	17.500	3.2415e-03
10.500	17.750	3.3952e-03
10.500	18.000	3.8483e-03
10.500	18.250	4.5742e-03
10.500	18.500	5.5848e-03
10.500	18.750	7.0928e-03
10.500	19.000	9.4857e-03
10.500	19.250	1.3694e-02
10.500	19.500	2.1796e-02
10.500	19.750	3.7425e-02
10.500	20.000	5.9067e-02
10.500	20.250	6.9283e-02
10.500	20.500	7.0734e-02
10.500	20.750	7.2642e-02
10.500	21.000	7.5613e-02
10.500	21.250	7.6889e-02
10.500	21.500	7.6945e-02
10.500	21.750	7.7001e-02
10.500	22.000	7.7009e-02
10.500	22.250	7.7019e-02
10.500	22.500	7.7026e-02
10.500	22.750	7.7004e-02
10.500	23.000	7.6998e-02
10.500	23.250	7.6995e-02
10.500	23.500	7.6991e-02
10.500	23.750	7.6988e-02
10.500	24.000	7.6985e-02
10.750	17.000	3.7688e-03
10.750	17.250	3.4293e-03
10.750	17.500	3.2496e-03
10.750	17.750	3.3406e-03
10.750	18.000	3.6855e-03
10.750	18.250	4.2570e-03
10.750	18.500	5.0629e-03
10.750	18.750	6.1119e-03
10.750	19.000	7.6760e-03
10.750	19.250	1.0303e-02
10.750	19.500	1.5099e-02
10.750	19.750	2.4327e-02
10.750	20.000	4.1541e-02
10.750	20.250	6.2746e-02
10.750	20.500	6.9412e-02
10.750	20.750	7.0814e-02
10.750	21.000	7.2745e-02
10.750	21.250	7.5783e-02
10.750	21.500	7.6881e-02
10.750	21.750	7.6942e-02
10.750	22.000	7.6996e-02
10.750	22.250	7.7009e-02
10.750	22.500	7.7019e-02
10.750	22.750	7.7028e-02
10.750	23.000	7.7023e-02
10.750	23.250	7.6999e-02
10.750	23.500	7.6998e-02
10.750	23.750	7.6996e-02
10.750	24.000	7.6994e-02
11.000	17.000	3.8737e-03
11.000	17.250	3.5240e-03
11.000	17.500	3.3082e-03
11.000	17.750	3.3455e-03
11.000	18.000	3.5865e-03
11.000	18.250	3.9691e-03
11.000	18.500	4.5107e-03
11.000	18.750	5.2774e-03
11.000	19.000	6.3709e-03
11.000	19.250	8.0896e-03
11.000	19.500	1.1022e-02
11.000	19.750	1.6361e-02
11.000	20.000	2.6560e-02
11.000	20.250	4.4976e-02
11.000	20.500	6.5184e-02
11.000	20.750	6.9379e-02
11.000	21.000	7.0880e-02
11.000	21.250	7.2947e-02
11.000	21.500	7.6088e-02
11.000	21.750	7.6867e-02
11.000	22.000	7.6937e-02
11.000	22.250	7.6996e-02
11.000	22.500	7.7009e-02
11.000	22.750	7.7019e-02
11.000	23.000	7.7028e-02
11.000	23.250	7.7032e-02
11.000	23.500	7.7005e-02
11.000	23.750	7.7000e-02
11.000	24.000	7.6999e-02
11.250	17.000	3.8924e-03
11.250	17.250	3.5862e-03
11.250	17.500	3.3640e-03
11.250	17.750	3.3653e-03
11.250	18.000	3.5227e-03
11.250	18.250	3.7428e-03
11.250	18.500	4.0622e-03
11.250	18.750	4.5911e-03
11.250	19.000	5.3913e-03
11.250	19.250	6.5651e-03
11.250	19.500	8.4315e-03
11.250	19.750	1.1617e-02
11.250	20.000	1.7415e-02
11.250	20.250	2.8427e-02
11.250	20.500	4.7775e-02
11.250	20.750	6.6371e-02
11.250	21.000	6.9416e-02
11.250	21.250	7.1011e-02
11.250	21.500	7.3349e-02
11.250	21.750	7.6458e-02
11.250	22.000	7.6851e-02
11.250	22.250	7.6932e-02
11.250	22.500	7.6989e-02
11.250	22.750	7.7009e-02
11.250	23.000	7.7019e-02
11.250	23.250	7.7028e-02
11.250	23.500	7.7034e-02
11.250	23.750	7.7024e-02
11.250	24.000	7.7002e-02
11.500	17.000	3.7626e-03
11.500	17.250	3.5645e-03
11.500	17.500	3.3683e-03
11.500	17.750	3.3520e-03
11.500	18.000	3.4463e-03
11.500	18.250	3.5617e-03
11.500	18.500	3.7464e-03
11.500	18.750	4.0745e-03
11.500	19.000	4.6226e-03
11.500	19.250	5.4589e-03
11.500	19.500	6.6974e-03
11.500	19.750	8.6810e-03
11.500	20.000	1.2069e-02
11.500	20.250	1.8236e-02
11.500	20.500	2.9903e-02
11.500	20.750	5.0134e-02
11.500	21.000	6.6514e-02
11.500	21.250	6.9468e-02
11.500	21.500	7.1290e-02
11.500	21.750	7.4046e-02
11.500	22.000	7.6637e-02
11.500	22.250	7.6832e-02
11.500	22.500	7.6926e-02
11.500	22.750	7.6990e-02
11.500	23.000	7.7008e-02
11.500	23.250	7.7019e-02
11.500	23.500	7.7028e-02
11.500	23.750	7.7035e-02
11.500	24.000	7.7033e-02
11.750	17.000	3.3966e-03
11.750	17.250	3.3790e-03
11.750	17.500	3.2692e-03
11.750	17.750	3.2721e-03
11.750	18.000	3.3533e-03
11.750	18.250	3.4268e-03
11.750	18.500	3.5210e-03
11.750	18.750	3.6998e-03
11.750	19.000	4.0359e-03
11.750	19.250	4.6071e-03
11.750	19.500	5.4732e-03
11.750	19.750	6.7599e-03
11.750	20.000	8.8287e-03
11.750	20.250	1.2386e-02
11.750	20.500	1.8837e-02
11.750	20.750	3.1034e-02
11.750	21.000	5.2220e-02
11.750	21.250	6.6581e-02
11.750	21.500	6.9597e-02
11.750	21.750	7.1741e-02
11.750	22.000	7.4889e-02
11.750	22.250	7.6601e-02
11.750	22.500	7.6807e-02
11.750	22.750	7.6916e-02
11.750	23.000	7.6988e-02
11.750	23.250	7.7007e-02
11.750	23.500	7.7019e-02
11.750	23.750	7.7028e-02
11.750	24.000	7.7036e-02
12.000	17.000	2.7552e-03
12.000	17.250	2.9609e-03
12.000	17.500	3.0111e-03
12.000	17.750	3.1082e-03
12.000	18.000	3.2276e-03
12.000	18.250	3.2756e-03
12.000	18.500	3.3020e-03
12.000	18.750	3.3895e-03
12.000	19.000	3.5918e-03
12.000	19.250	3.9582e-03
12.000	19.500	4.5536e-03
12.000	19.750	5.4412e-03
12.000	20.000	6.7635e-03
12.000	20.250	8.8889e-03
12.000	20.500	1.2544e-02
12.000	20.750	1.9223e-02
12.000	21.000	3.1892e-02
12.000	21.250	5.4317e-02
12.000	21.500	6.6946e-02
12.000	21.750	6.9845e-02
12.000	22.000	7.2350e-02
12.000	22.250	7.5571e-02
12.000	22.500	7.6560e-02
12.000	22.750	7.6783e-02
12.000	23.000	7.6902e-02
12.000	23.250	7.6983e-02
12.000	23.500	7.7007e-02
12.000	23.750	7.7018e-02
12.000	24.000	7.7028e-02
12.250	17.000	1.9732e-03
12.250	17.250	2.3348e-03
12.250	17.500	2.5871e-03
12.250	17.750	2.8303e-03
12.250	18.000	2.9800e-03
12.250	18.250	2.9998e-03
12.250	18.500	3.0084e-03
12.250	18.750	3.0780e-03
12.250	19.000	3.2226e-03
12.250	19.250	3.4695e-03
12.250	19.500	3.8635e-03
12.250	19.750	4.4751e-03
12.250	20.000	5.3705e-03
12.250	20.250	6.7065e-03
12.250	20.500	8.8588e-03
12.250	20.750	1.2585e-02
12.250	21.000	1.9494e-02
12.250	21.250	3.2771e-02
12.250	21.500	5.5911e-02
12.250	21.750	6.7238e-02
12.250	22.000	7.0198e-02
12.250	22.250	7.3159e-02
12.250	22.500	7.5898e-02
12.250	22.750	7.6525e-02
12.250	23.000	7.6759e-02
12.250	23.250	7.6887e-02
12.250	23.500	7.6978e-02
12.250	23.750	7.7005e-02
12.250	24.000	7.7018e-02
12.500	17.000	1.3428e-03
12.500	17.250	1.7393e-03
12.500	17.500	2.1023e-03
12.500	17.750	2.3669e-03
12.500	18.000	2.4952e-03
12.500	18.250	2.5524e-03
12.500	18.500	2.6186e-03
12.500	18.750	2.7238e-03
12.500	19.000	2.8695e-03
12.500	19.250	3.0658e-03
12.500	19.500	3.3443e-03
12.500	19.750	3.7548e-03
12.500	20.000	4.3714e-03
12.500	20.250	5.2638e-03
12.500	20.500	6.5888e-03
12.500	20.750	8.7530e-03
12.500	21.000	1.2553e-02
12.500	21.250	1.9673e-02
12.500	21.500	3.3388e-02
12.500	21.750	5.8452e-02
12.500	22.000	6.7650e-02
12.500	22.250	7.0691e-02
12.500	22.500	7.3946e-02
12.500	22.750	7.6033e-02
12.500	23.000	7.6497e-02
12.500	23.250	7.6733e-02
12.500	23.500	7.6871e-02
12.500	23.750	7.6971e-02
12.500	24.000	7.7004e-02
12.750	17.000	9.3926e-04
12.750	17.250	1.2575e-03
12.750	17.500	1.5128e-03
12.750	17.750	1.6980e-03
12.750	18.000	1.8529e-03
12.750	18.250	2.0011e-03
12.750	18.500	2.1472e-03
12.750	18.750	2.3070e-03
12.750	19.000	2.4882e-03
12.750	19.250	2.6881e-03
12.750	19.500	2.9180e-03
12.750	19.750	3.2139e-03
12.750	20.000	3.6313e-03
12.750	20.250	4.2407e-03
12.750	20.500	5.1169e-03
12.750	20.750	6.4340e-03
12.750	21.000	8.6035e-03
12.750	21.250	1.2510e-02
12.750	21.500	1.9803e-02
12.750	21.750	3.4740e-02
12.750	22.000	6.1240e-02
12.750	22.250	6.8054e-02
12.750	22.500	7.1357e-02
12.750	22.750	7.4439e-02
12.750	23.000	7.6060e-02
12.750	23.250	7.6475e-02
12.750	23.500	7.6714e-02
12.750	23.750	7.6858e-02
12.750	24.000	7.6961e-02
13.000	17.000	5.9745e-04
13.000	17.250	8.1391e-04
13.000	17.500	9.7333e-04
13.000	17.750	1.1062e-03
13.000	18.000	1.2662e-03
13.000	18.250	1.4452e-03
13.000	18.500	1.6360e-03
13.000	18.750	1.8403e-03
13.000	19.000	2.0607e-03
13.000	19.250	2.2883e-03
13.000	19.500	2.5184e-03
13.000	19.750	2.7678e-03
13.000	20.000	3.0703e-03
13.000	20.250	3.4845e-03
13.000	20.500	4.0867e-03
13.000	20.750	4.9386e-03
13.000	21.000	6.2410e-03
13.000	21.250	8.4510e-03
13.000	21.500	1.2407e-02
13.000	21.750	2.0299e-02
13.000	22.000	3.6831e-02
13.000	22.250	6.3497e-02
13.000	22.500	6.8532e-02
13.000	22.750	7.1854e-02
13.000	23.000	7.4636e-02
13.000	23.250	7.6058e-02
13.000	23.500	7.6457e-02
13.000	23.750	7.6697e-02
13.000	24.000	7.6841e-02
13.250	17.000	3.8486e-04
13.250	17.250	5.2551e-04
13.250	17.500	6.3868e-04
13.250	17.750	7.1514e-04
13.250	18.000	8.2346e-04
13.250	18.250	9.7457e-04
13.250	18.500	1.1579e-03
13.250	18.750	1.3688e-03
13.250	19.000	1.6049e-03
13.250	19.250	1.8570e-03
13.250	19.500	2.1095e-03
13.250	19.750	2.3599e-03
13.250	20.000	2.6174e-03
13.250	20.250	2.9206e-03
13.250	20.500	3.3246e-03
13.250	20.750	3.8993e-03
13.250	21.000	4.7356e-03
13.250	21.250	6.0300e-03
13.250	21.500	8.2405e-03
13.250	21.750	1.2305e-02
13.250	22.000	2.0957e-02
13.250	22.250	3.9371e-02
13.250	22.500	6.4494e-02
13.250	22.750	6.8554e-02
13.250	23.000	7.1874e-02
13.250	23.250	7.4667e-02
13.250	23.500	7.6044e-02
13.250	23.750	7.6439e-02
13.250	24.000	7.6671e-02
13.500	17.000	2.5786e-04
13.500	17.250	3.4412e-04
13.500	17.500	4.1646e-04
13.500	17.750	4.6576e-04
13.500	18.000	5.3152e-04
13.500	18.250	6.3457e-04
13.500	18.500	7.7572e-04
13.500	18.750	9.5300e-04
13.500	19.000	1.1688e-03
13.500	19.250	1.4141e-03
13.500	19.500	1.6739e-03
13.500	19.750	1.9316e-03
13.500	20.000	2.1830e-03
13.500	20.250	2.4416e-03
13.500	20.500	2.7379e-03
13.500	20.750	3.1293e-03
13.500	21.000	3.6822e-03
13.500	21.250	4.4846e-03
13.500	21.500	5.7628e-03
13.500	21.750	7.9425e-03
13.500	22.000	1.2215e-02
13.500	22.250	2.1974e-02
13.500	22.500	4.3530e-02
13.500	22.750	6.4966e-02
13.500	23.000	6.8650e-02
13.500	23.250	7.1623e-02
13.500	23.500	7.4535e-02
13.500	23.750	7.6007e-02
13.500	24.000	7.6402e-02
13.750	17.000	1.8058e-04
13.750	17.250	2.3588e-04
13.750	17.500	2.8123e-04
13.750	17.750	3.1432e-04
13.750	18.000	3.5259e-04
13.750	18.250	4.1523e-04
13.750	18.500	5.0807e-04
13.750	18.750	6.3556e-04
13.750	19.000	8.0247e-04
13.750	19.250	1.0104e-03
13.750	19.500	1.2495e-03
13.750	19.750	1.5035e-03
13.750	20.000	1.7562e-03
13.750	20.250	2.0012e-03
13.750	20.500	2.2537e-03
13.750	20.750	2.5418e-03
13.750	21.000	2.9156e-03
13.750	21.250	3.4426e-03
13.750	21.500	4.2162e-03
13.750	21.750	5.4397e-03
13.750	22.000	7.6770e-03
13.750	22.250	1.2435e-02
13.750	22.500	2.3386e-02
13.750	22.750	4.7656e-02
13.750	23.000	6.5380e-02
13.750	23.250	6.8675e-02
13.750	23.500	7.1439e-02
13.750	23.750	7.4580e-02
13.750	24.000	7.5941e-02
14.000	17.000	1.3177e-04
14.000	17.250	1.7037e-04
14.000	17.500	2.0082e-04
14.000	17.750	2.2107e-04
14.000	18.000	2.4494e-04
14.000	18.250	2.8189e-04
14.000	18.500	3.3885e-04
14.000	18.750	4.2033e-04
14.000	19.000	5.3383e-04
14.000	19.250	6.8691e-04
14.000	19.500	8.7975e-04
14.000	19.750	1.1042e-03
14.000	20.000	1.3447e-03
14.000	20.250	1.5858e-03
14.000	20.500	1.8203e-03
14.000	20.750	2.0612e-03
14.000	21.000	2.3376e-03
14.000	21.250	2.6987e-03
14.000	21.500	3.2114e-03
14.000	21.750	3.9423e-03
14.000	22.000	5.1735e-03
14.000	22.250	7.6170e-03
14.000	22.500	1.3176e-02
14.000	22.750	2.6374e-02
14.000	23.000	5.1882e-02
14.000	23.250	6.5630e-02
14.000	23.500	6.8654e-02
14.000	23.750	7.1583e-02
14.000	24.000	7.4734e-02
