nFnu 1064.34A  relative to Inci 1215.00A scaled to 1215A.
Hden   Phi(H)  Eq_Width (A)
 7.000	17.000	9.3482e-02
 7.000	17.250	1.1336e-01
 7.000	17.500	1.1507e-01
 7.000	17.750	1.1174e-01
 7.000	18.000	1.0082e-01
 7.000	18.250	9.1491e-02
 7.000	18.500	8.4449e-02
 7.000	18.750	8.0891e-02
 7.000	19.000	7.9055e-02
 7.000	19.250	7.7989e-02
 7.000	19.500	7.7537e-02
 7.000	19.750	7.7347e-02
 7.000	20.000	7.7264e-02
 7.000	20.250	7.7225e-02
 7.000	20.500	7.7206e-02
 7.000	20.750	7.7195e-02
 7.000	21.000	7.7190e-02
 7.000	21.250	7.7187e-02
 7.000	21.500	7.7186e-02
 7.000	21.750	7.7185e-02
 7.000	22.000	7.7185e-02
 7.000	22.250	7.7185e-02
 7.000	22.500	7.7185e-02
 7.000	22.750	7.7193e-02
 7.000	23.000	7.7187e-02
 7.000	23.250	7.7187e-02
 7.000	23.500	7.7187e-02
 7.000	23.750	7.7187e-02
 7.000	24.000	7.7188e-02
 7.250	17.000	6.2271e-02
 7.250	17.250	9.0822e-02
 7.250	17.500	1.1122e-01
 7.250	17.750	1.1433e-01
 7.250	18.000	1.1141e-01
 7.250	18.250	1.0066e-01
 7.250	18.500	9.1409e-02
 7.250	18.750	8.4420e-02
 7.250	19.000	8.0880e-02
 7.250	19.250	7.9051e-02
 7.250	19.500	7.7988e-02
 7.250	19.750	7.7537e-02
 7.250	20.000	7.7347e-02
 7.250	20.250	7.7264e-02
 7.250	20.500	7.7225e-02
 7.250	20.750	7.7205e-02
 7.250	21.000	7.7195e-02
 7.250	21.250	7.7190e-02
 7.250	21.500	7.7187e-02
 7.250	21.750	7.7185e-02
 7.250	22.000	7.7184e-02
 7.250	22.250	7.7184e-02
 7.250	22.500	7.7184e-02
 7.250	22.750	7.7184e-02
 7.250	23.000	7.7184e-02
 7.250	23.250	7.7184e-02
 7.250	23.500	7.7184e-02
 7.250	23.750	7.7184e-02
 7.250	24.000	7.7184e-02
 7.500	17.000	4.0136e-02
 7.500	17.250	5.8895e-02
 7.500	17.500	8.8420e-02
 7.500	17.750	1.0920e-01
 7.500	18.000	1.1385e-01
 7.500	18.250	1.1124e-01
 7.500	18.500	1.0058e-01
 7.500	18.750	9.1358e-02
 7.500	19.000	8.4401e-02
 7.500	19.250	8.0872e-02
 7.500	19.500	7.9048e-02
 7.500	19.750	7.7987e-02
 7.500	20.000	7.7537e-02
 7.500	20.250	7.7347e-02
 7.500	20.500	7.7264e-02
 7.500	20.750	7.7225e-02
 7.500	21.000	7.7205e-02
 7.500	21.250	7.7195e-02
 7.500	21.500	7.7190e-02
 7.500	21.750	7.7187e-02
 7.500	22.000	7.7185e-02
 7.500	22.250	7.7184e-02
 7.500	22.500	7.7184e-02
 7.500	22.750	7.7183e-02
 7.500	23.000	7.7184e-02
 7.500	23.250	7.7183e-02
 7.500	23.500	7.7183e-02
 7.500	23.750	7.7183e-02
 7.500	24.000	7.7183e-02
 7.750	17.000	2.7963e-02
 7.750	17.250	3.7243e-02
 7.750	17.500	5.6139e-02
 7.750	17.750	8.6368e-02
 7.750	18.000	1.0767e-01
 7.750	18.250	1.1357e-01
 7.750	18.500	1.1118e-01
 7.750	18.750	1.0055e-01
 7.750	19.000	9.1326e-02
 7.750	19.250	8.4389e-02
 7.750	19.500	8.0868e-02
 7.750	19.750	7.9046e-02
 7.750	20.000	7.7987e-02
 7.750	20.250	7.7537e-02
 7.750	20.500	7.7347e-02
 7.750	20.750	7.7264e-02
 7.750	21.000	7.7225e-02
 7.750	21.250	7.7205e-02
 7.750	21.500	7.7195e-02
 7.750	21.750	7.7190e-02
 7.750	22.000	7.7187e-02
 7.750	22.250	7.7185e-02
 7.750	22.500	7.7184e-02
 7.750	22.750	7.7183e-02
 7.750	23.000	7.7183e-02
 7.750	23.250	7.7183e-02
 7.750	23.500	7.7183e-02
 7.750	23.750	7.7183e-02
 7.750	24.000	7.7183e-02
 8.000	17.000	2.0623e-02
 8.000	17.250	2.5346e-02
 8.000	17.500	3.4603e-02
 8.000	17.750	5.3483e-02
 8.000	18.000	8.4223e-02
 8.000	18.250	1.0657e-01
 8.000	18.500	1.1341e-01
 8.000	18.750	1.1118e-01
 8.000	19.000	1.0057e-01
 8.000	19.250	9.1310e-02
 8.000	19.500	8.4382e-02
 8.000	19.750	8.0865e-02
 8.000	20.000	7.9045e-02
 8.000	20.250	7.7987e-02
 8.000	20.500	7.7537e-02
 8.000	20.750	7.7347e-02
 8.000	21.000	7.7264e-02
 8.000	21.250	7.7225e-02
 8.000	21.500	7.7205e-02
 8.000	21.750	7.7195e-02
 8.000	22.000	7.7190e-02
 8.000	22.250	7.7187e-02
 8.000	22.500	7.7185e-02
 8.000	22.750	7.7184e-02
 8.000	23.000	7.7183e-02
 8.000	23.250	7.7183e-02
 8.000	23.500	7.7183e-02
 8.000	23.750	7.7183e-02
 8.000	24.000	7.7183e-02
 8.250	17.000	1.6280e-02
 8.250	17.250	1.8699e-02
 8.250	17.500	2.3639e-02
 8.250	17.750	3.3059e-02
 8.250	18.000	5.2106e-02
 8.250	18.250	8.3222e-02
 8.250	18.500	1.0587e-01
 8.250	18.750	1.1339e-01
 8.250	19.000	1.1123e-01
 8.250	19.250	1.0060e-01
 8.250	19.500	9.1300e-02
 8.250	19.750	8.4377e-02
 8.250	20.000	8.0863e-02
 8.250	20.250	7.9044e-02
 8.250	20.500	7.7987e-02
 8.250	20.750	7.7537e-02
 8.250	21.000	7.7347e-02
 8.250	21.250	7.7264e-02
 8.250	21.500	7.7225e-02
 8.250	21.750	7.7205e-02
 8.250	22.000	7.7195e-02
 8.250	22.250	7.7189e-02
 8.250	22.500	7.7186e-02
 8.250	22.750	7.7185e-02
 8.250	23.000	7.7184e-02
 8.250	23.250	7.7183e-02
 8.250	23.500	7.7183e-02
 8.250	23.750	7.7183e-02
 8.250	24.000	7.7183e-02
 8.500	17.000	1.3650e-02
 8.500	17.250	1.4756e-02
 8.500	17.500	1.7389e-02
 8.500	17.750	2.2456e-02
 8.500	18.000	3.2129e-02
 8.500	18.250	5.1894e-02
 8.500	18.500	8.3313e-02
 8.500	18.750	1.0546e-01
 8.500	19.000	1.1346e-01
 8.500	19.250	1.1131e-01
 8.500	19.500	1.0066e-01
 8.500	19.750	9.1294e-02
 8.500	20.000	8.4373e-02
 8.500	20.250	8.0862e-02
 8.500	20.500	7.9044e-02
 8.500	20.750	7.7986e-02
 8.500	21.000	7.7537e-02
 8.500	21.250	7.7347e-02
 8.500	21.500	7.7264e-02
 8.500	21.750	7.7225e-02
 8.500	22.000	7.7205e-02
 8.500	22.250	7.7195e-02
 8.500	22.500	7.7189e-02
 8.500	22.750	7.7187e-02
 8.500	23.000	7.7185e-02
 8.500	23.250	7.7184e-02
 8.500	23.500	7.7183e-02
 8.500	23.750	7.7183e-02
 8.500	24.000	7.7183e-02
 8.750	17.000	1.2189e-02
 8.750	17.250	1.2478e-02
 8.750	17.500	1.3773e-02
 8.750	17.750	1.6541e-02
 8.750	18.000	2.1878e-02
 8.750	18.250	3.2188e-02
 8.750	18.500	5.3713e-02
 8.750	18.750	8.5262e-02
 8.750	19.000	1.0521e-01
 8.750	19.250	1.1356e-01
 8.750	19.500	1.1140e-01
 8.750	19.750	1.0073e-01
 8.750	20.000	9.1292e-02
 8.750	20.250	8.4371e-02
 8.750	20.500	8.0861e-02
 8.750	20.750	7.9044e-02
 8.750	21.000	7.7986e-02
 8.750	21.250	7.7537e-02
 8.750	21.500	7.7347e-02
 8.750	21.750	7.7264e-02
 8.750	22.000	7.7225e-02
 8.750	22.250	7.7205e-02
 8.750	22.500	7.7195e-02
 8.750	22.750	7.7189e-02
 8.750	23.000	7.7187e-02
 8.750	23.250	7.7185e-02
 8.750	23.500	7.7184e-02
 8.750	23.750	7.7183e-02
 8.750	24.000	7.7183e-02
 9.000	17.000	1.1539e-02
 9.000	17.250	1.1274e-02
 9.000	17.500	1.1750e-02
 9.000	17.750	1.3198e-02
 9.000	18.000	1.6200e-02
 9.000	18.250	2.2043e-02
 9.000	18.500	3.3856e-02
 9.000	18.750	5.8022e-02
 9.000	19.000	8.9048e-02
 9.000	19.250	1.0501e-01
 9.000	19.500	1.1366e-01
 9.000	19.750	1.1150e-01
 9.000	20.000	1.0081e-01
 9.000	20.250	9.1291e-02
 9.000	20.500	8.4368e-02
 9.000	20.750	8.0861e-02
 9.000	21.000	7.9044e-02
 9.000	21.250	7.7986e-02
 9.000	21.500	7.7537e-02
 9.000	21.750	7.7347e-02
 9.000	22.000	7.7264e-02
 9.000	22.250	7.7225e-02
 9.000	22.500	7.7205e-02
 9.000	22.750	7.7195e-02
 9.000	23.000	7.7189e-02
 9.000	23.250	7.7187e-02
 9.000	23.500	7.7185e-02
 9.000	23.750	7.7184e-02
 9.000	24.000	7.7183e-02
 9.250	17.000	1.1484e-02
 9.250	17.250	1.0782e-02
 9.250	17.500	1.0731e-02
 9.250	17.750	1.1407e-02
 9.250	18.000	1.3217e-02
 9.250	18.250	1.6655e-02
 9.250	18.500	2.3387e-02
 9.250	18.750	3.7320e-02
 9.250	19.000	6.4606e-02
 9.250	19.250	9.3650e-02
 9.250	19.500	1.0481e-01
 9.250	19.750	1.1372e-01
 9.250	20.000	1.1159e-01
 9.250	20.250	1.0088e-01
 9.250	20.500	9.1290e-02
 9.250	20.750	8.4367e-02
 9.250	21.000	8.0860e-02
 9.250	21.250	7.9044e-02
 9.250	21.500	7.7978e-02
 9.250	21.750	7.7499e-02
 9.250	22.000	7.7307e-02
 9.250	22.250	7.7226e-02
 9.250	22.500	7.7224e-02
 9.250	22.750	7.7205e-02
 9.250	23.000	7.7195e-02
 9.250	23.250	7.7189e-02
 9.250	23.500	7.7186e-02
 9.250	23.750	7.7185e-02
 9.250	24.000	7.7184e-02
 9.500	17.000	1.1923e-02
 9.500	17.250	1.0809e-02
 9.500	17.500	1.0373e-02
 9.500	17.750	1.0621e-02
 9.500	18.000	1.1681e-02
 9.500	18.250	1.3812e-02
 9.500	18.500	1.7878e-02
 9.500	18.750	2.5887e-02
 9.500	19.000	4.2924e-02
 9.500	19.250	7.2567e-02
 9.500	19.500	9.6268e-02
 9.500	19.750	1.0466e-01
 9.500	20.000	1.1373e-01
 9.500	20.250	1.1165e-01
 9.500	20.500	1.0095e-01
 9.500	20.750	9.1289e-02
 9.500	21.000	8.4353e-02
 9.500	21.250	8.0827e-02
 9.500	21.500	7.9002e-02
 9.500	21.750	7.7940e-02
 9.500	22.000	7.7475e-02
 9.500	22.250	7.7273e-02
 9.500	22.500	7.7193e-02
 9.500	22.750	7.7155e-02
 9.500	23.000	7.7135e-02
 9.500	23.250	7.7123e-02
 9.500	23.500	7.7142e-02
 9.500	23.750	7.7138e-02
 9.500	24.000	7.7137e-02
 9.750	17.000	1.2813e-02
 9.750	17.250	1.1248e-02
 9.750	17.500	1.0455e-02
 9.750	17.750	1.0407e-02
 9.750	18.000	1.1076e-02
 9.750	18.250	1.2503e-02
 9.750	18.500	1.5110e-02
 9.750	18.750	2.0053e-02
 9.750	19.000	3.0035e-02
 9.750	19.250	5.0952e-02
 9.750	19.500	8.0916e-02
 9.750	19.750	9.7129e-02
 9.750	20.000	1.0460e-01
 9.750	20.250	1.1366e-01
 9.750	20.500	1.1169e-01
 9.750	20.750	1.0100e-01
 9.750	21.000	9.1290e-02
 9.750	21.250	8.4359e-02
 9.750	21.500	8.0846e-02
 9.750	21.750	7.9006e-02
 9.750	22.000	7.7944e-02
 9.750	22.250	7.7484e-02
 9.750	22.500	7.7281e-02
 9.750	22.750	7.7190e-02
 9.750	23.000	7.7153e-02
 9.750	23.250	7.7135e-02
 9.750	23.500	7.7125e-02
 9.750	23.750	7.7119e-02
 9.750	24.000	7.7116e-02
10.000	17.000	1.4175e-02
10.000	17.250	1.2086e-02
10.000	17.500	1.0869e-02
10.000	17.750	1.0548e-02
10.000	18.000	1.1066e-02
10.000	18.250	1.2131e-02
10.000	18.500	1.3910e-02
10.000	18.750	1.7226e-02
10.000	19.000	2.3708e-02
10.000	19.250	3.7730e-02
10.000	19.500	6.4758e-02
10.000	19.750	8.7901e-02
10.000	20.000	9.7659e-02
10.000	20.250	1.0469e-01
10.000	20.500	1.1365e-01
10.000	20.750	1.1171e-01
10.000	21.000	1.0105e-01
10.000	21.250	9.1290e-02
10.000	21.500	8.4359e-02
10.000	21.750	8.0855e-02
10.000	22.000	7.9021e-02
10.000	22.250	7.7946e-02
10.000	22.500	7.7490e-02
10.000	22.750	7.7291e-02
10.000	23.000	7.7198e-02
10.000	23.250	7.7154e-02
10.000	23.500	7.7132e-02
10.000	23.750	7.7122e-02
10.000	24.000	7.7116e-02
10.250	17.000	1.6093e-02
10.250	17.250	1.3381e-02
10.250	17.500	1.1704e-02
10.250	17.750	1.1109e-02
10.250	18.000	1.1479e-02
10.250	18.250	1.2345e-02
10.250	18.500	1.3715e-02
10.250	18.750	1.6184e-02
10.250	19.000	2.0951e-02
10.250	19.250	3.0312e-02
10.250	19.500	4.8187e-02
10.250	19.750	7.3845e-02
10.250	20.000	9.0140e-02
10.250	20.250	9.7593e-02
10.250	20.500	1.0507e-01
10.250	20.750	1.1385e-01
10.250	21.000	1.1170e-01
10.250	21.250	1.0108e-01
10.250	21.500	9.1290e-02
10.250	21.750	8.4358e-02
10.250	22.000	8.0858e-02
10.250	22.250	7.9037e-02
10.250	22.500	7.7947e-02
10.250	22.750	7.7494e-02
10.250	23.000	7.7298e-02
10.250	23.250	7.7208e-02
10.250	23.500	7.7164e-02
10.250	23.750	7.7141e-02
10.250	24.000	7.7129e-02
10.500	17.000	1.8548e-02
10.500	17.250	1.5218e-02
10.500	17.500	1.3034e-02
10.500	17.750	1.2144e-02
10.500	18.000	1.2291e-02
10.500	18.250	1.3016e-02
10.500	18.500	1.4100e-02
10.500	18.750	1.5864e-02
10.500	19.000	1.8747e-02
10.500	19.250	2.4087e-02
10.500	19.500	3.4448e-02
10.500	19.750	5.4148e-02
10.500	20.000	7.9314e-02
10.500	20.250	9.1649e-02
10.500	20.500	9.8207e-02
10.500	20.750	1.0594e-01
10.500	21.000	1.1447e-01
10.500	21.250	1.1172e-01
10.500	21.500	1.0111e-01
10.500	21.750	9.1290e-02
10.500	22.000	8.4356e-02
10.500	22.250	8.0859e-02
10.500	22.500	7.9042e-02
10.500	22.750	7.7954e-02
10.500	23.000	7.7496e-02
10.500	23.250	7.7303e-02
10.500	23.500	7.7215e-02
10.500	23.750	7.7173e-02
10.500	24.000	7.7151e-02
10.750	17.000	2.1336e-02
10.750	17.250	1.7552e-02
10.750	17.500	1.4931e-02
10.750	17.750	1.3746e-02
10.750	18.000	1.3590e-02
10.750	18.250	1.3937e-02
10.750	18.500	1.4653e-02
10.750	18.750	1.5695e-02
10.750	19.000	1.7393e-02
10.750	19.250	2.0456e-02
10.750	19.500	2.6382e-02
10.750	19.750	3.8109e-02
10.750	20.000	5.9343e-02
10.750	20.250	8.3406e-02
10.750	20.500	9.2783e-02
10.750	20.750	9.9465e-02
10.750	21.000	1.0738e-01
10.750	21.250	1.1571e-01
10.750	21.500	1.1180e-01
10.750	21.750	1.0112e-01
10.750	22.000	9.1285e-02
10.750	22.250	8.4353e-02
10.750	22.500	8.0860e-02
10.750	22.750	7.9044e-02
10.750	23.000	7.7973e-02
10.750	23.250	7.7497e-02
10.750	23.500	7.7306e-02
10.750	23.750	7.7220e-02
10.750	24.000	7.7179e-02
11.000	17.000	2.3597e-02
11.000	17.250	2.0121e-02
11.000	17.500	1.7307e-02
11.000	17.750	1.5892e-02
11.000	18.000	1.5378e-02
11.000	18.250	1.5217e-02
11.000	18.500	1.5463e-02
11.000	18.750	1.6026e-02
11.000	19.000	1.7009e-02
11.000	19.250	1.8626e-02
11.000	19.500	2.1821e-02
11.000	19.750	2.8381e-02
11.000	20.000	4.1303e-02
11.000	20.250	6.3816e-02
11.000	20.500	8.6330e-02
11.000	20.750	9.3945e-02
11.000	21.000	1.0210e-01
11.000	21.250	1.1009e-01
11.000	21.500	1.1806e-01
11.000	21.750	1.1199e-01
11.000	22.000	1.0113e-01
11.000	22.250	9.1285e-02
11.000	22.500	8.4351e-02
11.000	22.750	8.0859e-02
11.000	23.000	7.9045e-02
11.000	23.250	7.7982e-02
11.000	23.500	7.7504e-02
11.000	23.750	7.7307e-02
11.000	24.000	7.7223e-02
11.250	17.000	2.0566e-02
11.250	17.250	2.1777e-02
11.250	17.500	1.9716e-02
11.250	17.750	1.8353e-02
11.250	18.000	1.7563e-02
11.250	18.250	1.6874e-02
11.250	18.500	1.6414e-02
11.250	18.750	1.6549e-02
11.250	19.000	1.6922e-02
11.250	19.250	1.7567e-02
11.250	19.500	1.9322e-02
11.250	19.750	2.2962e-02
11.250	20.000	3.0189e-02
11.250	20.250	4.4173e-02
11.250	20.500	6.7676e-02
11.250	20.750	8.8380e-02
11.250	21.000	9.6441e-02
11.250	21.250	1.0571e-01
11.250	21.500	1.1448e-01
11.250	21.750	1.2134e-01
11.250	22.000	1.1230e-01
11.250	22.250	1.0114e-01
11.250	22.500	9.1277e-02
11.250	22.750	8.4347e-02
11.250	23.000	8.0859e-02
11.250	23.250	7.9045e-02
11.250	23.500	7.7985e-02
11.250	23.750	7.7523e-02
11.250	24.000	7.7309e-02
11.500	17.000	2.1858e-02
11.500	17.250	1.9455e-02
11.500	17.500	2.0114e-02
11.500	17.750	2.0303e-02
11.500	18.000	1.9643e-02
11.500	18.250	1.8661e-02
11.500	18.500	1.7775e-02
11.500	18.750	1.7433e-02
11.500	19.000	1.7259e-02
11.500	19.250	1.7338e-02
11.500	19.500	1.8055e-02
11.500	19.750	1.9993e-02
11.500	20.000	2.3982e-02
11.500	20.250	3.1753e-02
11.500	20.500	4.6618e-02
11.500	20.750	7.1366e-02
11.500	21.000	9.0176e-02
11.500	21.250	1.0016e-01
11.500	21.500	1.1139e-01
11.500	21.750	1.2103e-01
11.500	22.000	1.2469e-01
11.500	22.250	1.1275e-01
11.500	22.500	1.0116e-01
11.500	22.750	9.1279e-02
11.500	23.000	8.4344e-02
11.500	23.250	8.0858e-02
11.500	23.500	7.9046e-02
11.500	23.750	7.7986e-02
11.500	24.000	7.7532e-02
11.750	17.000	2.2923e-02
11.750	17.250	2.0973e-02
11.750	17.500	1.9631e-02
11.750	17.750	1.9138e-02
11.750	18.000	1.8660e-02
11.750	18.250	1.8817e-02
11.750	18.500	1.8619e-02
11.750	18.750	1.8052e-02
11.750	19.000	1.7660e-02
11.750	19.250	1.7411e-02
11.750	19.500	1.7578e-02
11.750	19.750	1.8382e-02
11.750	20.000	2.0507e-02
11.750	20.250	2.4838e-02
11.750	20.500	3.3045e-02
11.750	20.750	4.8688e-02
11.750	21.000	7.5316e-02
11.750	21.250	9.3739e-02
11.750	21.500	1.0580e-01
11.750	21.750	1.1955e-01
11.750	22.000	1.2897e-01
11.750	22.250	1.2718e-01
11.750	22.500	1.1335e-01
11.750	22.750	1.0118e-01
11.750	23.000	9.1277e-02
11.750	23.250	8.4341e-02
11.750	23.500	8.0857e-02
11.750	23.750	7.9046e-02
11.750	24.000	7.7987e-02
12.000	17.000	2.3085e-02
12.000	17.250	2.1791e-02
12.000	17.500	2.0940e-02
12.000	17.750	2.0685e-02
12.000	18.000	2.0280e-02
12.000	18.250	1.9303e-02
12.000	18.500	1.7948e-02
12.000	18.750	1.6549e-02
12.000	19.000	1.7321e-02
12.000	19.250	1.7472e-02
12.000	19.500	1.7290e-02
12.000	19.750	1.7586e-02
12.000	20.000	1.8592e-02
12.000	20.250	2.0922e-02
12.000	20.500	2.5524e-02
12.000	20.750	3.4182e-02
12.000	21.000	5.0800e-02
12.000	21.250	8.0568e-02
12.000	21.500	9.9709e-02
12.000	21.750	1.1392e-01
12.000	22.000	1.2966e-01
12.000	22.250	1.3683e-01
12.000	22.500	1.2950e-01
12.000	22.750	1.1411e-01
12.000	23.000	1.0120e-01
12.000	23.250	9.1273e-02
12.000	23.500	8.4340e-02
12.000	23.750	8.0855e-02
12.000	24.000	7.9046e-02
12.250	17.000	2.2264e-02
12.250	17.250	2.1699e-02
12.250	17.500	2.1485e-02
12.250	17.750	2.1657e-02
12.250	18.000	2.1463e-02
12.250	18.250	2.0512e-02
12.250	18.500	1.9150e-02
12.250	18.750	1.7691e-02
12.250	19.000	1.6307e-02
12.250	19.250	1.5213e-02
12.250	19.500	1.6609e-02
12.250	19.750	1.7057e-02
12.250	20.000	1.7439e-02
12.250	20.250	1.8697e-02
12.250	20.500	2.1251e-02
12.250	20.750	2.6224e-02
12.250	21.000	3.5619e-02
12.250	21.250	5.3723e-02
12.250	21.500	8.6853e-02
12.250	21.750	1.0747e-01
12.250	22.000	1.2435e-01
12.250	22.250	1.4182e-01
12.250	22.500	1.4409e-01
12.250	22.750	1.3187e-01
12.250	23.000	1.1475e-01
12.250	23.250	1.0126e-01
12.250	23.500	9.1267e-02
12.250	23.750	8.4330e-02
12.250	24.000	8.0853e-02
12.500	17.000	2.1211e-02
12.500	17.250	2.1218e-02
12.500	17.500	2.1582e-02
12.500	17.750	2.1973e-02
12.500	18.000	2.1799e-02
12.500	18.250	2.1039e-02
12.500	18.500	1.9935e-02
12.500	18.750	1.8662e-02
12.500	19.000	1.7291e-02
12.500	19.250	1.5962e-02
12.500	19.500	1.4932e-02
12.500	19.750	1.5064e-02
12.500	20.000	1.6527e-02
12.500	20.250	1.7266e-02
12.500	20.500	1.8737e-02
12.500	20.750	2.1754e-02
12.500	21.000	2.7400e-02
12.500	21.250	3.7582e-02
12.500	21.500	5.7378e-02
12.500	21.750	9.6191e-02
12.500	22.000	1.1766e-01
12.500	22.250	1.3716e-01
12.500	22.500	1.5383e-01
12.500	22.750	1.5117e-01
12.500	23.000	1.3422e-01
12.500	23.250	1.1571e-01
12.500	23.500	1.0132e-01
12.500	23.750	9.1259e-02
12.500	24.000	8.4325e-02
12.750	17.000	2.0606e-02
12.750	17.250	2.0845e-02
12.750	17.500	2.1114e-02
12.750	17.750	2.1307e-02
12.750	18.000	2.1272e-02
12.750	18.250	2.0921e-02
12.750	18.500	2.0220e-02
12.750	18.750	1.9257e-02
12.750	19.000	1.8101e-02
12.750	19.250	1.6811e-02
12.750	19.500	1.5549e-02
12.750	19.750	1.4586e-02
12.750	20.000	1.4136e-02
12.750	20.250	1.5870e-02
12.750	20.500	1.7097e-02
12.750	20.750	1.8975e-02
12.750	21.000	2.2560e-02
12.750	21.250	2.9191e-02
12.750	21.500	4.0504e-02
12.750	21.750	6.2903e-02
12.750	22.000	1.0943e-01
12.750	22.250	1.3004e-01
12.750	22.500	1.5318e-01
12.750	22.750	1.6515e-01
12.750	23.000	1.5774e-01
12.750	23.250	1.3689e-01
12.750	23.500	1.1651e-01
12.750	23.750	1.0139e-01
12.750	24.000	9.1248e-02
13.000	17.000	3.9688e-02
13.000	17.250	2.4069e-02
13.000	17.500	1.9912e-02
13.000	17.750	2.0135e-02
13.000	18.000	2.0318e-02
13.000	18.250	2.0313e-02
13.000	18.500	1.9999e-02
13.000	18.750	1.9384e-02
13.000	19.000	1.8524e-02
13.000	19.250	1.7456e-02
13.000	19.500	1.6234e-02
13.000	19.750	1.5063e-02
13.000	20.000	1.4170e-02
13.000	20.250	1.3815e-02
13.000	20.500	1.4782e-02
13.000	20.750	1.6927e-02
13.000	21.000	1.9415e-02
13.000	21.250	2.3986e-02
13.000	21.500	3.1553e-02
13.000	21.750	4.4749e-02
13.000	22.000	7.1249e-02
13.000	22.250	1.2380e-01
13.000	22.500	1.4276e-01
13.000	22.750	1.6885e-01
13.000	23.000	1.7542e-01
13.000	23.250	1.6421e-01
13.000	23.500	1.3923e-01
13.000	23.750	1.1727e-01
13.000	24.000	1.0149e-01
13.250	17.000	3.8037e-02
13.250	17.250	3.3713e-02
13.250	17.500	1.8764e-02
13.250	17.750	1.8923e-02
13.250	18.000	1.9181e-02
13.250	18.250	1.9378e-02
13.250	18.500	1.9362e-02
13.250	18.750	1.9064e-02
13.250	19.000	1.8508e-02
13.250	19.250	1.7720e-02
13.250	19.500	1.6725e-02
13.250	19.750	1.5634e-02
13.250	20.000	1.4547e-02
13.250	20.250	1.3733e-02
13.250	20.500	1.3458e-02
13.250	20.750	1.3930e-02
13.250	21.000	1.6684e-02
13.250	21.250	1.9980e-02
13.250	21.500	2.5293e-02
13.250	21.750	3.3127e-02
13.250	22.000	4.8616e-02
13.250	22.250	7.9697e-02
13.250	22.500	1.3657e-01
13.250	22.750	1.5414e-01
13.250	23.000	1.8014e-01
13.250	23.250	1.8614e-01
13.250	23.500	1.7009e-01
13.250	23.750	1.4151e-01
13.250	24.000	1.1791e-01
13.500	17.000	3.6338e-02
13.500	17.250	3.3272e-02
13.500	17.500	1.7767e-02
13.500	17.750	1.7715e-02
13.500	18.000	1.7969e-02
13.500	18.250	1.8278e-02
13.500	18.500	1.8442e-02
13.500	18.750	1.8384e-02
13.500	19.000	1.8085e-02
13.500	19.250	1.7561e-02
13.500	19.500	1.6835e-02
13.500	19.750	1.5939e-02
13.500	20.000	1.4950e-02
13.500	20.250	1.4005e-02
13.500	20.500	1.3280e-02
13.500	20.750	1.3062e-02
13.500	21.000	1.3637e-02
13.500	21.250	1.5411e-02
13.500	21.500	1.9819e-02
13.500	21.750	2.5141e-02
13.500	22.000	3.4156e-02
13.500	22.250	5.3048e-02
13.500	22.500	9.5702e-02
13.500	22.750	1.4982e-01
13.500	23.000	1.7152e-01
13.500	23.250	1.9480e-01
13.500	23.500	1.9800e-01
13.500	23.750	1.7652e-01
13.500	24.000	1.4377e-01
13.750	17.000	3.4385e-02
13.750	17.250	3.1371e-02
13.750	17.500	1.7617e-02
13.750	17.750	1.6563e-02
13.750	18.000	1.6767e-02
13.750	18.250	1.7106e-02
13.750	18.500	1.7379e-02
13.750	18.750	1.7471e-02
13.750	19.000	1.7366e-02
13.750	19.250	1.7073e-02
13.750	19.500	1.6593e-02
13.750	19.750	1.5941e-02
13.750	20.000	1.5159e-02
13.750	20.250	1.4313e-02
13.750	20.500	1.3522e-02
13.750	20.750	1.2944e-02
13.750	21.000	1.2830e-02
13.750	21.250	1.3468e-02
13.750	21.500	1.5187e-02
13.750	21.750	1.8441e-02
13.750	22.000	2.4922e-02
13.750	22.250	3.6254e-02
13.750	22.500	5.7873e-02
13.750	22.750	1.1534e-01
13.750	23.000	1.7198e-01
13.750	23.250	1.9502e-01
13.750	23.500	2.1343e-01
13.750	23.750	2.1198e-01
13.750	24.000	1.8259e-01
14.000	17.000	3.1414e-02
14.000	17.250	3.1196e-02
14.000	17.500	1.9248e-02
14.000	17.750	1.5435e-02
14.000	18.000	1.5602e-02
14.000	18.250	1.5924e-02
14.000	18.500	1.6250e-02
14.000	18.750	1.6444e-02
14.000	19.000	1.6465e-02
14.000	19.250	1.6340e-02
14.000	19.500	1.6068e-02
14.000	19.750	1.5652e-02
14.000	20.000	1.5102e-02
14.000	20.250	1.4463e-02
14.000	20.500	1.3801e-02
14.000	20.750	1.3215e-02
14.000	21.000	1.2868e-02
14.000	21.250	1.3007e-02
14.000	21.500	1.3802e-02
14.000	21.750	1.5777e-02
14.000	22.000	1.9598e-02
14.000	22.250	2.6745e-02
14.000	22.500	4.1432e-02
14.000	22.750	7.0105e-02
14.000	23.000	1.4791e-01
14.000	23.250	2.0740e-01
14.000	23.500	2.2916e-01
14.000	23.750	2.4087e-01
14.000	24.000	2.2802e-01
