FeKa 1.78000A  relative to Inci 1215.00A scaled to 1215A.
Hden   Phi(H)  Eq_Width (A)
 7.000	17.000	2.5841e-03
 7.000	17.250	2.7160e-03
 7.000	17.500	2.7920e-03
 7.000	17.750	2.8653e-03
 7.000	18.000	2.9188e-03
 7.000	18.250	3.0123e-03
 7.000	18.500	3.0736e-03
 7.000	18.750	2.9956e-03
 7.000	19.000	2.0940e-03
 7.000	19.250	4.7868e-04
 7.000	19.500	5.4239e-05
 7.000	19.750	5.1029e-06
 7.000	20.000	1.0000e-07
 7.000	20.250	1.0000e-07
 7.000	20.500	1.0000e-07
 7.000	20.750	1.0000e-07
 7.000	21.000	1.0000e-07
 7.000	21.250	1.0000e-07
 7.000	21.500	1.0000e-07
 7.000	21.750	1.0000e-07
 7.000	22.000	1.0000e-07
 7.000	22.250	1.0000e-07
 7.000	22.500	1.0000e-07
 7.000	22.750	1.0000e-07
 7.000	23.000	1.0000e-07
 7.000	23.250	1.0000e-07
 7.000	23.500	1.0000e-07
 7.000	23.750	1.0000e-07
 7.000	24.000	1.0000e-07
 7.250	17.000	2.5012e-03
 7.250	17.250	2.5874e-03
 7.250	17.500	2.7166e-03
 7.250	17.750	2.7928e-03
 7.250	18.000	2.8655e-03
 7.250	18.250	2.9190e-03
 7.250	18.500	3.0123e-03
 7.250	18.750	3.0736e-03
 7.250	19.000	2.9956e-03
 7.250	19.250	2.0941e-03
 7.250	19.500	4.7877e-04
 7.250	19.750	5.4239e-05
 7.250	20.000	5.1029e-06
 7.250	20.250	1.0000e-07
 7.250	20.500	1.0000e-07
 7.250	20.750	1.0000e-07
 7.250	21.000	1.0000e-07
 7.250	21.250	1.0000e-07
 7.250	21.500	1.0000e-07
 7.250	21.750	1.0000e-07
 7.250	22.000	1.0000e-07
 7.250	22.250	1.0000e-07
 7.250	22.500	1.0000e-07
 7.250	22.750	1.0000e-07
 7.250	23.000	1.0000e-07
 7.250	23.250	1.0000e-07
 7.250	23.500	1.0000e-07
 7.250	23.750	1.0000e-07
 7.250	24.000	1.0000e-07
 7.500	17.000	2.4398e-03
 7.500	17.250	2.5046e-03
 7.500	17.500	2.5905e-03
 7.500	17.750	2.7171e-03
 7.500	18.000	2.7935e-03
 7.500	18.250	2.8658e-03
 7.500	18.500	2.9193e-03
 7.500	18.750	3.0126e-03
 7.500	19.000	3.0736e-03
 7.500	19.250	2.9957e-03
 7.500	19.500	2.0944e-03
 7.500	19.750	4.7877e-04
 7.500	20.000	5.4239e-05
 7.500	20.250	5.1029e-06
 7.500	20.500	1.0000e-07
 7.500	20.750	1.0000e-07
 7.500	21.000	1.0000e-07
 7.500	21.250	1.0000e-07
 7.500	21.500	1.0000e-07
 7.500	21.750	1.0000e-07
 7.500	22.000	1.0000e-07
 7.500	22.250	1.0000e-07
 7.500	22.500	1.0000e-07
 7.500	22.750	1.0000e-07
 7.500	23.000	1.0000e-07
 7.500	23.250	1.0000e-07
 7.500	23.500	1.0000e-07
 7.500	23.750	1.0000e-07
 7.500	24.000	1.0000e-07
 7.750	17.000	2.3952e-03
 7.750	17.250	2.4424e-03
 7.750	17.500	2.5081e-03
 7.750	17.750	2.5938e-03
 7.750	18.000	2.7176e-03
 7.750	18.250	2.7942e-03
 7.750	18.500	2.8660e-03
 7.750	18.750	2.9197e-03
 7.750	19.000	3.0128e-03
 7.750	19.250	3.0736e-03
 7.750	19.500	2.9957e-03
 7.750	19.750	2.0947e-03
 7.750	20.000	4.7885e-04
 7.750	20.250	5.4239e-05
 7.750	20.500	5.1029e-06
 7.750	20.750	1.0000e-07
 7.750	21.000	1.0000e-07
 7.750	21.250	1.0000e-07
 7.750	21.500	1.0000e-07
 7.750	21.750	1.0000e-07
 7.750	22.000	1.0000e-07
 7.750	22.250	1.0000e-07
 7.750	22.500	1.0000e-07
 7.750	22.750	1.0000e-07
 7.750	23.000	1.0000e-07
 7.750	23.250	1.0000e-07
 7.750	23.500	1.0000e-07
 7.750	23.750	1.0000e-07
 7.750	24.000	1.0000e-07
 8.000	17.000	2.3657e-03
 8.000	17.250	2.3965e-03
 8.000	17.500	2.4449e-03
 8.000	17.750	2.5128e-03
 8.000	18.000	2.5968e-03
 8.000	18.250	2.7178e-03
 8.000	18.500	2.7947e-03
 8.000	18.750	2.8663e-03
 8.000	19.000	2.9202e-03
 8.000	19.250	3.0129e-03
 8.000	19.500	3.0737e-03
 8.000	19.750	2.9958e-03
 8.000	20.000	2.0950e-03
 8.000	20.250	4.7893e-04
 8.000	20.500	5.4239e-05
 8.000	20.750	5.1029e-06
 8.000	21.000	1.0000e-07
 8.000	21.250	1.0000e-07
 8.000	21.500	1.0000e-07
 8.000	21.750	1.0000e-07
 8.000	22.000	1.0000e-07
 8.000	22.250	1.0000e-07
 8.000	22.500	1.0000e-07
 8.000	22.750	1.0000e-07
 8.000	23.000	1.0000e-07
 8.000	23.250	1.0000e-07
 8.000	23.500	1.0000e-07
 8.000	23.750	1.0000e-07
 8.000	24.000	1.0000e-07
 8.250	17.000	2.3472e-03
 8.250	17.250	2.3670e-03
 8.250	17.500	2.3989e-03
 8.250	17.750	2.4493e-03
 8.250	18.000	2.5195e-03
 8.250	18.250	2.6025e-03
 8.250	18.500	2.7182e-03
 8.250	18.750	2.7954e-03
 8.250	19.000	2.8667e-03
 8.250	19.250	2.9208e-03
 8.250	19.500	3.0133e-03
 8.250	19.750	3.0737e-03
 8.250	20.000	2.9958e-03
 8.250	20.250	2.0954e-03
 8.250	20.500	4.7901e-04
 8.250	20.750	5.4239e-05
 8.250	21.000	5.1029e-06
 8.250	21.250	1.0000e-07
 8.250	21.500	1.0000e-07
 8.250	21.750	1.0000e-07
 8.250	22.000	1.0000e-07
 8.250	22.250	1.0000e-07
 8.250	22.500	1.0000e-07
 8.250	22.750	1.0000e-07
 8.250	23.000	1.0000e-07
 8.250	23.250	1.0000e-07
 8.250	23.500	1.0000e-07
 8.250	23.750	1.0000e-07
 8.250	24.000	1.0000e-07
 8.500	17.000	2.3352e-03
 8.500	17.250	2.3482e-03
 8.500	17.500	2.3690e-03
 8.500	17.750	2.4024e-03
 8.500	18.000	2.4565e-03
 8.500	18.250	2.5297e-03
 8.500	18.500	2.6078e-03
 8.500	18.750	2.7186e-03
 8.500	19.000	2.7961e-03
 8.500	19.250	2.8671e-03
 8.500	19.500	2.9217e-03
 8.500	19.750	3.0137e-03
 8.500	20.000	3.0737e-03
 8.500	20.250	2.9959e-03
 8.500	20.500	2.0958e-03
 8.500	20.750	4.7909e-04
 8.500	21.000	5.4239e-05
 8.500	21.250	5.1029e-06
 8.500	21.500	1.0000e-07
 8.500	21.750	1.0000e-07
 8.500	22.000	1.0000e-07
 8.500	22.250	1.0000e-07
 8.500	22.500	1.0000e-07
 8.500	22.750	1.0000e-07
 8.500	23.000	1.0000e-07
 8.500	23.250	1.0000e-07
 8.500	23.500	1.0000e-07
 8.500	23.750	1.0000e-07
 8.500	24.000	1.0000e-07
 8.750	17.000	2.3272e-03
 8.750	17.250	2.3360e-03
 8.750	17.500	2.3497e-03
 8.750	17.750	2.3719e-03
 8.750	18.000	2.4089e-03
 8.750	18.250	2.4681e-03
 8.750	18.500	2.5412e-03
 8.750	18.750	2.6165e-03
 8.750	19.000	2.7189e-03
 8.750	19.250	2.7969e-03
 8.750	19.500	2.8676e-03
 8.750	19.750	2.9227e-03
 8.750	20.000	3.0139e-03
 8.750	20.250	3.0738e-03
 8.750	20.500	2.9960e-03
 8.750	20.750	2.0963e-03
 8.750	21.000	4.7918e-04
 8.750	21.250	5.4239e-05
 8.750	21.500	5.1029e-06
 8.750	21.750	1.0000e-07
 8.750	22.000	1.0000e-07
 8.750	22.250	1.0000e-07
 8.750	22.500	1.0000e-07
 8.750	22.750	1.0000e-07
 8.750	23.000	1.0000e-07
 8.750	23.250	1.0000e-07
 8.750	23.500	1.0000e-07
 8.750	23.750	1.0000e-07
 8.750	24.000	1.0000e-07
 9.000	17.000	2.3217e-03
 9.000	17.250	2.3277e-03
 9.000	17.500	2.3372e-03
 9.000	17.750	2.3523e-03
 9.000	18.000	2.3773e-03
 9.000	18.250	2.4196e-03
 9.000	18.500	2.4835e-03
 9.000	18.750	2.5574e-03
 9.000	19.000	2.6315e-03
 9.000	19.250	2.7192e-03
 9.000	19.500	2.7975e-03
 9.000	19.750	2.8681e-03
 9.000	20.000	2.9238e-03
 9.000	20.250	3.0143e-03
 9.000	20.500	3.0739e-03
 9.000	20.750	2.9960e-03
 9.000	21.000	2.0969e-03
 9.000	21.250	4.7926e-04
 9.000	21.500	5.4239e-05
 9.000	21.750	5.1029e-06
 9.000	22.000	1.0000e-07
 9.000	22.250	1.0000e-07
 9.000	22.500	1.0000e-07
 9.000	22.750	1.0000e-07
 9.000	23.000	1.0000e-07
 9.000	23.250	1.0000e-07
 9.000	23.500	1.0000e-07
 9.000	23.750	1.0000e-07
 9.000	24.000	1.0000e-07
 9.250	17.000	2.3177e-03
 9.250	17.250	2.3221e-03
 9.250	17.500	2.3286e-03
 9.250	17.750	2.3393e-03
 9.250	18.000	2.3571e-03
 9.250	18.250	2.3871e-03
 9.250	18.500	2.4339e-03
 9.250	18.750	2.4999e-03
 9.250	19.000	2.5717e-03
 9.250	19.250	2.6491e-03
 9.250	19.500	2.7193e-03
 9.250	19.750	2.7980e-03
 9.250	20.000	2.8687e-03
 9.250	20.250	2.9250e-03
 9.250	20.500	3.0148e-03
 9.250	20.750	3.0741e-03
 9.250	21.000	2.9961e-03
 9.250	21.250	2.0977e-03
 9.250	21.500	4.7926e-04
 9.250	21.750	5.4156e-05
 9.250	22.000	5.1029e-06
 9.250	22.250	1.0000e-07
 9.250	22.500	1.0000e-07
 9.250	22.750	1.0000e-07
 9.250	23.000	1.0000e-07
 9.250	23.250	1.0000e-07
 9.250	23.500	1.0000e-07
 9.250	23.750	1.0000e-07
 9.250	24.000	1.0000e-07
 9.500	17.000	2.3151e-03
 9.500	17.250	2.3180e-03
 9.500	17.500	2.3229e-03
 9.500	17.750	2.3307e-03
 9.500	18.000	2.3437e-03
 9.500	18.250	2.3654e-03
 9.500	18.500	2.3989e-03
 9.500	18.750	2.4492e-03
 9.500	19.000	2.5181e-03
 9.500	19.250	2.5872e-03
 9.500	19.500	2.6645e-03
 9.500	19.750	2.7192e-03
 9.500	20.000	2.7983e-03
 9.500	20.250	2.8693e-03
 9.500	20.500	2.9263e-03
 9.500	20.750	3.0151e-03
 9.500	21.000	3.0739e-03
 9.500	21.250	2.9967e-03
 9.500	21.500	2.0961e-03
 9.500	21.750	4.7852e-04
 9.500	22.000	5.4074e-05
 9.500	22.250	5.1029e-06
 9.500	22.500	1.0000e-07
 9.500	22.750	1.0000e-07
 9.500	23.000	1.0000e-07
 9.500	23.250	1.0000e-07
 9.500	23.500	1.0000e-07
 9.500	23.750	1.0000e-07
 9.500	24.000	1.0000e-07
 9.750	17.000	2.3132e-03
 9.750	17.250	2.3152e-03
 9.750	17.500	2.3187e-03
 9.750	17.750	2.3246e-03
 9.750	18.000	2.3349e-03
 9.750	18.250	2.3506e-03
 9.750	18.500	2.3751e-03
 9.750	18.750	2.4111e-03
 9.750	19.000	2.4654e-03
 9.750	19.250	2.5341e-03
 9.750	19.500	2.6032e-03
 9.750	19.750	2.6744e-03
 9.750	20.000	2.7189e-03
 9.750	20.250	2.7983e-03
 9.750	20.500	2.8698e-03
 9.750	20.750	2.9275e-03
 9.750	21.000	3.0156e-03
 9.750	21.250	3.0741e-03
 9.750	21.500	2.9962e-03
 9.750	21.750	2.0962e-03
 9.750	22.000	4.7877e-04
 9.750	22.250	5.4156e-05
 9.750	22.500	5.1029e-06
 9.750	22.750	1.0000e-07
 9.750	23.000	1.0000e-07
 9.750	23.250	1.0000e-07
 9.750	23.500	1.0000e-07
 9.750	23.750	1.0000e-07
 9.750	24.000	1.0000e-07
10.000	17.000	2.3119e-03
10.000	17.250	2.3134e-03
10.000	17.500	2.3157e-03
10.000	17.750	2.3200e-03
10.000	18.000	2.3280e-03
10.000	18.250	2.3398e-03
10.000	18.500	2.3582e-03
10.000	18.750	2.3844e-03
10.000	19.000	2.4233e-03
10.000	19.250	2.4806e-03
10.000	19.500	2.5471e-03
10.000	19.750	2.6205e-03
10.000	20.000	2.6742e-03
10.000	20.250	2.7187e-03
10.000	20.500	2.7984e-03
10.000	20.750	2.8703e-03
10.000	21.000	2.9289e-03
10.000	21.250	3.0160e-03
10.000	21.500	3.0742e-03
10.000	21.750	2.9958e-03
10.000	22.000	2.0959e-03
10.000	22.250	4.7893e-04
10.000	22.500	5.4156e-05
10.000	22.750	5.1029e-06
10.000	23.000	1.0000e-07
10.000	23.250	1.0000e-07
10.000	23.500	1.0000e-07
10.000	23.750	1.0000e-07
10.000	24.000	1.0000e-07
10.250	17.000	2.3110e-03
10.250	17.250	2.3121e-03
10.250	17.500	2.3137e-03
10.250	17.750	2.3168e-03
10.250	18.000	2.3226e-03
10.250	18.250	2.3319e-03
10.250	18.500	2.3453e-03
10.250	18.750	2.3645e-03
10.250	19.000	2.3928e-03
10.250	19.250	2.4356e-03
10.250	19.500	2.4926e-03
10.250	19.750	2.5593e-03
10.250	20.000	2.6376e-03
10.250	20.250	2.6739e-03
10.250	20.500	2.7186e-03
10.250	20.750	2.7987e-03
10.250	21.000	2.8708e-03
10.250	21.250	2.9302e-03
10.250	21.500	3.0162e-03
10.250	21.750	3.0744e-03
10.250	22.000	2.9952e-03
10.250	22.250	2.0950e-03
10.250	22.500	4.7918e-04
10.250	22.750	5.4156e-05
10.250	23.000	5.1029e-06
10.250	23.250	1.0000e-07
10.250	23.500	1.0000e-07
10.250	23.750	1.0000e-07
10.250	24.000	1.0000e-07
10.500	17.000	2.3105e-03
10.500	17.250	2.3112e-03
10.500	17.500	2.3123e-03
10.500	17.750	2.3147e-03
10.500	18.000	2.3188e-03
10.500	18.250	2.3257e-03
10.500	18.500	2.3356e-03
10.500	18.750	2.3495e-03
10.500	19.000	2.3700e-03
10.500	19.250	2.4005e-03
10.500	19.500	2.4445e-03
10.500	19.750	2.5024e-03
10.500	20.000	2.5727e-03
10.500	20.250	2.6497e-03
10.500	20.500	2.6738e-03
10.500	20.750	2.7190e-03
10.500	21.000	2.7999e-03
10.500	21.250	2.8714e-03
10.500	21.500	2.9315e-03
10.500	21.750	3.0165e-03
10.500	22.000	3.0745e-03
10.500	22.250	2.9942e-03
10.500	22.500	2.0925e-03
10.500	22.750	4.7942e-04
10.500	23.000	5.4239e-05
10.500	23.250	5.1029e-06
10.500	23.500	1.0000e-07
10.500	23.750	1.0000e-07
10.500	24.000	1.0000e-07
10.750	17.000	2.3100e-03
10.750	17.250	2.3105e-03
10.750	17.500	2.3114e-03
10.750	17.750	2.3131e-03
10.750	18.000	2.3160e-03
10.750	18.250	2.3206e-03
10.750	18.500	2.3274e-03
10.750	18.750	2.3384e-03
10.750	19.000	2.3532e-03
10.750	19.250	2.3748e-03
10.750	19.500	2.4064e-03
10.750	19.750	2.4519e-03
10.750	20.000	2.5126e-03
10.750	20.250	2.5872e-03
10.750	20.500	2.6503e-03
10.750	20.750	2.6742e-03
10.750	21.000	2.7202e-03
10.750	21.250	2.8029e-03
10.750	21.500	2.8719e-03
10.750	21.750	2.9328e-03
10.750	22.000	3.0170e-03
10.750	22.250	3.0746e-03
10.750	22.500	2.9928e-03
10.750	22.750	2.0889e-03
10.750	23.000	4.8000e-04
10.750	23.250	5.4239e-05
10.750	23.500	5.1029e-06
10.750	23.750	1.0000e-07
10.750	24.000	1.0000e-07
11.000	17.000	2.3097e-03
11.000	17.250	2.3101e-03
11.000	17.500	2.3108e-03
11.000	17.750	2.3120e-03
11.000	18.000	2.3141e-03
11.000	18.250	2.3170e-03
11.000	18.500	2.3215e-03
11.000	18.750	2.3292e-03
11.000	19.000	2.3408e-03
11.000	19.250	2.3562e-03
11.000	19.500	2.3784e-03
11.000	19.750	2.4114e-03
11.000	20.000	2.4592e-03
11.000	20.250	2.5226e-03
11.000	20.500	2.6013e-03
11.000	20.750	2.6506e-03
11.000	21.000	2.6753e-03
11.000	21.250	2.7237e-03
11.000	21.500	2.8095e-03
11.000	21.750	2.8724e-03
11.000	22.000	2.9341e-03
11.000	22.250	3.0172e-03
11.000	22.500	3.0747e-03
11.000	22.750	2.9912e-03
11.000	23.000	2.0840e-03
11.000	23.250	4.8033e-04
11.000	23.500	5.4239e-05
11.000	23.750	5.1029e-06
11.000	24.000	1.0000e-07
11.250	17.000	2.3093e-03
11.250	17.250	2.3098e-03
11.250	17.500	2.3103e-03
11.250	17.750	2.3112e-03
11.250	18.000	2.3126e-03
11.250	18.250	2.3147e-03
11.250	18.500	2.3179e-03
11.250	18.750	2.3227e-03
11.250	19.000	2.3309e-03
11.250	19.250	2.3427e-03
11.250	19.500	2.3584e-03
11.250	19.750	2.3815e-03
11.250	20.000	2.4160e-03
11.250	20.250	2.4660e-03
11.250	20.500	2.5328e-03
11.250	20.750	2.6160e-03
11.250	21.000	2.6514e-03
11.250	21.250	2.6781e-03
11.250	21.500	2.7309e-03
11.250	21.750	2.8199e-03
11.250	22.000	2.8731e-03
11.250	22.250	2.9352e-03
11.250	22.500	3.0179e-03
11.250	22.750	3.0747e-03
11.250	23.000	2.9891e-03
11.250	23.250	2.0782e-03
11.250	23.500	4.8058e-04
11.250	23.750	5.4321e-05
11.250	24.000	5.1029e-06
11.500	17.000	2.3091e-03
11.500	17.250	2.3094e-03
11.500	17.500	2.3100e-03
11.500	17.750	2.3106e-03
11.500	18.000	2.3116e-03
11.500	18.250	2.3129e-03
11.500	18.500	2.3151e-03
11.500	18.750	2.3184e-03
11.500	19.000	2.3239e-03
11.500	19.250	2.3321e-03
11.500	19.500	2.3441e-03
11.500	19.750	2.3604e-03
11.500	20.000	2.3844e-03
11.500	20.250	2.4206e-03
11.500	20.500	2.4733e-03
11.500	20.750	2.5435e-03
11.500	21.000	2.6302e-03
11.500	21.250	2.6535e-03
11.500	21.500	2.6838e-03
11.500	21.750	2.7420e-03
11.500	22.000	2.8280e-03
11.500	22.250	2.8739e-03
11.500	22.500	2.9365e-03
11.500	22.750	3.0180e-03
11.500	23.000	3.0747e-03
11.500	23.250	2.9866e-03
11.500	23.500	2.0715e-03
11.500	23.750	4.8091e-04
11.500	24.000	5.4403e-05
11.750	17.000	2.3094e-03
11.750	17.250	2.3094e-03
11.750	17.500	2.3095e-03
11.750	17.750	2.3100e-03
11.750	18.000	2.3107e-03
11.750	18.250	2.3117e-03
11.750	18.500	2.3132e-03
11.750	18.750	2.3156e-03
11.750	19.000	2.3191e-03
11.750	19.250	2.3246e-03
11.750	19.500	2.3330e-03
11.750	19.750	2.3453e-03
11.750	20.000	2.3621e-03
11.750	20.250	2.3872e-03
11.750	20.500	2.4252e-03
11.750	20.750	2.4811e-03
11.750	21.000	2.5554e-03
11.750	21.250	2.6337e-03
11.750	21.500	2.6573e-03
11.750	21.750	2.6919e-03
11.750	22.000	2.7555e-03
11.750	22.250	2.8310e-03
11.750	22.500	2.8750e-03
11.750	22.750	2.9378e-03
11.750	23.000	3.0181e-03
11.750	23.250	3.0748e-03
11.750	23.500	2.9835e-03
11.750	23.750	2.0640e-03
11.750	24.000	4.8115e-04
12.000	17.000	2.3095e-03
12.000	17.250	2.3096e-03
12.000	17.500	2.3097e-03
12.000	17.750	2.3100e-03
12.000	18.000	2.3103e-03
12.000	18.250	2.3108e-03
12.000	18.500	2.3117e-03
12.000	18.750	2.3135e-03
12.000	19.000	2.3160e-03
12.000	19.250	2.3197e-03
12.000	19.500	2.3252e-03
12.000	19.750	2.3338e-03
12.000	20.000	2.3464e-03
12.000	20.250	2.3638e-03
12.000	20.500	2.3900e-03
12.000	20.750	2.4301e-03
12.000	21.000	2.4896e-03
12.000	21.250	2.5686e-03
12.000	21.500	2.6384e-03
12.000	21.750	2.6625e-03
12.000	22.000	2.7017e-03
12.000	22.250	2.7692e-03
12.000	22.500	2.8342e-03
12.000	22.750	2.8761e-03
12.000	23.000	2.9392e-03
12.000	23.250	3.0187e-03
12.000	23.500	3.0753e-03
12.000	23.750	2.9800e-03
12.000	24.000	2.0554e-03
12.250	17.000	2.0941e-03
12.250	17.250	2.3095e-03
12.250	17.500	2.3097e-03
12.250	17.750	2.3100e-03
12.250	18.000	2.3102e-03
12.250	18.250	2.3105e-03
12.250	18.500	2.3111e-03
12.250	18.750	2.3121e-03
12.250	19.000	2.3135e-03
12.250	19.250	2.3161e-03
12.250	19.500	2.3199e-03
12.250	19.750	2.3257e-03
12.250	20.000	2.3345e-03
12.250	20.250	2.3475e-03
12.250	20.500	2.3654e-03
12.250	20.750	2.3929e-03
12.250	21.000	2.4359e-03
12.250	21.250	2.4999e-03
12.250	21.500	2.5796e-03
12.250	21.750	2.6426e-03
12.250	22.000	2.6686e-03
12.250	22.250	2.7131e-03
12.250	22.500	2.7817e-03
12.250	22.750	2.8372e-03
12.250	23.000	2.8774e-03
12.250	23.250	2.9409e-03
12.250	23.500	3.0189e-03
12.250	23.750	3.0749e-03
12.250	24.000	2.9757e-03
12.500	17.000	1.2611e-03
12.500	17.250	2.1742e-03
12.500	17.500	2.3095e-03
12.500	17.750	2.3098e-03
12.500	18.000	2.3100e-03
12.500	18.250	2.3103e-03
12.500	18.500	2.3108e-03
12.500	18.750	2.3114e-03
12.500	19.000	2.3124e-03
12.500	19.250	2.3139e-03
12.500	19.500	2.3163e-03
12.500	19.750	2.3202e-03
12.500	20.000	2.3261e-03
12.500	20.250	2.3351e-03
12.500	20.500	2.3485e-03
12.500	20.750	2.3672e-03
12.500	21.000	2.3965e-03
12.500	21.250	2.4429e-03
12.500	21.500	2.5084e-03
12.500	21.750	2.5944e-03
12.500	22.000	2.6472e-03
12.500	22.250	2.6753e-03
12.500	22.500	2.7257e-03
12.500	22.750	2.7931e-03
12.500	23.000	2.8400e-03
12.500	23.250	2.8791e-03
12.500	23.500	2.9429e-03
12.500	23.750	3.0192e-03
12.500	24.000	3.0755e-03
12.750	17.000	7.1481e-04
12.750	17.250	1.4437e-03
12.750	17.500	2.2874e-03
12.750	17.750	2.3094e-03
12.750	18.000	2.3097e-03
12.750	18.250	2.3100e-03
12.750	18.500	2.3103e-03
12.750	18.750	2.3108e-03
12.750	19.000	2.3116e-03
12.750	19.250	2.3127e-03
12.750	19.500	2.3142e-03
12.750	19.750	2.3165e-03
12.750	20.000	2.3204e-03
12.750	20.250	2.3264e-03
12.750	20.500	2.3358e-03
12.750	20.750	2.3497e-03
12.750	21.000	2.3697e-03
12.750	21.250	2.4016e-03
12.750	21.500	2.4491e-03
12.750	21.750	2.5217e-03
12.750	22.000	2.6093e-03
12.750	22.250	2.6516e-03
12.750	22.500	2.6830e-03
12.750	22.750	2.7336e-03
12.750	23.000	2.7972e-03
12.750	23.250	2.8427e-03
12.750	23.500	2.8810e-03
12.750	23.750	2.9452e-03
12.750	24.000	3.0198e-03
13.000	17.000	1.2765e-04
13.000	17.250	2.9366e-04
13.000	17.500	1.0669e-03
13.000	17.750	1.9053e-03
13.000	18.000	2.1596e-03
13.000	18.250	2.3097e-03
13.000	18.500	2.3099e-03
13.000	18.750	2.3102e-03
13.000	19.000	2.3109e-03
13.000	19.250	2.3118e-03
13.000	19.500	2.3129e-03
13.000	19.750	2.3145e-03
13.000	20.000	2.3169e-03
13.000	20.250	2.3206e-03
13.000	20.500	2.3268e-03
13.000	20.750	2.3365e-03
13.000	21.000	2.3513e-03
13.000	21.250	2.3731e-03
13.000	21.500	2.4063e-03
13.000	21.750	2.4597e-03
13.000	22.000	2.5383e-03
13.000	22.250	2.6225e-03
13.000	22.500	2.6556e-03
13.000	22.750	2.6894e-03
13.000	23.000	2.7393e-03
13.000	23.250	2.7985e-03
13.000	23.500	2.8452e-03
13.000	23.750	2.8830e-03
13.000	24.000	2.9481e-03
13.250	17.000	7.7942e-05
13.250	17.250	1.4642e-04
13.250	17.500	3.5819e-04
13.250	17.750	8.3037e-04
13.250	18.000	1.5801e-03
13.250	18.250	1.9440e-03
13.250	18.500	2.3095e-03
13.250	18.750	2.3098e-03
13.250	19.000	2.3102e-03
13.250	19.250	2.3109e-03
13.250	19.500	2.3119e-03
13.250	19.750	2.3132e-03
13.250	20.000	2.3148e-03
13.250	20.250	2.3172e-03
13.250	20.500	2.3209e-03
13.250	20.750	2.3272e-03
13.250	21.000	2.3375e-03
13.250	21.250	2.3537e-03
13.250	21.500	2.3761e-03
13.250	21.750	2.4133e-03
13.250	22.000	2.4731e-03
13.250	22.250	2.5548e-03
13.250	22.500	2.6303e-03
13.250	22.750	2.6572e-03
13.250	23.000	2.6906e-03
13.250	23.250	2.7418e-03
13.250	23.500	2.7998e-03
13.250	23.750	2.8475e-03
13.250	24.000	2.8853e-03
13.500	17.000	4.7819e-05
13.500	17.250	8.7901e-05
13.500	17.500	1.9761e-04
13.500	17.750	4.5103e-04
13.500	18.000	9.9416e-04
13.500	18.250	1.7244e-03
13.500	18.500	2.0477e-03
13.500	18.750	2.3095e-03
13.500	19.000	2.3097e-03
13.500	19.250	2.3102e-03
13.500	19.500	2.3109e-03
13.500	19.750	2.3119e-03
13.500	20.000	2.3133e-03
13.500	20.250	2.3151e-03
13.500	20.500	2.3176e-03
13.500	20.750	2.3214e-03
13.500	21.000	2.3277e-03
13.500	21.250	2.3385e-03
13.500	21.500	2.3555e-03
13.500	21.750	2.3815e-03
13.500	22.000	2.4244e-03
13.500	22.250	2.4881e-03
13.500	22.500	2.5728e-03
13.500	22.750	2.6328e-03
13.500	23.000	2.6562e-03
13.500	23.250	2.6891e-03
13.500	23.500	2.7421e-03
13.500	23.750	2.8012e-03
13.500	24.000	2.8500e-03
13.750	17.000	2.8560e-05
13.750	17.250	5.7449e-05
13.750	17.500	1.2313e-04
13.750	17.750	2.4099e-04
13.750	18.000	5.7687e-04
13.750	18.250	1.1985e-03
13.750	18.500	1.7984e-03
13.750	18.750	2.0990e-03
13.750	19.000	2.3095e-03
13.750	19.250	2.3098e-03
13.750	19.500	2.3102e-03
13.750	19.750	2.3109e-03
13.750	20.000	2.3119e-03
13.750	20.250	2.3133e-03
13.750	20.500	2.3152e-03
13.750	20.750	2.3179e-03
13.750	21.000	2.3219e-03
13.750	21.250	2.3286e-03
13.750	21.500	2.3398e-03
13.750	21.750	2.3596e-03
13.750	22.000	2.3897e-03
13.750	22.250	2.4365e-03
13.750	22.500	2.5044e-03
13.750	22.750	2.5876e-03
13.750	23.000	2.6342e-03
13.750	23.250	2.6563e-03
13.750	23.500	2.6882e-03
13.750	23.750	2.7430e-03
13.750	24.000	2.8033e-03
14.000	17.000	1.7202e-05
14.000	17.250	3.4239e-05
14.000	17.500	7.6708e-05
14.000	17.750	1.5103e-04
14.000	18.000	2.9794e-04
14.000	18.250	6.6123e-04
14.000	18.500	1.2270e-03
14.000	18.750	1.8474e-03
14.000	19.000	2.2930e-03
14.000	19.250	2.3095e-03
14.000	19.500	2.3098e-03
14.000	19.750	2.3102e-03
14.000	20.000	2.3109e-03
14.000	20.250	2.3119e-03
14.000	20.500	2.3134e-03
14.000	20.750	2.3154e-03
14.000	21.000	2.3183e-03
14.000	21.250	2.3227e-03
14.000	21.500	2.3297e-03
14.000	21.750	2.3429e-03
14.000	22.000	2.3663e-03
14.000	22.250	2.3995e-03
14.000	22.500	2.4483e-03
14.000	22.750	2.5214e-03
14.000	23.000	2.6002e-03
14.000	23.250	2.6358e-03
14.000	23.500	2.6582e-03
14.000	23.750	2.6925e-03
14.000	24.000	2.7482e-03
