InwT 608.160A  relative to Inci 1215.00A scaled to 1215A.
Hden   Phi(H)  Eq_Width (A)
 7.000	17.000	7.2262e-02
 7.000	17.250	9.9708e-02
 7.000	17.500	1.3249e-01
 7.000	17.750	1.3265e-01
 7.000	18.000	1.0641e-01
 7.000	18.250	8.7562e-02
 7.000	18.500	7.8572e-02
 7.000	18.750	7.5810e-02
 7.000	19.000	7.4510e-02
 7.000	19.250	7.3770e-02
 7.000	19.500	7.3436e-02
 7.000	19.750	7.3289e-02
 7.000	20.000	7.3223e-02
 7.000	20.250	7.3192e-02
 7.000	20.500	7.3176e-02
 7.000	20.750	7.3167e-02
 7.000	21.000	7.3163e-02
 7.000	21.250	7.3161e-02
 7.000	21.500	7.3160e-02
 7.000	21.750	7.3159e-02
 7.000	22.000	7.3159e-02
 7.000	22.250	7.3159e-02
 7.000	22.500	7.3159e-02
 7.000	22.750	7.3167e-02
 7.000	23.000	7.3161e-02
 7.000	23.250	7.3162e-02
 7.000	23.500	7.3162e-02
 7.000	23.750	7.3162e-02
 7.000	24.000	7.3162e-02
 7.250	17.000	5.3646e-02
 7.250	17.250	7.2212e-02
 7.250	17.500	9.9700e-02
 7.250	17.750	1.3243e-01
 7.250	18.000	1.3226e-01
 7.250	18.250	1.0612e-01
 7.250	18.500	8.7429e-02
 7.250	18.750	7.8525e-02
 7.250	19.000	7.5791e-02
 7.250	19.250	7.4503e-02
 7.250	19.500	7.3769e-02
 7.250	19.750	7.3436e-02
 7.250	20.000	7.3289e-02
 7.250	20.250	7.3223e-02
 7.250	20.500	7.3192e-02
 7.250	20.750	7.3176e-02
 7.250	21.000	7.3167e-02
 7.250	21.250	7.3163e-02
 7.250	21.500	7.3160e-02
 7.250	21.750	7.3159e-02
 7.250	22.000	7.3159e-02
 7.250	22.250	7.3158e-02
 7.250	22.500	7.3158e-02
 7.250	22.750	7.3158e-02
 7.250	23.000	7.3158e-02
 7.250	23.250	7.3158e-02
 7.250	23.500	7.3159e-02
 7.250	23.750	7.3158e-02
 7.250	24.000	7.3159e-02
 7.500	17.000	4.1599e-02
 7.500	17.250	5.3726e-02
 7.500	17.500	7.2288e-02
 7.500	17.750	9.9897e-02
 7.500	18.000	1.3262e-01
 7.500	18.250	1.3210e-01
 7.500	18.500	1.0595e-01
 7.500	18.750	8.7347e-02
 7.500	19.000	7.8495e-02
 7.500	19.250	7.5778e-02
 7.500	19.500	7.4498e-02
 7.500	19.750	7.3768e-02
 7.500	20.000	7.3435e-02
 7.500	20.250	7.3289e-02
 7.500	20.500	7.3223e-02
 7.500	20.750	7.3192e-02
 7.500	21.000	7.3176e-02
 7.500	21.250	7.3167e-02
 7.500	21.500	7.3163e-02
 7.500	21.750	7.3160e-02
 7.500	22.000	7.3159e-02
 7.500	22.250	7.3158e-02
 7.500	22.500	7.3158e-02
 7.500	22.750	7.3158e-02
 7.500	23.000	7.3158e-02
 7.500	23.250	7.3158e-02
 7.500	23.500	7.3158e-02
 7.500	23.750	7.3158e-02
 7.500	24.000	7.3158e-02
 7.750	17.000	3.3228e-02
 7.750	17.250	4.1788e-02
 7.750	17.500	5.3841e-02
 7.750	17.750	7.2408e-02
 7.750	18.000	1.0017e-01
 7.750	18.250	1.3296e-01
 7.750	18.500	1.3210e-01
 7.750	18.750	1.0585e-01
 7.750	19.000	8.7296e-02
 7.750	19.250	7.8478e-02
 7.750	19.500	7.5771e-02
 7.750	19.750	7.4496e-02
 7.750	20.000	7.3767e-02
 7.750	20.250	7.3435e-02
 7.750	20.500	7.3289e-02
 7.750	20.750	7.3223e-02
 7.750	21.000	7.3191e-02
 7.750	21.250	7.3176e-02
 7.750	21.500	7.3167e-02
 7.750	21.750	7.3163e-02
 7.750	22.000	7.3160e-02
 7.750	22.250	7.3159e-02
 7.750	22.500	7.3158e-02
 7.750	22.750	7.3158e-02
 7.750	23.000	7.3158e-02
 7.750	23.250	7.3157e-02
 7.750	23.500	7.3157e-02
 7.750	23.750	7.3157e-02
 7.750	24.000	7.3157e-02
 8.000	17.000	2.6767e-02
 8.000	17.250	3.3239e-02
 8.000	17.500	4.1721e-02
 8.000	17.750	5.3762e-02
 8.000	18.000	7.2371e-02
 8.000	18.250	1.0031e-01
 8.000	18.500	1.3331e-01
 8.000	18.750	1.3219e-01
 8.000	19.000	1.0579e-01
 8.000	19.250	8.7266e-02
 8.000	19.500	7.8469e-02
 8.000	19.750	7.5768e-02
 8.000	20.000	7.4494e-02
 8.000	20.250	7.3767e-02
 8.000	20.500	7.3435e-02
 8.000	20.750	7.3289e-02
 8.000	21.000	7.3223e-02
 8.000	21.250	7.3191e-02
 8.000	21.500	7.3176e-02
 8.000	21.750	7.3167e-02
 8.000	22.000	7.3163e-02
 8.000	22.250	7.3160e-02
 8.000	22.500	7.3159e-02
 8.000	22.750	7.3158e-02
 8.000	23.000	7.3158e-02
 8.000	23.250	7.3157e-02
 8.000	23.500	7.3157e-02
 8.000	23.750	7.3157e-02
 8.000	24.000	7.3157e-02
 8.250	17.000	2.1865e-02
 8.250	17.250	2.6910e-02
 8.250	17.500	3.3355e-02
 8.250	17.750	4.1806e-02
 8.250	18.000	5.3832e-02
 8.250	18.250	7.2500e-02
 8.250	18.500	1.0063e-01
 8.250	18.750	1.3377e-01
 8.250	19.000	1.3238e-01
 8.250	19.250	1.0576e-01
 8.250	19.500	8.7247e-02
 8.250	19.750	7.8466e-02
 8.250	20.000	7.5767e-02
 8.250	20.250	7.4494e-02
 8.250	20.500	7.3767e-02
 8.250	20.750	7.3435e-02
 8.250	21.000	7.3288e-02
 8.250	21.250	7.3223e-02
 8.250	21.500	7.3192e-02
 8.250	21.750	7.3176e-02
 8.250	22.000	7.3167e-02
 8.250	22.250	7.3163e-02
 8.250	22.500	7.3160e-02
 8.250	22.750	7.3159e-02
 8.250	23.000	7.3159e-02
 8.250	23.250	7.3158e-02
 8.250	23.500	7.3157e-02
 8.250	23.750	7.3157e-02
 8.250	24.000	7.3157e-02
 8.500	17.000	1.8087e-02
 8.500	17.250	2.1960e-02
 8.500	17.500	2.6997e-02
 8.500	17.750	3.3421e-02
 8.500	18.000	4.1878e-02
 8.500	18.250	5.3888e-02
 8.500	18.500	7.2615e-02
 8.500	18.750	1.0100e-01
 8.500	19.000	1.3431e-01
 8.500	19.250	1.3259e-01
 8.500	19.500	1.0573e-01
 8.500	19.750	8.7236e-02
 8.500	20.000	7.8468e-02
 8.500	20.250	7.5767e-02
 8.500	20.500	7.4494e-02
 8.500	20.750	7.3767e-02
 8.500	21.000	7.3435e-02
 8.500	21.250	7.3289e-02
 8.500	21.500	7.3223e-02
 8.500	21.750	7.3192e-02
 8.500	22.000	7.3176e-02
 8.500	22.250	7.3167e-02
 8.500	22.500	7.3163e-02
 8.500	22.750	7.3160e-02
 8.500	23.000	7.3159e-02
 8.500	23.250	7.3158e-02
 8.500	23.500	7.3158e-02
 8.500	23.750	7.3157e-02
 8.500	24.000	7.3157e-02
 8.750	17.000	1.5167e-02
 8.750	17.250	1.8172e-02
 8.750	17.500	2.2035e-02
 8.750	17.750	2.7064e-02
 8.750	18.000	3.3496e-02
 8.750	18.250	4.1937e-02
 8.750	18.500	5.3929e-02
 8.750	18.750	7.2819e-02
 8.750	19.000	1.0156e-01
 8.750	19.250	1.3486e-01
 8.750	19.500	1.3284e-01
 8.750	19.750	1.0570e-01
 8.750	20.000	8.7231e-02
 8.750	20.250	7.8473e-02
 8.750	20.500	7.5769e-02
 8.750	20.750	7.4494e-02
 8.750	21.000	7.3767e-02
 8.750	21.250	7.3435e-02
 8.750	21.500	7.3288e-02
 8.750	21.750	7.3223e-02
 8.750	22.000	7.3192e-02
 8.750	22.250	7.3176e-02
 8.750	22.500	7.3167e-02
 8.750	22.750	7.3163e-02
 8.750	23.000	7.3160e-02
 8.750	23.250	7.3159e-02
 8.750	23.500	7.3158e-02
 8.750	23.750	7.3158e-02
 8.750	24.000	7.3157e-02
 9.000	17.000	1.2701e-02
 9.000	17.250	1.5324e-02
 9.000	17.500	1.8313e-02
 9.000	17.750	2.2164e-02
 9.000	18.000	2.7185e-02
 9.000	18.250	3.3603e-02
 9.000	18.500	4.2043e-02
 9.000	18.750	5.4108e-02
 9.000	19.000	7.3249e-02
 9.000	19.250	1.0245e-01
 9.000	19.500	1.3546e-01
 9.000	19.750	1.3309e-01
 9.000	20.000	1.0569e-01
 9.000	20.250	8.7229e-02
 9.000	20.500	7.8480e-02
 9.000	20.750	7.5773e-02
 9.000	21.000	7.4495e-02
 9.000	21.250	7.3767e-02
 9.000	21.500	7.3435e-02
 9.000	21.750	7.3289e-02
 9.000	22.000	7.3223e-02
 9.000	22.250	7.3191e-02
 9.000	22.500	7.3176e-02
 9.000	22.750	7.3167e-02
 9.000	23.000	7.3163e-02
 9.000	23.250	7.3160e-02
 9.000	23.500	7.3159e-02
 9.000	23.750	7.3158e-02
 9.000	24.000	7.3158e-02
 9.250	17.000	1.0356e-02
 9.250	17.250	1.2956e-02
 9.250	17.500	1.5606e-02
 9.250	17.750	1.8599e-02
 9.250	18.000	2.2409e-02
 9.250	18.250	2.7391e-02
 9.250	18.500	3.3814e-02
 9.250	18.750	4.2351e-02
 9.250	19.000	5.4652e-02
 9.250	19.250	7.4343e-02
 9.250	19.500	1.0413e-01
 9.250	19.750	1.3618e-01
 9.250	20.000	1.3333e-01
 9.250	20.250	1.0567e-01
 9.250	20.500	8.7226e-02
 9.250	20.750	7.8489e-02
 9.250	21.000	7.5777e-02
 9.250	21.250	7.4497e-02
 9.250	21.500	7.3759e-02
 9.250	21.750	7.3400e-02
 9.250	22.000	7.3250e-02
 9.250	22.250	7.3187e-02
 9.250	22.500	7.3191e-02
 9.250	22.750	7.3175e-02
 9.250	23.000	7.3167e-02
 9.250	23.250	7.3162e-02
 9.250	23.500	7.3160e-02
 9.250	23.750	7.3159e-02
 9.250	24.000	7.3158e-02
 9.500	17.000	7.9872e-03
 9.500	17.250	1.0687e-02
 9.500	17.500	1.3408e-02
 9.500	17.750	1.6112e-02
 9.500	18.000	1.9061e-02
 9.500	18.250	2.2816e-02
 9.500	18.500	2.7809e-02
 9.500	18.750	3.4385e-02
 9.500	19.000	4.3175e-02
 9.500	19.250	5.6005e-02
 9.500	19.500	7.6618e-02
 9.500	19.750	1.0679e-01
 9.500	20.000	1.3720e-01
 9.500	20.250	1.3359e-01
 9.500	20.500	1.0566e-01
 9.500	20.750	8.7231e-02
 9.500	21.000	7.8483e-02
 9.500	21.250	7.5745e-02
 9.500	21.500	7.4458e-02
 9.500	21.750	7.3723e-02
 9.500	22.000	7.3377e-02
 9.500	22.250	7.3219e-02
 9.500	22.500	7.3156e-02
 9.500	22.750	7.3125e-02
 9.500	23.000	7.3109e-02
 9.500	23.250	7.3099e-02
 9.500	23.500	7.3117e-02
 9.500	23.750	7.3115e-02
 9.500	24.000	7.3113e-02
 9.750	17.000	5.6326e-03
 9.750	17.250	8.2987e-03
 9.750	17.500	1.1225e-02
 9.750	17.750	1.4100e-02
 9.750	18.000	1.6812e-02
 9.750	18.250	1.9743e-02
 9.750	18.500	2.3569e-02
 9.750	18.750	2.8776e-02
 9.750	19.000	3.5731e-02
 9.750	19.250	4.5076e-02
 9.750	19.500	5.8801e-02
 9.750	19.750	8.0538e-02
 9.750	20.000	1.1047e-01
 9.750	20.250	1.3887e-01
 9.750	20.500	1.3389e-01
 9.750	20.750	1.0567e-01
 9.750	21.000	8.7251e-02
 9.750	21.250	7.8505e-02
 9.750	21.500	7.5772e-02
 9.750	21.750	7.4464e-02
 9.750	22.000	7.3727e-02
 9.750	22.250	7.3386e-02
 9.750	22.500	7.3226e-02
 9.750	22.750	7.3153e-02
 9.750	23.000	7.3124e-02
 9.750	23.250	7.3109e-02
 9.750	23.500	7.3101e-02
 9.750	23.750	7.3096e-02
 9.750	24.000	7.3094e-02
10.000	17.000	3.3830e-03
10.000	17.250	5.8520e-03
10.000	17.500	8.7943e-03
10.000	17.750	1.1963e-02
10.000	18.000	1.4979e-02
10.000	18.250	1.7794e-02
10.000	18.500	2.0903e-02
10.000	18.750	2.5066e-02
10.000	19.000	3.0777e-02
10.000	19.250	3.8329e-02
10.000	19.500	4.8482e-02
10.000	19.750	6.3646e-02
10.000	20.000	8.5737e-02
10.000	20.250	1.1530e-01
10.000	20.500	1.4124e-01
10.000	20.750	1.3436e-01
10.000	21.000	1.0572e-01
10.000	21.250	8.7281e-02
10.000	21.500	7.8523e-02
10.000	21.750	7.5789e-02
10.000	22.000	7.4481e-02
10.000	22.250	7.3730e-02
10.000	22.500	7.3392e-02
10.000	22.750	7.3235e-02
10.000	23.000	7.3161e-02
10.000	23.250	7.3124e-02
10.000	23.500	7.3106e-02
10.000	23.750	7.3098e-02
10.000	24.000	7.3093e-02
10.250	17.000	1.9342e-03
10.250	17.250	3.5223e-03
10.250	17.500	6.2236e-03
10.250	17.750	9.4388e-03
10.250	18.000	1.2889e-02
10.250	18.250	1.6226e-02
10.250	18.500	1.9428e-02
10.250	18.750	2.3061e-02
10.250	19.000	2.7794e-02
10.250	19.250	3.4141e-02
10.250	19.500	4.2476e-02
10.250	19.750	5.3785e-02
10.250	20.000	7.0763e-02
10.250	20.250	9.3737e-02
10.250	20.500	1.2136e-01
10.250	20.750	1.4460e-01
10.250	21.000	1.3511e-01
10.250	21.250	1.0583e-01
10.250	21.500	8.7327e-02
10.250	21.750	7.8540e-02
10.250	22.000	7.5800e-02
10.250	22.250	7.4499e-02
10.250	22.500	7.3731e-02
10.250	22.750	7.3395e-02
10.250	23.000	7.3242e-02
10.250	23.250	7.3170e-02
10.250	23.500	7.3134e-02
10.250	23.750	7.3114e-02
10.250	24.000	7.3105e-02
10.500	17.000	1.0839e-03
10.500	17.250	2.0029e-03
10.500	17.500	3.7550e-03
10.500	17.750	6.7286e-03
10.500	18.000	1.0327e-02
10.500	18.250	1.4299e-02
10.500	18.500	1.8239e-02
10.500	18.750	2.2079e-02
10.500	19.000	2.6318e-02
10.500	19.250	3.1713e-02
10.500	19.500	3.8826e-02
10.500	19.750	4.8089e-02
10.500	20.000	6.0819e-02
10.500	20.250	7.9726e-02
10.500	20.500	1.0308e-01
10.500	20.750	1.2866e-01
10.500	21.000	1.4885e-01
10.500	21.250	1.3616e-01
10.500	21.500	1.0604e-01
10.500	21.750	8.7403e-02
10.500	22.000	7.8561e-02
10.500	22.250	7.5811e-02
10.500	22.500	7.4508e-02
10.500	22.750	7.3739e-02
10.500	23.000	7.3398e-02
10.500	23.250	7.3247e-02
10.500	23.500	7.3177e-02
10.500	23.750	7.3142e-02
10.500	24.000	7.3124e-02
10.750	17.000	6.5292e-04
10.750	17.250	1.1206e-03
10.750	17.500	2.1413e-03
10.750	17.750	4.1941e-03
10.750	18.000	7.5088e-03
10.750	18.250	1.1790e-02
10.750	18.500	1.6464e-02
10.750	18.750	2.1034e-02
10.750	19.000	2.5430e-02
10.750	19.250	3.0306e-02
10.750	19.500	3.6484e-02
10.750	19.750	4.4515e-02
10.750	20.000	5.4873e-02
10.750	20.250	6.9182e-02
10.750	20.500	8.9533e-02
10.750	20.750	1.1364e-01
10.750	21.000	1.3771e-01
10.750	21.250	1.5445e-01
10.750	21.500	1.3748e-01
10.750	21.750	1.0638e-01
10.750	22.000	8.7536e-02
10.750	22.250	7.8588e-02
10.750	22.500	7.5824e-02
10.750	22.750	7.4515e-02
10.750	23.000	7.3759e-02
10.750	23.250	7.3399e-02
10.750	23.500	7.3250e-02
10.750	23.750	7.3181e-02
10.750	24.000	7.3148e-02
11.000	17.000	4.3663e-04
11.000	17.250	6.7654e-04
11.000	17.500	1.1978e-03
11.000	17.750	2.4140e-03
11.000	18.000	4.8532e-03
11.000	18.250	8.7018e-03
11.000	18.500	1.3693e-02
11.000	18.750	1.8984e-02
11.000	19.000	2.4013e-02
11.000	19.250	2.8988e-02
11.000	19.500	3.4688e-02
11.000	19.750	4.1905e-02
11.000	20.000	5.1057e-02
11.000	20.250	6.2626e-02
11.000	20.500	7.8788e-02
11.000	20.750	1.0133e-01
11.000	21.000	1.2712e-01
11.000	21.250	1.4891e-01
11.000	21.500	1.6179e-01
11.000	21.750	1.3874e-01
11.000	22.000	1.0684e-01
11.000	22.250	8.7716e-02
11.000	22.500	7.8625e-02
11.000	22.750	7.5843e-02
11.000	23.000	7.4524e-02
11.000	23.250	7.3769e-02
11.000	23.500	7.3405e-02
11.000	23.750	7.3252e-02
11.000	24.000	7.3184e-02
11.250	17.000	3.1202e-04
11.250	17.250	4.5218e-04
11.250	17.500	7.2568e-04
11.250	17.750	1.3616e-03
11.250	18.000	2.8337e-03
11.250	18.250	5.6476e-03
11.250	18.500	1.0029e-02
11.250	18.750	1.5621e-02
11.250	19.000	2.1331e-02
11.250	19.250	2.6828e-02
11.250	19.500	3.2632e-02
11.250	19.750	3.9522e-02
11.250	20.000	4.8083e-02
11.250	20.250	5.8583e-02
11.250	20.500	7.1568e-02
11.250	20.750	8.9727e-02
11.250	21.000	1.1536e-01
11.250	21.250	1.4309e-01
11.250	21.500	1.6305e-01
11.250	21.750	1.7069e-01
11.250	22.000	1.4021e-01
11.250	22.250	1.0737e-01
11.250	22.500	8.7993e-02
11.250	22.750	7.8678e-02
11.250	23.000	7.5867e-02
11.250	23.250	7.4535e-02
11.250	23.500	7.3774e-02
11.250	23.750	7.3424e-02
11.250	24.000	7.3254e-02
11.500	17.000	2.3276e-04
11.500	17.250	3.2650e-04
11.500	17.500	4.8872e-04
11.500	17.750	8.2337e-04
11.500	18.000	1.6016e-03
11.500	18.250	3.2660e-03
11.500	18.500	6.3575e-03
11.500	18.750	1.1221e-02
11.500	19.000	1.7320e-02
11.500	19.250	2.3455e-02
11.500	19.500	2.9646e-02
11.500	19.750	3.6669e-02
11.500	20.000	4.5083e-02
11.500	20.250	5.5165e-02
11.500	20.500	6.7103e-02
11.500	20.750	8.1746e-02
11.500	21.000	1.0164e-01
11.500	21.250	1.3198e-01
11.500	21.500	1.6287e-01
11.500	21.750	1.8016e-01
11.500	22.000	1.7898e-01
11.500	22.250	1.4156e-01
11.500	22.500	1.0787e-01
11.500	22.750	8.8291e-02
11.500	23.000	7.8752e-02
11.500	23.250	7.5902e-02
11.500	23.500	7.4550e-02
11.500	23.750	7.3778e-02
11.500	24.000	7.3434e-02
11.750	17.000	1.7753e-04
11.750	17.250	2.4609e-04
11.750	17.500	3.5580e-04
11.750	17.750	5.5053e-04
11.750	18.000	9.5506e-04
11.750	18.250	1.8254e-03
11.750	18.500	3.5930e-03
11.750	18.750	6.9342e-03
11.750	19.000	1.2276e-02
11.750	19.250	1.8908e-02
11.750	19.500	2.5610e-02
11.750	19.750	3.2826e-02
11.750	20.000	4.1387e-02
11.750	20.250	5.1544e-02
11.750	20.500	6.3273e-02
11.750	20.750	7.6935e-02
11.750	21.000	9.4141e-02
11.750	21.250	1.1722e-01
11.750	21.500	1.5174e-01
11.750	21.750	1.8654e-01
11.750	22.000	1.9889e-01
11.750	22.250	1.8452e-01
11.750	22.500	1.4247e-01
11.750	22.750	1.0830e-01
11.750	23.000	8.8618e-02
11.750	23.250	7.8848e-02
11.750	23.500	7.5946e-02
11.750	23.750	7.4568e-02
11.750	24.000	7.3782e-02
12.000	17.000	1.3712e-04
12.000	17.250	1.9086e-04
12.000	17.500	2.7144e-04
12.000	17.750	4.0091e-04
12.000	18.000	6.3128e-04
12.000	18.250	1.0876e-03
12.000	18.500	1.9891e-03
12.000	18.750	3.8284e-03
12.000	19.000	7.4653e-03
12.000	19.250	1.3375e-02
12.000	19.500	2.0620e-02
12.000	19.750	2.8115e-02
12.000	20.000	3.6743e-02
12.000	20.250	4.7181e-02
12.000	20.500	5.9240e-02
12.000	20.750	7.2859e-02
12.000	21.000	8.9316e-02
12.000	21.250	1.1039e-01
12.000	21.500	1.3693e-01
12.000	21.750	1.7660e-01
12.000	22.000	2.1239e-01
12.000	22.250	2.1640e-01
12.000	22.500	1.8851e-01
12.000	22.750	1.4285e-01
12.000	23.000	1.0857e-01
12.000	23.250	8.8917e-02
12.000	23.500	7.8962e-02
12.000	23.750	7.5995e-02
12.000	24.000	7.4587e-02
12.250	17.000	1.1037e-04
12.250	17.250	1.5218e-04
12.250	17.500	2.1317e-04
12.250	17.750	3.0922e-04
12.250	18.000	4.6049e-04
12.250	18.250	7.2872e-04
12.250	18.500	1.2145e-03
12.250	18.750	2.1377e-03
12.250	19.000	4.1071e-03
12.250	19.250	8.1626e-03
12.250	19.500	1.4756e-02
12.250	19.750	2.2739e-02
12.250	20.000	3.1386e-02
12.250	20.250	4.1782e-02
12.250	20.500	5.4227e-02
12.250	20.750	6.8525e-02
12.250	21.000	8.5596e-02
12.250	21.250	1.0588e-01
12.250	21.500	1.2987e-01
12.250	21.750	1.6150e-01
12.250	22.000	2.0554e-01
12.250	22.250	2.3897e-01
12.250	22.500	2.3184e-01
12.250	22.750	1.9128e-01
12.250	23.000	1.4280e-01
12.250	23.250	1.0862e-01
12.250	23.500	8.9176e-02
12.250	23.750	7.9060e-02
12.250	24.000	7.6041e-02
12.500	17.000	8.5761e-05
12.500	17.250	1.2444e-04
12.500	17.500	1.7424e-04
12.500	17.750	2.4790e-04
12.500	18.000	3.6115e-04
12.500	18.250	5.4263e-04
12.500	18.500	8.5053e-04
12.500	18.750	1.3737e-03
12.500	19.000	2.3747e-03
12.500	19.250	4.5747e-03
12.500	19.500	9.1995e-03
12.500	19.750	1.6570e-02
12.500	20.000	2.5556e-02
12.500	20.250	3.5668e-02
12.500	20.500	4.8029e-02
12.500	20.750	6.3285e-02
12.500	21.000	8.1337e-02
12.500	21.250	1.0187e-01
12.500	21.500	1.2588e-01
12.500	21.750	1.5366e-01
12.500	22.000	1.9114e-01
12.500	22.250	2.3830e-01
12.500	22.500	2.6305e-01
12.500	22.750	2.4470e-01
12.500	23.000	1.9295e-01
12.500	23.250	1.4249e-01
12.500	23.500	1.0853e-01
12.500	23.750	8.9358e-02
12.500	24.000	7.9151e-02
12.750	17.000	6.6502e-05
12.750	17.250	9.9835e-05
12.750	17.500	1.4444e-04
12.750	17.750	2.0823e-04
12.750	18.000	2.9951e-04
12.750	18.250	4.3745e-04
12.750	18.500	6.6082e-04
12.750	18.750	1.0202e-03
12.750	19.000	1.6190e-03
12.750	19.250	2.7844e-03
12.750	19.500	5.3450e-03
12.750	19.750	1.0644e-02
12.750	20.000	1.8864e-02
12.750	20.250	2.9039e-02
12.750	20.500	4.1106e-02
12.750	20.750	5.6161e-02
12.750	21.000	7.4989e-02
12.750	21.250	9.7797e-02
12.750	21.500	1.2214e-01
12.750	21.750	1.5001e-01
12.750	22.000	1.8381e-01
12.750	22.250	2.2529e-01
12.750	22.500	2.7547e-01
12.750	22.750	2.8458e-01
12.750	23.000	2.5442e-01
12.750	23.250	1.9385e-01
12.750	23.500	1.4159e-01
12.750	23.750	1.0827e-01
12.750	24.000	8.9438e-02
13.000	17.000	5.1029e-05
13.000	17.250	7.8683e-05
13.000	17.500	1.1852e-04
13.000	17.750	1.7276e-04
13.000	18.000	2.5292e-04
13.000	18.250	3.7193e-04
13.000	18.500	5.5498e-04
13.000	18.750	8.3597e-04
13.000	19.000	1.2760e-03
13.000	19.250	2.0082e-03
13.000	19.500	3.3963e-03
13.000	19.750	6.3955e-03
13.000	20.000	1.2230e-02
13.000	20.250	2.1463e-02
13.000	20.500	3.3399e-02
13.000	20.750	4.7750e-02
13.000	21.000	6.6187e-02
13.000	21.250	9.0267e-02
13.000	21.500	1.1672e-01
13.000	21.750	1.4715e-01
13.000	22.000	1.7949e-01
13.000	22.250	2.1532e-01
13.000	22.500	2.5940e-01
13.000	22.750	3.0823e-01
13.000	23.000	3.0365e-01
13.000	23.250	2.6193e-01
13.000	23.500	1.9354e-01
13.000	23.750	1.4036e-01
13.000	24.000	1.0780e-01
13.250	17.000	3.8519e-05
13.250	17.250	6.2305e-05
13.250	17.500	9.5473e-05
13.250	17.750	1.4412e-04
13.250	18.000	2.1498e-04
13.250	18.250	3.2370e-04
13.250	18.500	4.8840e-04
13.250	18.750	7.3531e-04
13.250	19.000	1.1003e-03
13.250	19.250	1.6634e-03
13.250	19.500	2.5834e-03
13.250	19.750	4.2835e-03
13.250	20.000	7.6494e-03
13.250	20.250	1.3980e-02
13.250	20.500	2.4081e-02
13.250	20.750	3.7443e-02
13.250	21.000	5.5565e-02
13.250	21.250	7.7673e-02
13.250	21.500	1.0495e-01
13.250	21.750	1.3289e-01
13.250	22.000	1.6901e-01
13.250	22.250	2.0163e-01
13.250	22.500	2.4745e-01
13.250	22.750	2.9221e-01
13.250	23.000	3.3493e-01
13.250	23.250	3.2246e-01
13.250	23.500	2.6679e-01
13.250	23.750	1.9258e-01
13.250	24.000	1.3887e-01
13.500	17.000	2.8807e-05
13.500	17.250	4.7160e-05
13.500	17.500	7.7037e-05
13.500	17.750	1.1951e-04
13.500	18.000	1.8362e-04
13.500	18.250	2.8263e-04
13.500	18.500	4.3819e-04
13.500	18.750	6.7325e-04
13.500	19.000	1.0135e-03
13.500	19.250	1.5046e-03
13.500	19.500	2.2536e-03
13.500	19.750	3.4694e-03
13.500	20.000	5.5686e-03
13.500	20.250	9.4415e-03
13.500	20.500	1.6310e-02
13.500	20.750	2.6968e-02
13.500	21.000	4.1428e-02
13.500	21.250	6.1039e-02
13.500	21.500	8.6100e-02
13.500	21.750	1.1344e-01
13.500	22.000	1.4603e-01
13.500	22.250	1.9305e-01
13.500	22.500	2.3607e-01
13.500	22.750	2.8515e-01
13.500	23.000	3.3858e-01
13.500	23.250	3.7039e-01
13.500	23.500	3.4200e-01
13.500	23.750	2.7081e-01
13.500	24.000	1.9114e-01
13.750	17.000	2.1893e-05
13.750	17.250	3.5720e-05
13.750	17.500	6.1399e-05
13.750	17.750	9.8683e-05
13.750	18.000	1.5671e-04
13.750	18.250	2.4864e-04
13.750	18.500	3.9350e-04
13.750	18.750	6.1959e-04
13.750	19.000	9.5819e-04
13.750	19.250	1.4394e-03
13.750	19.500	2.1292e-03
13.750	19.750	3.1718e-03
13.750	20.000	4.8319e-03
13.750	20.250	7.5622e-03
13.750	20.500	1.2210e-02
13.750	20.750	1.9861e-02
13.750	21.000	3.1320e-02
13.750	21.250	4.6646e-02
13.750	21.500	6.6384e-02
13.750	21.750	9.1256e-02
13.750	22.000	1.2270e-01
13.750	22.250	1.6392e-01
13.750	22.500	2.1499e-01
13.750	22.750	2.7415e-01
13.750	23.000	3.4333e-01
13.750	23.250	3.9837e-01
13.750	23.500	4.1043e-01
13.750	23.750	3.6146e-01
13.750	24.000	2.7323e-01
14.000	17.000	1.6626e-05
14.000	17.250	2.7737e-05
14.000	17.500	4.6337e-05
14.000	17.750	8.1317e-05
14.000	18.000	1.3383e-04
14.000	18.250	2.1893e-04
14.000	18.500	3.5597e-04
14.000	18.750	5.7193e-04
14.000	19.000	9.0313e-04
14.000	19.250	1.3923e-03
14.000	19.500	2.0853e-03
14.000	19.750	3.0708e-03
14.000	20.000	4.5426e-03
14.000	20.250	6.8335e-03
14.000	20.500	1.0480e-02
14.000	20.750	1.6267e-02
14.000	21.000	2.5295e-02
14.000	21.250	3.8431e-02
14.000	21.500	5.4886e-02
14.000	21.750	7.6321e-02
14.000	22.000	1.0383e-01
14.000	22.250	1.4071e-01
14.000	22.500	1.9198e-01
14.000	22.750	2.5865e-01
14.000	23.000	3.3567e-01
14.000	23.250	4.2716e-01
14.000	23.500	4.7522e-01
14.000	23.750	4.5828e-01
14.000	24.000	3.8122e-01
