InwT 5600.00A  relative to Inci 1215.00A scaled to 1215A.
Hden   Phi(H)  Eq_Width (A)
 7.000	17.000	6.8246e-02
 7.000	17.250	7.1073e-02
 7.000	17.500	5.6817e-02
 7.000	17.750	4.7517e-02
 7.000	18.000	4.2271e-02
 7.000	18.250	3.9677e-02
 7.000	18.500	3.8313e-02
 7.000	18.750	3.7760e-02
 7.000	19.000	3.7488e-02
 7.000	19.250	3.7335e-02
 7.000	19.500	3.7275e-02
 7.000	19.750	3.7250e-02
 7.000	20.000	3.7240e-02
 7.000	20.250	3.7235e-02
 7.000	20.500	3.7233e-02
 7.000	20.750	3.7232e-02
 7.000	21.000	3.7231e-02
 7.000	21.250	3.7231e-02
 7.000	21.500	3.7231e-02
 7.000	21.750	3.7231e-02
 7.000	22.000	3.7231e-02
 7.000	22.250	3.7231e-02
 7.000	22.500	3.7231e-02
 7.000	22.750	3.7236e-02
 7.000	23.000	3.7232e-02
 7.000	23.250	3.7233e-02
 7.000	23.500	3.7233e-02
 7.000	23.750	3.7233e-02
 7.000	24.000	3.7233e-02
 7.250	17.000	6.7374e-02
 7.250	17.250	6.9197e-02
 7.250	17.500	7.0992e-02
 7.250	17.750	5.6792e-02
 7.250	18.000	4.7500e-02
 7.250	18.250	4.2264e-02
 7.250	18.500	3.9676e-02
 7.250	18.750	3.8313e-02
 7.250	19.000	3.7760e-02
 7.250	19.250	3.7488e-02
 7.250	19.500	3.7335e-02
 7.250	19.750	3.7274e-02
 7.250	20.000	3.7250e-02
 7.250	20.250	3.7240e-02
 7.250	20.500	3.7235e-02
 7.250	20.750	3.7233e-02
 7.250	21.000	3.7232e-02
 7.250	21.250	3.7231e-02
 7.250	21.500	3.7231e-02
 7.250	21.750	3.7231e-02
 7.250	22.000	3.7231e-02
 7.250	22.250	3.7231e-02
 7.250	22.500	3.7231e-02
 7.250	22.750	3.7231e-02
 7.250	23.000	3.7231e-02
 7.250	23.250	3.7231e-02
 7.250	23.500	3.7231e-02
 7.250	23.750	3.7231e-02
 7.250	24.000	3.7231e-02
 7.500	17.000	6.4608e-02
 7.500	17.250	6.9237e-02
 7.500	17.500	7.0089e-02
 7.500	17.750	7.0921e-02
 7.500	18.000	5.6772e-02
 7.500	18.250	4.7485e-02
 7.500	18.500	4.2255e-02
 7.500	18.750	3.9675e-02
 7.500	19.000	3.8312e-02
 7.500	19.250	3.7760e-02
 7.500	19.500	3.7488e-02
 7.500	19.750	3.7335e-02
 7.500	20.000	3.7275e-02
 7.500	20.250	3.7250e-02
 7.500	20.500	3.7240e-02
 7.500	20.750	3.7235e-02
 7.500	21.000	3.7233e-02
 7.500	21.250	3.7232e-02
 7.500	21.500	3.7231e-02
 7.500	21.750	3.7231e-02
 7.500	22.000	3.7231e-02
 7.500	22.250	3.7231e-02
 7.500	22.500	3.7231e-02
 7.500	22.750	3.7231e-02
 7.500	23.000	3.7231e-02
 7.500	23.250	3.7231e-02
 7.500	23.500	3.7231e-02
 7.500	23.750	3.7231e-02
 7.500	24.000	3.7231e-02
 7.750	17.000	6.0395e-02
 7.750	17.250	6.6560e-02
 7.750	17.500	7.1368e-02
 7.750	17.750	7.1117e-02
 7.750	18.000	7.0864e-02
 7.750	18.250	5.6757e-02
 7.750	18.500	4.7470e-02
 7.750	18.750	4.2245e-02
 7.750	19.000	3.9674e-02
 7.750	19.250	3.8312e-02
 7.750	19.500	3.7760e-02
 7.750	19.750	3.7488e-02
 7.750	20.000	3.7335e-02
 7.750	20.250	3.7275e-02
 7.750	20.500	3.7250e-02
 7.750	20.750	3.7240e-02
 7.750	21.000	3.7235e-02
 7.750	21.250	3.7233e-02
 7.750	21.500	3.7232e-02
 7.750	21.750	3.7231e-02
 7.750	22.000	3.7231e-02
 7.750	22.250	3.7231e-02
 7.750	22.500	3.7231e-02
 7.750	22.750	3.7230e-02
 7.750	23.000	3.7231e-02
 7.750	23.250	3.7230e-02
 7.750	23.500	3.7230e-02
 7.750	23.750	3.7231e-02
 7.750	24.000	3.7230e-02
 8.000	17.000	5.7050e-02
 8.000	17.250	6.1498e-02
 8.000	17.500	6.8323e-02
 8.000	17.750	7.3383e-02
 8.000	18.000	7.2027e-02
 8.000	18.250	7.0795e-02
 8.000	18.500	5.6728e-02
 8.000	18.750	4.7454e-02
 8.000	19.000	4.2234e-02
 8.000	19.250	3.9672e-02
 8.000	19.500	3.8312e-02
 8.000	19.750	3.7760e-02
 8.000	20.000	3.7488e-02
 8.000	20.250	3.7335e-02
 8.000	20.500	3.7274e-02
 8.000	20.750	3.7250e-02
 8.000	21.000	3.7240e-02
 8.000	21.250	3.7235e-02
 8.000	21.500	3.7233e-02
 8.000	21.750	3.7232e-02
 8.000	22.000	3.7231e-02
 8.000	22.250	3.7231e-02
 8.000	22.500	3.7231e-02
 8.000	22.750	3.7231e-02
 8.000	23.000	3.7230e-02
 8.000	23.250	3.7230e-02
 8.000	23.500	3.7230e-02
 8.000	23.750	3.7230e-02
 8.000	24.000	3.7231e-02
 8.250	17.000	5.5929e-02
 8.250	17.250	5.8598e-02
 8.250	17.500	6.3824e-02
 8.250	17.750	7.1900e-02
 8.250	18.000	7.7408e-02
 8.250	18.250	7.4073e-02
 8.250	18.500	7.0760e-02
 8.250	18.750	5.6724e-02
 8.250	19.000	4.7436e-02
 8.250	19.250	4.2220e-02
 8.250	19.500	3.9670e-02
 8.250	19.750	3.8312e-02
 8.250	20.000	3.7760e-02
 8.250	20.250	3.7488e-02
 8.250	20.500	3.7335e-02
 8.250	20.750	3.7274e-02
 8.250	21.000	3.7250e-02
 8.250	21.250	3.7240e-02
 8.250	21.500	3.7235e-02
 8.250	21.750	3.7233e-02
 8.250	22.000	3.7232e-02
 8.250	22.250	3.7231e-02
 8.250	22.500	3.7231e-02
 8.250	22.750	3.7231e-02
 8.250	23.000	3.7231e-02
 8.250	23.250	3.7231e-02
 8.250	23.500	3.7230e-02
 8.250	23.750	3.7230e-02
 8.250	24.000	3.7230e-02
 8.500	17.000	5.5840e-02
 8.500	17.250	5.7483e-02
 8.500	17.500	6.0933e-02
 8.500	17.750	6.7813e-02
 8.500	18.000	7.8004e-02
 8.500	18.250	8.3782e-02
 8.500	18.500	7.6921e-02
 8.500	18.750	7.0731e-02
 8.500	19.000	5.6722e-02
 8.500	19.250	4.7416e-02
 8.500	19.500	4.2204e-02
 8.500	19.750	3.9668e-02
 8.500	20.000	3.8311e-02
 8.500	20.250	3.7760e-02
 8.500	20.500	3.7488e-02
 8.500	20.750	3.7335e-02
 8.500	21.000	3.7274e-02
 8.500	21.250	3.7250e-02
 8.500	21.500	3.7240e-02
 8.500	21.750	3.7235e-02
 8.500	22.000	3.7233e-02
 8.500	22.250	3.7232e-02
 8.500	22.500	3.7231e-02
 8.500	22.750	3.7231e-02
 8.500	23.000	3.7231e-02
 8.500	23.250	3.7231e-02
 8.500	23.500	3.7230e-02
 8.500	23.750	3.7230e-02
 8.500	24.000	3.7230e-02
 8.750	17.000	5.6226e-02
 8.750	17.250	5.7488e-02
 8.750	17.500	5.9995e-02
 8.750	17.750	6.5069e-02
 8.750	18.000	7.5226e-02
 8.750	18.250	8.8685e-02
 8.750	18.500	9.0705e-02
 8.750	18.750	8.0124e-02
 8.750	19.000	7.0703e-02
 8.750	19.250	5.6722e-02
 8.750	19.500	4.7396e-02
 8.750	19.750	4.2187e-02
 8.750	20.000	3.9665e-02
 8.750	20.250	3.8311e-02
 8.750	20.500	3.7760e-02
 8.750	20.750	3.7488e-02
 8.750	21.000	3.7335e-02
 8.750	21.250	3.7274e-02
 8.750	21.500	3.7250e-02
 8.750	21.750	3.7240e-02
 8.750	22.000	3.7235e-02
 8.750	22.250	3.7233e-02
 8.750	22.500	3.7232e-02
 8.750	22.750	3.7231e-02
 8.750	23.000	3.7231e-02
 8.750	23.250	3.7231e-02
 8.750	23.500	3.7231e-02
 8.750	23.750	3.7230e-02
 8.750	24.000	3.7230e-02
 9.000	17.000	5.6794e-02
 9.000	17.250	5.8000e-02
 9.000	17.500	6.0274e-02
 9.000	17.750	6.4661e-02
 9.000	18.000	7.3590e-02
 9.000	18.250	8.8670e-02
 9.000	18.500	1.0325e-01
 9.000	18.750	9.9992e-02
 9.000	19.000	8.5176e-02
 9.000	19.250	7.0662e-02
 9.000	19.500	5.6720e-02
 9.000	19.750	4.7375e-02
 9.000	20.000	4.2169e-02
 9.000	20.250	3.9662e-02
 9.000	20.500	3.8311e-02
 9.000	20.750	3.7760e-02
 9.000	21.000	3.7488e-02
 9.000	21.250	3.7335e-02
 9.000	21.500	3.7275e-02
 9.000	21.750	3.7250e-02
 9.000	22.000	3.7240e-02
 9.000	22.250	3.7235e-02
 9.000	22.500	3.7233e-02
 9.000	22.750	3.7232e-02
 9.000	23.000	3.7231e-02
 9.000	23.250	3.7231e-02
 9.000	23.500	3.7231e-02
 9.000	23.750	3.7230e-02
 9.000	24.000	3.7230e-02
 9.250	17.000	5.7425e-02
 9.250	17.250	5.8754e-02
 9.250	17.500	6.1245e-02
 9.250	17.750	6.5843e-02
 9.250	18.000	7.4602e-02
 9.250	18.250	8.9439e-02
 9.250	18.500	1.0758e-01
 9.250	18.750	1.1836e-01
 9.250	19.000	1.0726e-01
 9.250	19.250	9.0395e-02
 9.250	19.500	7.0632e-02
 9.250	19.750	5.6709e-02
 9.250	20.000	4.7357e-02
 9.250	20.250	4.2151e-02
 9.250	20.500	3.9660e-02
 9.250	20.750	3.8310e-02
 9.250	21.000	3.7760e-02
 9.250	21.250	3.7488e-02
 9.250	21.500	3.7331e-02
 9.250	21.750	3.7256e-02
 9.250	22.000	3.7231e-02
 9.250	22.250	3.7222e-02
 9.250	22.500	3.7235e-02
 9.250	22.750	3.7233e-02
 9.250	23.000	3.7232e-02
 9.250	23.250	3.7231e-02
 9.250	23.500	3.7231e-02
 9.250	23.750	3.7231e-02
 9.250	24.000	3.7231e-02
 9.500	17.000	5.8191e-02
 9.500	17.250	5.9727e-02
 9.500	17.500	6.2668e-02
 9.500	17.750	6.8082e-02
 9.500	18.000	7.8046e-02
 9.500	18.250	9.3734e-02
 9.500	18.500	1.1148e-01
 9.500	18.750	1.2833e-01
 9.500	19.000	1.3497e-01
 9.500	19.250	1.1441e-01
 9.500	19.500	9.4115e-02
 9.500	19.750	7.0532e-02
 9.500	20.000	5.6687e-02
 9.500	20.250	4.7341e-02
 9.500	20.500	4.2134e-02
 9.500	20.750	3.9657e-02
 9.500	21.000	3.8305e-02
 9.500	21.250	3.7744e-02
 9.500	21.500	3.7469e-02
 9.500	21.750	3.7313e-02
 9.500	22.000	3.7245e-02
 9.500	22.250	3.7215e-02
 9.500	22.500	3.7206e-02
 9.500	22.750	3.7202e-02
 9.500	23.000	3.7199e-02
 9.500	23.250	3.7197e-02
 9.500	23.500	3.7208e-02
 9.500	23.750	3.7208e-02
 9.500	24.000	3.7207e-02
 9.750	17.000	5.9016e-02
 9.750	17.250	6.0865e-02
 9.750	17.500	6.4381e-02
 9.750	17.750	7.1045e-02
 9.750	18.000	8.3401e-02
 9.750	18.250	1.0097e-01
 9.750	18.500	1.1893e-01
 9.750	18.750	1.3560e-01
 9.750	19.000	1.4888e-01
 9.750	19.250	1.4731e-01
 9.750	19.500	1.2373e-01
 9.750	19.750	9.5882e-02
 9.750	20.000	7.0371e-02
 9.750	20.250	5.6638e-02
 9.750	20.500	4.7328e-02
 9.750	20.750	4.2121e-02
 9.750	21.000	3.9654e-02
 9.750	21.250	3.8308e-02
 9.750	21.500	3.7753e-02
 9.750	21.750	3.7470e-02
 9.750	22.000	3.7314e-02
 9.750	22.250	3.7249e-02
 9.750	22.500	3.7218e-02
 9.750	22.750	3.7205e-02
 9.750	23.000	3.7201e-02
 9.750	23.250	3.7199e-02
 9.750	23.500	3.7198e-02
 9.750	23.750	3.7197e-02
 9.750	24.000	3.7197e-02
10.000	17.000	5.9826e-02
10.000	17.250	6.2250e-02
10.000	17.500	6.6572e-02
10.000	17.750	7.4969e-02
10.000	18.000	9.0234e-02
10.000	18.250	1.1016e-01
10.000	18.500	1.2820e-01
10.000	18.750	1.4448e-01
10.000	19.000	1.5833e-01
10.000	19.250	1.6859e-01
10.000	19.500	1.5792e-01
10.000	19.750	1.3155e-01
10.000	20.000	9.5253e-02
10.000	20.250	7.0091e-02
10.000	20.500	5.6576e-02
10.000	20.750	4.7311e-02
10.000	21.000	4.2108e-02
10.000	21.250	3.9652e-02
10.000	21.500	3.8308e-02
10.000	21.750	3.7757e-02
10.000	22.000	3.7477e-02
10.000	22.250	3.7315e-02
10.000	22.500	3.7252e-02
10.000	22.750	3.7223e-02
10.000	23.000	3.7208e-02
10.000	23.250	3.7201e-02
10.000	23.500	3.7198e-02
10.000	23.750	3.7196e-02
10.000	24.000	3.7196e-02
10.250	17.000	6.1372e-02
10.250	17.250	6.3945e-02
10.250	17.500	6.9586e-02
10.250	17.750	8.0317e-02
10.250	18.000	9.8343e-02
10.250	18.250	1.1991e-01
10.250	18.500	1.3899e-01
10.250	18.750	1.5497e-01
10.250	19.000	1.6802e-01
10.250	19.250	1.7987e-01
10.250	19.500	1.8215e-01
10.250	19.750	1.6688e-01
10.250	20.000	1.3761e-01
10.250	20.250	9.4953e-02
10.250	20.500	6.9824e-02
10.250	20.750	5.6551e-02
10.250	21.000	4.7291e-02
10.250	21.250	4.2097e-02
10.250	21.500	3.9650e-02
10.250	21.750	3.8308e-02
10.250	22.000	3.7759e-02
10.250	22.250	3.7485e-02
10.250	22.500	3.7316e-02
10.250	22.750	3.7254e-02
10.250	23.000	3.7227e-02
10.250	23.250	3.7213e-02
10.250	23.500	3.7206e-02
10.250	23.750	3.7202e-02
10.250	24.000	3.7200e-02
10.500	17.000	6.4078e-02
10.500	17.250	6.6865e-02
10.500	17.500	7.3859e-02
10.500	17.750	8.7582e-02
10.500	18.000	1.0791e-01
10.500	18.250	1.3089e-01
10.500	18.500	1.4951e-01
10.500	18.750	1.6506e-01
10.500	19.000	1.7752e-01
10.500	19.250	1.8840e-01
10.500	19.500	1.9610e-01
10.500	19.750	1.9413e-01
10.500	20.000	1.7744e-01
10.500	20.250	1.4095e-01
10.500	20.500	9.4405e-02
10.500	20.750	6.9541e-02
10.500	21.000	5.6538e-02
10.500	21.250	4.7259e-02
10.500	21.500	4.2085e-02
10.500	21.750	3.9647e-02
10.500	22.000	3.8307e-02
10.500	22.250	3.7759e-02
10.500	22.500	3.7487e-02
10.500	22.750	3.7319e-02
10.500	23.000	3.7255e-02
10.500	23.250	3.7229e-02
10.500	23.500	3.7217e-02
10.500	23.750	3.7210e-02
10.500	24.000	3.7207e-02
10.750	17.000	6.8199e-02
10.750	17.250	7.1210e-02
10.750	17.500	8.0165e-02
10.750	17.750	9.6631e-02
10.750	18.000	1.1888e-01
10.750	18.250	1.4144e-01
10.750	18.500	1.5971e-01
10.750	18.750	1.7491e-01
10.750	19.000	1.8745e-01
10.750	19.250	1.9729e-01
10.750	19.500	2.0584e-01
10.750	19.750	2.1119e-01
10.750	20.000	2.0742e-01
10.750	20.250	1.8880e-01
10.750	20.500	1.4028e-01
10.750	20.750	9.3943e-02
10.750	21.000	6.9290e-02
10.750	21.250	5.6599e-02
10.750	21.500	4.7213e-02
10.750	21.750	4.2071e-02
10.750	22.000	3.9643e-02
10.750	22.250	3.8305e-02
10.750	22.500	3.7758e-02
10.750	22.750	3.7487e-02
10.750	23.000	3.7328e-02
10.750	23.250	3.7255e-02
10.750	23.500	3.7230e-02
10.750	23.750	3.7219e-02
10.750	24.000	3.7213e-02
11.000	17.000	7.3892e-02
11.000	17.250	7.7116e-02
11.000	17.500	8.8017e-02
11.000	17.750	1.0705e-01
11.000	18.000	1.3012e-01
11.000	18.250	1.5202e-01
11.000	18.500	1.7073e-01
11.000	18.750	1.8576e-01
11.000	19.000	1.9813e-01
11.000	19.250	2.0751e-01
11.000	19.500	2.1469e-01
11.000	19.750	2.2175e-01
11.000	20.000	2.2618e-01
11.000	20.250	2.2088e-01
11.000	20.500	2.0049e-01
11.000	20.750	1.3981e-01
11.000	21.000	9.3275e-02
11.000	21.250	6.9263e-02
11.000	21.500	5.6813e-02
11.000	21.750	4.7149e-02
11.000	22.000	4.2053e-02
11.000	22.250	3.9637e-02
11.000	22.500	3.8303e-02
11.000	22.750	3.7757e-02
11.000	23.000	3.7487e-02
11.000	23.250	3.7333e-02
11.000	23.500	3.7258e-02
11.000	23.750	3.7231e-02
11.000	24.000	3.7220e-02
11.250	17.000	8.1296e-02
11.250	17.250	8.4472e-02
11.250	17.500	9.6818e-02
11.250	17.750	1.1763e-01
11.250	18.000	1.4126e-01
11.250	18.250	1.6244e-01
11.250	18.500	1.7994e-01
11.250	18.750	1.9536e-01
11.250	19.000	2.0734e-01
11.250	19.250	2.1643e-01
11.250	19.500	2.2384e-01
11.250	19.750	2.3004e-01
11.250	20.000	2.3650e-01
11.250	20.250	2.4083e-01
11.250	20.500	2.3494e-01
11.250	20.750	2.1033e-01
11.250	21.000	1.3909e-01
11.250	21.250	9.2995e-02
11.250	21.500	6.9737e-02
11.250	21.750	5.6967e-02
11.250	22.000	4.7056e-02
11.250	22.250	4.2029e-02
11.250	22.500	3.9626e-02
11.250	22.750	3.8300e-02
11.250	23.000	3.7756e-02
11.250	23.250	3.7487e-02
11.250	23.500	3.7334e-02
11.250	23.750	3.7268e-02
11.250	24.000	3.7232e-02
11.500	17.000	9.0117e-02
11.500	17.250	9.3402e-02
11.500	17.500	1.0640e-01
11.500	17.750	1.2790e-01
11.500	18.000	1.5158e-01
11.500	18.250	1.7244e-01
11.500	18.500	1.8942e-01
11.500	18.750	2.0469e-01
11.500	19.000	2.1629e-01
11.500	19.250	2.2551e-01
11.500	19.500	2.3286e-01
11.500	19.750	2.3918e-01
11.500	20.000	2.4467e-01
11.500	20.250	2.5126e-01
11.500	20.500	2.5616e-01
11.500	20.750	2.4974e-01
11.500	21.000	2.1791e-01
11.500	21.250	1.3875e-01
11.500	21.500	9.3258e-02
11.500	21.750	7.0845e-02
11.500	22.000	5.6749e-02
11.500	22.250	4.6928e-02
11.500	22.500	4.1999e-02
11.500	22.750	3.9614e-02
11.500	23.000	3.8295e-02
11.500	23.250	3.7753e-02
11.500	23.500	3.7486e-02
11.500	23.750	3.7334e-02
11.500	24.000	3.7272e-02
11.750	17.000	1.0097e-01
11.750	17.250	1.0375e-01
11.750	17.500	1.1649e-01
11.750	17.750	1.3777e-01
11.750	18.000	1.6088e-01
11.750	18.250	1.8133e-01
11.750	18.500	1.9833e-01
11.750	18.750	2.1282e-01
11.750	19.000	2.2509e-01
11.750	19.250	2.3451e-01
11.750	19.500	2.4177e-01
11.750	19.750	2.4760e-01
11.750	20.000	2.5233e-01
11.750	20.250	2.5801e-01
11.750	20.500	2.6609e-01
11.750	20.750	2.7220e-01
11.750	21.000	2.6494e-01
11.750	21.250	2.1778e-01
11.750	21.500	1.3892e-01
11.750	21.750	9.3992e-02
11.750	22.000	7.2286e-02
11.750	22.250	5.6257e-02
11.750	22.500	4.6770e-02
11.750	22.750	4.1960e-02
11.750	23.000	3.9598e-02
11.750	23.250	3.8287e-02
11.750	23.500	3.7750e-02
11.750	23.750	3.7484e-02
11.750	24.000	3.7334e-02
12.000	17.000	1.1368e-01
12.000	17.250	1.1580e-01
12.000	17.500	1.2702e-01
12.000	17.750	1.4644e-01
12.000	18.000	1.6816e-01
12.000	18.250	1.8844e-01
12.000	18.500	2.0673e-01
12.000	18.750	2.2230e-01
12.000	19.000	2.3459e-01
12.000	19.250	2.4425e-01
12.000	19.500	2.5142e-01
12.000	19.750	2.5605e-01
12.000	20.000	2.6012e-01
12.000	20.250	2.6461e-01
12.000	20.500	2.7114e-01
12.000	20.750	2.8109e-01
12.000	21.000	2.8929e-01
12.000	21.250	2.7977e-01
12.000	21.500	2.1765e-01
12.000	21.750	1.3882e-01
12.000	22.000	9.5331e-02
12.000	22.250	7.3204e-02
12.000	22.500	5.5783e-02
12.000	22.750	4.6579e-02
12.000	23.000	4.1906e-02
12.000	23.250	3.9574e-02
12.000	23.500	3.8278e-02
12.000	23.750	3.7745e-02
12.000	24.000	3.7482e-02
12.250	17.000	1.2232e-01
12.250	17.250	1.2898e-01
12.250	17.500	1.3788e-01
12.250	17.750	1.5358e-01
12.250	18.000	1.7348e-01
12.250	18.250	1.9472e-01
12.250	18.500	2.1491e-01
12.250	18.750	2.3217e-01
12.250	19.000	2.4469e-01
12.250	19.250	2.5415e-01
12.250	19.500	2.6107e-01
12.250	19.750	2.6488e-01
12.250	20.000	2.6840e-01
12.250	20.250	2.7123e-01
12.250	20.500	2.7662e-01
12.250	20.750	2.8480e-01
12.250	21.000	2.9727e-01
12.250	21.250	3.0724e-01
12.250	21.500	2.8837e-01
12.250	21.750	2.1539e-01
12.250	22.000	1.3875e-01
12.250	22.250	9.7518e-02
12.250	22.500	7.2957e-02
12.250	22.750	5.5280e-02
12.250	23.000	4.6377e-02
12.250	23.250	4.1826e-02
12.250	23.500	3.9540e-02
12.250	23.750	3.8264e-02
12.250	24.000	3.7738e-02
12.500	17.000	1.1091e-01
12.500	17.250	1.3662e-01
12.500	17.500	1.4678e-01
12.500	17.750	1.5900e-01
12.500	18.000	1.7751e-01
12.500	18.250	1.9915e-01
12.500	18.500	2.2201e-01
12.500	18.750	2.4206e-01
12.500	19.000	2.5602e-01
12.500	19.250	2.6508e-01
12.500	19.500	2.7073e-01
12.500	19.750	2.7407e-01
12.500	20.000	2.7643e-01
12.500	20.250	2.7873e-01
12.500	20.500	2.8185e-01
12.500	20.750	2.8819e-01
12.500	21.000	2.9943e-01
12.500	21.250	3.1439e-01
12.500	21.500	3.1813e-01
12.500	21.750	2.9763e-01
12.500	22.000	2.1211e-01
12.500	22.250	1.3885e-01
12.500	22.500	9.9300e-02
12.500	22.750	7.1982e-02
12.500	23.000	5.4725e-02
12.500	23.250	4.6092e-02
12.500	23.500	4.1716e-02
12.500	23.750	3.9486e-02
12.500	24.000	3.8245e-02
12.750	17.000	9.4715e-02
12.750	17.250	1.1882e-01
12.750	17.500	1.4762e-01
12.750	17.750	1.6217e-01
12.750	18.000	1.8037e-01
12.750	18.250	2.0403e-01
12.750	18.500	2.2881e-01
12.750	18.750	2.5068e-01
12.750	19.000	2.6601e-01
12.750	19.250	2.7589e-01
12.750	19.500	2.8051e-01
12.750	19.750	2.8306e-01
12.750	20.000	2.8446e-01
12.750	20.250	2.8559e-01
12.750	20.500	2.8802e-01
12.750	20.750	2.9268e-01
12.750	21.000	3.0115e-01
12.750	21.250	3.1625e-01
12.750	21.500	3.2648e-01
12.750	21.750	3.3466e-01
12.750	22.000	3.0199e-01
12.750	22.250	2.0760e-01
12.750	22.500	1.3954e-01
12.750	22.750	9.9211e-02
12.750	23.000	7.0585e-02
12.750	23.250	5.4046e-02
12.750	23.500	4.5775e-02
12.750	23.750	4.1564e-02
12.750	24.000	3.9403e-02
13.000	17.000	6.0978e-02
13.000	17.250	7.8332e-02
13.000	17.500	1.1466e-01
13.000	17.750	1.5249e-01
13.000	18.000	1.8051e-01
13.000	18.250	2.0966e-01
13.000	18.500	2.3511e-01
13.000	18.750	2.5738e-01
13.000	19.000	2.7406e-01
13.000	19.250	2.8527e-01
13.000	19.500	2.9031e-01
13.000	19.750	2.9195e-01
13.000	20.000	2.9235e-01
13.000	20.250	2.9306e-01
13.000	20.500	2.9439e-01
13.000	20.750	2.9789e-01
13.000	21.000	3.0497e-01
13.000	21.250	3.1815e-01
13.000	21.500	3.2922e-01
13.000	21.750	3.4818e-01
13.000	22.000	3.4987e-01
13.000	22.250	2.9887e-01
13.000	22.500	2.0192e-01
13.000	22.750	1.3823e-01
13.000	23.000	9.6987e-02
13.000	23.250	6.8899e-02
13.000	23.500	5.3283e-02
13.000	23.750	4.5371e-02
13.000	24.000	4.1334e-02
13.250	17.000	6.0098e-02
13.250	17.250	7.1563e-02
13.250	17.500	9.4488e-02
13.250	17.750	1.2998e-01
13.250	18.000	1.7337e-01
13.250	18.250	2.0694e-01
13.250	18.500	2.4022e-01
13.250	18.750	2.6318e-01
13.250	19.000	2.8103e-01
13.250	19.250	2.9329e-01
13.250	19.500	2.9852e-01
13.250	19.750	3.0120e-01
13.250	20.000	3.0043e-01
13.250	20.250	3.0009e-01
13.250	20.500	3.0070e-01
13.250	20.750	3.0312e-01
13.250	21.000	3.0989e-01
13.250	21.250	3.2041e-01
13.250	21.500	3.3044e-01
13.250	21.750	3.4901e-01
13.250	22.000	3.6853e-01
13.250	22.250	3.5336e-01
13.250	22.500	2.8532e-01
13.250	22.750	1.8923e-01
13.250	23.000	1.3200e-01
13.250	23.250	9.3259e-02
13.250	23.500	6.7006e-02
13.250	23.750	5.2333e-02
13.250	24.000	4.4838e-02
13.500	17.000	5.9798e-02
13.500	17.250	6.9711e-02
13.500	17.500	8.9938e-02
13.500	17.750	1.2012e-01
13.500	18.000	1.6287e-01
13.500	18.250	2.0845e-01
13.500	18.500	2.3809e-01
13.500	18.750	2.6809e-01
13.500	19.000	2.8706e-01
13.500	19.250	2.9986e-01
13.500	19.500	3.0690e-01
13.500	19.750	3.0913e-01
13.500	20.000	3.0930e-01
13.500	20.250	3.0881e-01
13.500	20.500	3.0803e-01
13.500	20.750	3.0870e-01
13.500	21.000	3.1238e-01
13.500	21.250	3.2102e-01
13.500	21.500	3.2947e-01
13.500	21.750	3.4830e-01
13.500	22.000	3.6840e-01
13.500	22.250	3.7896e-01
13.500	22.500	3.4696e-01
13.500	22.750	2.6194e-01
13.500	23.000	1.7582e-01
13.500	23.250	1.2198e-01
13.500	23.500	8.8131e-02
13.500	23.750	6.4596e-02
13.500	24.000	5.1095e-02
13.750	17.000	5.9547e-02
13.750	17.250	7.0103e-02
13.750	17.500	8.8429e-02
13.750	17.750	1.1272e-01
13.750	18.000	1.5238e-01
13.750	18.250	1.9933e-01
13.750	18.500	2.3936e-01
13.750	18.750	2.6782e-01
13.750	19.000	2.9219e-01
13.750	19.250	3.0724e-01
13.750	19.500	3.1620e-01
13.750	19.750	3.1939e-01
13.750	20.000	3.1934e-01
13.750	20.250	3.1820e-01
13.750	20.500	3.1721e-01
13.750	20.750	3.1668e-01
13.750	21.000	3.1814e-01
13.750	21.250	3.2378e-01
13.750	21.500	3.2890e-01
13.750	21.750	3.4704e-01
13.750	22.000	3.6921e-01
13.750	22.250	3.7891e-01
13.750	22.500	3.6398e-01
13.750	22.750	3.2049e-01
13.750	23.000	2.3662e-01
13.750	23.250	1.6041e-01
13.750	23.500	1.1208e-01
13.750	23.750	8.3073e-02
13.750	24.000	6.1681e-02
14.000	17.000	5.9961e-02
14.000	17.250	6.9490e-02
14.000	17.500	8.7351e-02
14.000	17.750	1.1074e-01
14.000	18.000	1.4270e-01
14.000	18.250	1.8548e-01
14.000	18.500	2.2848e-01
14.000	18.750	2.6707e-01
14.000	19.000	2.9643e-01
14.000	19.250	3.1308e-01
14.000	19.500	3.2475e-01
14.000	19.750	3.3104e-01
14.000	20.000	3.3210e-01
14.000	20.250	3.3059e-01
14.000	20.500	3.2886e-01
14.000	20.750	3.2764e-01
14.000	21.000	3.2803e-01
14.000	21.250	3.3219e-01
14.000	21.500	3.3473e-01
14.000	21.750	3.5189e-01
14.000	22.000	3.7342e-01
14.000	22.250	3.8202e-01
14.000	22.500	3.6699e-01
14.000	22.750	3.3641e-01
14.000	23.000	2.8815e-01
14.000	23.250	2.0994e-01
14.000	23.500	1.4429e-01
14.000	23.750	1.0320e-01
14.000	24.000	7.7546e-02
