InwC 5100.00A  relative to Inci 1215.00A scaled to 1215A.
Hden   Phi(H)  Eq_Width (A)
 7.000	17.000	2.9446e-02
 7.000	17.250	3.9164e-02
 7.000	17.500	4.0446e-02
 7.000	17.750	4.1233e-02
 7.000	18.000	4.1253e-02
 7.000	18.250	4.1280e-02
 7.000	18.500	4.1285e-02
 7.000	18.750	4.1290e-02
 7.000	19.000	4.1295e-02
 7.000	19.250	4.1299e-02
 7.000	19.500	4.1300e-02
 7.000	19.750	4.1301e-02
 7.000	20.000	4.1301e-02
 7.000	20.250	4.1301e-02
 7.000	20.500	4.1301e-02
 7.000	20.750	4.1301e-02
 7.000	21.000	4.1302e-02
 7.000	21.250	4.1302e-02
 7.000	21.500	4.1302e-02
 7.000	21.750	4.1302e-02
 7.000	22.000	4.1302e-02
 7.000	22.250	4.1302e-02
 7.000	22.500	4.1303e-02
 7.000	22.750	4.1307e-02
 7.000	23.000	4.1303e-02
 7.000	23.250	4.1304e-02
 7.000	23.500	4.1304e-02
 7.000	23.750	4.1304e-02
 7.000	24.000	4.1304e-02
 7.250	17.000	2.2163e-02
 7.250	17.250	2.9836e-02
 7.250	17.500	3.9169e-02
 7.250	17.750	4.0455e-02
 7.250	18.000	4.1233e-02
 7.250	18.250	4.1253e-02
 7.250	18.500	4.1281e-02
 7.250	18.750	4.1285e-02
 7.250	19.000	4.1290e-02
 7.250	19.250	4.1295e-02
 7.250	19.500	4.1299e-02
 7.250	19.750	4.1300e-02
 7.250	20.000	4.1301e-02
 7.250	20.250	4.1301e-02
 7.250	20.500	4.1301e-02
 7.250	20.750	4.1301e-02
 7.250	21.000	4.1301e-02
 7.250	21.250	4.1301e-02
 7.250	21.500	4.1301e-02
 7.250	21.750	4.1302e-02
 7.250	22.000	4.1302e-02
 7.250	22.250	4.1302e-02
 7.250	22.500	4.1302e-02
 7.250	22.750	4.1302e-02
 7.250	23.000	4.1302e-02
 7.250	23.250	4.1302e-02
 7.250	23.500	4.1302e-02
 7.250	23.750	4.1302e-02
 7.250	24.000	4.1302e-02
 7.500	17.000	1.5781e-02
 7.500	17.250	2.2725e-02
 7.500	17.500	3.0195e-02
 7.500	17.750	3.9173e-02
 7.500	18.000	4.0464e-02
 7.500	18.250	4.1233e-02
 7.500	18.500	4.1253e-02
 7.500	18.750	4.1280e-02
 7.500	19.000	4.1285e-02
 7.500	19.250	4.1290e-02
 7.500	19.500	4.1295e-02
 7.500	19.750	4.1299e-02
 7.500	20.000	4.1300e-02
 7.500	20.250	4.1301e-02
 7.500	20.500	4.1301e-02
 7.500	20.750	4.1301e-02
 7.500	21.000	4.1301e-02
 7.500	21.250	4.1301e-02
 7.500	21.500	4.1301e-02
 7.500	21.750	4.1301e-02
 7.500	22.000	4.1301e-02
 7.500	22.250	4.1301e-02
 7.500	22.500	4.1301e-02
 7.500	22.750	4.1301e-02
 7.500	23.000	4.1302e-02
 7.500	23.250	4.1302e-02
 7.500	23.500	4.1302e-02
 7.500	23.750	4.1302e-02
 7.500	24.000	4.1302e-02
 7.750	17.000	1.0629e-02
 7.750	17.250	1.6217e-02
 7.750	17.500	2.3343e-02
 7.750	17.750	3.0592e-02
 7.750	18.000	3.9177e-02
 7.750	18.250	4.0473e-02
 7.750	18.500	4.1233e-02
 7.750	18.750	4.1253e-02
 7.750	19.000	4.1280e-02
 7.750	19.250	4.1285e-02
 7.750	19.500	4.1290e-02
 7.750	19.750	4.1295e-02
 7.750	20.000	4.1299e-02
 7.750	20.250	4.1300e-02
 7.750	20.500	4.1301e-02
 7.750	20.750	4.1301e-02
 7.750	21.000	4.1301e-02
 7.750	21.250	4.1301e-02
 7.750	21.500	4.1301e-02
 7.750	21.750	4.1301e-02
 7.750	22.000	4.1301e-02
 7.750	22.250	4.1301e-02
 7.750	22.500	4.1301e-02
 7.750	22.750	4.1301e-02
 7.750	23.000	4.1301e-02
 7.750	23.250	4.1301e-02
 7.750	23.500	4.1301e-02
 7.750	23.750	4.1301e-02
 7.750	24.000	4.1301e-02
 8.000	17.000	7.1653e-03
 8.000	17.250	1.0845e-02
 8.000	17.500	1.6622e-02
 8.000	17.750	2.3914e-02
 8.000	18.000	3.0951e-02
 8.000	18.250	3.9175e-02
 8.000	18.500	4.0475e-02
 8.000	18.750	4.1233e-02
 8.000	19.000	4.1253e-02
 8.000	19.250	4.1281e-02
 8.000	19.500	4.1285e-02
 8.000	19.750	4.1290e-02
 8.000	20.000	4.1295e-02
 8.000	20.250	4.1299e-02
 8.000	20.500	4.1300e-02
 8.000	20.750	4.1301e-02
 8.000	21.000	4.1301e-02
 8.000	21.250	4.1301e-02
 8.000	21.500	4.1301e-02
 8.000	21.750	4.1301e-02
 8.000	22.000	4.1301e-02
 8.000	22.250	4.1301e-02
 8.000	22.500	4.1301e-02
 8.000	22.750	4.1301e-02
 8.000	23.000	4.1301e-02
 8.000	23.250	4.1301e-02
 8.000	23.500	4.1301e-02
 8.000	23.750	4.1301e-02
 8.000	24.000	4.1301e-02
 8.250	17.000	4.9772e-03
 8.250	17.250	7.3547e-03
 8.250	17.500	1.1215e-02
 8.250	17.750	1.7336e-02
 8.250	18.000	2.4954e-02
 8.250	18.250	3.1664e-02
 8.250	18.500	3.9176e-02
 8.250	18.750	4.0484e-02
 8.250	19.000	4.1234e-02
 8.250	19.250	4.1253e-02
 8.250	19.500	4.1281e-02
 8.250	19.750	4.1285e-02
 8.250	20.000	4.1290e-02
 8.250	20.250	4.1295e-02
 8.250	20.500	4.1299e-02
 8.250	20.750	4.1300e-02
 8.250	21.000	4.1301e-02
 8.250	21.250	4.1301e-02
 8.250	21.500	4.1301e-02
 8.250	21.750	4.1301e-02
 8.250	22.000	4.1301e-02
 8.250	22.250	4.1301e-02
 8.250	22.500	4.1301e-02
 8.250	22.750	4.1301e-02
 8.250	23.000	4.1302e-02
 8.250	23.250	4.1301e-02
 8.250	23.500	4.1301e-02
 8.250	23.750	4.1301e-02
 8.250	24.000	4.1301e-02
 8.500	17.000	3.5223e-03
 8.500	17.250	5.1147e-03
 8.500	17.500	7.6356e-03
 8.500	17.750	1.1833e-02
 8.500	18.000	1.8472e-02
 8.500	18.250	2.6457e-02
 8.500	18.500	3.2601e-02
 8.500	18.750	3.9172e-02
 8.500	19.000	4.0494e-02
 8.500	19.250	4.1234e-02
 8.500	19.500	4.1253e-02
 8.500	19.750	4.1280e-02
 8.500	20.000	4.1285e-02
 8.500	20.250	4.1290e-02
 8.500	20.500	4.1295e-02
 8.500	20.750	4.1299e-02
 8.500	21.000	4.1300e-02
 8.500	21.250	4.1301e-02
 8.500	21.500	4.1301e-02
 8.500	21.750	4.1301e-02
 8.500	22.000	4.1301e-02
 8.500	22.250	4.1301e-02
 8.500	22.500	4.1301e-02
 8.500	22.750	4.1301e-02
 8.500	23.000	4.1301e-02
 8.500	23.250	4.1301e-02
 8.500	23.500	4.1301e-02
 8.500	23.750	4.1301e-02
 8.500	24.000	4.1301e-02
 8.750	17.000	2.5184e-03
 8.750	17.250	3.6248e-03
 8.750	17.500	5.3335e-03
 8.750	17.750	8.1082e-03
 8.750	18.000	1.2888e-02
 8.750	18.250	2.0318e-02
 8.750	18.500	2.7953e-02
 8.750	18.750	3.3569e-02
 8.750	19.000	3.9161e-02
 8.750	19.250	4.0502e-02
 8.750	19.500	4.1234e-02
 8.750	19.750	4.1253e-02
 8.750	20.000	4.1280e-02
 8.750	20.250	4.1285e-02
 8.750	20.500	4.1290e-02
 8.750	20.750	4.1295e-02
 8.750	21.000	4.1299e-02
 8.750	21.250	4.1300e-02
 8.750	21.500	4.1301e-02
 8.750	21.750	4.1301e-02
 8.750	22.000	4.1301e-02
 8.750	22.250	4.1301e-02
 8.750	22.500	4.1301e-02
 8.750	22.750	4.1301e-02
 8.750	23.000	4.1301e-02
 8.750	23.250	4.1301e-02
 8.750	23.500	4.1301e-02
 8.750	23.750	4.1301e-02
 8.750	24.000	4.1301e-02
 9.000	17.000	1.8106e-03
 9.000	17.250	2.5930e-03
 9.000	17.500	3.7891e-03
 9.000	17.750	5.7051e-03
 9.000	18.000	9.0121e-03
 9.000	18.250	1.4631e-02
 9.000	18.500	2.2619e-02
 9.000	18.750	2.9874e-02
 9.000	19.000	3.5046e-02
 9.000	19.250	3.9130e-02
 9.000	19.500	4.0509e-02
 9.000	19.750	4.1234e-02
 9.000	20.000	4.1254e-02
 9.000	20.250	4.1280e-02
 9.000	20.500	4.1285e-02
 9.000	20.750	4.1290e-02
 9.000	21.000	4.1295e-02
 9.000	21.250	4.1299e-02
 9.000	21.500	4.1300e-02
 9.000	21.750	4.1301e-02
 9.000	22.000	4.1301e-02
 9.000	22.250	4.1301e-02
 9.000	22.500	4.1301e-02
 9.000	22.750	4.1301e-02
 9.000	23.000	4.1301e-02
 9.000	23.250	4.1301e-02
 9.000	23.500	4.1301e-02
 9.000	23.750	4.1301e-02
 9.000	24.000	4.1301e-02
 9.250	17.000	1.3074e-03
 9.250	17.250	1.8647e-03
 9.250	17.500	2.7177e-03
 9.250	17.750	4.0855e-03
 9.250	18.000	6.4279e-03
 9.250	18.250	1.0490e-02
 9.250	18.500	1.6824e-02
 9.250	18.750	2.4766e-02
 9.250	19.000	3.1202e-02
 9.250	19.250	3.6501e-02
 9.250	19.500	3.9090e-02
 9.250	19.750	4.0508e-02
 9.250	20.000	4.1234e-02
 9.250	20.250	4.1254e-02
 9.250	20.500	4.1280e-02
 9.250	20.750	4.1285e-02
 9.250	21.000	4.1290e-02
 9.250	21.250	4.1295e-02
 9.250	21.500	4.1295e-02
 9.250	21.750	4.1280e-02
 9.250	22.000	4.1279e-02
 9.250	22.250	4.1281e-02
 9.250	22.500	4.1301e-02
 9.250	22.750	4.1301e-02
 9.250	23.000	4.1301e-02
 9.250	23.250	4.1301e-02
 9.250	23.500	4.1301e-02
 9.250	23.750	4.1301e-02
 9.250	24.000	4.1301e-02
 9.500	17.000	9.4716e-04
 9.500	17.250	1.3465e-03
 9.500	17.500	1.9612e-03
 9.500	17.750	2.9578e-03
 9.500	18.000	4.6849e-03
 9.500	18.250	7.6879e-03
 9.500	18.500	1.2325e-02
 9.500	18.750	1.8998e-02
 9.500	19.000	2.7029e-02
 9.500	19.250	3.2433e-02
 9.500	19.500	3.7535e-02
 9.500	19.750	3.9034e-02
 9.500	20.000	4.0499e-02
 9.500	20.250	4.1233e-02
 9.500	20.500	4.1254e-02
 9.500	20.750	4.1280e-02
 9.500	21.000	4.1279e-02
 9.500	21.250	4.1273e-02
 9.500	21.500	4.1274e-02
 9.500	21.750	4.1274e-02
 9.500	22.000	4.1267e-02
 9.500	22.250	4.1262e-02
 9.500	22.500	4.1264e-02
 9.500	22.750	4.1264e-02
 9.500	23.000	4.1264e-02
 9.500	23.250	4.1263e-02
 9.500	23.500	4.1276e-02
 9.500	23.750	4.1276e-02
 9.500	24.000	4.1276e-02
 9.750	17.000	6.8930e-04
 9.750	17.250	9.7605e-04
 9.750	17.500	1.4197e-03
 9.750	17.750	2.1523e-03
 9.750	18.000	3.4532e-03
 9.750	18.250	5.7112e-03
 9.750	18.500	9.1513e-03
 9.750	18.750	1.4136e-02
 9.750	19.000	2.0963e-02
 9.750	19.250	2.8449e-02
 9.750	19.500	3.4094e-02
 9.750	19.750	3.8064e-02
 9.750	20.000	3.8977e-02
 9.750	20.250	4.0467e-02
 9.750	20.500	4.1230e-02
 9.750	20.750	4.1253e-02
 9.750	21.000	4.1280e-02
 9.750	21.250	4.1283e-02
 9.750	21.500	4.1283e-02
 9.750	21.750	4.1276e-02
 9.750	22.000	4.1276e-02
 9.750	22.250	4.1272e-02
 9.750	22.500	4.1265e-02
 9.750	22.750	4.1262e-02
 9.750	23.000	4.1263e-02
 9.750	23.250	4.1263e-02
 9.750	23.500	4.1264e-02
 9.750	23.750	4.1264e-02
 9.750	24.000	4.1264e-02
10.000	17.000	5.0469e-04
10.000	17.250	7.1111e-04
10.000	17.500	1.0323e-03
10.000	17.750	1.5743e-03
10.000	18.000	2.5565e-03
10.000	18.250	4.2608e-03
10.000	18.500	6.7911e-03
10.000	18.750	1.0497e-02
10.000	19.000	1.5688e-02
10.000	19.250	2.2709e-02
10.000	19.500	2.9609e-02
10.000	19.750	3.5414e-02
10.000	20.000	3.7960e-02
10.000	20.250	3.8892e-02
10.000	20.500	4.0434e-02
10.000	20.750	4.1222e-02
10.000	21.000	4.1252e-02
10.000	21.250	4.1280e-02
10.000	21.500	4.1284e-02
10.000	21.750	4.1288e-02
10.000	22.000	4.1283e-02
10.000	22.250	4.1277e-02
10.000	22.500	4.1275e-02
10.000	22.750	4.1271e-02
10.000	23.000	4.1266e-02
10.000	23.250	4.1263e-02
10.000	23.500	4.1262e-02
10.000	23.750	4.1262e-02
10.000	24.000	4.1262e-02
10.250	17.000	3.7333e-04
10.250	17.250	5.2132e-04
10.250	17.500	7.5490e-04
10.250	17.750	1.1584e-03
10.250	18.000	1.8960e-03
10.250	18.250	3.1529e-03
10.250	18.500	5.0552e-03
10.250	18.750	7.7979e-03
10.250	19.000	1.1644e-02
10.250	19.250	1.7097e-02
10.250	19.500	2.3770e-02
10.250	19.750	3.0582e-02
10.250	20.000	3.6495e-02
10.250	20.250	3.7860e-02
10.250	20.500	3.8845e-02
10.250	20.750	4.0425e-02
10.250	21.000	4.1210e-02
10.250	21.250	4.1250e-02
10.250	21.500	4.1280e-02
10.250	21.750	4.1284e-02
10.250	22.000	4.1289e-02
10.250	22.250	4.1291e-02
10.250	22.500	4.1278e-02
10.250	22.750	4.1278e-02
10.250	23.000	4.1275e-02
10.250	23.250	4.1271e-02
10.250	23.500	4.1269e-02
10.250	23.750	4.1267e-02
10.250	24.000	4.1266e-02
10.500	17.000	2.8033e-04
10.500	17.250	3.8658e-04
10.500	17.500	5.5728e-04
10.500	17.750	8.5802e-04
10.500	18.000	1.4081e-03
10.500	18.250	2.3513e-03
10.500	18.500	3.7270e-03
10.500	18.750	5.7408e-03
10.500	19.000	8.5538e-03
10.500	19.250	1.2536e-02
10.500	19.500	1.7946e-02
10.500	19.750	2.4561e-02
10.500	20.000	3.1665e-02
10.500	20.250	3.7052e-02
10.500	20.500	3.7756e-02
10.500	20.750	3.8817e-02
10.500	21.000	4.0441e-02
10.500	21.250	4.1191e-02
10.500	21.500	4.1245e-02
10.500	21.750	4.1278e-02
10.500	22.000	4.1284e-02
10.500	22.250	4.1290e-02
10.500	22.500	4.1294e-02
10.500	22.750	4.1282e-02
10.500	23.000	4.1279e-02
10.500	23.250	4.1277e-02
10.500	23.500	4.1275e-02
10.500	23.750	4.1273e-02
10.500	24.000	4.1272e-02
10.750	17.000	2.1399e-04
10.750	17.250	2.9021e-04
10.750	17.500	4.1514e-04
10.750	17.750	6.3877e-04
10.750	18.000	1.0472e-03
10.750	18.250	1.7286e-03
10.750	18.500	2.7258e-03
10.750	18.750	4.1723e-03
10.750	19.000	6.2286e-03
10.750	19.250	9.0968e-03
10.750	19.500	1.3137e-02
10.750	19.750	1.8623e-02
10.750	20.000	2.5404e-02
10.750	20.250	3.2768e-02
10.750	20.500	3.6980e-02
10.750	20.750	3.7708e-02
10.750	21.000	3.8784e-02
10.750	21.250	4.0491e-02
10.750	21.500	4.1169e-02
10.750	21.750	4.1236e-02
10.750	22.000	4.1273e-02
10.750	22.250	4.1283e-02
10.750	22.500	4.1289e-02
10.750	22.750	4.1294e-02
10.750	23.000	4.1292e-02
10.750	23.250	4.1279e-02
10.750	23.500	4.1279e-02
10.750	23.750	4.1278e-02
10.750	24.000	4.1277e-02
11.000	17.000	1.6626e-04
11.000	17.250	2.2107e-04
11.000	17.500	3.1210e-04
11.000	17.750	4.7745e-04
11.000	18.000	7.7547e-04
11.000	18.250	1.2623e-03
11.000	18.500	1.9993e-03
11.000	18.750	3.0443e-03
11.000	19.000	4.5323e-03
11.000	19.250	6.6014e-03
11.000	19.500	9.4856e-03
11.000	19.750	1.3613e-02
11.000	20.000	1.9262e-02
11.000	20.250	2.6227e-02
11.000	20.500	3.3863e-02
11.000	20.750	3.6899e-02
11.000	21.000	3.7689e-02
11.000	21.250	3.8846e-02
11.000	21.500	4.0644e-02
11.000	21.750	4.1145e-02
11.000	22.000	4.1223e-02
11.000	22.250	4.1269e-02
11.000	22.500	4.1282e-02
11.000	22.750	4.1288e-02
11.000	23.000	4.1294e-02
11.000	23.250	4.1297e-02
11.000	23.500	4.1282e-02
11.000	23.750	4.1280e-02
11.000	24.000	4.1279e-02
11.250	17.000	1.3226e-04
11.250	17.250	1.7103e-04
11.250	17.500	2.3679e-04
11.250	17.750	3.5695e-04
11.250	18.000	5.7136e-04
11.250	18.250	9.1531e-04
11.250	18.500	1.4240e-03
11.250	18.750	2.1814e-03
11.250	19.000	3.2388e-03
11.250	19.250	4.7105e-03
11.250	19.500	6.8077e-03
11.250	19.750	9.7756e-03
11.250	20.000	1.4019e-02
11.250	20.250	1.9850e-02
11.250	20.500	2.7073e-02
11.250	20.750	3.4727e-02
11.250	21.000	3.6837e-02
11.250	21.250	3.7710e-02
11.250	21.500	3.9031e-02
11.250	21.750	4.0803e-02
11.250	22.000	4.1115e-02
11.250	22.250	4.1204e-02
11.250	22.500	4.1256e-02
11.250	22.750	4.1279e-02
11.250	23.000	4.1287e-02
11.250	23.250	4.1293e-02
11.250	23.500	4.1298e-02
11.250	23.750	4.1293e-02
11.250	24.000	4.1281e-02
11.500	17.000	1.0757e-04
11.500	17.250	1.3506e-04
11.500	17.500	1.8206e-04
11.500	17.750	2.6749e-04
11.500	18.000	4.1844e-04
11.500	18.250	6.6082e-04
11.500	18.500	1.0189e-03
11.500	18.750	1.5569e-03
11.500	19.000	2.3026e-03
11.500	19.250	3.3578e-03
11.500	19.500	4.8630e-03
11.500	19.750	7.0119e-03
11.500	20.000	1.0056e-02
11.500	20.250	1.4426e-02
11.500	20.500	2.0465e-02
11.500	20.750	2.7934e-02
11.500	21.000	3.5303e-02
11.500	21.250	3.6778e-02
11.500	21.500	3.7824e-02
11.500	21.750	3.9360e-02
11.500	22.000	4.0868e-02
11.500	22.250	4.1075e-02
11.500	22.500	4.1182e-02
11.500	22.750	4.1245e-02
11.500	23.000	4.1275e-02
11.500	23.250	4.1285e-02
11.500	23.500	4.1292e-02
11.500	23.750	4.1298e-02
11.500	24.000	4.1298e-02
11.750	17.000	9.0782e-05
11.750	17.250	1.0947e-04
11.750	17.500	1.4214e-04
11.750	17.750	2.0206e-04
11.750	18.000	3.0650e-04
11.750	18.250	4.7424e-04
11.750	18.500	7.2379e-04
11.750	18.750	1.0903e-03
11.750	19.000	1.6230e-03
11.750	19.250	2.3780e-03
11.750	19.500	3.4544e-03
11.750	19.750	4.9910e-03
11.750	20.000	7.1566e-03
11.750	20.250	1.0276e-02
11.750	20.500	1.4824e-02
11.750	20.750	2.1073e-02
11.750	21.000	2.8763e-02
11.750	21.250	3.5166e-02
11.750	21.500	3.6764e-02
11.750	21.750	3.7997e-02
11.750	22.000	3.9762e-02
11.750	22.250	4.0815e-02
11.750	22.500	4.1031e-02
11.750	22.750	4.1154e-02
11.750	23.000	4.1229e-02
11.750	23.250	4.1269e-02
11.750	23.500	4.1282e-02
11.750	23.750	4.1291e-02
11.750	24.000	4.1298e-02
12.000	17.000	7.9424e-05
12.000	17.250	9.2016e-05
12.000	17.500	1.1399e-04
12.000	17.750	1.5424e-04
12.000	18.000	2.2453e-04
12.000	18.250	3.3835e-04
12.000	18.500	5.1226e-04
12.000	18.750	7.6963e-04
12.000	19.000	1.1441e-03
12.000	19.250	1.6826e-03
12.000	19.500	2.4554e-03
12.000	19.750	3.5409e-03
12.000	20.000	5.0853e-03
12.000	20.250	7.2963e-03
12.000	20.500	1.0502e-02
12.000	20.750	1.5187e-02
12.000	21.000	2.1665e-02
12.000	21.250	2.9478e-02
12.000	21.500	3.4983e-02
12.000	21.750	3.6731e-02
12.000	22.000	3.8228e-02
12.000	22.250	4.0064e-02
12.000	22.500	4.0748e-02
12.000	22.750	4.0981e-02
12.000	23.000	4.1115e-02
12.000	23.250	4.1205e-02
12.000	23.500	4.1261e-02
12.000	23.750	4.1278e-02
12.000	24.000	4.1289e-02
12.250	17.000	6.4527e-05
12.250	17.250	8.0329e-05
12.250	17.500	9.5062e-05
12.250	17.750	1.2123e-04
12.250	18.000	1.6749e-04
12.250	18.250	2.4436e-04
12.250	18.500	3.6453e-04
12.250	18.750	5.4412e-04
12.250	19.000	8.0576e-04
12.250	19.250	1.1872e-03
12.250	19.500	1.7368e-03
12.250	19.750	2.5071e-03
12.250	20.000	3.6170e-03
12.250	20.250	5.1709e-03
12.250	20.500	7.4467e-03
12.250	20.750	1.0737e-02
12.250	21.000	1.5527e-02
12.250	21.250	2.2176e-02
12.250	21.500	2.9674e-02
12.250	21.750	3.4661e-02
12.250	22.000	3.6680e-02
12.250	22.250	3.8512e-02
12.250	22.500	4.0148e-02
12.250	22.750	4.0663e-02
12.250	23.000	4.0913e-02
12.250	23.250	4.1062e-02
12.250	23.500	4.1173e-02
12.250	23.750	4.1250e-02
12.250	24.000	4.1272e-02
12.500	17.000	3.3992e-05
12.500	17.250	6.7819e-05
12.500	17.500	8.2469e-05
12.500	17.750	9.9671e-05
12.500	18.000	1.2963e-04
12.500	18.250	1.8000e-04
12.500	18.500	2.6132e-04
12.500	18.750	3.8716e-04
12.500	19.000	5.7251e-04
12.500	19.250	8.4173e-04
12.500	19.500	1.2278e-03
12.500	19.750	1.7761e-03
12.500	20.000	2.5593e-03
12.500	20.250	3.6784e-03
12.500	20.500	5.2673e-03
12.500	20.750	7.5653e-03
12.500	21.000	1.0935e-02
12.500	21.250	1.5814e-02
12.500	21.500	2.2249e-02
12.500	21.750	2.9850e-02
12.500	22.000	3.4199e-02
12.500	22.250	3.6606e-02
12.500	22.500	3.8685e-02
12.500	22.750	4.0076e-02
12.500	23.000	4.0544e-02
12.500	23.250	4.0819e-02
12.500	23.500	4.0987e-02
12.500	23.750	4.1125e-02
12.500	24.000	4.1235e-02
12.750	17.000	1.7695e-05
12.750	17.250	3.9177e-05
12.750	17.500	7.2510e-05
12.750	17.750	8.5021e-05
12.750	18.000	1.0444e-04
12.750	18.250	1.3728e-04
12.750	18.500	1.9169e-04
12.750	18.750	2.7819e-04
12.750	19.000	4.0683e-04
12.750	19.250	5.9580e-04
12.750	19.500	8.6782e-04
12.750	19.750	1.2553e-03
12.750	20.000	1.8082e-03
12.750	20.250	2.5964e-03
12.750	20.500	3.7295e-03
12.750	20.750	5.3523e-03
12.750	21.000	7.6774e-03
12.750	21.250	1.1113e-02
12.750	21.500	1.5837e-02
12.750	21.750	2.2439e-02
12.750	22.000	2.9651e-02
12.750	22.250	3.3598e-02
12.750	22.500	3.6458e-02
12.750	22.750	3.8559e-02
12.750	23.000	3.9857e-02
12.750	23.250	4.0373e-02
12.750	23.500	4.0686e-02
12.750	23.750	4.0879e-02
12.750	24.000	4.1054e-02
13.000	17.000	3.6214e-06
13.000	17.250	8.4774e-06
13.000	17.500	2.9300e-05
13.000	17.750	6.0412e-05
13.000	18.000	8.1235e-05
13.000	18.250	1.0922e-04
13.000	18.500	1.4519e-04
13.000	18.750	2.0247e-04
13.000	19.000	2.9095e-04
13.000	19.250	4.2272e-04
13.000	19.500	6.1506e-04
13.000	19.750	8.8584e-04
13.000	20.000	1.2760e-03
13.000	20.250	1.8348e-03
13.000	20.500	2.6288e-03
13.000	20.750	3.7796e-03
13.000	21.000	5.4305e-03
13.000	21.250	7.8274e-03
13.000	21.500	1.1146e-02
13.000	21.750	1.6012e-02
13.000	22.000	2.2378e-02
13.000	22.250	2.8950e-02
13.000	22.500	3.2783e-02
13.000	22.750	3.5863e-02
13.000	23.000	3.8094e-02
13.000	23.250	3.9495e-02
13.000	23.500	4.0112e-02
13.000	23.750	4.0484e-02
13.000	24.000	4.0714e-02
13.250	17.000	2.1399e-06
13.250	17.250	4.1152e-06
13.250	17.500	9.9588e-06
13.250	17.750	2.4115e-05
13.250	18.000	5.1770e-05
13.250	18.250	7.7037e-05
13.250	18.500	1.1407e-04
13.250	18.750	1.5185e-04
13.250	19.000	2.1111e-04
13.250	19.250	3.0214e-04
13.250	19.500	4.3457e-04
13.250	19.750	6.2642e-04
13.250	20.000	8.9975e-04
13.250	20.250	1.2931e-03
13.250	20.500	1.8565e-03
13.250	20.750	2.6653e-03
13.250	21.000	3.8395e-03
13.250	21.250	5.5289e-03
13.250	21.500	7.8581e-03
13.250	21.750	1.1243e-02
13.250	22.000	1.5880e-02
13.250	22.250	2.1624e-02
13.250	22.500	2.7629e-02
13.250	22.750	3.1372e-02
13.250	23.000	3.4732e-02
13.250	23.250	3.7328e-02
13.250	23.500	3.8952e-02
13.250	23.750	3.9717e-02
13.250	24.000	4.0173e-02
13.500	17.000	1.3169e-06
13.500	17.250	2.3868e-06
13.500	17.500	5.4321e-06
13.500	17.750	1.2510e-05
13.500	18.000	2.9383e-05
13.500	18.250	5.8436e-05
13.500	18.500	8.2634e-05
13.500	18.750	1.1835e-04
13.500	19.000	1.5712e-04
13.500	19.250	2.1704e-04
13.500	19.500	3.0856e-04
13.500	19.750	4.4189e-04
13.500	20.000	6.3465e-04
13.500	20.250	9.1103e-04
13.500	20.500	1.3095e-03
13.500	20.750	1.8814e-03
13.500	21.000	2.7057e-03
13.500	21.250	3.8970e-03
13.500	21.500	5.5473e-03
13.500	21.750	7.9240e-03
13.500	22.000	1.1038e-02
13.500	22.250	1.5067e-02
13.500	22.500	2.0398e-02
13.500	22.750	2.5719e-02
13.500	23.000	2.9732e-02
13.500	23.250	3.3287e-02
13.500	23.500	3.6229e-02
13.500	23.750	3.8156e-02
13.500	24.000	3.9124e-02
13.750	17.000	1.0000e-07
13.750	17.250	1.4815e-06
13.750	17.500	3.2099e-06
13.750	17.750	6.5844e-06
13.750	18.000	1.5885e-05
13.750	18.250	3.5885e-05
13.750	18.500	6.2469e-05
13.750	18.750	8.8148e-05
13.750	19.000	1.2156e-04
13.750	19.250	1.6091e-04
13.750	19.500	2.2173e-04
13.750	19.750	3.1325e-04
13.750	20.000	4.4724e-04
13.750	20.250	6.4140e-04
13.750	20.500	9.2165e-04
13.750	20.750	1.3255e-03
13.750	21.000	1.9085e-03
13.750	21.250	2.7560e-03
13.750	21.500	3.9202e-03
13.750	21.750	5.6053e-03
13.750	22.000	7.7429e-03
13.750	22.250	1.0149e-02
13.750	22.500	1.3367e-02
13.750	22.750	1.8540e-02
13.750	23.000	2.3708e-02
13.750	23.250	2.7833e-02
13.750	23.500	3.1561e-02
13.750	23.750	3.4818e-02
13.750	24.000	3.7027e-02
14.000	17.000	1.0000e-07
14.000	17.250	9.0535e-07
14.000	17.500	1.9753e-06
14.000	17.750	3.9506e-06
14.000	18.000	8.0658e-06
14.000	18.250	1.8519e-05
14.000	18.500	3.7531e-05
14.000	18.750	6.5432e-05
14.000	19.000	9.7284e-05
14.000	19.250	1.2354e-04
14.000	19.500	1.6329e-04
14.000	19.750	2.2453e-04
14.000	20.000	3.1687e-04
14.000	20.250	4.5202e-04
14.000	20.500	6.4881e-04
14.000	20.750	9.3342e-04
14.000	21.000	1.3462e-03
14.000	21.250	1.9492e-03
14.000	21.500	2.7784e-03
14.000	21.750	3.9869e-03
14.000	22.000	5.4697e-03
14.000	22.250	6.9267e-03
14.000	22.500	8.5802e-03
14.000	22.750	1.1609e-02
14.000	23.000	1.6619e-02
14.000	23.250	2.1455e-02
14.000	23.500	2.5584e-02
14.000	23.750	2.9350e-02
14.000	24.000	3.2954e-02
