InwT 5100.00A  relative to Inci 1215.00A scaled to 1215A.
Hden   Phi(H)  Eq_Width (A)
 7.000	17.000	6.9222e-02
 7.000	17.250	7.4107e-02
 7.000	17.500	6.0982e-02
 7.000	17.750	5.2045e-02
 7.000	18.000	4.6630e-02
 7.000	18.250	4.3908e-02
 7.000	18.500	4.2460e-02
 7.000	18.750	4.1870e-02
 7.000	19.000	4.1578e-02
 7.000	19.250	4.1414e-02
 7.000	19.500	4.1349e-02
 7.000	19.750	4.1323e-02
 7.000	20.000	4.1312e-02
 7.000	20.250	4.1307e-02
 7.000	20.500	4.1304e-02
 7.000	20.750	4.1303e-02
 7.000	21.000	4.1302e-02
 7.000	21.250	4.1302e-02
 7.000	21.500	4.1302e-02
 7.000	21.750	4.1302e-02
 7.000	22.000	4.1302e-02
 7.000	22.250	4.1302e-02
 7.000	22.500	4.1303e-02
 7.000	22.750	4.1307e-02
 7.000	23.000	4.1303e-02
 7.000	23.250	4.1304e-02
 7.000	23.500	4.1304e-02
 7.000	23.750	4.1304e-02
 7.000	24.000	4.1304e-02
 7.250	17.000	6.6555e-02
 7.250	17.250	7.0185e-02
 7.250	17.500	7.4060e-02
 7.250	17.750	6.0970e-02
 7.250	18.000	5.2028e-02
 7.250	18.250	4.6622e-02
 7.250	18.500	4.3907e-02
 7.250	18.750	4.2460e-02
 7.250	19.000	4.1869e-02
 7.250	19.250	4.1579e-02
 7.250	19.500	4.1414e-02
 7.250	19.750	4.1349e-02
 7.250	20.000	4.1323e-02
 7.250	20.250	4.1312e-02
 7.250	20.500	4.1307e-02
 7.250	20.750	4.1304e-02
 7.250	21.000	4.1303e-02
 7.250	21.250	4.1302e-02
 7.250	21.500	4.1302e-02
 7.250	21.750	4.1302e-02
 7.250	22.000	4.1302e-02
 7.250	22.250	4.1302e-02
 7.250	22.500	4.1302e-02
 7.250	22.750	4.1302e-02
 7.250	23.000	4.1302e-02
 7.250	23.250	4.1302e-02
 7.250	23.500	4.1302e-02
 7.250	23.750	4.1302e-02
 7.250	24.000	4.1302e-02
 7.500	17.000	6.2526e-02
 7.500	17.250	6.8339e-02
 7.500	17.500	7.1082e-02
 7.500	17.750	7.4019e-02
 7.500	18.000	6.0961e-02
 7.500	18.250	5.2013e-02
 7.500	18.500	4.6613e-02
 7.500	18.750	4.3906e-02
 7.500	19.000	4.2460e-02
 7.500	19.250	4.1869e-02
 7.500	19.500	4.1578e-02
 7.500	19.750	4.1414e-02
 7.500	20.000	4.1349e-02
 7.500	20.250	4.1323e-02
 7.500	20.500	4.1312e-02
 7.500	20.750	4.1307e-02
 7.500	21.000	4.1304e-02
 7.500	21.250	4.1303e-02
 7.500	21.500	4.1302e-02
 7.500	21.750	4.1302e-02
 7.500	22.000	4.1302e-02
 7.500	22.250	4.1302e-02
 7.500	22.500	4.1302e-02
 7.500	22.750	4.1302e-02
 7.500	23.000	4.1302e-02
 7.500	23.250	4.1302e-02
 7.500	23.500	4.1302e-02
 7.500	23.750	4.1302e-02
 7.500	24.000	4.1302e-02
 7.750	17.000	5.7595e-02
 7.750	17.250	6.4353e-02
 7.750	17.500	7.0365e-02
 7.750	17.750	7.2104e-02
 7.750	18.000	7.3987e-02
 7.750	18.250	6.0958e-02
 7.750	18.500	5.1998e-02
 7.750	18.750	4.6603e-02
 7.750	19.000	4.3904e-02
 7.750	19.250	4.2460e-02
 7.750	19.500	4.1869e-02
 7.750	19.750	4.1578e-02
 7.750	20.000	4.1414e-02
 7.750	20.250	4.1349e-02
 7.750	20.500	4.1323e-02
 7.750	20.750	4.1312e-02
 7.750	21.000	4.1307e-02
 7.750	21.250	4.1304e-02
 7.750	21.500	4.1303e-02
 7.750	21.750	4.1302e-02
 7.750	22.000	4.1302e-02
 7.750	22.250	4.1302e-02
 7.750	22.500	4.1301e-02
 7.750	22.750	4.1301e-02
 7.750	23.000	4.1301e-02
 7.750	23.250	4.1301e-02
 7.750	23.500	4.1301e-02
 7.750	23.750	4.1302e-02
 7.750	24.000	4.1301e-02
 8.000	17.000	5.3725e-02
 8.000	17.250	5.8589e-02
 8.000	17.500	6.5963e-02
 8.000	17.750	7.2237e-02
 8.000	18.000	7.2976e-02
 8.000	18.250	7.3940e-02
 8.000	18.500	6.0936e-02
 8.000	18.750	5.1983e-02
 8.000	19.000	4.6592e-02
 8.000	19.250	4.3903e-02
 8.000	19.500	4.2459e-02
 8.000	19.750	4.1869e-02
 8.000	20.000	4.1578e-02
 8.000	20.250	4.1414e-02
 8.000	20.500	4.1349e-02
 8.000	20.750	4.1323e-02
 8.000	21.000	4.1312e-02
 8.000	21.250	4.1307e-02
 8.000	21.500	4.1304e-02
 8.000	21.750	4.1303e-02
 8.000	22.000	4.1302e-02
 8.000	22.250	4.1302e-02
 8.000	22.500	4.1302e-02
 8.000	22.750	4.1301e-02
 8.000	23.000	4.1301e-02
 8.000	23.250	4.1301e-02
 8.000	23.500	4.1301e-02
 8.000	23.750	4.1301e-02
 8.000	24.000	4.1302e-02
 8.250	17.000	5.2075e-02
 8.250	17.250	5.5138e-02
 8.250	17.500	6.0715e-02
 8.250	17.750	6.9260e-02
 8.250	18.000	7.6015e-02
 8.250	18.250	7.4969e-02
 8.250	18.500	7.3924e-02
 8.250	18.750	6.0941e-02
 8.250	19.000	5.1965e-02
 8.250	19.250	4.6579e-02
 8.250	19.500	4.3901e-02
 8.250	19.750	4.2459e-02
 8.250	20.000	4.1869e-02
 8.250	20.250	4.1578e-02
 8.250	20.500	4.1414e-02
 8.250	20.750	4.1349e-02
 8.250	21.000	4.1323e-02
 8.250	21.250	4.1312e-02
 8.250	21.500	4.1307e-02
 8.250	21.750	4.1304e-02
 8.250	22.000	4.1303e-02
 8.250	22.250	4.1302e-02
 8.250	22.500	4.1302e-02
 8.250	22.750	4.1302e-02
 8.250	23.000	4.1302e-02
 8.250	23.250	4.1301e-02
 8.250	23.500	4.1301e-02
 8.250	23.750	4.1301e-02
 8.250	24.000	4.1301e-02
 8.500	17.000	5.1463e-02
 8.500	17.250	5.3480e-02
 8.500	17.500	5.7245e-02
 8.500	17.750	6.4324e-02
 8.500	18.000	7.4851e-02
 8.500	18.250	8.1986e-02
 8.500	18.500	7.7742e-02
 8.500	18.750	7.3910e-02
 8.500	19.000	6.0948e-02
 8.500	19.250	5.1947e-02
 8.500	19.500	4.6563e-02
 8.500	19.750	4.3898e-02
 8.500	20.000	4.2459e-02
 8.500	20.250	4.1869e-02
 8.500	20.500	4.1578e-02
 8.500	20.750	4.1414e-02
 8.500	21.000	4.1349e-02
 8.500	21.250	4.1323e-02
 8.500	21.500	4.1312e-02
 8.500	21.750	4.1307e-02
 8.500	22.000	4.1304e-02
 8.500	22.250	4.1303e-02
 8.500	22.500	4.1302e-02
 8.500	22.750	4.1302e-02
 8.500	23.000	4.1302e-02
 8.500	23.250	4.1302e-02
 8.500	23.500	4.1301e-02
 8.500	23.750	4.1301e-02
 8.500	24.000	4.1301e-02
 8.750	17.000	5.1360e-02
 8.750	17.250	5.2948e-02
 8.750	17.500	5.5726e-02
 8.750	17.750	6.0944e-02
 8.750	18.000	7.0981e-02
 8.750	18.250	8.4543e-02
 8.750	18.500	8.8448e-02
 8.750	18.750	8.0887e-02
 8.750	19.000	7.3892e-02
 8.750	19.250	6.0957e-02
 8.750	19.500	5.1927e-02
 8.750	19.750	4.6546e-02
 8.750	20.000	4.3895e-02
 8.750	20.250	4.2458e-02
 8.750	20.500	4.1869e-02
 8.750	20.750	4.1578e-02
 8.750	21.000	4.1414e-02
 8.750	21.250	4.1349e-02
 8.750	21.500	4.1323e-02
 8.750	21.750	4.1312e-02
 8.750	22.000	4.1307e-02
 8.750	22.250	4.1304e-02
 8.750	22.500	4.1303e-02
 8.750	22.750	4.1302e-02
 8.750	23.000	4.1302e-02
 8.750	23.250	4.1302e-02
 8.750	23.500	4.1301e-02
 8.750	23.750	4.1301e-02
 8.750	24.000	4.1301e-02
 9.000	17.000	5.1474e-02
 9.000	17.250	5.2960e-02
 9.000	17.500	5.5429e-02
 9.000	17.750	5.9862e-02
 9.000	18.000	6.8481e-02
 9.000	18.250	8.2919e-02
 9.000	18.500	9.7672e-02
 9.000	18.750	9.7128e-02
 9.000	19.000	8.5900e-02
 9.000	19.250	7.3853e-02
 9.000	19.500	6.0963e-02
 9.000	19.750	5.1908e-02
 9.000	20.000	4.6528e-02
 9.000	20.250	4.3893e-02
 9.000	20.500	4.2458e-02
 9.000	20.750	4.1869e-02
 9.000	21.000	4.1578e-02
 9.000	21.250	4.1414e-02
 9.000	21.500	4.1349e-02
 9.000	21.750	4.1323e-02
 9.000	22.000	4.1312e-02
 9.000	22.250	4.1307e-02
 9.000	22.500	4.1304e-02
 9.000	22.750	4.1303e-02
 9.000	23.000	4.1302e-02
 9.000	23.250	4.1302e-02
 9.000	23.500	4.1302e-02
 9.000	23.750	4.1301e-02
 9.000	24.000	4.1301e-02
 9.250	17.000	5.1672e-02
 9.250	17.250	5.3247e-02
 9.250	17.500	5.5846e-02
 9.250	17.750	6.0334e-02
 9.250	18.000	6.8558e-02
 9.250	18.250	8.2322e-02
 9.250	18.500	9.9578e-02
 9.250	18.750	1.1128e-01
 9.250	19.000	1.0399e-01
 9.250	19.250	9.1214e-02
 9.250	19.500	7.3807e-02
 9.250	19.750	6.0961e-02
 9.250	20.000	5.1890e-02
 9.250	20.250	4.6511e-02
 9.250	20.500	4.3890e-02
 9.250	20.750	4.2458e-02
 9.250	21.000	4.1869e-02
 9.250	21.250	4.1578e-02
 9.250	21.500	4.1410e-02
 9.250	21.750	4.1329e-02
 9.250	22.000	4.1301e-02
 9.250	22.250	4.1292e-02
 9.250	22.500	4.1306e-02
 9.250	22.750	4.1304e-02
 9.250	23.000	4.1303e-02
 9.250	23.250	4.1302e-02
 9.250	23.500	4.1302e-02
 9.250	23.750	4.1302e-02
 9.250	24.000	4.1302e-02
 9.500	17.000	5.1991e-02
 9.500	17.250	5.3757e-02
 9.500	17.500	5.6729e-02
 9.500	17.750	6.1841e-02
 9.500	18.000	7.0904e-02
 9.500	18.250	8.5051e-02
 9.500	18.500	1.0144e-01
 9.500	18.750	1.1783e-01
 9.500	19.000	1.2623e-01
 9.500	19.250	1.1090e-01
 9.500	19.500	9.5269e-02
 9.500	19.750	7.3720e-02
 9.500	20.000	6.0949e-02
 9.500	20.250	5.1875e-02
 9.500	20.500	4.6494e-02
 9.500	20.750	4.3887e-02
 9.500	21.000	4.2451e-02
 9.500	21.250	4.1852e-02
 9.500	21.500	4.1557e-02
 9.500	21.750	4.1389e-02
 9.500	22.000	4.1316e-02
 9.500	22.250	4.1284e-02
 9.500	22.500	4.1274e-02
 9.500	22.750	4.1269e-02
 9.500	23.000	4.1267e-02
 9.500	23.250	4.1265e-02
 9.500	23.500	4.1277e-02
 9.500	23.750	4.1276e-02
 9.500	24.000	4.1276e-02
 9.750	17.000	5.2345e-02
 9.750	17.250	5.4410e-02
 9.750	17.500	5.7892e-02
 9.750	17.750	6.4036e-02
 9.750	18.000	7.4992e-02
 9.750	18.250	9.0480e-02
 9.750	18.500	1.0663e-01
 9.750	18.750	1.2219e-01
 9.750	19.000	1.3560e-01
 9.750	19.250	1.3720e-01
 9.750	19.500	1.1993e-01
 9.750	19.750	9.7373e-02
 9.750	20.000	7.3607e-02
 9.750	20.250	6.0911e-02
 9.750	20.500	5.1862e-02
 9.750	20.750	4.6481e-02
 9.750	21.000	4.3885e-02
 9.750	21.250	4.2455e-02
 9.750	21.500	4.1862e-02
 9.750	21.750	4.1559e-02
 9.750	22.000	4.1391e-02
 9.750	22.250	4.1321e-02
 9.750	22.500	4.1287e-02
 9.750	22.750	4.1273e-02
 9.750	23.000	4.1268e-02
 9.750	23.250	4.1266e-02
 9.750	23.500	4.1265e-02
 9.750	23.750	4.1265e-02
 9.750	24.000	4.1264e-02
10.000	17.000	5.2658e-02
10.000	17.250	5.5256e-02
10.000	17.500	5.9459e-02
10.000	17.750	6.7069e-02
10.000	18.000	8.0402e-02
10.000	18.250	9.7664e-02
10.000	18.500	1.1351e-01
10.000	18.750	1.2821e-01
10.000	19.000	1.4124e-01
10.000	19.250	1.5169e-01
10.000	19.500	1.4550e-01
10.000	19.750	1.2762e-01
10.000	20.000	9.6986e-02
10.000	20.250	7.3422e-02
10.000	20.500	6.0871e-02
10.000	20.750	5.1847e-02
10.000	21.000	4.6469e-02
10.000	21.250	4.3882e-02
10.000	21.500	4.2455e-02
10.000	21.750	4.1867e-02
10.000	22.000	4.1566e-02
10.000	22.250	4.1392e-02
10.000	22.500	4.1324e-02
10.000	22.750	4.1293e-02
10.000	23.000	4.1277e-02
10.000	23.250	4.1269e-02
10.000	23.500	4.1265e-02
10.000	23.750	4.1264e-02
10.000	24.000	4.1263e-02
10.250	17.000	5.3631e-02
10.250	17.250	5.6336e-02
10.250	17.500	6.1698e-02
10.250	17.750	7.1285e-02
10.250	18.000	8.6876e-02
10.250	18.250	1.0534e-01
10.250	18.500	1.2174e-01
10.250	18.750	1.3565e-01
10.250	19.000	1.4725e-01
10.250	19.250	1.5804e-01
10.250	19.500	1.6216e-01
10.250	19.750	1.5364e-01
10.250	20.000	1.3483e-01
10.250	20.250	9.6746e-02
10.250	20.500	7.3276e-02
10.250	20.750	6.0875e-02
10.250	21.000	5.1829e-02
10.250	21.250	4.6458e-02
10.250	21.500	4.3880e-02
10.250	21.750	4.2455e-02
10.250	22.000	4.1868e-02
10.250	22.250	4.1574e-02
10.250	22.500	4.1393e-02
10.250	22.750	4.1326e-02
10.250	23.000	4.1297e-02
10.250	23.250	4.1282e-02
10.250	23.500	4.1274e-02
10.250	23.750	4.1270e-02
10.250	24.000	4.1268e-02
10.500	17.000	5.5646e-02
10.500	17.250	5.8490e-02
10.500	17.500	6.4954e-02
10.500	17.750	7.7061e-02
10.500	18.000	9.4499e-02
10.500	18.250	1.1394e-01
10.500	18.500	1.2974e-01
10.500	18.750	1.4295e-01
10.500	19.000	1.5377e-01
10.500	19.250	1.6368e-01
10.500	19.500	1.7169e-01
10.500	19.750	1.7295e-01
10.500	20.000	1.6406e-01
10.500	20.250	1.3886e-01
10.500	20.500	9.6392e-02
10.500	20.750	7.3144e-02
10.500	21.000	6.0916e-02
10.500	21.250	5.1801e-02
10.500	21.500	4.6447e-02
10.500	21.750	4.3878e-02
10.500	22.000	4.2454e-02
10.500	22.250	4.1868e-02
10.500	22.500	4.1577e-02
10.500	22.750	4.1397e-02
10.500	23.000	4.1327e-02
10.500	23.250	4.1299e-02
10.500	23.500	4.1286e-02
10.500	23.750	4.1279e-02
10.500	24.000	4.1275e-02
10.750	17.000	5.8918e-02
10.750	17.250	6.1907e-02
10.750	17.500	6.9935e-02
10.750	17.750	8.4236e-02
10.750	18.000	1.0318e-01
10.750	18.250	1.2215e-01
10.750	18.500	1.3746e-01
10.750	18.750	1.5022e-01
10.750	19.000	1.6099e-01
10.750	19.250	1.6993e-01
10.750	19.500	1.7821e-01
10.750	19.750	1.8446e-01
10.750	20.000	1.8472e-01
10.750	20.250	1.7472e-01
10.750	20.500	1.3850e-01
10.750	20.750	9.6137e-02
10.750	21.000	7.3047e-02
10.750	21.250	6.1047e-02
10.750	21.500	5.1760e-02
10.750	21.750	4.6434e-02
10.750	22.000	4.3874e-02
10.750	22.250	4.2453e-02
10.750	22.500	4.1868e-02
10.750	22.750	4.1578e-02
10.750	23.000	4.1407e-02
10.750	23.250	4.1328e-02
10.750	23.500	4.1301e-02
10.750	23.750	4.1288e-02
10.750	24.000	4.1282e-02
11.000	17.000	6.3539e-02
11.000	17.250	6.6701e-02
11.000	17.500	7.6236e-02
11.000	17.750	9.2499e-02
11.000	18.000	1.1197e-01
11.000	18.250	1.3025e-01
11.000	18.500	1.4576e-01
11.000	18.750	1.5829e-01
11.000	19.000	1.6883e-01
11.000	19.250	1.7723e-01
11.000	19.500	1.8413e-01
11.000	19.750	1.9122e-01
11.000	20.000	1.9686e-01
11.000	20.250	1.9617e-01
11.000	20.500	1.8515e-01
11.000	20.750	1.3808e-01
11.000	21.000	9.5846e-02
11.000	21.250	7.3202e-02
11.000	21.500	6.1363e-02
11.000	21.750	5.1703e-02
11.000	22.000	4.6419e-02
11.000	22.250	4.3869e-02
11.000	22.500	4.2451e-02
11.000	22.750	4.1867e-02
11.000	23.000	4.1578e-02
11.000	23.250	4.1411e-02
11.000	23.500	4.1331e-02
11.000	23.750	4.1302e-02
11.000	24.000	4.1290e-02
11.250	17.000	6.9542e-02
11.250	17.250	7.2752e-02
11.250	17.500	8.3387e-02
11.250	17.750	1.0090e-01
11.250	18.000	1.2060e-01
11.250	18.250	1.3812e-01
11.250	18.500	1.5256e-01
11.250	18.750	1.6534e-01
11.250	19.000	1.7550e-01
11.250	19.250	1.8351e-01
11.250	19.500	1.9032e-01
11.250	19.750	1.9637e-01
11.250	20.000	2.0300e-01
11.250	20.250	2.0873e-01
11.250	20.500	2.0798e-01
11.250	20.750	1.9406e-01
11.250	21.000	1.3772e-01
11.250	21.250	9.5864e-02
11.250	21.500	7.3877e-02
11.250	21.750	6.1642e-02
11.250	22.000	5.1619e-02
11.250	22.250	4.6397e-02
11.250	22.500	4.3859e-02
11.250	22.750	4.2448e-02
11.250	23.000	4.1866e-02
11.250	23.250	4.1577e-02
11.250	23.500	4.1413e-02
11.250	23.750	4.1341e-02
11.250	24.000	4.1303e-02
11.500	17.000	7.6581e-02
11.500	17.250	8.0075e-02
11.500	17.500	9.1240e-02
11.500	17.750	1.0912e-01
11.500	18.000	1.2857e-01
11.500	18.250	1.4562e-01
11.500	18.500	1.5954e-01
11.500	18.750	1.7215e-01
11.500	19.000	1.8194e-01
11.500	19.250	1.8990e-01
11.500	19.500	1.9648e-01
11.500	19.750	2.0241e-01
11.500	20.000	2.0795e-01
11.500	20.250	2.1483e-01
11.500	20.500	2.2137e-01
11.500	20.750	2.2070e-01
11.500	21.000	2.0091e-01
11.500	21.250	1.3757e-01
11.500	21.500	9.6443e-02
11.500	21.750	7.5236e-02
11.500	22.000	6.1538e-02
11.500	22.250	5.1502e-02
11.500	22.500	4.6371e-02
11.500	22.750	4.3849e-02
11.500	23.000	4.2443e-02
11.500	23.250	4.1864e-02
11.500	23.500	4.1576e-02
11.500	23.750	4.1413e-02
11.500	24.000	4.1346e-02
11.750	17.000	8.5010e-02
11.750	17.250	8.8413e-02
11.750	17.500	9.9492e-02
11.750	17.750	1.1707e-01
11.750	18.000	1.3578e-01
11.750	18.250	1.5227e-01
11.750	18.500	1.6609e-01
11.750	18.750	1.7811e-01
11.750	19.000	1.8838e-01
11.750	19.250	1.9643e-01
11.750	19.500	2.0278e-01
11.750	19.750	2.0815e-01
11.750	20.000	2.1288e-01
11.750	20.250	2.1875e-01
11.750	20.500	2.2720e-01
11.750	20.750	2.3529e-01
11.750	21.000	2.3469e-01
11.750	21.250	2.0238e-01
11.750	21.500	1.3791e-01
11.750	21.750	9.7595e-02
11.750	22.000	7.6933e-02
11.750	22.250	6.1108e-02
11.750	22.500	5.1357e-02
11.750	22.750	4.6335e-02
11.750	23.000	4.3835e-02
11.750	23.250	4.2436e-02
11.750	23.500	4.1860e-02
11.750	23.750	4.1575e-02
11.750	24.000	4.1413e-02
12.000	17.000	9.4465e-02
12.000	17.250	9.7803e-02
12.000	17.500	1.0789e-01
12.000	17.750	1.2394e-01
12.000	18.000	1.4136e-01
12.000	18.250	1.5755e-01
12.000	18.500	1.7240e-01
12.000	18.750	1.8529e-01
12.000	19.000	1.9557e-01
12.000	19.250	2.0383e-01
12.000	19.500	2.1013e-01
12.000	19.750	2.1435e-01
12.000	20.000	2.1837e-01
12.000	20.250	2.2312e-01
12.000	20.500	2.3001e-01
12.000	20.750	2.4053e-01
12.000	21.000	2.5128e-01
12.000	21.250	2.4981e-01
12.000	21.500	2.0296e-01
12.000	21.750	1.3849e-01
12.000	22.000	9.9383e-02
12.000	22.250	7.8083e-02
12.000	22.500	6.0683e-02
12.000	22.750	5.1179e-02
12.000	23.000	4.6286e-02
12.000	23.250	4.3814e-02
12.000	23.500	4.2428e-02
12.000	23.750	4.1856e-02
12.000	24.000	4.1573e-02
12.250	17.000	1.0013e-01
12.250	17.250	1.0745e-01
12.250	17.500	1.1601e-01
12.250	17.750	1.2913e-01
12.250	18.000	1.4512e-01
12.250	18.250	1.6225e-01
12.250	18.500	1.7877e-01
12.250	18.750	1.9314e-01
12.250	19.000	2.0361e-01
12.250	19.250	2.1176e-01
12.250	19.500	2.1789e-01
12.250	19.750	2.2140e-01
12.250	20.000	2.2488e-01
12.250	20.250	2.2805e-01
12.250	20.500	2.3386e-01
12.250	20.750	2.4262e-01
12.250	21.000	2.5616e-01
12.250	21.250	2.6970e-01
12.250	21.500	2.6010e-01
12.250	21.750	2.0380e-01
12.250	22.000	1.3942e-01
12.250	22.250	1.0205e-01
12.250	22.500	7.8054e-02
12.250	22.750	6.0224e-02
12.250	23.000	5.0991e-02
12.250	23.250	4.6212e-02
12.250	23.500	4.3782e-02
12.250	23.750	4.2415e-02
12.250	24.000	4.1849e-02
12.500	17.000	9.0107e-02
12.500	17.250	1.1165e-01
12.500	17.500	1.2141e-01
12.500	17.750	1.3205e-01
12.500	18.000	1.4741e-01
12.500	18.250	1.6527e-01
12.500	18.500	1.8452e-01
12.500	18.750	2.0149e-01
12.500	19.000	2.1327e-01
12.500	19.250	2.2105e-01
12.500	19.500	2.2609e-01
12.500	19.750	2.2929e-01
12.500	20.000	2.3174e-01
12.500	20.250	2.3439e-01
12.500	20.500	2.3810e-01
12.500	20.750	2.4515e-01
12.500	21.000	2.5728e-01
12.500	21.250	2.7415e-01
12.500	21.500	2.8285e-01
12.500	21.750	2.7330e-01
12.500	22.000	2.0382e-01
12.500	22.250	1.4085e-01
12.500	22.500	1.0427e-01
12.500	22.750	7.7288e-02
12.500	23.000	5.9712e-02
12.500	23.250	5.0723e-02
12.500	23.500	4.6109e-02
12.500	23.750	4.3733e-02
12.500	24.000	4.2398e-02
12.750	17.000	7.5868e-02
12.750	17.250	9.5371e-02
12.750	17.500	1.1917e-01
12.750	17.750	1.3244e-01
12.750	18.000	1.4831e-01
12.750	18.250	1.6882e-01
12.750	18.500	1.9027e-01
12.750	18.750	2.0907e-01
12.750	19.000	2.2214e-01
12.750	19.250	2.3065e-01
12.750	19.500	2.3487e-01
12.750	19.750	2.3747e-01
12.750	20.000	2.3916e-01
12.750	20.250	2.4076e-01
12.750	20.500	2.4378e-01
12.750	20.750	2.4921e-01
12.750	21.000	2.5875e-01
12.750	21.250	2.7528e-01
12.750	21.500	2.8870e-01
12.750	21.750	3.0349e-01
12.750	22.000	2.8366e-01
12.750	22.250	2.0310e-01
12.750	22.500	1.4321e-01
12.750	22.750	1.0462e-01
12.750	23.000	7.6074e-02
12.750	23.250	5.9081e-02
12.750	23.500	5.0423e-02
12.750	23.750	4.5967e-02
12.750	24.000	4.3656e-02
13.000	17.000	4.9670e-02
13.000	17.250	6.3605e-02
13.000	17.500	9.2266e-02
13.000	17.750	1.2306e-01
13.000	18.000	1.4731e-01
13.000	18.250	1.7280e-01
13.000	18.500	1.9533e-01
13.000	18.750	2.1500e-01
13.000	19.000	2.2954e-01
13.000	19.250	2.3939e-01
13.000	19.500	2.4403e-01
13.000	19.750	2.4593e-01
13.000	20.000	2.4687e-01
13.000	20.250	2.4815e-01
13.000	20.500	2.5022e-01
13.000	20.750	2.5449e-01
13.000	21.000	2.6258e-01
13.000	21.250	2.7713e-01
13.000	21.500	2.9074e-01
13.000	21.750	3.1418e-01
13.000	22.000	3.2511e-01
13.000	22.250	2.8799e-01
13.000	22.500	2.0147e-01
13.000	22.750	1.4321e-01
13.000	23.000	1.0286e-01
13.000	23.250	7.4555e-02
13.000	23.500	5.8365e-02
13.000	23.750	5.0040e-02
13.000	24.000	4.5750e-02
13.250	17.000	4.8987e-02
13.250	17.250	5.8371e-02
13.250	17.500	7.6860e-02
13.250	17.750	1.0560e-01
13.250	18.000	1.4106e-01
13.250	18.250	1.6985e-01
13.250	18.500	1.9893e-01
13.250	18.750	2.1971e-01
13.250	19.000	2.3586e-01
13.250	19.250	2.4699e-01
13.250	19.500	2.5198e-01
13.250	19.750	2.5489e-01
13.250	20.000	2.5494e-01
13.250	20.250	2.5545e-01
13.250	20.500	2.5691e-01
13.250	20.750	2.6025e-01
13.250	21.000	2.6792e-01
13.250	21.250	2.7975e-01
13.250	21.500	2.9194e-01
13.250	21.750	3.1396e-01
13.250	22.000	3.4065e-01
13.250	22.250	3.3751e-01
13.250	22.500	2.8232e-01
13.250	22.750	1.9228e-01
13.250	23.000	1.3802e-01
13.250	23.250	9.9605e-02
13.250	23.500	7.2814e-02
13.250	23.750	5.7471e-02
13.250	24.000	4.9535e-02
13.500	17.000	4.8845e-02
13.500	17.250	5.6984e-02
13.500	17.500	7.3383e-02
13.500	17.750	9.7981e-02
13.500	18.000	1.3278e-01
13.500	18.250	1.7047e-01
13.500	18.500	1.9650e-01
13.500	18.750	2.2311e-01
13.500	19.000	2.4089e-01
13.500	19.250	2.5309e-01
13.500	19.500	2.6000e-01
13.500	19.750	2.6271e-01
13.500	20.000	2.6372e-01
13.500	20.250	2.6429e-01
13.500	20.500	2.6469e-01
13.500	20.750	2.6650e-01
13.500	21.000	2.7130e-01
13.500	21.250	2.8118e-01
13.500	21.500	2.9143e-01
13.500	21.750	3.1300e-01
13.500	22.000	3.3908e-01
13.500	22.250	3.6091e-01
13.500	22.500	3.4228e-01
13.500	22.750	2.6601e-01
13.500	23.000	1.8221e-01
13.500	23.250	1.2921e-01
13.500	23.500	9.4955e-02
13.500	23.750	7.0578e-02
13.500	24.000	5.6301e-02
13.750	17.000	4.8838e-02
13.750	17.250	5.7394e-02
13.750	17.500	7.2317e-02
13.750	17.750	9.2397e-02
13.750	18.000	1.2476e-01
13.750	18.250	1.6316e-01
13.750	18.500	1.9685e-01
13.750	18.750	2.2214e-01
13.750	19.000	2.4450e-01
13.750	19.250	2.5930e-01
13.750	19.500	2.6853e-01
13.750	19.750	2.7243e-01
13.750	20.000	2.7344e-01
13.750	20.250	2.7358e-01
13.750	20.500	2.7399e-01
13.750	20.750	2.7494e-01
13.750	21.000	2.7782e-01
13.750	21.250	2.8480e-01
13.750	21.500	2.9167e-01
13.750	21.750	3.1203e-01
13.750	22.000	3.3930e-01
13.750	22.250	3.5961e-01
13.750	22.500	3.5908e-01
13.750	22.750	3.2691e-01
13.750	23.000	2.4678e-01
13.750	23.250	1.6959e-01
13.750	23.500	1.2036e-01
13.750	23.750	9.0376e-02
13.750	24.000	6.7832e-02
14.000	17.000	4.9427e-02
14.000	17.250	5.7162e-02
14.000	17.500	7.1665e-02
14.000	17.750	9.1061e-02
14.000	18.000	1.1758e-01
14.000	18.250	1.5273e-01
14.000	18.500	1.8836e-01
14.000	18.750	2.2099e-01
14.000	19.000	2.4701e-01
14.000	19.250	2.6358e-01
14.000	19.500	2.7581e-01
14.000	19.750	2.8312e-01
14.000	20.000	2.8545e-01
14.000	20.250	2.8545e-01
14.000	20.500	2.8534e-01
14.000	20.750	2.8583e-01
14.000	21.000	2.8794e-01
14.000	21.250	2.9370e-01
14.000	21.500	2.9809e-01
14.000	21.750	3.1723e-01
14.000	22.000	3.4347e-01
14.000	22.250	3.6232e-01
14.000	22.500	3.6166e-01
14.000	22.750	3.4537e-01
14.000	23.000	3.0405e-01
14.000	23.250	2.2481e-01
14.000	23.500	1.5574e-01
14.000	23.750	1.1256e-01
14.000	24.000	8.5332e-02
