InwC 608.160A  relative to Inci 1215.00A scaled to 1215A.
Hden   Phi(H)  Eq_Width (A)
 7.000	17.000	1.0791e-02
 7.000	17.250	2.2304e-02
 7.000	17.500	4.3317e-02
 7.000	17.750	5.8574e-02
 7.000	18.000	6.5093e-02
 7.000	18.250	6.8918e-02
 7.000	18.500	7.1816e-02
 7.000	18.750	7.2630e-02
 7.000	19.000	7.2967e-02
 7.000	19.250	7.3120e-02
 7.000	19.500	7.3148e-02
 7.000	19.750	7.3154e-02
 7.000	20.000	7.3156e-02
 7.000	20.250	7.3157e-02
 7.000	20.500	7.3157e-02
 7.000	20.750	7.3157e-02
 7.000	21.000	7.3157e-02
 7.000	21.250	7.3158e-02
 7.000	21.500	7.3158e-02
 7.000	21.750	7.3158e-02
 7.000	22.000	7.3159e-02
 7.000	22.250	7.3159e-02
 7.000	22.500	7.3159e-02
 7.000	22.750	7.3167e-02
 7.000	23.000	7.3161e-02
 7.000	23.250	7.3162e-02
 7.000	23.500	7.3162e-02
 7.000	23.750	7.3162e-02
 7.000	24.000	7.3162e-02
 7.250	17.000	5.4711e-03
 7.250	17.250	1.0857e-02
 7.250	17.500	2.2434e-02
 7.250	17.750	4.3513e-02
 7.250	18.000	5.8686e-02
 7.250	18.250	6.5136e-02
 7.250	18.500	6.8930e-02
 7.250	18.750	7.1817e-02
 7.250	19.000	7.2630e-02
 7.250	19.250	7.2967e-02
 7.250	19.500	7.3120e-02
 7.250	19.750	7.3148e-02
 7.250	20.000	7.3154e-02
 7.250	20.250	7.3156e-02
 7.250	20.500	7.3157e-02
 7.250	20.750	7.3157e-02
 7.250	21.000	7.3157e-02
 7.250	21.250	7.3157e-02
 7.250	21.500	7.3157e-02
 7.250	21.750	7.3158e-02
 7.250	22.000	7.3158e-02
 7.250	22.250	7.3158e-02
 7.250	22.500	7.3158e-02
 7.250	22.750	7.3158e-02
 7.250	23.000	7.3158e-02
 7.250	23.250	7.3158e-02
 7.250	23.500	7.3158e-02
 7.250	23.750	7.3158e-02
 7.250	24.000	7.3159e-02
 7.500	17.000	2.8845e-03
 7.500	17.250	5.4933e-03
 7.500	17.500	1.0901e-02
 7.500	17.750	2.2546e-02
 7.500	18.000	4.3692e-02
 7.500	18.250	5.8804e-02
 7.500	18.500	6.5192e-02
 7.500	18.750	6.8937e-02
 7.500	19.000	7.1819e-02
 7.500	19.250	7.2631e-02
 7.500	19.500	7.2967e-02
 7.500	19.750	7.3120e-02
 7.500	20.000	7.3148e-02
 7.500	20.250	7.3154e-02
 7.500	20.500	7.3156e-02
 7.500	20.750	7.3157e-02
 7.500	21.000	7.3157e-02
 7.500	21.250	7.3157e-02
 7.500	21.500	7.3157e-02
 7.500	21.750	7.3157e-02
 7.500	22.000	7.3157e-02
 7.500	22.250	7.3157e-02
 7.500	22.500	7.3157e-02
 7.500	22.750	7.3157e-02
 7.500	23.000	7.3158e-02
 7.500	23.250	7.3158e-02
 7.500	23.500	7.3158e-02
 7.500	23.750	7.3158e-02
 7.500	24.000	7.3158e-02
 7.750	17.000	1.5359e-03
 7.750	17.250	2.8933e-03
 7.750	17.500	5.5053e-03
 7.750	17.750	1.0930e-02
 7.750	18.000	2.2639e-02
 7.750	18.250	4.3868e-02
 7.750	18.500	5.8939e-02
 7.750	18.750	6.5259e-02
 7.750	19.000	6.8950e-02
 7.750	19.250	7.1823e-02
 7.750	19.500	7.2631e-02
 7.750	19.750	7.2968e-02
 7.750	20.000	7.3120e-02
 7.750	20.250	7.3148e-02
 7.750	20.500	7.3154e-02
 7.750	20.750	7.3156e-02
 7.750	21.000	7.3156e-02
 7.750	21.250	7.3157e-02
 7.750	21.500	7.3157e-02
 7.750	21.750	7.3157e-02
 7.750	22.000	7.3157e-02
 7.750	22.250	7.3157e-02
 7.750	22.500	7.3157e-02
 7.750	22.750	7.3157e-02
 7.750	23.000	7.3157e-02
 7.750	23.250	7.3157e-02
 7.750	23.500	7.3157e-02
 7.750	23.750	7.3157e-02
 7.750	24.000	7.3157e-02
 8.000	17.000	8.1457e-04
 8.000	17.250	1.5314e-03
 8.000	17.500	2.8835e-03
 8.000	17.750	5.4988e-03
 8.000	18.000	1.0925e-02
 8.000	18.250	2.2676e-02
 8.000	18.500	4.4023e-02
 8.000	18.750	5.9090e-02
 8.000	19.000	6.5339e-02
 8.000	19.250	6.8976e-02
 8.000	19.500	7.1827e-02
 8.000	19.750	7.2633e-02
 8.000	20.000	7.2968e-02
 8.000	20.250	7.3120e-02
 8.000	20.500	7.3148e-02
 8.000	20.750	7.3154e-02
 8.000	21.000	7.3156e-02
 8.000	21.250	7.3157e-02
 8.000	21.500	7.3157e-02
 8.000	21.750	7.3157e-02
 8.000	22.000	7.3157e-02
 8.000	22.250	7.3157e-02
 8.000	22.500	7.3157e-02
 8.000	22.750	7.3157e-02
 8.000	23.000	7.3157e-02
 8.000	23.250	7.3157e-02
 8.000	23.500	7.3157e-02
 8.000	23.750	7.3157e-02
 8.000	24.000	7.3157e-02
 8.250	17.000	4.3432e-04
 8.250	17.250	8.1506e-04
 8.250	17.500	1.5319e-03
 8.250	17.750	2.8855e-03
 8.250	18.000	5.5065e-03
 8.250	18.250	1.0953e-02
 8.250	18.500	2.2753e-02
 8.250	18.750	4.4193e-02
 8.250	19.000	5.9264e-02
 8.250	19.250	6.5429e-02
 8.250	19.500	6.8997e-02
 8.250	19.750	7.1833e-02
 8.250	20.000	7.2635e-02
 8.250	20.250	7.2969e-02
 8.250	20.500	7.3120e-02
 8.250	20.750	7.3148e-02
 8.250	21.000	7.3154e-02
 8.250	21.250	7.3156e-02
 8.250	21.500	7.3157e-02
 8.250	21.750	7.3157e-02
 8.250	22.000	7.3157e-02
 8.250	22.250	7.3157e-02
 8.250	22.500	7.3157e-02
 8.250	22.750	7.3157e-02
 8.250	23.000	7.3158e-02
 8.250	23.250	7.3157e-02
 8.250	23.500	7.3157e-02
 8.250	23.750	7.3157e-02
 8.250	24.000	7.3157e-02
 8.500	17.000	2.3235e-04
 8.500	17.250	4.3424e-04
 8.500	17.500	8.1523e-04
 8.500	17.750	1.5328e-03
 8.500	18.000	2.8934e-03
 8.500	18.250	5.5195e-03
 8.500	18.500	1.0981e-02
 8.500	18.750	2.2851e-02
 8.500	19.000	4.4384e-02
 8.500	19.250	5.9451e-02
 8.500	19.500	6.5534e-02
 8.500	19.750	6.9026e-02
 8.500	20.000	7.1840e-02
 8.500	20.250	7.2637e-02
 8.500	20.500	7.2969e-02
 8.500	20.750	7.3120e-02
 8.500	21.000	7.3148e-02
 8.500	21.250	7.3154e-02
 8.500	21.500	7.3156e-02
 8.500	21.750	7.3157e-02
 8.500	22.000	7.3157e-02
 8.500	22.250	7.3157e-02
 8.500	22.500	7.3157e-02
 8.500	22.750	7.3157e-02
 8.500	23.000	7.3157e-02
 8.500	23.250	7.3157e-02
 8.500	23.500	7.3157e-02
 8.500	23.750	7.3157e-02
 8.500	24.000	7.3157e-02
 8.750	17.000	1.2519e-04
 8.750	17.250	2.3218e-04
 8.750	17.500	4.3432e-04
 8.750	17.750	8.1638e-04
 8.750	18.000	1.5382e-03
 8.750	18.250	2.9045e-03
 8.750	18.500	5.5380e-03
 8.750	18.750	1.1048e-02
 8.750	19.000	2.3037e-02
 8.750	19.250	4.4587e-02
 8.750	19.500	5.9655e-02
 8.750	19.750	6.5647e-02
 8.750	20.000	6.9062e-02
 8.750	20.250	7.1850e-02
 8.750	20.500	7.2640e-02
 8.750	20.750	7.2971e-02
 8.750	21.000	7.3121e-02
 8.750	21.250	7.3148e-02
 8.750	21.500	7.3154e-02
 8.750	21.750	7.3156e-02
 8.750	22.000	7.3157e-02
 8.750	22.250	7.3157e-02
 8.750	22.500	7.3157e-02
 8.750	22.750	7.3157e-02
 8.750	23.000	7.3157e-02
 8.750	23.250	7.3157e-02
 8.750	23.500	7.3157e-02
 8.750	23.750	7.3157e-02
 8.750	24.000	7.3157e-02
 9.000	17.000	6.7819e-05
 9.000	17.250	1.2535e-04
 9.000	17.500	2.3267e-04
 9.000	17.750	4.3638e-04
 9.000	18.000	8.2181e-04
 9.000	18.250	1.5489e-03
 9.000	18.500	2.9265e-03
 9.000	18.750	5.5932e-03
 9.000	19.000	1.1202e-02
 9.000	19.250	2.3401e-02
 9.000	19.500	4.4827e-02
 9.000	19.750	5.9862e-02
 9.000	20.000	6.5773e-02
 9.000	20.250	6.9102e-02
 9.000	20.500	7.1861e-02
 9.000	20.750	7.2644e-02
 9.000	21.000	7.2972e-02
 9.000	21.250	7.3121e-02
 9.000	21.500	7.3148e-02
 9.000	21.750	7.3154e-02
 9.000	22.000	7.3156e-02
 9.000	22.250	7.3157e-02
 9.000	22.500	7.3157e-02
 9.000	22.750	7.3157e-02
 9.000	23.000	7.3157e-02
 9.000	23.250	7.3157e-02
 9.000	23.500	7.3157e-02
 9.000	23.750	7.3157e-02
 9.000	24.000	7.3157e-02
 9.250	17.000	3.6461e-05
 9.250	17.250	6.8066e-05
 9.250	17.500	1.2634e-04
 9.250	17.750	2.3539e-04
 9.250	18.000	4.4148e-04
 9.250	18.250	8.3128e-04
 9.250	18.500	1.5686e-03
 9.250	18.750	2.9787e-03
 9.250	19.000	5.7405e-03
 9.250	19.250	1.1606e-02
 9.250	19.500	2.4208e-02
 9.250	19.750	4.5165e-02
 9.250	20.000	6.0064e-02
 9.250	20.250	6.5897e-02
 9.250	20.500	6.9135e-02
 9.250	20.750	7.1873e-02
 9.250	21.000	7.2649e-02
 9.250	21.250	7.2973e-02
 9.250	21.500	7.3113e-02
 9.250	21.750	7.3112e-02
 9.250	22.000	7.3116e-02
 9.250	22.250	7.3120e-02
 9.250	22.500	7.3156e-02
 9.250	22.750	7.3156e-02
 9.250	23.000	7.3157e-02
 9.250	23.250	7.3157e-02
 9.250	23.500	7.3157e-02
 9.250	23.750	7.3157e-02
 9.250	24.000	7.3157e-02
 9.500	17.000	1.9259e-05
 9.500	17.250	3.6790e-05
 9.500	17.500	6.9300e-05
 9.500	17.750	1.2914e-04
 9.500	18.000	2.4033e-04
 9.500	18.250	4.5037e-04
 9.500	18.500	8.4963e-04
 9.500	18.750	1.6183e-03
 9.500	19.000	3.1103e-03
 9.500	19.250	6.0984e-03
 9.500	19.500	1.2466e-02
 9.500	19.750	2.5565e-02
 9.500	20.000	4.5674e-02
 9.500	20.250	6.0264e-02
 9.500	20.500	6.6015e-02
 9.500	20.750	6.9174e-02
 9.500	21.000	7.1870e-02
 9.500	21.250	7.2617e-02
 9.500	21.500	7.2936e-02
 9.500	21.750	7.3077e-02
 9.500	22.000	7.3090e-02
 9.500	22.250	7.3085e-02
 9.500	22.500	7.3089e-02
 9.500	22.750	7.3090e-02
 9.500	23.000	7.3090e-02
 9.500	23.250	7.3089e-02
 9.500	23.500	7.3112e-02
 9.500	23.750	7.3112e-02
 9.500	24.000	7.3112e-02
 9.750	17.000	9.9588e-06
 9.750	17.250	1.9588e-05
 9.750	17.500	3.7942e-05
 9.750	17.750	7.1852e-05
 9.750	18.000	1.3350e-04
 9.750	18.250	2.4823e-04
 9.750	18.500	4.6815e-04
 9.750	18.750	8.9580e-04
 9.750	19.000	1.7445e-03
 9.750	19.250	3.4307e-03
 9.750	19.500	6.8319e-03
 9.750	19.750	1.3906e-02
 9.750	20.000	2.7383e-02
 9.750	20.250	4.6589e-02
 9.750	20.500	6.0474e-02
 9.750	20.750	6.6127e-02
 9.750	21.000	6.9227e-02
 9.750	21.250	7.1896e-02
 9.750	21.500	7.2644e-02
 9.750	21.750	7.2941e-02
 9.750	22.000	7.3081e-02
 9.750	22.250	7.3099e-02
 9.750	22.500	7.3092e-02
 9.750	22.750	7.3086e-02
 9.750	23.000	7.3089e-02
 9.750	23.250	7.3090e-02
 9.750	23.500	7.3090e-02
 9.750	23.750	7.3091e-02
 9.750	24.000	7.3091e-02
10.000	17.000	4.6091e-06
10.000	17.250	1.0206e-05
10.000	17.500	2.0494e-05
10.000	17.750	3.9918e-05
10.000	18.000	7.5473e-05
10.000	18.250	1.4058e-04
10.000	18.500	2.6477e-04
10.000	18.750	5.1128e-04
10.000	19.000	1.0092e-03
10.000	19.250	2.0137e-03
10.000	19.500	4.0089e-03
10.000	19.750	8.0469e-03
10.000	20.000	1.5631e-02
10.000	20.250	2.9527e-02
10.000	20.500	4.7733e-02
10.000	20.750	6.0763e-02
10.000	21.000	6.6248e-02
10.000	21.250	6.9282e-02
10.000	21.500	7.1917e-02
10.000	21.750	7.2661e-02
10.000	22.000	7.2958e-02
10.000	22.250	7.3084e-02
10.000	22.500	7.3105e-02
10.000	22.750	7.3101e-02
10.000	23.000	7.3094e-02
10.000	23.250	7.3090e-02
10.000	23.500	7.3087e-02
10.000	23.750	7.3087e-02
10.000	24.000	7.3088e-02
10.250	17.000	2.3045e-06
10.250	17.250	4.8560e-06
10.250	17.500	1.0782e-05
10.250	17.750	2.1893e-05
10.250	18.000	4.2798e-05
10.250	18.250	8.2222e-05
10.250	18.500	1.5704e-04
10.250	18.750	3.0708e-04
10.250	19.000	6.1202e-04
10.250	19.250	1.2313e-03
10.250	19.500	2.4713e-03
10.250	19.750	4.9134e-03
10.250	20.000	9.7643e-03
10.250	20.250	1.8249e-02
10.250	20.500	3.1797e-02
10.250	20.750	4.9175e-02
10.250	21.000	6.1176e-02
10.250	21.250	6.6386e-02
10.250	21.500	6.9343e-02
10.250	21.750	7.1937e-02
10.250	22.000	7.2672e-02
10.250	22.250	7.2975e-02
10.250	22.500	7.3085e-02
10.250	22.750	7.3108e-02
10.250	23.000	7.3108e-02
10.250	23.250	7.3103e-02
10.250	23.500	7.3099e-02
10.250	23.750	7.3096e-02
10.250	24.000	7.3095e-02
10.500	17.000	1.1523e-06
10.500	17.250	2.4691e-06
10.500	17.500	5.2675e-06
10.500	17.750	1.1852e-05
10.500	18.000	2.4362e-05
10.500	18.250	4.9218e-05
10.500	18.500	9.8519e-05
10.500	18.750	1.9638e-04
10.500	19.000	3.9284e-04
10.500	19.250	7.8733e-04
10.500	19.500	1.5738e-03
10.500	19.750	3.1179e-03
10.500	20.000	6.1300e-03
10.500	20.250	1.2025e-02
10.500	20.500	2.1002e-02
10.500	20.750	3.3953e-02
10.500	21.000	5.0569e-02
10.500	21.250	6.1721e-02
10.500	21.500	6.6564e-02
10.500	21.750	6.9418e-02
10.500	22.000	7.1961e-02
10.500	22.250	7.2682e-02
10.500	22.500	7.2984e-02
10.500	22.750	7.3093e-02
10.500	23.000	7.3111e-02
10.500	23.250	7.3113e-02
10.500	23.500	7.3110e-02
10.500	23.750	7.3107e-02
10.500	24.000	7.3105e-02
10.750	17.000	1.0000e-07
10.750	17.250	1.2346e-06
10.750	17.500	2.7160e-06
10.750	17.750	6.1728e-06
10.750	18.000	1.3992e-05
10.750	18.250	3.0617e-05
10.750	18.500	6.4527e-05
10.750	18.750	1.3210e-04
10.750	19.000	2.6379e-04
10.750	19.250	5.2099e-04
10.750	19.500	1.0257e-03
10.750	19.750	2.0125e-03
10.750	20.000	3.9193e-03
10.750	20.250	7.6030e-03
10.750	20.500	1.4041e-02
10.750	20.750	2.3627e-02
10.750	21.000	3.6416e-02
10.750	21.250	5.2200e-02
10.750	21.500	6.2377e-02
10.750	21.750	6.6810e-02
10.750	22.000	6.9517e-02
10.750	22.250	7.1991e-02
10.750	22.500	7.2695e-02
10.750	22.750	7.2991e-02
10.750	23.000	7.3112e-02
10.750	23.250	7.3112e-02
10.750	23.500	7.3116e-02
10.750	23.750	7.3115e-02
10.750	24.000	7.3113e-02
11.000	17.000	1.0000e-07
11.000	17.250	1.0000e-07
11.000	17.500	1.3992e-06
11.000	17.750	3.2922e-06
11.000	18.000	8.0658e-06
11.000	18.250	1.9095e-05
11.000	18.500	4.2716e-05
11.000	18.750	8.9465e-05
11.000	19.000	1.7909e-04
11.000	19.250	3.4914e-04
11.000	19.500	6.7350e-04
11.000	19.750	1.2998e-03
11.000	20.000	2.5075e-03
11.000	20.250	4.8087e-03
11.000	20.500	9.2560e-03
11.000	20.750	1.6534e-02
11.000	21.000	2.6096e-02
11.000	21.250	3.8720e-02
11.000	21.500	5.3766e-02
11.000	21.750	6.2973e-02
11.000	22.000	6.7114e-02
11.000	22.250	6.9665e-02
11.000	22.500	7.2031e-02
11.000	22.750	7.2713e-02
11.000	23.000	7.2998e-02
11.000	23.250	7.3123e-02
11.000	23.500	7.3118e-02
11.000	23.750	7.3117e-02
11.000	24.000	7.3117e-02
11.250	17.000	1.0000e-07
11.250	17.250	1.0000e-07
11.250	17.500	1.0000e-07
11.250	17.750	1.8107e-06
11.250	18.000	4.6091e-06
11.250	18.250	1.1687e-05
11.250	18.500	2.7160e-05
11.250	18.750	5.8601e-05
11.250	19.000	1.1827e-04
11.250	19.250	2.3012e-04
11.250	19.500	4.3901e-04
11.250	19.750	8.3333e-04
11.250	20.000	1.5860e-03
11.250	20.250	3.0224e-03
11.250	20.500	5.7530e-03
11.250	20.750	1.1011e-02
11.250	21.000	1.8847e-02
11.250	21.250	2.8695e-02
11.250	21.500	4.1250e-02
11.250	21.750	5.5509e-02
11.250	22.000	6.3668e-02
11.250	22.250	6.7460e-02
11.250	22.500	6.9845e-02
11.250	22.750	7.2085e-02
11.250	23.000	7.2737e-02
11.250	23.250	7.3009e-02
11.250	23.500	7.3128e-02
11.250	23.750	7.3137e-02
11.250	24.000	7.3120e-02
11.500	17.000	1.0000e-07
11.500	17.250	1.0000e-07
11.500	17.500	1.0000e-07
11.500	17.750	9.8765e-07
11.500	18.000	2.5514e-06
11.500	18.250	6.8313e-06
11.500	18.500	1.6379e-05
11.500	18.750	3.6132e-05
11.500	19.000	7.4650e-05
11.500	19.250	1.4609e-04
11.500	19.500	2.7811e-04
11.500	19.750	5.2543e-04
11.500	20.000	9.8914e-04
11.500	20.250	1.8631e-03
11.500	20.500	3.5205e-03
11.500	20.750	6.6774e-03
11.500	21.000	1.2811e-02
11.500	21.250	2.1162e-02
11.500	21.500	3.1364e-02
11.500	21.750	4.3810e-02
11.500	22.000	5.6907e-02
11.500	22.250	6.4321e-02
11.500	22.500	6.7792e-02
11.500	22.750	7.0070e-02
11.500	23.000	7.2159e-02
11.500	23.250	7.2771e-02
11.500	23.500	7.3023e-02
11.500	23.750	7.3132e-02
11.500	24.000	7.3147e-02
11.750	17.000	1.0000e-07
11.750	17.250	1.0000e-07
11.750	17.500	1.0000e-07
11.750	17.750	1.0000e-07
11.750	18.000	1.3992e-06
11.750	18.250	3.7860e-06
11.750	18.500	9.3004e-06
11.750	18.750	2.1070e-05
11.750	19.000	4.4444e-05
11.750	19.250	8.8889e-05
11.750	19.500	1.7021e-04
11.750	19.750	3.2033e-04
11.750	20.000	6.0165e-04
11.750	20.250	1.1309e-03
11.750	20.500	2.1221e-03
11.750	20.750	3.9969e-03
11.750	21.000	7.5849e-03
11.750	21.250	1.4446e-02
11.750	21.500	2.3358e-02
11.750	21.750	3.3892e-02
11.750	22.000	4.6470e-02
11.750	22.250	5.7961e-02
11.750	22.500	6.4796e-02
11.750	22.750	6.8095e-02
11.750	23.000	7.0292e-02
11.750	23.250	7.2254e-02
11.750	23.500	7.2815e-02
11.750	23.750	7.3040e-02
11.750	24.000	7.3136e-02
12.000	17.000	1.0000e-07
12.000	17.250	1.0000e-07
12.000	17.500	1.0000e-07
12.000	17.750	1.0000e-07
12.000	18.000	1.0000e-07
12.000	18.250	1.9753e-06
12.000	18.500	4.9383e-06
12.000	18.750	1.1523e-05
12.000	19.000	2.5021e-05
12.000	19.250	5.1358e-05
12.000	19.500	1.0033e-04
12.000	19.750	1.8955e-04
12.000	20.000	3.5564e-04
12.000	20.250	6.6807e-04
12.000	20.500	1.2561e-03
12.000	20.750	2.3614e-03
12.000	21.000	4.4612e-03
12.000	21.250	8.5056e-03
12.000	21.500	1.6031e-02
12.000	21.750	2.5477e-02
12.000	22.000	3.6277e-02
12.000	22.250	4.8797e-02
12.000	22.500	5.8812e-02
12.000	22.750	6.5085e-02
12.000	23.000	6.8320e-02
12.000	23.250	7.0493e-02
12.000	23.500	7.2360e-02
12.000	23.750	7.2864e-02
12.000	24.000	7.3058e-02
12.250	17.000	1.0000e-07
12.250	17.250	1.0000e-07
12.250	17.500	1.0000e-07
12.250	17.750	1.0000e-07
12.250	18.000	1.0000e-07
12.250	18.250	1.0700e-06
12.250	18.500	2.5514e-06
12.250	18.750	5.9259e-06
12.250	19.000	1.3251e-05
12.250	19.250	2.7984e-05
12.250	19.500	5.6543e-05
12.250	19.750	1.0905e-04
12.250	20.000	2.0519e-04
12.250	20.250	3.8486e-04
12.250	20.500	7.2494e-04
12.250	20.750	1.3686e-03
12.250	21.000	2.5987e-03
12.250	21.250	4.9371e-03
12.250	21.500	9.3351e-03
12.250	21.750	1.7520e-02
12.250	22.000	2.7413e-02
12.250	22.250	3.8335e-02
12.250	22.500	5.0526e-02
12.250	22.750	5.9451e-02
12.250	23.000	6.5355e-02
12.250	23.250	6.8458e-02
12.250	23.500	7.0657e-02
12.250	23.750	7.2467e-02
12.250	24.000	7.2911e-02
12.500	17.000	1.0000e-07
12.500	17.250	1.0000e-07
12.500	17.500	1.0000e-07
12.500	17.750	1.0000e-07
12.500	18.000	1.0000e-07
12.500	18.250	1.0000e-07
12.500	18.500	1.2346e-06
12.500	18.750	2.9630e-06
12.500	19.000	6.5844e-06
12.500	19.250	1.4321e-05
12.500	19.500	2.9877e-05
12.500	19.750	5.9835e-05
12.500	20.000	1.1531e-04
12.500	20.250	2.1728e-04
12.500	20.500	4.0930e-04
12.500	20.750	7.7852e-04
12.500	21.000	1.4867e-03
12.500	21.250	2.8362e-03
12.500	21.500	5.3666e-03
12.500	21.750	1.0263e-02
12.500	22.000	1.9004e-02
12.500	22.250	2.9160e-02
12.500	22.500	4.0136e-02
12.500	22.750	5.1598e-02
12.500	23.000	5.9952e-02
12.500	23.250	6.5533e-02
12.500	23.500	6.8560e-02
12.500	23.750	7.0786e-02
12.500	24.000	7.2558e-02
12.750	17.000	1.0000e-07
12.750	17.250	1.0000e-07
12.750	17.500	1.0000e-07
12.750	17.750	1.0000e-07
12.750	18.000	1.0000e-07
12.750	18.250	1.0000e-07
12.750	18.500	1.0000e-07
12.750	18.750	1.3992e-06
12.750	19.000	3.2099e-06
12.750	19.250	6.9959e-06
12.750	19.500	1.4815e-05
12.750	19.750	3.0947e-05
12.750	20.000	6.1893e-05
12.750	20.250	1.1984e-04
12.750	20.500	2.2782e-04
12.750	20.750	4.3366e-04
12.750	21.000	8.3432e-04
12.750	21.250	1.6119e-03
12.750	21.500	3.0630e-03
12.750	21.750	5.8388e-03
12.750	22.000	1.1246e-02
12.750	22.250	2.0444e-02
12.750	22.500	3.0718e-02
12.750	22.750	4.1492e-02
12.750	23.000	5.2277e-02
12.750	23.250	6.0252e-02
12.750	23.500	6.5592e-02
12.750	23.750	6.8609e-02
12.750	24.000	7.0886e-02
13.000	17.000	1.0000e-07
13.000	17.250	1.0000e-07
13.000	17.500	1.0000e-07
13.000	17.750	1.0000e-07
13.000	18.000	1.0000e-07
13.000	18.250	1.0000e-07
13.000	18.500	1.0000e-07
13.000	18.750	1.0000e-07
13.000	19.000	1.5638e-06
13.000	19.250	3.2922e-06
13.000	19.500	6.9959e-06
13.000	19.750	1.4979e-05
13.000	20.000	3.1111e-05
13.000	20.250	6.3045e-05
13.000	20.500	1.2379e-04
13.000	20.750	2.3811e-04
13.000	21.000	4.5959e-04
13.000	21.250	8.9835e-04
13.000	21.500	1.7263e-03
13.000	21.750	3.3202e-03
13.000	22.000	6.3449e-03
13.000	22.250	1.2320e-02
13.000	22.500	2.1793e-02
13.000	22.750	3.1932e-02
13.000	23.000	4.2506e-02
13.000	23.250	5.2781e-02
13.000	23.500	6.0428e-02
13.000	23.750	6.5578e-02
13.000	24.000	6.8614e-02
13.250	17.000	1.0000e-07
13.250	17.250	1.0000e-07
13.250	17.500	1.0000e-07
13.250	17.750	1.0000e-07
13.250	18.000	1.0000e-07
13.250	18.250	1.0000e-07
13.250	18.500	1.0000e-07
13.250	18.750	1.0000e-07
13.250	19.000	1.0000e-07
13.250	19.250	1.5638e-06
13.250	19.500	3.2922e-06
13.250	19.750	6.9959e-06
13.250	20.000	1.4733e-05
13.250	20.250	3.1029e-05
13.250	20.500	6.3621e-05
13.250	20.750	1.2626e-04
13.250	21.000	2.4930e-04
13.250	21.250	4.8601e-04
13.250	21.500	9.4642e-04
13.250	21.750	1.8105e-03
13.250	22.000	3.5342e-03
13.250	22.250	6.7024e-03
13.250	22.500	1.3233e-02
13.250	22.750	2.2480e-02
13.250	23.000	3.3017e-02
13.250	23.250	4.3331e-02
13.250	23.500	5.3217e-02
13.250	23.750	6.0546e-02
13.250	24.000	6.5499e-02
13.500	17.000	1.0000e-07
13.500	17.250	1.0000e-07
13.500	17.500	1.0000e-07
13.500	17.750	1.0000e-07
13.500	18.000	1.0000e-07
13.500	18.250	1.0000e-07
13.500	18.500	1.0000e-07
13.500	18.750	1.0000e-07
13.500	19.000	1.0000e-07
13.500	19.250	1.0000e-07
13.500	19.500	1.5638e-06
13.500	19.750	3.2922e-06
13.500	20.000	6.9136e-06
13.500	20.250	1.4733e-05
13.500	20.500	3.1029e-05
13.500	20.750	6.3704e-05
13.500	21.000	1.2716e-04
13.500	21.250	2.5152e-04
13.500	21.500	4.9498e-04
13.500	21.750	9.5909e-04
13.500	22.000	1.8588e-03
13.500	22.250	3.7123e-03
13.500	22.500	7.1693e-03
13.500	22.750	1.3836e-02
13.500	23.000	2.3415e-02
13.500	23.250	3.3862e-02
13.500	23.500	4.4135e-02
13.500	23.750	5.3555e-02
13.500	24.000	6.0658e-02
13.750	17.000	1.0000e-07
13.750	17.250	1.0000e-07
13.750	17.500	1.0000e-07
13.750	17.750	1.0000e-07
13.750	18.000	1.0000e-07
13.750	18.250	1.0000e-07
13.750	18.500	1.0000e-07
13.750	18.750	1.0000e-07
13.750	19.000	1.0000e-07
13.750	19.250	1.0000e-07
13.750	19.500	8.2305e-07
13.750	19.750	1.6461e-06
13.750	20.000	3.3745e-06
13.750	20.250	7.0782e-06
13.750	20.500	1.4979e-05
13.750	20.750	3.1523e-05
13.750	21.000	6.4444e-05
13.750	21.250	1.2790e-04
13.750	21.500	2.4938e-04
13.750	21.750	4.8848e-04
13.750	22.000	9.6288e-04
13.750	22.250	1.9148e-03
13.750	22.500	3.8106e-03
13.750	22.750	7.5192e-03
13.750	23.000	1.4637e-02
13.750	23.250	2.4452e-02
13.750	23.500	3.4915e-02
13.750	23.750	4.5150e-02
13.750	24.000	5.4048e-02
14.000	17.000	1.0000e-07
14.000	17.250	1.0000e-07
14.000	17.500	1.0000e-07
14.000	17.750	1.0000e-07
14.000	18.000	1.0000e-07
14.000	18.250	1.0000e-07
14.000	18.500	1.0000e-07
14.000	18.750	1.0000e-07
14.000	19.000	1.0000e-07
14.000	19.250	1.0000e-07
14.000	19.500	1.0000e-07
14.000	19.750	9.0535e-07
14.000	20.000	1.7284e-06
14.000	20.250	3.5391e-06
14.000	20.500	7.4074e-06
14.000	20.750	1.5556e-05
14.000	21.000	3.2593e-05
14.000	21.250	6.6502e-05
14.000	21.500	1.3012e-04
14.000	21.750	2.5317e-04
14.000	22.000	4.9506e-04
14.000	22.250	9.8741e-04
14.000	22.500	2.0001e-03
14.000	22.750	4.0547e-03
14.000	23.000	8.0598e-03
14.000	23.250	1.5704e-02
14.000	23.500	2.5771e-02
14.000	23.750	3.6365e-02
14.000	24.000	4.6397e-02
