nFnu 1000.00A  relative to Inci 1215.00A scaled to 1215A.
Hden   Phi(H)  Eq_Width (A)
 7.000	17.000	8.6392e-02
 7.000	17.250	1.1020e-01
 7.000	17.500	1.1159e-01
 7.000	17.750	1.0954e-01
 7.000	18.000	1.0023e-01
 7.000	18.250	9.1557e-02
 7.000	18.500	8.4577e-02
 7.000	18.750	8.0904e-02
 7.000	19.000	7.8996e-02
 7.000	19.250	7.7885e-02
 7.000	19.500	7.7413e-02
 7.000	19.750	7.7213e-02
 7.000	20.000	7.7126e-02
 7.000	20.250	7.7085e-02
 7.000	20.500	7.7064e-02
 7.000	20.750	7.7053e-02
 7.000	21.000	7.7048e-02
 7.000	21.250	7.7045e-02
 7.000	21.500	7.7043e-02
 7.000	21.750	7.7042e-02
 7.000	22.000	7.7042e-02
 7.000	22.250	7.7042e-02
 7.000	22.500	7.7042e-02
 7.000	22.750	7.7051e-02
 7.000	23.000	7.7044e-02
 7.000	23.250	7.7045e-02
 7.000	23.500	7.7045e-02
 7.000	23.750	7.7045e-02
 7.000	24.000	7.7046e-02
 7.250	17.000	5.6197e-02
 7.250	17.250	8.3702e-02
 7.250	17.500	1.0773e-01
 7.250	17.750	1.1071e-01
 7.250	18.000	1.0916e-01
 7.250	18.250	1.0005e-01
 7.250	18.500	9.1463e-02
 7.250	18.750	8.4544e-02
 7.250	19.000	8.0891e-02
 7.250	19.250	7.8991e-02
 7.250	19.500	7.7884e-02
 7.250	19.750	7.7412e-02
 7.250	20.000	7.7213e-02
 7.250	20.250	7.7126e-02
 7.250	20.500	7.7085e-02
 7.250	20.750	7.7064e-02
 7.250	21.000	7.7053e-02
 7.250	21.250	7.7047e-02
 7.250	21.500	7.7044e-02
 7.250	21.750	7.7043e-02
 7.250	22.000	7.7042e-02
 7.250	22.250	7.7041e-02
 7.250	22.500	7.7041e-02
 7.250	22.750	7.7041e-02
 7.250	23.000	7.7041e-02
 7.250	23.250	7.7042e-02
 7.250	23.500	7.7042e-02
 7.250	23.750	7.7042e-02
 7.250	24.000	7.7042e-02
 7.500	17.000	3.5640e-02
 7.500	17.250	5.2950e-02
 7.500	17.500	8.1268e-02
 7.500	17.750	1.0541e-01
 7.500	18.000	1.1012e-01
 7.500	18.250	1.0896e-01
 7.500	18.500	9.9961e-02
 7.500	18.750	9.1405e-02
 7.500	19.000	8.4523e-02
 7.500	19.250	8.0883e-02
 7.500	19.500	7.8988e-02
 7.500	19.750	7.7884e-02
 7.500	20.000	7.7412e-02
 7.500	20.250	7.7213e-02
 7.500	20.500	7.7126e-02
 7.500	20.750	7.7085e-02
 7.500	21.000	7.7064e-02
 7.500	21.250	7.7053e-02
 7.500	21.500	7.7047e-02
 7.500	21.750	7.7044e-02
 7.500	22.000	7.7042e-02
 7.500	22.250	7.7042e-02
 7.500	22.500	7.7041e-02
 7.500	22.750	7.7041e-02
 7.500	23.000	7.7041e-02
 7.500	23.250	7.7041e-02
 7.500	23.500	7.7041e-02
 7.500	23.750	7.7041e-02
 7.500	24.000	7.7041e-02
 7.750	17.000	2.4334e-02
 7.750	17.250	3.2825e-02
 7.750	17.500	5.0304e-02
 7.750	17.750	7.9238e-02
 7.750	18.000	1.0365e-01
 7.750	18.250	1.0977e-01
 7.750	18.500	1.0889e-01
 7.750	18.750	9.9936e-02
 7.750	19.000	9.1370e-02
 7.750	19.250	8.4509e-02
 7.750	19.500	8.0877e-02
 7.750	19.750	7.8986e-02
 7.750	20.000	7.7883e-02
 7.750	20.250	7.7412e-02
 7.750	20.500	7.7213e-02
 7.750	20.750	7.7126e-02
 7.750	21.000	7.7085e-02
 7.750	21.250	7.7064e-02
 7.750	21.500	7.7053e-02
 7.750	21.750	7.7047e-02
 7.750	22.000	7.7044e-02
 7.750	22.250	7.7042e-02
 7.750	22.500	7.7041e-02
 7.750	22.750	7.7041e-02
 7.750	23.000	7.7041e-02
 7.750	23.250	7.7040e-02
 7.750	23.500	7.7040e-02
 7.750	23.750	7.7040e-02
 7.750	24.000	7.7040e-02
 8.000	17.000	1.7395e-02
 8.000	17.250	2.1747e-02
 8.000	17.500	3.0295e-02
 8.000	17.750	4.7825e-02
 8.000	18.000	7.7212e-02
 8.000	18.250	1.0238e-01
 8.000	18.500	1.0957e-01
 8.000	18.750	1.0889e-01
 8.000	19.000	9.9956e-02
 8.000	19.250	9.1353e-02
 8.000	19.500	8.4501e-02
 8.000	19.750	8.0874e-02
 8.000	20.000	7.8985e-02
 8.000	20.250	7.7883e-02
 8.000	20.500	7.7412e-02
 8.000	20.750	7.7213e-02
 8.000	21.000	7.7126e-02
 8.000	21.250	7.7085e-02
 8.000	21.500	7.7064e-02
 8.000	21.750	7.7053e-02
 8.000	22.000	7.7047e-02
 8.000	22.250	7.7044e-02
 8.000	22.500	7.7042e-02
 8.000	22.750	7.7041e-02
 8.000	23.000	7.7041e-02
 8.000	23.250	7.7040e-02
 8.000	23.500	7.7040e-02
 8.000	23.750	7.7040e-02
 8.000	24.000	7.7040e-02
 8.250	17.000	1.3129e-02
 8.250	17.250	1.5463e-02
 8.250	17.500	2.0069e-02
 8.250	17.750	2.8860e-02
 8.250	18.000	4.6643e-02
 8.250	18.250	7.6445e-02
 8.250	18.500	1.0156e-01
 8.250	18.750	1.0950e-01
 8.250	19.000	1.0895e-01
 8.250	19.250	1.0001e-01
 8.250	19.500	9.1344e-02
 8.250	19.750	8.4495e-02
 8.250	20.000	8.0872e-02
 8.250	20.250	7.8984e-02
 8.250	20.500	7.7883e-02
 8.250	20.750	7.7412e-02
 8.250	21.000	7.7213e-02
 8.250	21.250	7.7126e-02
 8.250	21.500	7.7085e-02
 8.250	21.750	7.7064e-02
 8.250	22.000	7.7053e-02
 8.250	22.250	7.7047e-02
 8.250	22.500	7.7044e-02
 8.250	22.750	7.7043e-02
 8.250	23.000	7.7042e-02
 8.250	23.250	7.7041e-02
 8.250	23.500	7.7040e-02
 8.250	23.750	7.7040e-02
 8.250	24.000	7.7040e-02
 8.500	17.000	1.0360e-02
 8.500	17.250	1.1620e-02
 8.500	17.500	1.4169e-02
 8.500	17.750	1.8946e-02
 8.500	18.000	2.8070e-02
 8.500	18.250	4.6624e-02
 8.500	18.500	7.6822e-02
 8.500	18.750	1.0107e-01
 8.500	19.000	1.0956e-01
 8.500	19.250	1.0904e-01
 8.500	19.500	1.0008e-01
 8.500	19.750	9.1339e-02
 8.500	20.000	8.4491e-02
 8.500	20.250	8.0870e-02
 8.500	20.500	7.8983e-02
 8.500	20.750	7.7883e-02
 8.500	21.000	7.7412e-02
 8.500	21.250	7.7213e-02
 8.500	21.500	7.7126e-02
 8.500	21.750	7.7085e-02
 8.500	22.000	7.7064e-02
 8.500	22.250	7.7053e-02
 8.500	22.500	7.7047e-02
 8.500	22.750	7.7044e-02
 8.500	23.000	7.7042e-02
 8.500	23.250	7.7041e-02
 8.500	23.500	7.7041e-02
 8.500	23.750	7.7040e-02
 8.500	24.000	7.7040e-02
 8.750	17.000	8.5701e-03
 8.750	17.250	9.2439e-03
 8.750	17.500	1.0667e-02
 8.750	17.750	1.3363e-02
 8.750	18.000	1.8430e-02
 8.750	18.250	2.8205e-02
 8.750	18.500	4.8457e-02
 8.750	18.750	7.8989e-02
 8.750	19.000	1.0079e-01
 8.750	19.250	1.0964e-01
 8.750	19.500	1.0916e-01
 8.750	19.750	1.0017e-01
 8.750	20.000	9.1339e-02
 8.750	20.250	8.4488e-02
 8.750	20.500	8.0870e-02
 8.750	20.750	7.8983e-02
 8.750	21.000	7.7883e-02
 8.750	21.250	7.7412e-02
 8.750	21.500	7.7213e-02
 8.750	21.750	7.7126e-02
 8.750	22.000	7.7085e-02
 8.750	22.250	7.7064e-02
 8.750	22.500	7.7053e-02
 8.750	22.750	7.7047e-02
 8.750	23.000	7.7044e-02
 8.750	23.250	7.7042e-02
 8.750	23.500	7.7041e-02
 8.750	23.750	7.7041e-02
 8.750	24.000	7.7041e-02
 9.000	17.000	7.3900e-03
 9.000	17.250	7.7570e-03
 9.000	17.500	8.5686e-03
 9.000	17.750	1.0129e-02
 9.000	18.000	1.3047e-02
 9.000	18.250	1.8607e-02
 9.000	18.500	2.9800e-02
 9.000	18.750	5.2657e-02
 9.000	19.000	8.3175e-02
 9.000	19.250	1.0059e-01
 9.000	19.500	1.0973e-01
 9.000	19.750	1.0928e-01
 9.000	20.000	1.0027e-01
 9.000	20.250	9.1340e-02
 9.000	20.500	8.4486e-02
 9.000	20.750	8.0869e-02
 9.000	21.000	7.8983e-02
 9.000	21.250	7.7883e-02
 9.000	21.500	7.7412e-02
 9.000	21.750	7.7213e-02
 9.000	22.000	7.7126e-02
 9.000	22.250	7.7085e-02
 9.000	22.500	7.7064e-02
 9.000	22.750	7.7053e-02
 9.000	23.000	7.7047e-02
 9.000	23.250	7.7044e-02
 9.000	23.500	7.7042e-02
 9.000	23.750	7.7041e-02
 9.000	24.000	7.7041e-02
 9.250	17.000	6.5863e-03
 9.250	17.250	6.7877e-03
 9.250	17.500	7.2919e-03
 9.250	17.750	8.2528e-03
 9.250	18.000	1.0105e-02
 9.250	18.250	1.3418e-02
 9.250	18.500	1.9833e-02
 9.250	18.750	3.3055e-02
 9.250	19.000	5.9008e-02
 9.250	19.250	8.8239e-02
 9.250	19.500	1.0041e-01
 9.250	19.750	1.0978e-01
 9.250	20.000	1.0938e-01
 9.250	20.250	1.0037e-01
 9.250	20.500	9.1342e-02
 9.250	20.750	8.4484e-02
 9.250	21.000	8.0869e-02
 9.250	21.250	7.8983e-02
 9.250	21.500	7.7874e-02
 9.250	21.750	7.7374e-02
 9.250	22.000	7.7173e-02
 9.250	22.250	7.7088e-02
 9.250	22.500	7.7084e-02
 9.250	22.750	7.7063e-02
 9.250	23.000	7.7053e-02
 9.250	23.250	7.7047e-02
 9.250	23.500	7.7044e-02
 9.250	23.750	7.7042e-02
 9.250	24.000	7.7041e-02
 9.500	17.000	6.0442e-03
 9.500	17.250	6.1216e-03
 9.500	17.500	6.4792e-03
 9.500	17.750	7.1786e-03
 9.500	18.000	8.4160e-03
 9.500	18.250	1.0548e-02
 9.500	18.500	1.4461e-02
 9.500	18.750	2.2117e-02
 9.500	19.000	3.8241e-02
 9.500	19.250	6.6732e-02
 9.500	19.500	9.1257e-02
 9.500	19.750	1.0027e-01
 9.500	20.000	1.0979e-01
 9.500	20.250	1.0946e-01
 9.500	20.500	1.0045e-01
 9.500	20.750	9.1343e-02
 9.500	21.000	8.4471e-02
 9.500	21.250	8.0835e-02
 9.500	21.500	7.8942e-02
 9.500	21.750	7.7836e-02
 9.500	22.000	7.7351e-02
 9.500	22.250	7.7140e-02
 9.500	22.500	7.7055e-02
 9.500	22.750	7.7015e-02
 9.500	23.000	7.6994e-02
 9.500	23.250	7.6982e-02
 9.500	23.500	7.7000e-02
 9.500	23.750	7.6996e-02
 9.500	24.000	7.6994e-02
 9.750	17.000	5.7398e-03
 9.750	17.250	5.6503e-03
 9.750	17.500	5.9012e-03
 9.750	17.750	6.4831e-03
 9.750	18.000	7.4493e-03
 9.750	18.250	8.9795e-03
 9.750	18.500	1.1557e-02
 9.750	18.750	1.6298e-02
 9.750	19.000	2.5786e-02
 9.750	19.250	4.5562e-02
 9.750	19.500	7.5073e-02
 9.750	19.750	9.2293e-02
 9.750	20.000	1.0019e-01
 9.750	20.250	1.0972e-01
 9.750	20.500	1.0951e-01
 9.750	20.750	1.0052e-01
 9.750	21.000	9.1347e-02
 9.750	21.250	8.4477e-02
 9.750	21.500	8.0855e-02
 9.750	21.750	7.8946e-02
 9.750	22.000	7.7840e-02
 9.750	22.250	7.7360e-02
 9.750	22.500	7.7147e-02
 9.750	22.750	7.7052e-02
 9.750	23.000	7.7013e-02
 9.750	23.250	7.6993e-02
 9.750	23.500	7.6983e-02
 9.750	23.750	7.6977e-02
 9.750	24.000	7.6974e-02
10.000	17.000	5.6944e-03
10.000	17.250	5.3699e-03
10.000	17.500	5.4498e-03
10.000	17.750	5.9429e-03
10.000	18.000	6.8467e-03
10.000	18.250	8.0980e-03
10.000	18.500	9.9537e-03
10.000	18.750	1.3167e-02
10.000	19.000	1.9258e-02
10.000	19.250	3.2156e-02
10.000	19.500	5.7637e-02
10.000	19.750	8.2205e-02
10.000	20.000	9.2638e-02
10.000	20.250	1.0020e-01
10.000	20.500	1.0970e-01
10.000	20.750	1.0953e-01
10.000	21.000	1.0058e-01
10.000	21.250	9.1349e-02
10.000	21.500	8.4477e-02
10.000	21.750	8.0864e-02
10.000	22.000	7.8960e-02
10.000	22.250	7.7842e-02
10.000	22.500	7.7366e-02
10.000	22.750	7.7157e-02
10.000	23.000	7.7060e-02
10.000	23.250	7.7014e-02
10.000	23.500	7.6991e-02
10.000	23.750	7.6980e-02
10.000	24.000	7.6974e-02
10.250	17.000	5.9472e-03
10.250	17.250	5.3354e-03
10.250	17.500	5.1979e-03
10.250	17.750	5.5649e-03
10.250	18.000	6.4040e-03
10.250	18.250	7.5291e-03
10.250	18.500	9.0424e-03
10.250	18.750	1.1452e-02
10.250	19.000	1.5819e-02
10.250	19.250	2.4187e-02
10.250	19.500	4.0519e-02
10.250	19.750	6.5947e-02
10.250	20.000	8.4954e-02
10.250	20.250	9.2570e-02
10.250	20.500	1.0045e-01
10.250	20.750	1.0985e-01
10.250	21.000	1.0954e-01
10.250	21.250	1.0062e-01
10.250	21.500	9.1351e-02
10.250	21.750	8.4476e-02
10.250	22.000	8.0867e-02
10.250	22.250	7.8976e-02
10.250	22.500	7.7843e-02
10.250	22.750	7.7370e-02
10.250	23.000	7.7164e-02
10.250	23.250	7.7070e-02
10.250	23.500	7.7024e-02
10.250	23.750	7.7000e-02
10.250	24.000	7.6987e-02
10.500	17.000	6.4629e-03
10.500	17.250	5.5946e-03
10.500	17.500	5.2064e-03
10.500	17.750	5.3960e-03
10.500	18.000	6.0765e-03
10.500	18.250	7.0963e-03
10.500	18.500	8.4073e-03
10.500	18.750	1.0228e-02
10.500	19.000	1.3023e-02
10.500	19.250	1.7953e-02
10.500	19.500	2.7421e-02
10.500	19.750	4.5754e-02
10.500	20.000	7.1537e-02
10.500	20.250	8.6630e-02
10.500	20.500	9.3023e-02
10.500	20.750	1.0112e-01
10.500	21.000	1.1037e-01
10.500	21.250	1.0956e-01
10.500	21.500	1.0065e-01
10.500	21.750	9.1352e-02
10.500	22.000	8.4474e-02
10.500	22.250	8.0868e-02
10.500	22.500	7.8981e-02
10.500	22.750	7.7850e-02
10.500	23.000	7.7372e-02
10.500	23.250	7.7169e-02
10.500	23.500	7.7077e-02
10.500	23.750	7.7033e-02
10.500	24.000	7.7009e-02
10.750	17.000	7.1615e-03
10.750	17.250	6.1092e-03
10.750	17.500	5.5232e-03
10.750	17.750	5.5168e-03
10.750	18.000	5.9543e-03
10.750	18.250	6.7110e-03
10.750	18.500	7.7695e-03
10.750	18.750	9.1018e-03
10.750	19.000	1.0994e-02
10.750	19.250	1.4078e-02
10.750	19.500	1.9669e-02
10.750	19.750	3.0435e-02
10.750	20.000	5.0527e-02
10.750	20.250	7.6058e-02
10.750	20.500	8.7508e-02
10.750	20.750	9.4025e-02
10.750	21.000	1.0231e-01
10.750	21.250	1.1146e-01
10.750	21.500	1.0965e-01
10.750	21.750	1.0067e-01
10.750	22.000	9.1346e-02
10.750	22.250	8.4471e-02
10.750	22.500	8.0868e-02
10.750	22.750	7.8983e-02
10.750	23.000	7.7869e-02
10.750	23.250	7.7373e-02
10.750	23.500	7.7172e-02
10.750	23.750	7.7082e-02
10.750	24.000	7.7039e-02
11.000	17.000	7.8434e-03
11.000	17.250	6.7889e-03
11.000	17.500	6.0954e-03
11.000	17.750	5.9331e-03
11.000	18.000	6.1027e-03
11.000	18.250	6.4979e-03
11.000	18.500	7.2028e-03
11.000	18.750	8.2156e-03
11.000	19.000	9.6012e-03
11.000	19.250	1.1632e-02
11.000	19.500	1.5027e-02
11.000	19.750	2.1259e-02
11.000	20.000	3.3189e-02
11.000	20.250	5.4780e-02
11.000	20.500	7.9623e-02
11.000	20.750	8.8491e-02
11.000	21.000	9.6157e-02
11.000	21.250	1.0462e-01
11.000	21.500	1.1355e-01
11.000	21.750	1.0986e-01
11.000	22.000	1.0069e-01
11.000	22.250	9.1347e-02
11.000	22.500	8.4469e-02
11.000	22.750	8.0868e-02
11.000	23.000	7.8984e-02
11.000	23.250	7.7878e-02
11.000	23.500	7.7379e-02
11.000	23.750	7.7173e-02
11.000	24.000	7.7085e-02
11.250	17.000	7.4618e-03
11.250	17.250	7.3740e-03
11.250	17.500	6.7825e-03
11.250	17.750	6.5529e-03
11.250	18.000	6.5116e-03
11.250	18.250	6.5553e-03
11.250	18.500	6.8291e-03
11.250	18.750	7.5156e-03
11.250	19.000	8.5241e-03
11.250	19.250	9.8998e-03
11.250	19.500	1.2114e-02
11.250	19.750	1.5886e-02
11.250	20.000	2.2740e-02
11.250	20.250	3.5737e-02
11.250	20.500	5.8635e-02
11.250	20.750	8.2342e-02
11.250	21.000	9.0554e-02
11.250	21.250	9.9230e-02
11.250	21.500	1.0846e-01
11.250	21.750	1.1654e-01
11.250	22.000	1.1021e-01
11.250	22.250	1.0070e-01
11.250	22.500	9.1336e-02
11.250	22.750	8.4466e-02
11.250	23.000	8.0868e-02
11.250	23.250	7.8985e-02
11.250	23.500	7.7881e-02
11.250	23.750	7.7398e-02
11.250	24.000	7.7175e-02
11.500	17.000	7.9103e-03
11.500	17.250	7.1092e-03
11.500	17.500	7.1274e-03
11.500	17.750	7.1596e-03
11.500	18.000	7.0330e-03
11.500	18.250	6.8486e-03
11.500	18.500	6.8035e-03
11.500	18.750	7.1142e-03
11.500	19.000	7.7436e-03
11.500	19.250	8.7044e-03
11.500	19.500	1.0171e-02
11.500	19.750	1.2583e-02
11.500	20.000	1.6694e-02
11.500	20.250	2.4099e-02
11.500	20.500	3.8044e-02
11.500	20.750	6.2452e-02
11.500	21.000	8.4677e-02
11.500	21.250	9.3727e-02
11.500	21.500	1.0413e-01
11.500	21.750	1.1421e-01
11.500	22.000	1.1973e-01
11.500	22.250	1.1071e-01
11.500	22.500	1.0072e-01
11.500	22.750	9.1337e-02
11.500	23.000	8.4463e-02
11.500	23.250	8.0867e-02
11.500	23.500	7.8985e-02
11.500	23.750	7.7882e-02
11.500	24.000	7.7408e-02
11.750	17.000	8.2082e-03
11.750	17.250	7.6072e-03
11.750	17.500	7.1959e-03
11.750	17.750	7.0799e-03
11.750	18.000	6.9557e-03
11.750	18.250	6.9817e-03
11.750	18.500	6.9300e-03
11.750	18.750	6.9223e-03
11.750	19.000	7.2027e-03
11.750	19.250	7.8196e-03
11.750	19.500	8.8309e-03
11.750	19.750	1.0401e-02
11.750	20.000	1.3009e-02
11.750	20.250	1.7457e-02
11.750	20.500	2.5344e-02
11.750	20.750	4.0184e-02
11.750	21.000	6.6609e-02
11.750	21.250	8.7874e-02
11.750	21.500	9.8590e-02
11.750	21.750	1.1118e-01
11.750	22.000	1.2128e-01
11.750	22.250	1.2230e-01
11.750	22.500	1.1139e-01
11.750	22.750	1.0075e-01
11.750	23.000	9.1332e-02
11.750	23.250	8.4459e-02
11.750	23.500	8.0866e-02
11.750	23.750	7.8986e-02
11.750	24.000	7.7883e-02
12.000	17.000	8.0960e-03
12.000	17.250	7.8228e-03
12.000	17.500	7.6007e-03
12.000	17.750	7.5528e-03
12.000	18.000	7.4456e-03
12.000	18.250	7.1607e-03
12.000	18.500	6.7873e-03
12.000	18.750	6.4652e-03
12.000	19.000	6.7983e-03
12.000	19.250	7.1908e-03
12.000	19.500	7.8370e-03
12.000	19.750	8.9094e-03
12.000	20.000	1.0619e-02
12.000	20.250	1.3441e-02
12.000	20.500	1.8181e-02
12.000	20.750	2.6557e-02
12.000	21.000	4.2468e-02
12.000	21.250	7.1927e-02
12.000	21.500	9.3017e-02
12.000	21.750	1.0554e-01
12.000	22.000	1.1995e-01
12.000	22.250	1.2845e-01
12.000	22.500	1.2478e-01
12.000	22.750	1.1227e-01
12.000	23.000	1.0079e-01
12.000	23.250	9.1326e-02
12.000	23.500	8.4458e-02
12.000	23.750	8.0864e-02
12.000	24.000	7.8986e-02
12.250	17.000	7.5319e-03
12.250	17.250	7.6081e-03
12.250	17.500	7.6705e-03
12.250	17.750	7.7958e-03
12.250	18.000	7.7749e-03
12.250	18.250	7.5059e-03
12.250	18.500	7.1170e-03
12.250	18.750	6.7198e-03
12.250	19.000	6.4033e-03
12.250	19.250	6.3036e-03
12.250	19.500	7.0386e-03
12.250	19.750	7.8297e-03
12.250	20.000	8.9764e-03
12.250	20.250	1.0853e-02
12.250	20.500	1.3900e-02
12.250	20.750	1.8989e-02
12.250	21.000	2.8092e-02
12.250	21.250	4.5497e-02
12.250	21.500	7.7914e-02
12.250	21.750	9.9701e-02
12.250	22.000	1.1443e-01
12.250	22.250	1.3050e-01
12.250	22.500	1.3535e-01
12.250	22.750	1.2735e-01
12.250	23.000	1.1302e-01
12.250	23.250	1.0087e-01
12.250	23.500	9.1318e-02
12.250	23.750	8.4450e-02
12.250	24.000	8.0861e-02
12.500	17.000	6.7771e-03
12.500	17.250	7.0920e-03
12.500	17.500	7.4137e-03
12.500	17.750	7.6821e-03
12.500	18.000	7.7574e-03
12.500	18.250	7.6221e-03
12.500	18.500	7.3449e-03
12.500	18.750	6.9945e-03
12.500	19.000	6.6221e-03
12.500	19.250	6.3177e-03
12.500	19.500	6.2392e-03
12.500	19.750	6.7142e-03
12.500	20.000	7.7850e-03
12.500	20.250	9.0753e-03
12.500	20.500	1.1125e-02
12.500	20.750	1.4523e-02
12.500	21.000	2.0199e-02
12.500	21.250	3.0085e-02
12.500	21.500	4.9004e-02
12.500	21.750	8.6700e-02
12.500	22.000	1.0836e-01
12.500	22.250	1.2524e-01
12.500	22.500	1.4112e-01
12.500	22.750	1.4230e-01
12.500	23.000	1.2996e-01
12.500	23.250	1.1415e-01
12.500	23.500	1.0096e-01
12.500	23.750	9.1310e-02
12.500	24.000	8.4445e-02
12.750	17.000	6.0406e-03
12.750	17.250	6.4695e-03
12.750	17.500	6.8532e-03
12.750	17.750	7.1768e-03
12.750	18.000	7.4129e-03
12.750	18.250	7.4990e-03
12.750	18.500	7.4072e-03
12.750	18.750	7.1770e-03
12.750	19.000	6.8589e-03
12.750	19.250	6.5076e-03
12.750	19.500	6.2192e-03
12.750	19.750	6.1636e-03
12.750	20.000	6.5072e-03
12.750	20.250	7.7252e-03
12.750	20.500	9.2240e-03
12.750	20.750	1.1566e-02
12.750	21.000	1.5427e-02
12.750	21.250	2.1930e-02
12.750	21.500	3.2771e-02
12.750	21.750	5.4163e-02
12.750	22.000	9.8640e-02
12.750	22.250	1.1864e-01
12.750	22.500	1.3853e-01
12.750	22.750	1.5145e-01
12.750	23.000	1.4898e-01
12.750	23.250	1.3292e-01
12.750	23.500	1.1511e-01
12.750	23.750	1.0106e-01
12.750	24.000	9.1302e-02
13.000	17.000	9.6035e-03
13.000	17.250	6.6895e-03
13.000	17.500	6.2234e-03
13.000	17.750	6.5756e-03
13.000	18.000	6.9219e-03
13.000	18.250	7.1828e-03
13.000	18.500	7.2785e-03
13.000	18.750	7.2046e-03
13.000	19.000	7.0001e-03
13.000	19.250	6.7043e-03
13.000	19.500	6.3672e-03
13.000	19.750	6.1054e-03
13.000	20.000	6.0705e-03
13.000	20.250	6.4591e-03
13.000	20.500	7.5925e-03
13.000	20.750	9.4377e-03
13.000	21.000	1.2180e-02
13.000	21.250	1.6798e-02
13.000	21.500	2.4054e-02
13.000	21.750	3.6578e-02
13.000	22.000	6.1562e-02
13.000	22.250	1.1130e-01
13.000	22.500	1.2911e-01
13.000	22.750	1.5191e-01
13.000	23.000	1.6122e-01
13.000	23.250	1.5571e-01
13.000	23.500	1.3559e-01
13.000	23.750	1.1604e-01
13.000	24.000	1.0120e-01
13.250	17.000	9.0298e-03
13.250	17.250	8.4281e-03
13.250	17.500	5.6993e-03
13.250	17.750	6.0350e-03
13.250	18.000	6.4065e-03
13.250	18.250	6.7566e-03
13.250	18.500	6.9911e-03
13.250	18.750	7.0658e-03
13.250	19.000	6.9948e-03
13.250	19.250	6.8055e-03
13.250	19.500	6.5291e-03
13.250	19.750	6.2353e-03
13.250	20.000	5.9957e-03
13.250	20.250	5.9828e-03
13.250	20.500	6.4016e-03
13.250	20.750	7.4277e-03
13.250	21.000	9.7044e-03
13.250	21.250	1.2917e-02
13.250	21.500	1.8053e-02
13.250	21.750	2.5655e-02
13.250	22.000	4.0062e-02
13.250	22.250	6.9071e-02
13.250	22.500	1.2219e-01
13.250	22.750	1.3886e-01
13.250	23.000	1.6237e-01
13.250	23.250	1.7174e-01
13.250	23.500	1.6200e-01
13.250	23.750	1.3821e-01
13.250	24.000	1.1684e-01
13.500	17.000	8.5076e-03
13.500	17.250	8.1577e-03
13.500	17.500	5.2667e-03
13.500	17.750	5.5540e-03
13.500	18.000	5.9185e-03
13.500	18.250	6.3020e-03
13.500	18.500	6.6085e-03
13.500	18.750	6.7890e-03
13.500	19.000	6.8357e-03
13.500	19.250	6.7618e-03
13.500	19.500	6.5867e-03
13.500	19.750	6.3425e-03
13.500	20.000	6.0816e-03
13.500	20.250	5.8922e-03
13.500	20.500	5.9055e-03
13.500	20.750	6.3344e-03
13.500	21.000	7.4038e-03
13.500	21.250	9.4598e-03
13.500	21.500	1.3173e-02
13.500	21.750	1.8281e-02
13.500	22.000	2.6795e-02
13.500	22.250	4.3996e-02
13.500	22.500	8.2631e-02
13.500	22.750	1.3310e-01
13.500	23.000	1.5342e-01
13.500	23.250	1.7617e-01
13.500	23.500	1.8369e-01
13.500	23.750	1.6895e-01
13.500	24.000	1.4085e-01
13.750	17.000	7.9925e-03
13.750	17.250	7.5794e-03
13.750	17.500	5.0493e-03
13.750	17.750	5.1230e-03
13.750	18.000	5.4680e-03
13.750	18.250	5.8523e-03
13.750	18.500	6.1930e-03
13.750	18.750	6.4327e-03
13.750	19.000	6.5644e-03
13.750	19.250	6.5946e-03
13.750	19.500	6.5278e-03
13.750	19.750	6.3771e-03
13.750	20.000	6.1744e-03
13.750	20.250	5.9691e-03
13.750	20.500	5.8434e-03
13.750	20.750	5.9165e-03
13.750	21.000	6.3802e-03
13.750	21.250	7.4605e-03
13.750	21.500	9.4562e-03
13.750	21.750	1.2783e-02
13.750	22.000	1.8552e-02
13.750	22.250	2.8729e-02
13.750	22.500	4.8182e-02
13.750	22.750	9.9047e-02
13.750	23.000	1.5089e-01
13.750	23.250	1.7355e-01
13.750	23.500	1.9390e-01
13.750	23.750	1.9780e-01
13.750	24.000	1.7569e-01
14.000	17.000	7.2983e-03
14.000	17.250	7.4438e-03
14.000	17.500	5.2188e-03
14.000	17.750	4.7186e-03
14.000	18.000	5.0462e-03
14.000	18.250	5.4179e-03
14.000	18.500	5.7704e-03
14.000	18.750	6.0463e-03
14.000	19.000	6.2298e-03
14.000	19.250	6.3344e-03
14.000	19.500	6.3621e-03
14.000	19.750	6.3152e-03
14.000	20.000	6.2033e-03
14.000	20.250	6.0599e-03
14.000	20.500	5.9366e-03
14.000	20.750	5.9091e-03
14.000	21.000	6.1002e-03
14.000	21.250	6.6984e-03
14.000	21.500	7.8547e-03
14.000	21.750	1.0014e-02
14.000	22.000	1.3733e-02
14.000	22.250	2.0290e-02
14.000	22.500	3.2965e-02
14.000	22.750	5.8108e-02
14.000	23.000	1.2542e-01
14.000	23.250	1.7970e-01
14.000	23.500	2.0344e-01
14.000	23.750	2.1967e-01
14.000	24.000	2.1407e-01
