InwT 575.146A  relative to Inci 1215.00A scaled to 1215A.
Hden   Phi(H)  Eq_Width (A)
 7.000	17.000	5.8488e-02
 7.000	17.250	8.5750e-02
 7.000	17.500	1.1959e-01
 7.000	17.750	1.2512e-01
 7.000	18.000	1.0448e-01
 7.000	18.250	8.7410e-02
 7.000	18.500	7.8300e-02
 7.000	18.750	7.5335e-02
 7.000	19.000	7.3935e-02
 7.000	19.250	7.3142e-02
 7.000	19.500	7.2790e-02
 7.000	19.750	7.2635e-02
 7.000	20.000	7.2566e-02
 7.000	20.250	7.2533e-02
 7.000	20.500	7.2517e-02
 7.000	20.750	7.2508e-02
 7.000	21.000	7.2503e-02
 7.000	21.250	7.2501e-02
 7.000	21.500	7.2500e-02
 7.000	21.750	7.2499e-02
 7.000	22.000	7.2499e-02
 7.000	22.250	7.2499e-02
 7.000	22.500	7.2499e-02
 7.000	22.750	7.2507e-02
 7.000	23.000	7.2501e-02
 7.000	23.250	7.2501e-02
 7.000	23.500	7.2501e-02
 7.000	23.750	7.2501e-02
 7.000	24.000	7.2502e-02
 7.250	17.000	4.0547e-02
 7.250	17.250	5.8226e-02
 7.250	17.500	8.5531e-02
 7.250	17.750	1.1933e-01
 7.250	18.000	1.2467e-01
 7.250	18.250	1.0418e-01
 7.250	18.500	8.7260e-02
 7.250	18.750	7.8247e-02
 7.250	19.000	7.5314e-02
 7.250	19.250	7.3927e-02
 7.250	19.500	7.3141e-02
 7.250	19.750	7.2789e-02
 7.250	20.000	7.2635e-02
 7.250	20.250	7.2566e-02
 7.250	20.500	7.2533e-02
 7.250	20.750	7.2516e-02
 7.250	21.000	7.2508e-02
 7.250	21.250	7.2503e-02
 7.250	21.500	7.2500e-02
 7.250	21.750	7.2499e-02
 7.250	22.000	7.2498e-02
 7.250	22.250	7.2498e-02
 7.250	22.500	7.2498e-02
 7.250	22.750	7.2498e-02
 7.250	23.000	7.2498e-02
 7.250	23.250	7.2498e-02
 7.250	23.500	7.2498e-02
 7.250	23.750	7.2498e-02
 7.250	24.000	7.2499e-02
 7.500	17.000	2.9440e-02
 7.500	17.250	4.0475e-02
 7.500	17.500	5.8155e-02
 7.500	17.750	8.5570e-02
 7.500	18.000	1.1938e-01
 7.500	18.250	1.2448e-01
 7.500	18.500	1.0401e-01
 7.500	18.750	8.7168e-02
 7.500	19.000	7.8213e-02
 7.500	19.250	7.5300e-02
 7.500	19.500	7.3922e-02
 7.500	19.750	7.3140e-02
 7.500	20.000	7.2789e-02
 7.500	20.250	7.2635e-02
 7.500	20.500	7.2566e-02
 7.500	20.750	7.2533e-02
 7.500	21.000	7.2516e-02
 7.500	21.250	7.2508e-02
 7.500	21.500	7.2503e-02
 7.500	21.750	7.2500e-02
 7.500	22.000	7.2499e-02
 7.500	22.250	7.2498e-02
 7.500	22.500	7.2498e-02
 7.500	22.750	7.2497e-02
 7.500	23.000	7.2498e-02
 7.500	23.250	7.2498e-02
 7.500	23.500	7.2497e-02
 7.500	23.750	7.2498e-02
 7.500	24.000	7.2498e-02
 7.750	17.000	2.2137e-02
 7.750	17.250	2.9507e-02
 7.750	17.500	4.0486e-02
 7.750	17.750	5.8169e-02
 7.750	18.000	8.5722e-02
 7.750	18.250	1.1961e-01
 7.750	18.500	1.2446e-01
 7.750	18.750	1.0392e-01
 7.750	19.000	8.7112e-02
 7.750	19.250	7.8193e-02
 7.750	19.500	7.5292e-02
 7.750	19.750	7.3919e-02
 7.750	20.000	7.3139e-02
 7.750	20.250	7.2789e-02
 7.750	20.500	7.2635e-02
 7.750	20.750	7.2566e-02
 7.750	21.000	7.2533e-02
 7.750	21.250	7.2516e-02
 7.750	21.500	7.2508e-02
 7.750	21.750	7.2503e-02
 7.750	22.000	7.2500e-02
 7.750	22.250	7.2499e-02
 7.750	22.500	7.2498e-02
 7.750	22.750	7.2497e-02
 7.750	23.000	7.2497e-02
 7.750	23.250	7.2497e-02
 7.750	23.500	7.2497e-02
 7.750	23.750	7.2497e-02
 7.750	24.000	7.2497e-02
 8.000	17.000	1.6882e-02
 8.000	17.250	2.2118e-02
 8.000	17.500	2.9427e-02
 8.000	17.750	4.0387e-02
 8.000	18.000	5.8093e-02
 8.000	18.250	8.5799e-02
 8.000	18.500	1.1989e-01
 8.000	18.750	1.2456e-01
 8.000	19.000	1.0389e-01
 8.000	19.250	8.7079e-02
 8.000	19.500	7.8183e-02
 8.000	19.750	7.5287e-02
 8.000	20.000	7.3917e-02
 8.000	20.250	7.3139e-02
 8.000	20.500	7.2789e-02
 8.000	20.750	7.2635e-02
 8.000	21.000	7.2566e-02
 8.000	21.250	7.2533e-02
 8.000	21.500	7.2516e-02
 8.000	21.750	7.2508e-02
 8.000	22.000	7.2503e-02
 8.000	22.250	7.2500e-02
 8.000	22.500	7.2499e-02
 8.000	22.750	7.2498e-02
 8.000	23.000	7.2497e-02
 8.000	23.250	7.2497e-02
 8.000	23.500	7.2497e-02
 8.000	23.750	7.2497e-02
 8.000	24.000	7.2497e-02
 8.250	17.000	1.3130e-02
 8.250	17.250	1.6961e-02
 8.250	17.500	2.2180e-02
 8.250	17.750	2.9463e-02
 8.250	18.000	4.0407e-02
 8.250	18.250	5.8158e-02
 8.250	18.500	8.6036e-02
 8.250	18.750	1.2028e-01
 8.250	19.000	1.2476e-01
 8.250	19.250	1.0389e-01
 8.250	19.500	8.7059e-02
 8.250	19.750	7.8178e-02
 8.250	20.000	7.5286e-02
 8.250	20.250	7.3916e-02
 8.250	20.500	7.3139e-02
 8.250	20.750	7.2789e-02
 8.250	21.000	7.2635e-02
 8.250	21.250	7.2566e-02
 8.250	21.500	7.2533e-02
 8.250	21.750	7.2516e-02
 8.250	22.000	7.2508e-02
 8.250	22.250	7.2503e-02
 8.250	22.500	7.2500e-02
 8.250	22.750	7.2499e-02
 8.250	23.000	7.2498e-02
 8.250	23.250	7.2498e-02
 8.250	23.500	7.2497e-02
 8.250	23.750	7.2497e-02
 8.250	24.000	7.2497e-02
 8.500	17.000	1.0410e-02
 8.500	17.250	1.3184e-02
 8.500	17.500	1.7010e-02
 8.500	17.750	2.2211e-02
 8.500	18.000	2.9492e-02
 8.500	18.250	4.0418e-02
 8.500	18.500	5.8214e-02
 8.500	18.750	8.6320e-02
 8.500	19.000	1.2076e-01
 8.500	19.250	1.2500e-01
 8.500	19.500	1.0391e-01
 8.500	19.750	8.7048e-02
 8.500	20.000	7.8179e-02
 8.500	20.250	7.5286e-02
 8.500	20.500	7.3916e-02
 8.500	20.750	7.3138e-02
 8.500	21.000	7.2789e-02
 8.500	21.250	7.2635e-02
 8.500	21.500	7.2566e-02
 8.500	21.750	7.2533e-02
 8.500	22.000	7.2516e-02
 8.500	22.250	7.2507e-02
 8.500	22.500	7.2503e-02
 8.500	22.750	7.2500e-02
 8.500	23.000	7.2499e-02
 8.500	23.250	7.2498e-02
 8.500	23.500	7.2497e-02
 8.500	23.750	7.2497e-02
 8.500	24.000	7.2497e-02
 8.750	17.000	8.4100e-03
 8.750	17.250	1.0463e-02
 8.750	17.500	1.3229e-02
 8.750	17.750	1.7044e-02
 8.750	18.000	2.2244e-02
 8.750	18.250	2.9509e-02
 8.750	18.500	4.0415e-02
 8.750	18.750	5.8340e-02
 8.750	19.000	8.6768e-02
 8.750	19.250	1.2124e-01
 8.750	19.500	1.2527e-01
 8.750	19.750	1.0394e-01
 8.750	20.000	8.7043e-02
 8.750	20.250	7.8182e-02
 8.750	20.500	7.5288e-02
 8.750	20.750	7.3917e-02
 8.750	21.000	7.3139e-02
 8.750	21.250	7.2789e-02
 8.750	21.500	7.2635e-02
 8.750	21.750	7.2566e-02
 8.750	22.000	7.2533e-02
 8.750	22.250	7.2516e-02
 8.750	22.500	7.2508e-02
 8.750	22.750	7.2503e-02
 8.750	23.000	7.2500e-02
 8.750	23.250	7.2499e-02
 8.750	23.500	7.2498e-02
 8.750	23.750	7.2498e-02
 8.750	24.000	7.2497e-02
 9.000	17.000	6.7913e-03
 9.000	17.250	8.5113e-03
 9.000	17.500	1.0553e-02
 9.000	17.750	1.3304e-02
 9.000	18.000	1.7108e-02
 9.000	18.250	2.2294e-02
 9.000	18.500	2.9553e-02
 9.000	18.750	4.0509e-02
 9.000	19.000	5.8645e-02
 9.000	19.250	8.7510e-02
 9.000	19.500	1.2176e-01
 9.000	19.750	1.2554e-01
 9.000	20.000	1.0398e-01
 9.000	20.250	8.7041e-02
 9.000	20.500	7.8187e-02
 9.000	20.750	7.5290e-02
 9.000	21.000	7.3918e-02
 9.000	21.250	7.3139e-02
 9.000	21.500	7.2789e-02
 9.000	21.750	7.2635e-02
 9.000	22.000	7.2566e-02
 9.000	22.250	7.2533e-02
 9.000	22.500	7.2516e-02
 9.000	22.750	7.2507e-02
 9.000	23.000	7.2503e-02
 9.000	23.250	7.2500e-02
 9.000	23.500	7.2499e-02
 9.000	23.750	7.2498e-02
 9.000	24.000	7.2497e-02
 9.250	17.000	5.3235e-03
 9.250	17.250	6.9504e-03
 9.250	17.500	8.6870e-03
 9.250	17.750	1.0727e-02
 9.250	18.000	1.3449e-02
 9.250	18.250	1.7222e-02
 9.250	18.500	2.2407e-02
 9.250	18.750	2.9728e-02
 9.250	19.000	4.0862e-02
 9.250	19.250	5.9485e-02
 9.250	19.500	8.8936e-02
 9.250	19.750	1.2236e-01
 9.250	20.000	1.2581e-01
 9.250	20.250	1.0401e-01
 9.250	20.500	8.7038e-02
 9.250	20.750	7.8195e-02
 9.250	21.000	7.5294e-02
 9.250	21.250	7.3919e-02
 9.250	21.500	7.3131e-02
 9.250	21.750	7.2753e-02
 9.250	22.000	7.2597e-02
 9.250	22.250	7.2530e-02
 9.250	22.500	7.2532e-02
 9.250	22.750	7.2516e-02
 9.250	23.000	7.2507e-02
 9.250	23.250	7.2503e-02
 9.250	23.500	7.2500e-02
 9.250	23.750	7.2499e-02
 9.250	24.000	7.2498e-02
 9.500	17.000	3.9184e-03
 9.500	17.250	5.5190e-03
 9.500	17.500	7.2202e-03
 9.500	17.750	8.9900e-03
 9.500	18.000	1.1004e-02
 9.500	18.250	1.3689e-02
 9.500	18.500	1.7465e-02
 9.500	18.750	2.2740e-02
 9.500	19.000	3.0237e-02
 9.500	19.250	4.1798e-02
 9.500	19.500	6.1257e-02
 9.500	19.750	9.1162e-02
 9.500	20.000	1.2319e-01
 9.500	20.250	1.2607e-01
 9.500	20.500	1.0405e-01
 9.500	20.750	8.7044e-02
 9.500	21.000	7.8187e-02
 9.500	21.250	7.5262e-02
 9.500	21.500	7.3881e-02
 9.500	21.750	7.3095e-02
 9.500	22.000	7.2731e-02
 9.500	22.250	7.2566e-02
 9.500	22.500	7.2500e-02
 9.500	22.750	7.2467e-02
 9.500	23.000	7.2450e-02
 9.500	23.250	7.2440e-02
 9.500	23.500	7.2458e-02
 9.500	23.750	7.2455e-02
 9.500	24.000	7.2454e-02
 9.750	17.000	2.6078e-03
 9.750	17.250	4.0897e-03
 9.750	17.500	5.8225e-03
 9.750	17.750	7.6200e-03
 9.750	18.000	9.4039e-03
 9.750	18.250	1.1409e-02
 9.750	18.500	1.4129e-02
 9.750	18.750	1.8024e-02
 9.750	19.000	2.3540e-02
 9.750	19.250	3.1449e-02
 9.750	19.500	4.3760e-02
 9.750	19.750	6.4273e-02
 9.750	20.000	9.4117e-02
 9.750	20.250	1.2452e-01
 9.750	20.500	1.2635e-01
 9.750	20.750	1.0410e-01
 9.750	21.000	8.7061e-02
 9.750	21.250	7.8207e-02
 9.750	21.500	7.5288e-02
 9.750	21.750	7.3886e-02
 9.750	22.000	7.3099e-02
 9.750	22.250	7.2740e-02
 9.750	22.500	7.2573e-02
 9.750	22.750	7.2497e-02
 9.750	23.000	7.2466e-02
 9.750	23.250	7.2450e-02
 9.750	23.500	7.2442e-02
 9.750	23.750	7.2437e-02
 9.750	24.000	7.2434e-02
10.000	17.000	1.4621e-03
10.000	17.250	2.7169e-03
10.000	17.500	4.3484e-03
10.000	17.750	6.2259e-03
10.000	18.000	8.1166e-03
10.000	18.250	9.9653e-03
10.000	18.500	1.2065e-02
10.000	18.750	1.4967e-02
10.000	19.000	1.9162e-02
10.000	19.250	2.5090e-02
10.000	19.500	3.3634e-02
10.000	19.750	4.7146e-02
10.000	20.000	6.8149e-02
10.000	20.250	9.7868e-02
10.000	20.500	1.2638e-01
10.000	20.750	1.2675e-01
10.000	21.000	1.0417e-01
10.000	21.250	8.7088e-02
10.000	21.500	7.8222e-02
10.000	21.750	7.5303e-02
10.000	22.000	7.3902e-02
10.000	22.250	7.3102e-02
10.000	22.500	7.2746e-02
10.000	22.750	7.2582e-02
10.000	23.000	7.2504e-02
10.000	23.250	7.2467e-02
10.000	23.500	7.2447e-02
10.000	23.750	7.2439e-02
10.000	24.000	7.2434e-02
10.250	17.000	7.7580e-04
10.250	17.250	1.5222e-03
10.250	17.500	2.8916e-03
10.250	17.750	4.6729e-03
10.250	18.000	6.7137e-03
10.250	18.250	8.7827e-03
10.250	18.500	1.0835e-02
10.250	18.750	1.3210e-02
10.250	19.000	1.6444e-02
10.250	19.250	2.1062e-02
10.250	19.500	2.7580e-02
10.250	19.750	3.7055e-02
10.250	20.000	5.2109e-02
10.250	20.250	7.4102e-02
10.250	20.500	1.0248e-01
10.250	20.750	1.2905e-01
10.250	21.000	1.2738e-01
10.250	21.250	1.0429e-01
10.250	21.500	8.7129e-02
10.250	21.750	7.8237e-02
10.250	22.000	7.5313e-02
10.250	22.250	7.3920e-02
10.250	22.500	7.3103e-02
10.250	22.750	7.2749e-02
10.250	23.000	7.2589e-02
10.250	23.250	7.2513e-02
10.250	23.500	7.2476e-02
10.250	23.750	7.2456e-02
10.250	24.000	7.2446e-02
10.500	17.000	4.1506e-04
10.500	17.250	8.0206e-04
10.500	17.500	1.6191e-03
10.500	17.750	3.1188e-03
10.500	18.000	5.0957e-03
10.500	18.250	7.4017e-03
10.500	18.500	9.7723e-03
10.500	18.750	1.2151e-02
10.500	19.000	1.4879e-02
10.500	19.250	1.8556e-02
10.500	19.500	2.3748e-02
10.500	19.750	3.1015e-02
10.500	20.000	4.1670e-02
10.500	20.250	5.8432e-02
10.500	20.500	8.0987e-02
10.500	20.750	1.0804e-01
10.500	21.000	1.3247e-01
10.500	21.250	1.2826e-01
10.500	21.500	1.0449e-01
10.500	21.750	8.7196e-02
10.500	22.000	7.8254e-02
10.500	22.250	7.5323e-02
10.500	22.500	7.3928e-02
10.500	22.750	7.3111e-02
10.500	23.000	7.2752e-02
10.500	23.250	7.2594e-02
10.500	23.500	7.2520e-02
10.500	23.750	7.2484e-02
10.500	24.000	7.2465e-02
10.750	17.000	2.5638e-04
10.750	17.250	4.2971e-04
10.750	17.500	8.5481e-04
10.750	17.750	1.7963e-03
10.750	18.000	3.4477e-03
10.750	18.250	5.7389e-03
10.750	18.500	8.3829e-03
10.750	18.750	1.1076e-02
10.750	19.000	1.3781e-02
10.750	19.250	1.6946e-02
10.750	19.500	2.1209e-02
10.750	19.750	2.7138e-02
10.750	20.000	3.5333e-02
10.750	20.250	4.7354e-02
10.750	20.500	6.5360e-02
10.750	20.750	8.8845e-02
10.750	21.000	1.1513e-01
10.750	21.250	1.3712e-01
10.750	21.500	1.2941e-01
10.750	21.750	1.0480e-01
10.750	22.000	8.7312e-02
10.750	22.250	7.8277e-02
10.750	22.500	7.5335e-02
10.750	22.750	7.3935e-02
10.750	23.000	7.3130e-02
10.750	23.250	7.2753e-02
10.750	23.500	7.2597e-02
10.750	23.750	7.2525e-02
10.750	24.000	7.2490e-02
11.000	17.000	1.9070e-04
11.000	17.250	2.6864e-04
11.000	17.500	4.6148e-04
11.000	17.750	9.5926e-04
11.000	18.000	2.0502e-03
11.000	18.250	3.9221e-03
11.000	18.500	6.5416e-03
11.000	18.750	9.5024e-03
11.000	19.000	1.2470e-02
11.000	19.250	1.5573e-02
11.000	19.500	1.9343e-02
11.000	19.750	2.4409e-02
11.000	20.000	3.1268e-02
11.000	20.250	4.0536e-02
11.000	20.500	5.4197e-02
11.000	20.750	7.4003e-02
11.000	21.000	9.9015e-02
11.000	21.250	1.2413e-01
11.000	21.500	1.4338e-01
11.000	21.750	1.3060e-01
11.000	22.000	1.0521e-01
11.000	22.250	8.7470e-02
11.000	22.500	7.8309e-02
11.000	22.750	7.5350e-02
11.000	23.000	7.3942e-02
11.000	23.250	7.3140e-02
11.000	23.500	7.2759e-02
11.000	23.750	7.2598e-02
11.000	24.000	7.2527e-02
11.250	17.000	1.6132e-04
11.250	17.250	2.0255e-04
11.250	17.500	2.9547e-04
11.250	17.750	5.3276e-04
11.250	18.000	1.1219e-03
11.250	18.250	2.3467e-03
11.250	18.500	4.4449e-03
11.250	18.750	7.3676e-03
11.250	19.000	1.0579e-02
11.250	19.250	1.3862e-02
11.250	19.500	1.7550e-02
11.250	19.750	2.2190e-02
11.250	20.000	2.8299e-02
11.250	20.250	3.6285e-02
11.250	20.500	4.6838e-02
11.250	20.750	6.2356e-02
11.250	21.000	8.4447e-02
11.250	21.250	1.1144e-01
11.250	21.500	1.3578e-01
11.250	21.750	1.5124e-01
11.250	22.000	1.3204e-01
11.250	22.250	1.0568e-01
11.250	22.500	8.7713e-02
11.250	22.750	7.8355e-02
11.250	23.000	7.5372e-02
11.250	23.250	7.3952e-02
11.250	23.500	7.3145e-02
11.250	23.750	7.2778e-02
11.250	24.000	7.2600e-02
11.500	17.000	1.4790e-04
11.500	17.250	1.7432e-04
11.500	17.500	2.2938e-04
11.500	17.750	3.5317e-04
11.500	18.000	6.4658e-04
11.500	18.250	1.2951e-03
11.500	18.500	2.6166e-03
11.500	18.750	4.9365e-03
11.500	19.000	8.1410e-03
11.500	19.250	1.1628e-02
11.500	19.500	1.5385e-02
11.500	19.750	1.9918e-02
11.500	20.000	2.5679e-02
11.500	20.250	3.2991e-02
11.500	20.500	4.2220e-02
11.500	20.750	5.4291e-02
11.500	21.000	7.1762e-02
11.500	21.250	9.7248e-02
11.500	21.500	1.2719e-01
11.500	21.750	1.5006e-01
11.500	22.000	1.5903e-01
11.500	22.250	1.3349e-01
11.500	22.500	1.0612e-01
11.500	22.750	8.7974e-02
11.500	23.000	7.8419e-02
11.500	23.250	7.5402e-02
11.500	23.500	7.3965e-02
11.500	23.750	7.3148e-02
11.500	24.000	7.2787e-02
11.750	17.000	1.4148e-04
11.750	17.250	1.6033e-04
11.750	17.500	2.0008e-04
11.750	17.750	2.7885e-04
11.750	18.000	4.4058e-04
11.750	18.250	7.6601e-04
11.750	18.500	1.4393e-03
11.750	18.750	2.8536e-03
11.750	19.000	5.4089e-03
11.750	19.250	8.9271e-03
11.750	19.500	1.2786e-02
11.750	19.750	1.7232e-02
11.750	20.000	2.2850e-02
11.750	20.250	2.9914e-02
11.750	20.500	3.8554e-02
11.750	20.750	4.9265e-02
11.750	21.000	6.3532e-02
11.750	21.250	8.3826e-02
11.750	21.500	1.1291e-01
11.750	21.750	1.4631e-01
11.750	22.000	1.6605e-01
11.750	22.250	1.6491e-01
11.750	22.500	1.3470e-01
11.750	22.750	1.0652e-01
11.750	23.000	8.8261e-02
11.750	23.250	7.8502e-02
11.750	23.500	7.5440e-02
11.750	23.750	7.3981e-02
11.750	24.000	7.3152e-02
12.000	17.000	1.3778e-04
12.000	17.250	1.5210e-04
12.000	17.500	1.8263e-04
12.000	17.750	2.4099e-04
12.000	18.000	3.4675e-04
12.000	18.250	5.3490e-04
12.000	18.500	8.6831e-04
12.000	18.750	1.5576e-03
12.000	19.000	3.0916e-03
12.000	19.250	5.9384e-03
12.000	19.500	9.8261e-03
12.000	19.750	1.4205e-02
12.000	20.000	1.9608e-02
12.000	20.250	2.6578e-02
12.000	20.500	3.5105e-02
12.000	20.750	4.5266e-02
12.000	21.000	5.8210e-02
12.000	21.250	7.5664e-02
12.000	21.500	9.9241e-02
12.000	21.750	1.3256e-01
12.000	22.000	1.6752e-01
12.000	22.250	1.8163e-01
12.000	22.500	1.6961e-01
12.000	22.750	1.3557e-01
12.000	23.000	1.0679e-01
12.000	23.250	8.8522e-02
12.000	23.500	7.8602e-02
12.000	23.750	7.5482e-02
12.000	24.000	7.3997e-02
12.250	17.000	1.3778e-04
12.250	17.250	1.4675e-04
12.250	17.500	1.6856e-04
12.250	17.750	2.1358e-04
12.250	18.000	2.9062e-04
12.250	18.250	4.1975e-04
12.250	18.500	6.2280e-04
12.250	18.750	9.6099e-04
12.250	19.000	1.6917e-03
12.250	19.250	3.4091e-03
12.250	19.500	6.6209e-03
12.250	19.750	1.0965e-02
12.250	20.000	1.6099e-02
12.250	20.250	2.2742e-02
12.250	20.500	3.1217e-02
12.250	20.750	4.1459e-02
12.250	21.000	5.4161e-02
12.250	21.250	7.0135e-02
12.250	21.500	9.0380e-02
12.250	21.750	1.1814e-01
12.250	22.000	1.5545e-01
12.250	22.250	1.8972e-01
12.250	22.500	1.9627e-01
12.250	22.750	1.7342e-01
12.250	23.000	1.3601e-01
12.250	23.250	1.0688e-01
12.250	23.500	8.8749e-02
12.250	23.750	7.8684e-02
12.250	24.000	7.5522e-02
12.500	17.000	1.3300e-04
12.500	17.250	1.4230e-04
12.500	17.500	1.5819e-04
12.500	17.750	1.9029e-04
12.500	18.000	2.4815e-04
12.500	18.250	3.4255e-04
12.500	18.500	4.9128e-04
12.500	18.750	7.1004e-04
12.500	19.000	1.0716e-03
12.500	19.250	1.8876e-03
12.500	19.500	3.8714e-03
12.500	19.750	7.5222e-03
12.500	20.000	1.2499e-02
12.500	20.250	1.8625e-02
12.500	20.500	2.6701e-02
12.500	20.750	3.7223e-02
12.500	21.000	5.0160e-02
12.500	21.250	6.5584e-02
12.500	21.500	8.4718e-02
12.500	21.750	1.0832e-01
12.500	22.000	1.4083e-01
12.500	22.250	1.8113e-01
12.500	22.500	2.1062e-01
12.500	22.750	2.0951e-01
12.500	23.000	1.7637e-01
12.500	23.250	1.3643e-01
12.500	23.500	1.0686e-01
12.500	23.750	8.8908e-02
12.500	24.000	7.8763e-02
12.750	17.000	1.2741e-04
12.750	17.250	1.3449e-04
12.750	17.500	1.4757e-04
12.750	17.750	1.7267e-04
12.750	18.000	2.1473e-04
12.750	18.250	2.8412e-04
12.750	18.500	3.9654e-04
12.750	18.750	5.6584e-04
12.750	19.000	8.0889e-04
12.750	19.250	1.2258e-03
12.750	19.500	2.1890e-03
12.750	19.750	4.5097e-03
12.750	20.000	8.6621e-03
12.750	20.250	1.4409e-02
12.750	20.500	2.1862e-02
12.750	20.750	3.1861e-02
12.750	21.000	4.4945e-02
12.750	21.250	6.1311e-02
12.750	21.500	7.9840e-02
12.750	21.750	1.0230e-01
12.750	22.000	1.3072e-01
12.750	22.250	1.6649e-01
12.750	22.500	2.1003e-01
12.750	22.750	2.3031e-01
12.750	23.000	2.2064e-01
12.750	23.250	1.7886e-01
12.750	23.500	1.3624e-01
12.750	23.750	1.0670e-01
12.750	24.000	8.8978e-02
13.000	17.000	1.2091e-04
13.000	17.250	1.2543e-04
13.000	17.500	1.3572e-04
13.000	17.750	1.5350e-04
13.000	18.000	1.8560e-04
13.000	18.250	2.3901e-04
13.000	18.500	3.2601e-04
13.000	18.750	4.5959e-04
13.000	19.000	6.5523e-04
13.000	19.250	9.4107e-04
13.000	19.500	1.4390e-03
13.000	19.750	2.5970e-03
13.000	20.000	5.2044e-03
13.000	20.250	9.9416e-03
13.000	20.500	1.6781e-02
13.000	20.750	2.5772e-02
13.000	21.000	3.8076e-02
13.000	21.250	5.4807e-02
13.000	21.500	7.4029e-02
13.000	21.750	9.7362e-02
13.000	22.000	1.2366e-01
13.000	22.250	1.5379e-01
13.000	22.500	1.9181e-01
13.000	22.750	2.3717e-01
13.000	23.000	2.4893e-01
13.000	23.250	2.3031e-01
13.000	23.500	1.8017e-01
13.000	23.750	1.3571e-01
13.000	24.000	1.0637e-01
13.250	17.000	1.1350e-04
13.250	17.250	1.1720e-04
13.250	17.500	1.2354e-04
13.250	17.750	1.3695e-04
13.250	18.000	1.6099e-04
13.250	18.250	2.0313e-04
13.250	18.500	2.7267e-04
13.250	18.750	3.8239e-04
13.250	19.000	5.4461e-04
13.250	19.250	7.8016e-04
13.250	19.500	1.1319e-03
13.250	19.750	1.7617e-03
13.250	20.000	3.0960e-03
13.250	20.250	5.9627e-03
13.250	20.500	1.1183e-02
13.250	20.750	1.8885e-02
13.250	21.000	3.0188e-02
13.250	21.250	4.5007e-02
13.250	21.500	6.4187e-02
13.250	21.750	8.5307e-02
13.250	22.000	1.1275e-01
13.250	22.250	1.4013e-01
13.250	22.500	1.7722e-01
13.250	22.750	2.1749e-01
13.250	23.000	2.6108e-01
13.250	23.250	2.6839e-01
13.250	23.500	2.3779e-01
13.250	23.750	1.8086e-01
13.250	24.000	1.3488e-01
13.500	17.000	1.0626e-04
13.500	17.250	1.0733e-04
13.500	17.500	1.1300e-04
13.500	17.750	1.2247e-04
13.500	18.000	1.4099e-04
13.500	18.250	1.7432e-04
13.500	18.500	2.3210e-04
13.500	18.750	3.2617e-04
13.500	19.000	4.6889e-04
13.500	19.250	6.7556e-04
13.500	19.500	9.7934e-04
13.500	19.750	1.4519e-03
13.500	20.000	2.2635e-03
13.500	20.250	3.8499e-03
13.500	20.500	6.9945e-03
13.500	20.750	1.2525e-02
13.500	21.000	2.0897e-02
13.500	21.250	3.3240e-02
13.500	21.500	5.0239e-02
13.500	21.750	7.0018e-02
13.500	22.000	9.4583e-02
13.500	22.250	1.3023e-01
13.500	22.500	1.6488e-01
13.500	22.750	2.0532e-01
13.500	23.000	2.5366e-01
13.500	23.250	2.9383e-01
13.500	23.500	2.8982e-01
13.500	23.750	2.4491e-01
13.500	24.000	1.8113e-01
13.750	17.000	1.0000e-04
13.750	17.250	9.8848e-05
13.750	17.500	1.0321e-04
13.750	17.750	1.1012e-04
13.750	18.000	1.2444e-04
13.750	18.250	1.5185e-04
13.750	18.500	2.0025e-04
13.750	18.750	2.8230e-04
13.750	19.000	4.1342e-04
13.750	19.250	6.0881e-04
13.750	19.500	8.9284e-04
13.750	19.750	1.3178e-03
13.750	20.000	1.9869e-03
13.750	20.250	3.1007e-03
13.750	20.500	5.0912e-03
13.750	20.750	8.6696e-03
13.750	21.000	1.4678e-02
13.750	21.250	2.3672e-02
13.750	21.500	3.6417e-02
13.750	21.750	5.3662e-02
13.750	22.000	7.6436e-02
13.750	22.250	1.0715e-01
13.750	22.500	1.4653e-01
13.750	22.750	1.9322e-01
13.750	23.000	2.4885e-01
13.750	23.250	3.0272e-01
13.750	23.500	3.3246e-01
13.750	23.750	3.1193e-01
13.750	24.000	2.5065e-01
14.000	17.000	9.3827e-05
14.000	17.250	9.2263e-05
14.000	17.500	9.2675e-05
14.000	17.750	9.9506e-05
14.000	18.000	1.1095e-04
14.000	18.250	1.3374e-04
14.000	18.500	1.7572e-04
14.000	18.750	2.4831e-04
14.000	19.000	3.6807e-04
14.000	19.250	5.5646e-04
14.000	19.500	8.3663e-04
14.000	19.750	1.2457e-03
14.000	20.000	1.8623e-03
14.000	20.250	2.8305e-03
14.000	20.500	4.4067e-03
14.000	20.750	7.0205e-03
14.000	21.000	1.1400e-02
14.000	21.250	1.8438e-02
14.000	21.500	2.8357e-02
14.000	21.750	4.2471e-02
14.000	22.000	6.1722e-02
14.000	22.250	8.8422e-02
14.000	22.500	1.2665e-01
14.000	22.750	1.7794e-01
14.000	23.000	2.3899e-01
14.000	23.250	3.1445e-01
14.000	23.500	3.6936e-01
14.000	23.750	3.7932e-01
14.000	24.000	3.3483e-01
