InwC 6500.00A  relative to Inci 1215.00A scaled to 1215A.
Hden   Phi(H)  Eq_Width (A)
 7.000	17.000	2.1711e-02
 7.000	17.250	2.8883e-02
 7.000	17.500	2.9829e-02
 7.000	17.750	3.0409e-02
 7.000	18.000	3.0424e-02
 7.000	18.250	3.0444e-02
 7.000	18.500	3.0448e-02
 7.000	18.750	3.0451e-02
 7.000	19.000	3.0455e-02
 7.000	19.250	3.0458e-02
 7.000	19.500	3.0459e-02
 7.000	19.750	3.0459e-02
 7.000	20.000	3.0459e-02
 7.000	20.250	3.0459e-02
 7.000	20.500	3.0460e-02
 7.000	20.750	3.0460e-02
 7.000	21.000	3.0460e-02
 7.000	21.250	3.0460e-02
 7.000	21.500	3.0460e-02
 7.000	21.750	3.0460e-02
 7.000	22.000	3.0460e-02
 7.000	22.250	3.0460e-02
 7.000	22.500	3.0460e-02
 7.000	22.750	3.0464e-02
 7.000	23.000	3.0461e-02
 7.000	23.250	3.0461e-02
 7.000	23.500	3.0461e-02
 7.000	23.750	3.0461e-02
 7.000	24.000	3.0462e-02
 7.250	17.000	1.6336e-02
 7.250	17.250	2.1999e-02
 7.250	17.500	2.8887e-02
 7.250	17.750	2.9836e-02
 7.250	18.000	3.0409e-02
 7.250	18.250	3.0424e-02
 7.250	18.500	3.0444e-02
 7.250	18.750	3.0447e-02
 7.250	19.000	3.0452e-02
 7.250	19.250	3.0455e-02
 7.250	19.500	3.0458e-02
 7.250	19.750	3.0459e-02
 7.250	20.000	3.0459e-02
 7.250	20.250	3.0459e-02
 7.250	20.500	3.0460e-02
 7.250	20.750	3.0460e-02
 7.250	21.000	3.0460e-02
 7.250	21.250	3.0460e-02
 7.250	21.500	3.0460e-02
 7.250	21.750	3.0460e-02
 7.250	22.000	3.0460e-02
 7.250	22.250	3.0460e-02
 7.250	22.500	3.0460e-02
 7.250	22.750	3.0460e-02
 7.250	23.000	3.0460e-02
 7.250	23.250	3.0460e-02
 7.250	23.500	3.0460e-02
 7.250	23.750	3.0460e-02
 7.250	24.000	3.0460e-02
 7.500	17.000	1.1625e-02
 7.500	17.250	1.6750e-02
 7.500	17.500	2.2263e-02
 7.500	17.750	2.8890e-02
 7.500	18.000	2.9842e-02
 7.500	18.250	3.0409e-02
 7.500	18.500	3.0424e-02
 7.500	18.750	3.0444e-02
 7.500	19.000	3.0447e-02
 7.500	19.250	3.0451e-02
 7.500	19.500	3.0455e-02
 7.500	19.750	3.0458e-02
 7.500	20.000	3.0459e-02
 7.500	20.250	3.0459e-02
 7.500	20.500	3.0459e-02
 7.500	20.750	3.0460e-02
 7.500	21.000	3.0460e-02
 7.500	21.250	3.0460e-02
 7.500	21.500	3.0460e-02
 7.500	21.750	3.0460e-02
 7.500	22.000	3.0460e-02
 7.500	22.250	3.0460e-02
 7.500	22.500	3.0460e-02
 7.500	22.750	3.0460e-02
 7.500	23.000	3.0460e-02
 7.500	23.250	3.0460e-02
 7.500	23.500	3.0460e-02
 7.500	23.750	3.0460e-02
 7.500	24.000	3.0460e-02
 7.750	17.000	7.8216e-03
 7.750	17.250	1.1946e-02
 7.750	17.500	1.7206e-02
 7.750	17.750	2.2556e-02
 7.750	18.000	2.8893e-02
 7.750	18.250	2.9849e-02
 7.750	18.500	3.0409e-02
 7.750	18.750	3.0424e-02
 7.750	19.000	3.0444e-02
 7.750	19.250	3.0447e-02
 7.750	19.500	3.0451e-02
 7.750	19.750	3.0455e-02
 7.750	20.000	3.0458e-02
 7.750	20.250	3.0459e-02
 7.750	20.500	3.0459e-02
 7.750	20.750	3.0459e-02
 7.750	21.000	3.0459e-02
 7.750	21.250	3.0460e-02
 7.750	21.500	3.0460e-02
 7.750	21.750	3.0460e-02
 7.750	22.000	3.0460e-02
 7.750	22.250	3.0460e-02
 7.750	22.500	3.0460e-02
 7.750	22.750	3.0460e-02
 7.750	23.000	3.0460e-02
 7.750	23.250	3.0460e-02
 7.750	23.500	3.0460e-02
 7.750	23.750	3.0460e-02
 7.750	24.000	3.0460e-02
 8.000	17.000	5.2649e-03
 8.000	17.250	7.9806e-03
 8.000	17.500	1.2244e-02
 8.000	17.750	1.7625e-02
 8.000	18.000	2.2819e-02
 8.000	18.250	2.8890e-02
 8.000	18.500	2.9850e-02
 8.000	18.750	3.0409e-02
 8.000	19.000	3.0424e-02
 8.000	19.250	3.0444e-02
 8.000	19.500	3.0447e-02
 8.000	19.750	3.0452e-02
 8.000	20.000	3.0455e-02
 8.000	20.250	3.0458e-02
 8.000	20.500	3.0459e-02
 8.000	20.750	3.0459e-02
 8.000	21.000	3.0459e-02
 8.000	21.250	3.0459e-02
 8.000	21.500	3.0460e-02
 8.000	21.750	3.0460e-02
 8.000	22.000	3.0460e-02
 8.000	22.250	3.0460e-02
 8.000	22.500	3.0460e-02
 8.000	22.750	3.0460e-02
 8.000	23.000	3.0460e-02
 8.000	23.250	3.0460e-02
 8.000	23.500	3.0460e-02
 8.000	23.750	3.0460e-02
 8.000	24.000	3.0460e-02
 8.250	17.000	3.6497e-03
 8.250	17.250	5.4044e-03
 8.250	17.500	8.2529e-03
 8.250	17.750	1.2768e-02
 8.250	18.000	1.8385e-02
 8.250	18.250	2.3339e-02
 8.250	18.500	2.8889e-02
 8.250	18.750	2.9857e-02
 8.250	19.000	3.0410e-02
 8.250	19.250	3.0424e-02
 8.250	19.500	3.0444e-02
 8.250	19.750	3.0447e-02
 8.250	20.000	3.0452e-02
 8.250	20.250	3.0455e-02
 8.250	20.500	3.0458e-02
 8.250	20.750	3.0459e-02
 8.250	21.000	3.0459e-02
 8.250	21.250	3.0459e-02
 8.250	21.500	3.0460e-02
 8.250	21.750	3.0460e-02
 8.250	22.000	3.0460e-02
 8.250	22.250	3.0460e-02
 8.250	22.500	3.0460e-02
 8.250	22.750	3.0460e-02
 8.250	23.000	3.0460e-02
 8.250	23.250	3.0460e-02
 8.250	23.500	3.0460e-02
 8.250	23.750	3.0460e-02
 8.250	24.000	3.0460e-02
 8.500	17.000	2.5757e-03
 8.500	17.250	3.7509e-03
 8.500	17.500	5.6107e-03
 8.500	17.750	8.7049e-03
 8.500	18.000	1.3595e-02
 8.500	18.250	1.9475e-02
 8.500	18.500	2.4016e-02
 8.500	18.750	2.8882e-02
 8.500	19.000	2.9863e-02
 8.500	19.250	3.0410e-02
 8.500	19.500	3.0424e-02
 8.500	19.750	3.0444e-02
 8.500	20.000	3.0447e-02
 8.500	20.250	3.0451e-02
 8.500	20.500	3.0455e-02
 8.500	20.750	3.0458e-02
 8.500	21.000	3.0459e-02
 8.500	21.250	3.0459e-02
 8.500	21.500	3.0459e-02
 8.500	21.750	3.0460e-02
 8.500	22.000	3.0460e-02
 8.500	22.250	3.0460e-02
 8.500	22.500	3.0460e-02
 8.500	22.750	3.0460e-02
 8.500	23.000	3.0460e-02
 8.500	23.250	3.0460e-02
 8.500	23.500	3.0460e-02
 8.500	23.750	3.0460e-02
 8.500	24.000	3.0460e-02
 8.750	17.000	1.8347e-03
 8.750	17.250	2.6510e-03
 8.750	17.500	3.9114e-03
 8.750	17.750	5.9562e-03
 8.750	18.000	9.4733e-03
 8.750	18.250	1.4929e-02
 8.750	18.500	2.0544e-02
 8.750	18.750	2.4705e-02
 8.750	19.000	2.8865e-02
 8.750	19.250	2.9869e-02
 8.750	19.500	3.0410e-02
 8.750	19.750	3.0424e-02
 8.750	20.000	3.0444e-02
 8.750	20.250	3.0447e-02
 8.750	20.500	3.0451e-02
 8.750	20.750	3.0455e-02
 8.750	21.000	3.0458e-02
 8.750	21.250	3.0459e-02
 8.750	21.500	3.0459e-02
 8.750	21.750	3.0459e-02
 8.750	22.000	3.0460e-02
 8.750	22.250	3.0460e-02
 8.750	22.500	3.0460e-02
 8.750	22.750	3.0460e-02
 8.750	23.000	3.0460e-02
 8.750	23.250	3.0460e-02
 8.750	23.500	3.0460e-02
 8.750	23.750	3.0460e-02
 8.750	24.000	3.0460e-02
 9.000	17.000	1.3123e-03
 9.000	17.250	1.8894e-03
 9.000	17.500	2.7714e-03
 9.000	17.750	4.1827e-03
 9.000	18.000	6.6138e-03
 9.000	18.250	1.0733e-02
 9.000	18.500	1.6580e-02
 9.000	18.750	2.1910e-02
 9.000	19.000	2.5758e-02
 9.000	19.250	2.8822e-02
 9.000	19.500	2.9872e-02
 9.000	19.750	3.0410e-02
 9.000	20.000	3.0424e-02
 9.000	20.250	3.0444e-02
 9.000	20.500	3.0447e-02
 9.000	20.750	3.0451e-02
 9.000	21.000	3.0455e-02
 9.000	21.250	3.0458e-02
 9.000	21.500	3.0459e-02
 9.000	21.750	3.0459e-02
 9.000	22.000	3.0459e-02
 9.000	22.250	3.0459e-02
 9.000	22.500	3.0459e-02
 9.000	22.750	3.0460e-02
 9.000	23.000	3.0460e-02
 9.000	23.250	3.0460e-02
 9.000	23.500	3.0460e-02
 9.000	23.750	3.0460e-02
 9.000	24.000	3.0460e-02
 9.250	17.000	9.4082e-04
 9.250	17.250	1.3519e-03
 9.250	17.500	1.9806e-03
 9.250	17.750	2.9875e-03
 9.250	18.000	4.7081e-03
 9.250	18.250	7.6832e-03
 9.250	18.500	1.2307e-02
 9.250	18.750	1.8097e-02
 9.250	19.000	2.2830e-02
 9.250	19.250	2.6780e-02
 9.250	19.500	2.8767e-02
 9.250	19.750	2.9868e-02
 9.250	20.000	3.0409e-02
 9.250	20.250	3.0424e-02
 9.250	20.500	3.0444e-02
 9.250	20.750	3.0447e-02
 9.250	21.000	3.0451e-02
 9.250	21.250	3.0455e-02
 9.250	21.500	3.0455e-02
 9.250	21.750	3.0444e-02
 9.250	22.000	3.0443e-02
 9.250	22.250	3.0445e-02
 9.250	22.500	3.0459e-02
 9.250	22.750	3.0459e-02
 9.250	23.000	3.0459e-02
 9.250	23.250	3.0459e-02
 9.250	23.500	3.0460e-02
 9.250	23.750	3.0460e-02
 9.250	24.000	3.0460e-02
 9.500	17.000	6.7490e-04
 9.500	17.250	9.6938e-04
 9.500	17.500	1.4223e-03
 9.500	17.750	2.1555e-03
 9.500	18.000	3.4231e-03
 9.500	18.250	5.6207e-03
 9.500	18.500	9.0001e-03
 9.500	18.750	1.3840e-02
 9.500	19.000	1.9665e-02
 9.500	19.250	2.3658e-02
 9.500	19.500	2.7474e-02
 9.500	19.750	2.8694e-02
 9.500	20.000	2.9853e-02
 9.500	20.250	3.0408e-02
 9.500	20.500	3.0424e-02
 9.500	20.750	3.0443e-02
 9.500	21.000	3.0443e-02
 9.500	21.250	3.0439e-02
 9.500	21.500	3.0439e-02
 9.500	21.750	3.0440e-02
 9.500	22.000	3.0434e-02
 9.500	22.250	3.0430e-02
 9.500	22.500	3.0432e-02
 9.500	22.750	3.0432e-02
 9.500	23.000	3.0432e-02
 9.500	23.250	3.0431e-02
 9.500	23.500	3.0441e-02
 9.500	23.750	3.0441e-02
 9.500	24.000	3.0441e-02
 9.750	17.000	4.8461e-04
 9.750	17.250	6.9605e-04
 9.750	17.500	1.0227e-03
 9.750	17.750	1.5614e-03
 9.750	18.000	2.5157e-03
 9.750	18.250	4.1665e-03
 9.750	18.500	6.6690e-03
 9.750	18.750	1.0272e-02
 9.750	19.000	1.5179e-02
 9.750	19.250	2.0585e-02
 9.750	19.500	2.4778e-02
 9.750	19.750	2.7816e-02
 9.750	20.000	2.8619e-02
 9.750	20.250	2.9809e-02
 9.750	20.500	3.0404e-02
 9.750	20.750	3.0423e-02
 9.750	21.000	3.0443e-02
 9.750	21.250	3.0446e-02
 9.750	21.500	3.0446e-02
 9.750	21.750	3.0440e-02
 9.750	22.000	3.0441e-02
 9.750	22.250	3.0438e-02
 9.750	22.500	3.0433e-02
 9.750	22.750	3.0430e-02
 9.750	23.000	3.0431e-02
 9.750	23.250	3.0432e-02
 9.750	23.500	3.0432e-02
 9.750	23.750	3.0432e-02
 9.750	24.000	3.0432e-02
10.000	17.000	3.4840e-04
10.000	17.250	5.0058e-04
10.000	17.500	7.3695e-04
10.000	17.750	1.1354e-03
10.000	18.000	1.8555e-03
10.000	18.250	3.1002e-03
10.000	18.500	4.9377e-03
10.000	18.750	7.6089e-03
10.000	19.000	1.1321e-02
10.000	19.250	1.6308e-02
10.000	19.500	2.1283e-02
10.000	19.750	2.5627e-02
10.000	20.000	2.7683e-02
10.000	20.250	2.8507e-02
10.000	20.500	2.9760e-02
10.000	20.750	3.0393e-02
10.000	21.000	3.0422e-02
10.000	21.250	3.0443e-02
10.000	21.500	3.0447e-02
10.000	21.750	3.0449e-02
10.000	22.000	3.0446e-02
10.000	22.250	3.0442e-02
10.000	22.500	3.0440e-02
10.000	22.750	3.0437e-02
10.000	23.000	3.0433e-02
10.000	23.250	3.0432e-02
10.000	23.500	3.0430e-02
10.000	23.750	3.0431e-02
10.000	24.000	3.0431e-02
10.250	17.000	2.5144e-04
10.250	17.250	3.6058e-04
10.250	17.500	5.3243e-04
10.250	17.750	8.2881e-04
10.250	18.000	1.3692e-03
10.250	18.250	2.2863e-03
10.250	18.500	3.6656e-03
10.250	18.750	5.6384e-03
10.250	19.000	8.3788e-03
10.250	19.250	1.2233e-02
10.250	19.500	1.6959e-02
10.250	19.750	2.1912e-02
10.250	20.000	2.6400e-02
10.250	20.250	2.7554e-02
10.250	20.500	2.8441e-02
10.250	20.750	2.9735e-02
10.250	21.000	3.0376e-02
10.250	21.250	3.0419e-02
10.250	21.500	3.0442e-02
10.250	21.750	3.0447e-02
10.250	22.000	3.0450e-02
10.250	22.250	3.0452e-02
10.250	22.500	3.0442e-02
10.250	22.750	3.0442e-02
10.250	23.000	3.0440e-02
10.250	23.250	3.0437e-02
10.250	23.500	3.0435e-02
10.250	23.750	3.0434e-02
10.250	24.000	3.0433e-02
10.500	17.000	1.8296e-04
10.500	17.250	2.6115e-04
10.500	17.500	3.8675e-04
10.500	17.750	6.0757e-04
10.500	18.000	1.0102e-03
10.500	18.250	1.6976e-03
10.500	18.500	2.6941e-03
10.500	18.750	4.1426e-03
10.500	19.000	6.1512e-03
10.500	19.250	8.9749e-03
10.500	19.500	1.2789e-02
10.500	19.750	1.7470e-02
10.500	20.000	2.2642e-02
10.500	20.250	2.6719e-02
10.500	20.500	2.7418e-02
10.500	20.750	2.8392e-02
10.500	21.000	2.9726e-02
10.500	21.250	3.0351e-02
10.500	21.500	3.0412e-02
10.500	21.750	3.0440e-02
10.500	22.000	3.0446e-02
10.500	22.250	3.0450e-02
10.500	22.500	3.0454e-02
10.500	22.750	3.0445e-02
10.500	23.000	3.0443e-02
10.500	23.250	3.0442e-02
10.500	23.500	3.0440e-02
10.500	23.750	3.0439e-02
10.500	24.000	3.0438e-02
10.750	17.000	1.3407e-04
10.750	17.250	1.9021e-04
10.750	17.500	2.8198e-04
10.750	17.750	4.4609e-04
10.750	18.000	7.4477e-04
10.750	18.250	1.2409e-03
10.750	18.500	1.9632e-03
10.750	18.750	3.0053e-03
10.750	19.000	4.4785e-03
10.750	19.250	6.5199e-03
10.750	19.500	9.3737e-03
10.750	19.750	1.3226e-02
10.750	20.000	1.8015e-02
10.750	20.250	2.3370e-02
10.750	20.500	2.6615e-02
10.750	20.750	2.7349e-02
10.750	21.000	2.8323e-02
10.750	21.250	2.9735e-02
10.750	21.500	3.0321e-02
10.750	21.750	3.0400e-02
10.750	22.000	3.0435e-02
10.750	22.250	3.0445e-02
10.750	22.500	3.0450e-02
10.750	22.750	3.0454e-02
10.750	23.000	3.0452e-02
10.750	23.250	3.0443e-02
10.750	23.500	3.0443e-02
10.750	23.750	3.0442e-02
10.750	24.000	3.0441e-02
11.000	17.000	9.9177e-05
11.000	17.250	1.3934e-04
11.000	17.500	2.0617e-04
11.000	17.750	3.2741e-04
11.000	18.000	5.4519e-04
11.000	18.250	8.9934e-04
11.000	18.500	1.4333e-03
11.000	18.750	2.1874e-03
11.000	19.000	3.2566e-03
11.000	19.250	4.7348e-03
11.000	19.500	6.7802e-03
11.000	19.750	9.6827e-03
11.000	20.000	1.3629e-02
11.000	20.250	1.8527e-02
11.000	20.500	2.4065e-02
11.000	20.750	2.6510e-02
11.000	21.000	2.7312e-02
11.000	21.250	2.8353e-02
11.000	21.500	2.9843e-02
11.000	21.750	3.0290e-02
11.000	22.000	3.0382e-02
11.000	22.250	3.0428e-02
11.000	22.500	3.0443e-02
11.000	22.750	3.0449e-02
11.000	23.000	3.0454e-02
11.000	23.250	3.0456e-02
11.000	23.500	3.0446e-02
11.000	23.750	3.0443e-02
11.000	24.000	3.0443e-02
11.250	17.000	7.4321e-05
11.250	17.250	1.0272e-04
11.250	17.500	1.5086e-04
11.250	17.750	2.3893e-04
11.250	18.000	3.9547e-04
11.250	18.250	6.4551e-04
11.250	18.500	1.0142e-03
11.250	18.750	1.5616e-03
11.250	19.000	2.3232e-03
11.250	19.250	3.3785e-03
11.250	19.500	4.8722e-03
11.250	19.750	6.9686e-03
11.250	20.000	9.9354e-03
11.250	20.250	1.3979e-02
11.250	20.500	1.9025e-02
11.250	20.750	2.4568e-02
11.250	21.000	2.6424e-02
11.250	21.250	2.7312e-02
11.250	21.500	2.8494e-02
11.250	21.750	2.9944e-02
11.250	22.000	3.0251e-02
11.250	22.250	3.0358e-02
11.250	22.500	3.0413e-02
11.250	22.750	3.0440e-02
11.250	23.000	3.0447e-02
11.250	23.250	3.0453e-02
11.250	23.500	3.0457e-02
11.250	23.750	3.0453e-02
11.250	24.000	3.0444e-02
11.500	17.000	5.6296e-05
11.500	17.250	7.6461e-05
11.500	17.500	1.1095e-04
11.500	17.750	1.7342e-04
11.500	18.000	2.8346e-04
11.500	18.250	4.5959e-04
11.500	18.500	7.1918e-04
11.500	18.750	1.1083e-03
11.500	19.000	1.6464e-03
11.500	19.250	2.4052e-03
11.500	19.500	3.4816e-03
11.500	19.750	5.0068e-03
11.500	20.000	7.1452e-03
11.500	20.250	1.0177e-02
11.500	20.500	1.4321e-02
11.500	20.750	1.9491e-02
11.500	21.000	2.4818e-02
11.500	21.250	2.6339e-02
11.500	21.500	2.7415e-02
11.500	21.750	2.8746e-02
11.500	22.000	2.9981e-02
11.500	22.250	3.0204e-02
11.500	22.500	3.0330e-02
11.500	22.750	3.0398e-02
11.500	23.000	3.0435e-02
11.500	23.250	3.0445e-02
11.500	23.500	3.0452e-02
11.500	23.750	3.0457e-02
11.500	24.000	3.0457e-02
11.750	17.000	4.4033e-05
11.750	17.250	5.7860e-05
11.750	17.500	8.1893e-05
11.750	17.750	1.2568e-04
11.750	18.000	2.0181e-04
11.750	18.250	3.2362e-04
11.750	18.500	5.0453e-04
11.750	18.750	7.6979e-04
11.750	19.000	1.1547e-03
11.750	19.250	1.6985e-03
11.750	19.500	2.4707e-03
11.750	19.750	3.5661e-03
11.750	20.000	5.0954e-03
11.750	20.250	7.2702e-03
11.750	20.500	1.0388e-02
11.750	20.750	1.4614e-02
11.750	21.000	1.9877e-02
11.750	21.250	2.4580e-02
11.750	21.500	2.6322e-02
11.750	21.750	2.7553e-02
11.750	22.000	2.9045e-02
11.750	22.250	2.9930e-02
11.750	22.500	3.0159e-02
11.750	22.750	3.0296e-02
11.750	23.000	3.0377e-02
11.750	23.250	3.0427e-02
11.750	23.500	3.0441e-02
11.750	23.750	3.0450e-02
11.750	24.000	3.0456e-02
12.000	17.000	3.5556e-05
12.000	17.250	4.5103e-05
12.000	17.500	6.1481e-05
12.000	17.750	9.1029e-05
12.000	18.000	1.4230e-04
12.000	18.250	2.2486e-04
12.000	18.500	3.5086e-04
12.000	18.750	5.3712e-04
12.000	19.000	8.0774e-04
12.000	19.250	1.1960e-03
12.000	19.500	1.7514e-03
12.000	19.750	2.5278e-03
12.000	20.000	3.6236e-03
12.000	20.250	5.1733e-03
12.000	20.500	7.3817e-03
12.000	20.750	1.0540e-02
12.000	21.000	1.4830e-02
12.000	21.250	2.0110e-02
12.000	21.500	2.4344e-02
12.000	21.750	2.6263e-02
12.000	22.000	2.7728e-02
12.000	22.250	2.9257e-02
12.000	22.500	2.9867e-02
12.000	22.750	3.0110e-02
12.000	23.000	3.0253e-02
12.000	23.250	3.0350e-02
12.000	23.500	3.0417e-02
12.000	23.750	3.0435e-02
12.000	24.000	3.0447e-02
12.250	17.000	2.7078e-05
12.250	17.250	3.6461e-05
12.250	17.500	4.7572e-05
12.250	17.750	6.7078e-05
12.250	18.000	1.0091e-04
12.250	18.250	1.5671e-04
12.250	18.500	2.4370e-04
12.250	18.750	3.7366e-04
12.250	19.000	5.6255e-04
12.250	19.250	8.3761e-04
12.250	19.500	1.2330e-03
12.250	19.750	1.7852e-03
12.250	20.000	2.5753e-03
12.250	20.250	3.6698e-03
12.250	20.500	5.2459e-03
12.250	20.750	7.4723e-03
12.250	21.000	1.0621e-02
12.250	21.250	1.4901e-02
12.250	21.500	2.0013e-02
12.250	21.750	2.3969e-02
12.250	22.000	2.6178e-02
12.250	22.250	2.7916e-02
12.250	22.500	2.9292e-02
12.250	22.750	2.9782e-02
12.250	23.000	3.0040e-02
12.250	23.250	3.0197e-02
12.250	23.500	3.0313e-02
12.250	23.750	3.0404e-02
12.250	24.000	3.0428e-02
12.500	17.000	1.4321e-05
12.500	17.250	2.8560e-05
12.500	17.500	3.8025e-05
12.500	17.750	5.1029e-05
12.500	18.000	7.3169e-05
12.500	18.250	1.0996e-04
12.500	18.500	1.6897e-04
12.500	18.750	2.5992e-04
12.500	19.000	3.9366e-04
12.500	19.250	5.8765e-04
12.500	19.500	8.6543e-04
12.500	19.750	1.2589e-03
12.500	20.000	1.8179e-03
12.500	20.250	2.6088e-03
12.500	20.500	3.7146e-03
12.500	20.750	5.2772e-03
12.500	21.000	7.4967e-03
12.500	21.250	1.0589e-02
12.500	21.500	1.4700e-02
12.500	21.750	1.9764e-02
12.500	22.000	2.3458e-02
12.500	22.250	2.6062e-02
12.500	22.500	2.7968e-02
12.500	22.750	2.9187e-02
12.500	23.000	2.9656e-02
12.500	23.250	2.9942e-02
12.500	23.500	3.0117e-02
12.500	23.750	3.0260e-02
12.500	24.000	3.0386e-02
12.750	17.000	7.4074e-06
12.750	17.250	1.6132e-05
12.750	17.500	3.0535e-05
12.750	17.750	3.9835e-05
12.750	18.000	5.4486e-05
12.750	18.250	7.8848e-05
12.750	18.500	1.1860e-04
12.750	18.750	1.8115e-04
12.750	19.000	2.7391e-04
12.750	19.250	4.0996e-04
12.750	19.500	6.0560e-04
12.750	19.750	8.8362e-04
12.750	20.000	1.2788e-03
12.750	20.250	1.8372e-03
12.750	20.500	2.6288e-03
12.750	20.750	3.7376e-03
12.750	21.000	5.2748e-03
12.750	21.250	7.4485e-03
12.750	21.500	1.0396e-02
12.750	21.750	1.4391e-02
12.750	22.000	1.9226e-02
12.750	22.250	2.2835e-02
12.750	22.500	2.5841e-02
12.750	22.750	2.7749e-02
12.750	23.000	2.8940e-02
12.750	23.250	2.9469e-02
12.750	23.500	2.9795e-02
12.750	23.750	2.9998e-02
12.750	24.000	3.0182e-02
13.000	17.000	1.8107e-06
13.000	17.250	4.0329e-06
13.000	17.500	1.2593e-05
13.000	17.750	2.6502e-05
13.000	18.000	3.9259e-05
13.000	18.250	5.8189e-05
13.000	18.500	8.4856e-05
13.000	18.750	1.2650e-04
13.000	19.000	1.9029e-04
13.000	19.250	2.8510e-04
13.000	19.500	4.2321e-04
13.000	19.750	6.1745e-04
13.000	20.000	8.9638e-04
13.000	20.250	1.2928e-03
13.000	20.500	1.8492e-03
13.000	20.750	2.6386e-03
13.000	21.000	3.7349e-03
13.000	21.250	5.2530e-03
13.000	21.500	7.3105e-03
13.000	21.750	1.0118e-02
13.000	22.000	1.3821e-02
13.000	22.250	1.8361e-02
13.000	22.500	2.2033e-02
13.000	22.750	2.5157e-02
13.000	23.000	2.7218e-02
13.000	23.250	2.8541e-02
13.000	23.500	2.9180e-02
13.000	23.750	2.9570e-02
13.000	24.000	2.9813e-02
13.250	17.000	1.0700e-06
13.250	17.250	1.9753e-06
13.250	17.500	4.6914e-06
13.250	17.750	1.1111e-05
13.250	18.000	2.4198e-05
13.250	18.250	3.8930e-05
13.250	18.500	6.1975e-05
13.250	18.750	8.9794e-05
13.250	19.000	1.3276e-04
13.250	19.250	1.9827e-04
13.250	19.500	2.9325e-04
13.250	19.750	4.3070e-04
13.250	20.000	6.2593e-04
13.250	20.250	9.0527e-04
13.250	20.500	1.3007e-03
13.250	20.750	1.8574e-03
13.250	21.000	2.6401e-03
13.250	21.250	3.7128e-03
13.250	21.500	5.1546e-03
13.250	21.750	7.0511e-03
13.250	22.000	9.5105e-03
13.250	22.250	1.2769e-02
13.250	22.500	1.7075e-02
13.250	22.750	2.0645e-02
13.250	23.000	2.3983e-02
13.250	23.250	2.6398e-02
13.250	23.500	2.7946e-02
13.250	23.750	2.8741e-02
13.250	24.000	2.9222e-02
13.500	17.000	1.0000e-07
13.500	17.250	1.1523e-06
13.500	17.500	2.5514e-06
13.500	17.750	5.7613e-06
13.500	18.000	1.3498e-05
13.500	18.250	2.7490e-05
13.500	18.500	4.2140e-05
13.500	18.750	6.5185e-05
13.500	19.000	9.3663e-05
13.500	19.250	1.3704e-04
13.500	19.500	2.0263e-04
13.500	19.750	2.9802e-04
13.500	20.000	4.3556e-04
13.500	20.250	6.3177e-04
13.500	20.500	9.1169e-04
13.500	20.750	1.3063e-03
13.500	21.000	1.8574e-03
13.500	21.250	2.6160e-03
13.500	21.500	3.6370e-03
13.500	21.750	4.9453e-03
13.500	22.000	6.4712e-03
13.500	22.250	8.4479e-03
13.500	22.500	1.1546e-02
13.500	22.750	1.5399e-02
13.500	23.000	1.9109e-02
13.500	23.250	2.2549e-02
13.500	23.500	2.5264e-02
13.500	23.750	2.7086e-02
13.500	24.000	2.8085e-02
13.750	17.000	1.0000e-07
13.750	17.250	1.0000e-07
13.750	17.500	1.4815e-06
13.750	17.750	3.0453e-06
13.750	18.000	7.2428e-06
13.750	18.250	1.6379e-05
13.750	18.500	2.9712e-05
13.750	18.750	4.5350e-05
13.750	19.000	6.7572e-05
13.750	19.250	9.6461e-05
13.750	19.500	1.4033e-04
13.750	19.750	2.0584e-04
13.750	20.000	3.0132e-04
13.750	20.250	4.3893e-04
13.750	20.500	6.3580e-04
13.750	20.750	9.1465e-04
13.750	21.000	1.3055e-03
13.750	21.250	1.8466e-03
13.750	21.500	2.5671e-03
13.750	21.750	3.4830e-03
13.750	22.000	4.4653e-03
13.750	22.250	5.4689e-03
13.750	22.500	7.0835e-03
13.750	22.750	1.0114e-02
13.750	23.000	1.3762e-02
13.750	23.250	1.7399e-02
13.750	23.500	2.0873e-02
13.750	23.750	2.3805e-02
13.750	24.000	2.5887e-02
14.000	17.000	1.0000e-07
14.000	17.250	1.0000e-07
14.000	17.500	9.0535e-07
14.000	17.750	1.8107e-06
14.000	18.000	3.7860e-06
14.000	18.250	8.4774e-06
14.000	18.500	1.7366e-05
14.000	18.750	3.1358e-05
14.000	19.000	4.9630e-05
14.000	19.250	6.9136e-05
14.000	19.500	9.8189e-05
14.000	19.750	1.4222e-04
14.000	20.000	2.0798e-04
14.000	20.250	3.0370e-04
14.000	20.500	4.4173e-04
14.000	20.750	6.3819e-04
14.000	21.000	9.1523e-04
14.000	21.250	1.3008e-03
14.000	21.500	1.8139e-03
14.000	21.750	2.4649e-03
14.000	22.000	3.1100e-03
14.000	22.250	3.6118e-03
14.000	22.500	4.3436e-03
14.000	22.750	6.0117e-03
14.000	23.000	8.8086e-03
14.000	23.250	1.2055e-02
14.000	23.500	1.5476e-02
14.000	23.750	1.8793e-02
14.000	24.000	2.1929e-02
