InwT 1585.12A  relative to Inci 1215.00A scaled to 1215A.
Hden   Phi(H)  Eq_Width (A)
 7.000	17.000	1.0066e-01
 7.000	17.250	1.1143e-01
 7.000	17.500	1.0844e-01
 7.000	17.750	9.8824e-02
 7.000	18.000	8.8010e-02
 7.000	18.250	8.1956e-02
 7.000	18.500	7.8556e-02
 7.000	18.750	7.7131e-02
 7.000	19.000	7.6420e-02
 7.000	19.250	7.6013e-02
 7.000	19.500	7.5846e-02
 7.000	19.750	7.5776e-02
 7.000	20.000	7.5746e-02
 7.000	20.250	7.5732e-02
 7.000	20.500	7.5725e-02
 7.000	20.750	7.5722e-02
 7.000	21.000	7.5720e-02
 7.000	21.250	7.5719e-02
 7.000	21.500	7.5718e-02
 7.000	21.750	7.5718e-02
 7.000	22.000	7.5719e-02
 7.000	22.250	7.5719e-02
 7.000	22.500	7.5719e-02
 7.000	22.750	7.5727e-02
 7.000	23.000	7.5721e-02
 7.000	23.250	7.5722e-02
 7.000	23.500	7.5722e-02
 7.000	23.750	7.5722e-02
 7.000	24.000	7.5722e-02
 7.250	17.000	9.2961e-02
 7.250	17.250	1.0083e-01
 7.250	17.500	1.1120e-01
 7.250	17.750	1.0838e-01
 7.250	18.000	9.8733e-02
 7.250	18.250	8.7964e-02
 7.250	18.500	8.1938e-02
 7.250	18.750	7.8550e-02
 7.250	19.000	7.7129e-02
 7.250	19.250	7.6419e-02
 7.250	19.500	7.6013e-02
 7.250	19.750	7.5846e-02
 7.250	20.000	7.5776e-02
 7.250	20.250	7.5746e-02
 7.250	20.500	7.5732e-02
 7.250	20.750	7.5725e-02
 7.250	21.000	7.5721e-02
 7.250	21.250	7.5719e-02
 7.250	21.500	7.5718e-02
 7.250	21.750	7.5718e-02
 7.250	22.000	7.5718e-02
 7.250	22.250	7.5718e-02
 7.250	22.500	7.5718e-02
 7.250	22.750	7.5718e-02
 7.250	23.000	7.5718e-02
 7.250	23.250	7.5718e-02
 7.250	23.500	7.5718e-02
 7.250	23.750	7.5718e-02
 7.250	24.000	7.5719e-02
 7.500	17.000	8.6698e-02
 7.500	17.250	9.3174e-02
 7.500	17.500	1.0095e-01
 7.500	17.750	1.1097e-01
 7.500	18.000	1.0837e-01
 7.500	18.250	9.8673e-02
 7.500	18.500	8.7931e-02
 7.500	18.750	8.1926e-02
 7.500	19.000	7.8546e-02
 7.500	19.250	7.7127e-02
 7.500	19.500	7.6418e-02
 7.500	19.750	7.6013e-02
 7.500	20.000	7.5846e-02
 7.500	20.250	7.5776e-02
 7.500	20.500	7.5746e-02
 7.500	20.750	7.5732e-02
 7.500	21.000	7.5725e-02
 7.500	21.250	7.5721e-02
 7.500	21.500	7.5719e-02
 7.500	21.750	7.5718e-02
 7.500	22.000	7.5718e-02
 7.500	22.250	7.5718e-02
 7.500	22.500	7.5717e-02
 7.500	22.750	7.5717e-02
 7.500	23.000	7.5718e-02
 7.500	23.250	7.5717e-02
 7.500	23.500	7.5717e-02
 7.500	23.750	7.5717e-02
 7.500	24.000	7.5717e-02
 7.750	17.000	8.1396e-02
 7.750	17.250	8.6722e-02
 7.750	17.500	9.3455e-02
 7.750	17.750	1.0112e-01
 7.750	18.000	1.1082e-01
 7.750	18.250	1.0840e-01
 7.750	18.500	9.8633e-02
 7.750	18.750	8.7905e-02
 7.750	19.000	8.1917e-02
 7.750	19.250	7.8543e-02
 7.750	19.500	7.7126e-02
 7.750	19.750	7.6418e-02
 7.750	20.000	7.6013e-02
 7.750	20.250	7.5846e-02
 7.750	20.500	7.5776e-02
 7.750	20.750	7.5746e-02
 7.750	21.000	7.5732e-02
 7.750	21.250	7.5725e-02
 7.750	21.500	7.5721e-02
 7.750	21.750	7.5719e-02
 7.750	22.000	7.5718e-02
 7.750	22.250	7.5718e-02
 7.750	22.500	7.5717e-02
 7.750	22.750	7.5717e-02
 7.750	23.000	7.5717e-02
 7.750	23.250	7.5717e-02
 7.750	23.500	7.5717e-02
 7.750	23.750	7.5717e-02
 7.750	24.000	7.5717e-02
 8.000	17.000	7.6810e-02
 8.000	17.250	8.0768e-02
 8.000	17.500	8.6397e-02
 8.000	17.750	9.3394e-02
 8.000	18.000	1.0102e-01
 8.000	18.250	1.1069e-01
 8.000	18.500	1.0838e-01
 8.000	18.750	9.8602e-02
 8.000	19.000	8.7883e-02
 8.000	19.250	8.1911e-02
 8.000	19.500	7.8541e-02
 8.000	19.750	7.7125e-02
 8.000	20.000	7.6418e-02
 8.000	20.250	7.6013e-02
 8.000	20.500	7.5846e-02
 8.000	20.750	7.5776e-02
 8.000	21.000	7.5746e-02
 8.000	21.250	7.5732e-02
 8.000	21.500	7.5725e-02
 8.000	21.750	7.5721e-02
 8.000	22.000	7.5719e-02
 8.000	22.250	7.5718e-02
 8.000	22.500	7.5718e-02
 8.000	22.750	7.5717e-02
 8.000	23.000	7.5717e-02
 8.000	23.250	7.5717e-02
 8.000	23.500	7.5717e-02
 8.000	23.750	7.5717e-02
 8.000	24.000	7.5717e-02
 8.250	17.000	7.3632e-02
 8.250	17.250	7.6618e-02
 8.250	17.500	8.0874e-02
 8.250	17.750	8.6937e-02
 8.250	18.000	9.4263e-02
 8.250	18.250	1.0161e-01
 8.250	18.500	1.1066e-01
 8.250	18.750	1.0845e-01
 8.250	19.000	9.8577e-02
 8.250	19.250	8.7860e-02
 8.250	19.500	8.1905e-02
 8.250	19.750	7.8540e-02
 8.250	20.000	7.7125e-02
 8.250	20.250	7.6418e-02
 8.250	20.500	7.6013e-02
 8.250	20.750	7.5846e-02
 8.250	21.000	7.5776e-02
 8.250	21.250	7.5746e-02
 8.250	21.500	7.5732e-02
 8.250	21.750	7.5725e-02
 8.250	22.000	7.5721e-02
 8.250	22.250	7.5719e-02
 8.250	22.500	7.5718e-02
 8.250	22.750	7.5718e-02
 8.250	23.000	7.5718e-02
 8.250	23.250	7.5717e-02
 8.250	23.500	7.5717e-02
 8.250	23.750	7.5717e-02
 8.250	24.000	7.5717e-02
 8.500	17.000	7.1128e-02
 8.500	17.250	7.3485e-02
 8.500	17.500	7.6714e-02
 8.500	17.750	8.1369e-02
 8.500	18.000	8.8041e-02
 8.500	18.250	9.5721e-02
 8.500	18.500	1.0253e-01
 8.500	18.750	1.1065e-01
 8.500	19.000	1.0854e-01
 8.500	19.250	9.8554e-02
 8.500	19.500	8.7837e-02
 8.500	19.750	8.1898e-02
 8.500	20.000	7.8539e-02
 8.500	20.250	7.7125e-02
 8.500	20.500	7.6417e-02
 8.500	20.750	7.6013e-02
 8.500	21.000	7.5846e-02
 8.500	21.250	7.5776e-02
 8.500	21.500	7.5746e-02
 8.500	21.750	7.5732e-02
 8.500	22.000	7.5725e-02
 8.500	22.250	7.5721e-02
 8.500	22.500	7.5719e-02
 8.500	22.750	7.5718e-02
 8.500	23.000	7.5718e-02
 8.500	23.250	7.5717e-02
 8.500	23.500	7.5717e-02
 8.500	23.750	7.5717e-02
 8.500	24.000	7.5717e-02
 8.750	17.000	6.9069e-02
 8.750	17.250	7.1072e-02
 8.750	17.500	7.3632e-02
 8.750	17.750	7.7179e-02
 8.750	18.000	8.2467e-02
 8.750	18.250	8.9796e-02
 8.750	18.500	9.7110e-02
 8.750	18.750	1.0371e-01
 8.750	19.000	1.1061e-01
 8.750	19.250	1.0864e-01
 8.750	19.500	9.8530e-02
 8.750	19.750	8.7812e-02
 8.750	20.000	8.1893e-02
 8.750	20.250	7.8538e-02
 8.750	20.500	7.7125e-02
 8.750	20.750	7.6418e-02
 8.750	21.000	7.6013e-02
 8.750	21.250	7.5846e-02
 8.750	21.500	7.5776e-02
 8.750	21.750	7.5746e-02
 8.750	22.000	7.5732e-02
 8.750	22.250	7.5725e-02
 8.750	22.500	7.5721e-02
 8.750	22.750	7.5719e-02
 8.750	23.000	7.5719e-02
 8.750	23.250	7.5718e-02
 8.750	23.500	7.5717e-02
 8.750	23.750	7.5717e-02
 8.750	24.000	7.5717e-02
 9.000	17.000	6.7206e-02
 9.000	17.250	6.9098e-02
 9.000	17.500	7.1287e-02
 9.000	17.750	7.4138e-02
 9.000	18.000	7.8219e-02
 9.000	18.250	8.4183e-02
 9.000	18.500	9.2008e-02
 9.000	18.750	9.9283e-02
 9.000	19.000	1.0608e-01
 9.000	19.250	1.1048e-01
 9.000	19.500	1.0873e-01
 9.000	19.750	9.8505e-02
 9.000	20.000	8.7786e-02
 9.000	20.250	8.1887e-02
 9.000	20.500	7.8537e-02
 9.000	20.750	7.7125e-02
 9.000	21.000	7.6417e-02
 9.000	21.250	7.6013e-02
 9.000	21.500	7.5846e-02
 9.000	21.750	7.5776e-02
 9.000	22.000	7.5746e-02
 9.000	22.250	7.5732e-02
 9.000	22.500	7.5725e-02
 9.000	22.750	7.5721e-02
 9.000	23.000	7.5719e-02
 9.000	23.250	7.5718e-02
 9.000	23.500	7.5718e-02
 9.000	23.750	7.5717e-02
 9.000	24.000	7.5717e-02
 9.250	17.000	6.5315e-02
 9.250	17.250	6.7283e-02
 9.250	17.500	6.9394e-02
 9.250	17.750	7.1879e-02
 9.250	18.000	7.5175e-02
 9.250	18.250	7.9827e-02
 9.250	18.500	8.6389e-02
 9.250	18.750	9.4368e-02
 9.250	19.000	1.0136e-01
 9.250	19.250	1.0948e-01
 9.250	19.500	1.1023e-01
 9.250	19.750	1.0878e-01
 9.250	20.000	9.8481e-02
 9.250	20.250	8.7760e-02
 9.250	20.500	8.1881e-02
 9.250	20.750	7.8536e-02
 9.250	21.000	7.7125e-02
 9.250	21.250	7.6417e-02
 9.250	21.500	7.6005e-02
 9.250	21.750	7.5809e-02
 9.250	22.000	7.5737e-02
 9.250	22.250	7.5709e-02
 9.250	22.500	7.5731e-02
 9.250	22.750	7.5725e-02
 9.250	23.000	7.5721e-02
 9.250	23.250	7.5719e-02
 9.250	23.500	7.5718e-02
 9.250	23.750	7.5718e-02
 9.250	24.000	7.5717e-02
 9.500	17.000	6.3210e-02
 9.500	17.250	6.5395e-02
 9.500	17.500	6.7648e-02
 9.500	17.750	7.0107e-02
 9.500	18.000	7.3004e-02
 9.500	18.250	7.6824e-02
 9.500	18.500	8.1954e-02
 9.500	18.750	8.8835e-02
 9.500	19.000	9.7140e-02
 9.500	19.250	1.0429e-01
 9.500	19.500	1.1324e-01
 9.500	19.750	1.1012e-01
 9.500	20.000	1.0881e-01
 9.500	20.250	9.8455e-02
 9.500	20.500	8.7736e-02
 9.500	20.750	8.1874e-02
 9.500	21.000	7.8525e-02
 9.500	21.250	7.7092e-02
 9.500	21.500	7.6378e-02
 9.500	21.750	7.5968e-02
 9.500	22.000	7.5785e-02
 9.500	22.250	7.5704e-02
 9.500	22.500	7.5677e-02
 9.500	22.750	7.5664e-02
 9.500	23.000	7.5656e-02
 9.500	23.250	7.5651e-02
 9.500	23.500	7.5672e-02
 9.500	23.750	7.5671e-02
 9.500	24.000	7.5671e-02
 9.750	17.000	6.0750e-02
 9.750	17.250	6.3186e-02
 9.750	17.500	6.5735e-02
 9.750	17.750	6.8423e-02
 9.750	18.000	7.1359e-02
 9.750	18.250	7.4821e-02
 9.750	18.500	7.8922e-02
 9.750	18.750	8.4030e-02
 9.750	19.000	9.0790e-02
 9.750	19.250	9.9378e-02
 9.750	19.500	1.0889e-01
 9.750	19.750	1.1582e-01
 9.750	20.000	1.1028e-01
 9.750	20.250	1.0879e-01
 9.750	20.500	9.8429e-02
 9.750	20.750	8.7714e-02
 9.750	21.000	8.1870e-02
 9.750	21.250	7.8531e-02
 9.750	21.500	7.7111e-02
 9.750	21.750	7.6381e-02
 9.750	22.000	7.5972e-02
 9.750	22.250	7.5794e-02
 9.750	22.500	7.5711e-02
 9.750	22.750	7.5674e-02
 9.750	23.000	7.5662e-02
 9.750	23.250	7.5656e-02
 9.750	23.500	7.5652e-02
 9.750	23.750	7.5651e-02
 9.750	24.000	7.5650e-02
10.000	17.000	5.7881e-02
10.000	17.250	6.0563e-02
10.000	17.500	6.3418e-02
10.000	17.750	6.6518e-02
10.000	18.000	6.9870e-02
10.000	18.250	7.3355e-02
10.000	18.500	7.6714e-02
10.000	18.750	8.0498e-02
10.000	19.000	8.5284e-02
10.000	19.250	9.2090e-02
10.000	19.500	1.0129e-01
10.000	19.750	1.1425e-01
10.000	20.000	1.1706e-01
10.000	20.250	1.1069e-01
10.000	20.500	1.0886e-01
10.000	20.750	9.8400e-02
10.000	21.000	8.7693e-02
10.000	21.250	8.1865e-02
10.000	21.500	7.8532e-02
10.000	21.750	7.7120e-02
10.000	22.000	7.6396e-02
10.000	22.250	7.5973e-02
10.000	22.500	7.5800e-02
10.000	22.750	7.5721e-02
10.000	23.000	7.5682e-02
10.000	23.250	7.5663e-02
10.000	23.500	7.5653e-02
10.000	23.750	7.5649e-02
10.000	24.000	7.5648e-02
10.250	17.000	5.5206e-02
10.250	17.250	5.7546e-02
10.250	17.500	6.0699e-02
10.250	17.750	6.4234e-02
10.250	18.000	6.8110e-02
10.250	18.250	7.1800e-02
10.250	18.500	7.4867e-02
10.250	18.750	7.7666e-02
10.250	19.000	8.0832e-02
10.250	19.250	8.5680e-02
10.250	19.500	9.3744e-02
10.250	19.750	1.0565e-01
10.250	20.000	1.2055e-01
10.250	20.250	1.1711e-01
10.250	20.500	1.1148e-01
10.250	20.750	1.0913e-01
10.250	21.000	9.8367e-02
10.250	21.250	8.7675e-02
10.250	21.500	8.1860e-02
10.250	21.750	7.8531e-02
10.250	22.000	7.7123e-02
10.250	22.250	7.6411e-02
10.250	22.500	7.5974e-02
10.250	22.750	7.5804e-02
10.250	23.000	7.5728e-02
10.250	23.250	7.5692e-02
10.250	23.500	7.5672e-02
10.250	23.750	7.5662e-02
10.250	24.000	7.5657e-02
10.500	17.000	5.2981e-02
10.500	17.250	5.4782e-02
10.500	17.500	5.7648e-02
10.500	17.750	6.1583e-02
10.500	18.000	6.5779e-02
10.500	18.250	6.9572e-02
10.500	18.500	7.2576e-02
10.500	18.750	7.4989e-02
10.500	19.000	7.7667e-02
10.500	19.250	8.1697e-02
10.500	19.500	8.7891e-02
10.500	19.750	9.7102e-02
10.500	20.000	1.1053e-01
10.500	20.250	1.2460e-01
10.500	20.500	1.1806e-01
10.500	20.750	1.1266e-01
10.500	21.000	1.0974e-01
10.500	21.250	9.8329e-02
10.500	21.500	8.7657e-02
10.500	21.750	8.1856e-02
10.500	22.000	7.8530e-02
10.500	22.250	7.7123e-02
10.500	22.500	7.6415e-02
10.500	22.750	7.5981e-02
10.500	23.000	7.5806e-02
10.500	23.250	7.5733e-02
10.500	23.500	7.5699e-02
10.500	23.750	7.5681e-02
10.500	24.000	7.5671e-02
10.750	17.000	5.1348e-02
10.750	17.250	5.2579e-02
10.750	17.500	5.4928e-02
10.750	17.750	5.8581e-02
10.750	18.000	6.2711e-02
10.750	18.250	6.6380e-02
10.750	18.500	6.9334e-02
10.750	18.750	7.1841e-02
10.750	19.000	7.4575e-02
10.750	19.250	7.8075e-02
10.750	19.500	8.2878e-02
10.750	19.750	8.9630e-02
10.750	20.000	9.9614e-02
10.750	20.250	1.1389e-01
10.750	20.500	1.2635e-01
10.750	20.750	1.1956e-01
10.750	21.000	1.1413e-01
10.750	21.250	1.1076e-01
10.750	21.500	9.8288e-02
10.750	21.750	8.7639e-02
10.750	22.000	8.1849e-02
10.750	22.250	7.8528e-02
10.750	22.500	7.7123e-02
10.750	22.750	7.6417e-02
10.750	23.000	7.6000e-02
10.750	23.250	7.5807e-02
10.750	23.500	7.5736e-02
10.750	23.750	7.5703e-02
10.750	24.000	7.5687e-02
11.000	17.000	5.0194e-02
11.000	17.250	5.1043e-02
11.000	17.500	5.2742e-02
11.000	17.750	5.5543e-02
11.000	18.000	5.8947e-02
11.000	18.250	6.2163e-02
11.000	18.500	6.5058e-02
11.000	18.750	6.7838e-02
11.000	19.000	7.0887e-02
11.000	19.250	7.4313e-02
11.000	19.500	7.8363e-02
11.000	19.750	8.3518e-02
11.000	20.000	9.0578e-02
11.000	20.250	1.0096e-01
11.000	20.500	1.1619e-01
11.000	20.750	1.2672e-01
11.000	21.000	1.2250e-01
11.000	21.250	1.1661e-01
11.000	21.500	1.1256e-01
11.000	21.750	9.8227e-02
11.000	22.000	8.7622e-02
11.000	22.250	8.1845e-02
11.000	22.500	7.8526e-02
11.000	22.750	7.7123e-02
11.000	23.000	7.6417e-02
11.000	23.250	7.6009e-02
11.000	23.500	7.5813e-02
11.000	23.750	7.5737e-02
11.000	24.000	7.5706e-02
11.250	17.000	4.9416e-02
11.250	17.250	5.0028e-02
11.250	17.500	5.1082e-02
11.250	17.750	5.2756e-02
11.250	18.000	5.4943e-02
11.250	18.250	5.7306e-02
11.250	18.500	5.9966e-02
11.250	18.750	6.3114e-02
11.250	19.000	6.6532e-02
11.250	19.250	7.0106e-02
11.250	19.500	7.3923e-02
11.250	19.750	7.8287e-02
11.250	20.000	8.3721e-02
11.250	20.250	9.1117e-02
11.250	20.500	1.0210e-01
11.250	20.750	1.1812e-01
11.250	21.000	1.2916e-01
11.250	21.250	1.2582e-01
11.250	21.500	1.2062e-01
11.250	21.750	1.1463e-01
11.250	22.000	9.8144e-02
11.250	22.250	8.7605e-02
11.250	22.500	8.1839e-02
11.250	22.750	7.8523e-02
11.250	23.000	7.7122e-02
11.250	23.250	7.6418e-02
11.250	23.500	7.6012e-02
11.250	23.750	7.5832e-02
11.250	24.000	7.5739e-02
11.500	17.000	4.9005e-02
11.500	17.250	4.9311e-02
11.500	17.500	4.9790e-02
11.500	17.750	5.0428e-02
11.500	18.000	5.1216e-02
11.500	18.250	5.2444e-02
11.500	18.500	5.4635e-02
11.500	18.750	5.7914e-02
11.500	19.000	6.1793e-02
11.500	19.250	6.5620e-02
11.500	19.500	6.9466e-02
11.500	19.750	7.3628e-02
11.500	20.000	7.8356e-02
11.500	20.250	8.4148e-02
11.500	20.500	9.2004e-02
11.500	20.750	1.0382e-01
11.500	21.000	1.1907e-01
11.500	21.250	1.3206e-01
11.500	21.500	1.3111e-01
11.500	21.750	1.2687e-01
11.500	22.000	1.1576e-01
11.500	22.250	9.8036e-02
11.500	22.500	8.7580e-02
11.500	22.750	8.1839e-02
11.500	23.000	7.8520e-02
11.500	23.250	7.7121e-02
11.500	23.500	7.6417e-02
11.500	23.750	7.6013e-02
11.500	24.000	7.5841e-02
11.750	17.000	4.8923e-02
11.750	17.250	4.8785e-02
11.750	17.500	4.8687e-02
11.750	17.750	4.8482e-02
11.750	18.000	4.8093e-02
11.750	18.250	4.8296e-02
11.750	18.500	4.9856e-02
11.750	18.750	5.2876e-02
11.750	19.000	5.6855e-02
11.750	19.250	6.1090e-02
11.750	19.500	6.5098e-02
11.750	19.750	6.9202e-02
11.750	20.000	7.3704e-02
11.750	20.250	7.8865e-02
11.750	20.500	8.5185e-02
11.750	20.750	9.3793e-02
11.750	21.000	1.0735e-01
11.750	21.250	1.2328e-01
11.750	21.500	1.3675e-01
11.750	21.750	1.3905e-01
11.750	22.000	1.3398e-01
11.750	22.250	1.1568e-01
11.750	22.500	9.7884e-02
11.750	22.750	8.7541e-02
11.750	23.000	8.1836e-02
11.750	23.250	7.8516e-02
11.750	23.500	7.7120e-02
11.750	23.750	7.6417e-02
11.750	24.000	7.6013e-02
12.000	17.000	4.9029e-02
12.000	17.250	4.8392e-02
12.000	17.500	4.7649e-02
12.000	17.750	4.6716e-02
12.000	18.000	4.5665e-02
12.000	18.250	4.5281e-02
12.000	18.500	4.6222e-02
12.000	18.750	4.8544e-02
12.000	19.000	5.2133e-02
12.000	19.250	5.6522e-02
12.000	19.500	6.0953e-02
12.000	19.750	6.5124e-02
12.000	20.000	6.9570e-02
12.000	20.250	7.4545e-02
12.000	20.500	8.0257e-02
12.000	20.750	8.7406e-02
12.000	21.000	9.7893e-02
12.000	21.250	1.1429e-01
12.000	21.500	1.2977e-01
12.000	21.750	1.4502e-01
12.000	22.000	1.4906e-01
12.000	22.250	1.3964e-01
12.000	22.500	1.1548e-01
12.000	22.750	9.7716e-02
12.000	23.000	8.7486e-02
12.000	23.250	8.1829e-02
12.000	23.500	7.8513e-02
12.000	23.750	7.7118e-02
12.000	24.000	7.6417e-02
12.250	17.000	4.4602e-02
12.250	17.250	4.8063e-02
12.250	17.500	4.6670e-02
12.250	17.750	4.5146e-02
12.250	18.000	4.3863e-02
12.250	18.250	4.3315e-02
12.250	18.500	4.3818e-02
12.250	18.750	4.5468e-02
12.250	19.000	4.8291e-02
12.250	19.250	5.2269e-02
12.250	19.500	5.6930e-02
12.250	19.750	6.1496e-02
12.250	20.000	6.5955e-02
12.250	20.250	7.0813e-02
12.250	20.500	7.6375e-02
12.250	20.750	8.3078e-02
12.250	21.000	9.2500e-02
12.250	21.250	1.0583e-01
12.250	21.500	1.2320e-01
12.250	21.750	1.4118e-01
12.250	22.000	1.5674e-01
12.250	22.250	1.6163e-01
12.250	22.500	1.4264e-01
12.250	22.750	1.1524e-01
12.250	23.000	9.7521e-02
12.250	23.250	8.7413e-02
12.250	23.500	8.1819e-02
12.250	23.750	7.8505e-02
12.250	24.000	7.7115e-02
12.500	17.000	2.7131e-02
12.500	17.250	4.4792e-02
12.500	17.500	4.5853e-02
12.500	17.750	4.4056e-02
12.500	18.000	4.2504e-02
12.500	18.250	4.1718e-02
12.500	18.500	4.2209e-02
12.500	18.750	4.3600e-02
12.500	19.000	4.5771e-02
12.500	19.250	4.8939e-02
12.500	19.500	5.3215e-02
12.500	19.750	5.8059e-02
12.500	20.000	6.2877e-02
12.500	20.250	6.7716e-02
12.500	20.500	7.3104e-02
12.500	20.750	7.9919e-02
12.500	21.000	8.8987e-02
12.500	21.250	1.0080e-01
12.500	21.500	1.1629e-01
12.500	21.750	1.3750e-01
12.500	22.000	1.5635e-01
12.500	22.250	1.7274e-01
12.500	22.500	1.7296e-01
12.500	22.750	1.4415e-01
12.500	23.000	1.1497e-01
12.500	23.250	9.7295e-02
12.500	23.500	8.7330e-02
12.500	23.750	8.1800e-02
12.500	24.000	7.8499e-02
12.750	17.000	1.6617e-02
12.750	17.250	2.8618e-02
12.750	17.500	4.4338e-02
12.750	17.750	4.2549e-02
12.750	18.000	4.0843e-02
12.750	18.250	4.0300e-02
12.750	18.500	4.0871e-02
12.750	18.750	4.2300e-02
12.750	19.000	4.4348e-02
12.750	19.250	4.6997e-02
12.750	19.500	5.0460e-02
12.750	19.750	5.5000e-02
12.750	20.000	6.0048e-02
12.750	20.250	6.5196e-02
12.750	20.500	7.0725e-02
12.750	20.750	7.7232e-02
12.750	21.000	8.6007e-02
12.750	21.250	9.8400e-02
12.750	21.500	1.1263e-01
12.750	21.750	1.3231e-01
12.750	22.000	1.5889e-01
12.750	22.250	1.7601e-01
12.750	22.500	1.9521e-01
12.750	22.750	1.8058e-01
12.750	23.000	1.4468e-01
12.750	23.250	1.1469e-01
12.750	23.500	9.7076e-02
12.750	23.750	8.7246e-02
12.750	24.000	8.1769e-02
13.000	17.000	5.1008e-03
13.000	17.250	7.7421e-03
13.000	17.500	1.9614e-02
13.000	17.750	3.2992e-02
13.000	18.000	3.6440e-02
13.000	18.250	3.9003e-02
13.000	18.500	3.9604e-02
13.000	18.750	4.1115e-02
13.000	19.000	4.3283e-02
13.000	19.250	4.5899e-02
13.000	19.500	4.8884e-02
13.000	19.750	5.2799e-02
13.000	20.000	5.7496e-02
13.000	20.250	6.2974e-02
13.000	20.500	6.8999e-02
13.000	20.750	7.5465e-02
13.000	21.000	8.3909e-02
13.000	21.250	9.6150e-02
13.000	21.500	1.1088e-01
13.000	21.750	1.3025e-01
13.000	22.000	1.5455e-01
13.000	22.250	1.8539e-01
13.000	22.500	1.9937e-01
13.000	22.750	2.1238e-01
13.000	23.000	1.8416e-01
13.000	23.250	1.4479e-01
13.000	23.500	1.1438e-01
13.000	23.750	9.6857e-02
13.000	24.000	8.7139e-02
13.250	17.000	3.3684e-03
13.250	17.250	4.4444e-03
13.250	17.500	7.6227e-03
13.250	17.750	1.4580e-02
13.250	18.000	2.5793e-02
13.250	18.250	3.1678e-02
13.250	18.500	3.8469e-02
13.250	18.750	3.9928e-02
13.250	19.000	4.2162e-02
13.250	19.250	4.4911e-02
13.250	19.500	4.7963e-02
13.250	19.750	5.1648e-02
13.250	20.000	5.5801e-02
13.250	20.250	6.0858e-02
13.250	20.500	6.6851e-02
13.250	20.750	7.3616e-02
13.250	21.000	8.2691e-02
13.250	21.250	9.3234e-02
13.250	21.500	1.0688e-01
13.250	21.750	1.2131e-01
13.250	22.000	1.4807e-01
13.250	22.250	1.7431e-01
13.250	22.500	2.1159e-01
13.250	22.750	2.1102e-01
13.250	23.000	2.1656e-01
13.250	23.250	1.8576e-01
13.250	23.500	1.4462e-01
13.250	23.750	1.1404e-01
13.250	24.000	9.6602e-02
13.500	17.000	2.2948e-03
13.500	17.250	2.9764e-03
13.500	17.500	4.7228e-03
13.500	17.750	8.4916e-03
13.500	18.000	1.6413e-02
13.500	18.250	2.7548e-02
13.500	18.500	3.2903e-02
13.500	18.750	3.8854e-02
13.500	19.000	4.1012e-02
13.500	19.250	4.3833e-02
13.500	19.500	4.7095e-02
13.500	19.750	5.0746e-02
13.500	20.000	5.4953e-02
13.500	20.250	5.9935e-02
13.500	20.500	6.5452e-02
13.500	20.750	7.1757e-02
13.500	21.000	7.9088e-02
13.500	21.250	8.8518e-02
13.500	21.500	9.9522e-02
13.500	21.750	1.1258e-01
13.500	22.000	1.3121e-01
13.500	22.250	1.6620e-01
13.500	22.500	2.0591e-01
13.500	22.750	2.3507e-01
13.500	23.000	2.2937e-01
13.500	23.250	2.1770e-01
13.500	23.500	1.8576e-01
13.500	23.750	1.4428e-01
13.500	24.000	1.1360e-01
13.750	17.000	1.6008e-03
13.750	17.250	2.1574e-03
13.750	17.500	3.2901e-03
13.750	17.750	5.1867e-03
13.750	18.000	1.0163e-02
13.750	18.250	1.9313e-02
13.750	18.500	2.8810e-02
13.750	18.750	3.4666e-02
13.750	19.000	3.9986e-02
13.750	19.250	4.2770e-02
13.750	19.500	4.6169e-02
13.750	19.750	5.0007e-02
13.750	20.000	5.4352e-02
13.750	20.250	5.9322e-02
13.750	20.500	6.5059e-02
13.750	20.750	7.1316e-02
13.750	21.000	7.8035e-02
13.750	21.250	8.5426e-02
13.750	21.500	9.3537e-02
13.750	21.750	1.0431e-01
13.750	22.000	1.1992e-01
13.750	22.250	1.4519e-01
13.750	22.500	1.8445e-01
13.750	22.750	2.3780e-01
13.750	23.000	2.6695e-01
13.750	23.250	2.4732e-01
13.750	23.500	2.2104e-01
13.750	23.750	1.8758e-01
13.750	24.000	1.4360e-01
14.000	17.000	1.1707e-03
14.000	17.250	1.5526e-03
14.000	17.500	2.3701e-03
14.000	17.750	3.6953e-03
14.000	18.000	6.1440e-03
14.000	18.250	1.1664e-02
14.000	18.500	2.0254e-02
14.000	18.750	3.0395e-02
14.000	19.000	3.8799e-02
14.000	19.250	4.1802e-02
14.000	19.500	4.5229e-02
14.000	19.750	4.9292e-02
14.000	20.000	5.3839e-02
14.000	20.250	5.8994e-02
14.000	20.500	6.4907e-02
14.000	20.750	7.1503e-02
14.000	21.000	7.8676e-02
14.000	21.250	8.6350e-02
14.000	21.500	9.3326e-02
14.000	21.750	1.0288e-01
14.000	22.000	1.1604e-01
14.000	22.250	1.3636e-01
14.000	22.500	1.6978e-01
14.000	22.750	2.2304e-01
14.000	23.000	2.8825e-01
14.000	23.250	3.0541e-01
14.000	23.500	2.6830e-01
14.000	23.750	2.3205e-01
14.000	24.000	1.9042e-01
