InwC 910.000A  relative to Inci 1215.00A scaled to 1215A.
Hden   Phi(H)  Eq_Width (A)
 7.000	17.000	5.1598e-03
 7.000	17.250	1.1811e-02
 7.000	17.500	2.6574e-02
 7.000	17.750	4.5552e-02
 7.000	18.000	5.7626e-02
 7.000	18.250	6.6038e-02
 7.000	18.500	7.3117e-02
 7.000	18.750	7.5233e-02
 7.000	19.000	7.6138e-02
 7.000	19.250	7.6551e-02
 7.000	19.500	7.6626e-02
 7.000	19.750	7.6642e-02
 7.000	20.000	7.6647e-02
 7.000	20.250	7.6648e-02
 7.000	20.500	7.6649e-02
 7.000	20.750	7.6649e-02
 7.000	21.000	7.6649e-02
 7.000	21.250	7.6649e-02
 7.000	21.500	7.6650e-02
 7.000	21.750	7.6650e-02
 7.000	22.000	7.6651e-02
 7.000	22.250	7.6651e-02
 7.000	22.500	7.6651e-02
 7.000	22.750	7.6660e-02
 7.000	23.000	7.6653e-02
 7.000	23.250	7.6654e-02
 7.000	23.500	7.6654e-02
 7.000	23.750	7.6654e-02
 7.000	24.000	7.6655e-02
 7.250	17.000	2.4482e-03
 7.250	17.250	5.1909e-03
 7.250	17.500	1.1892e-02
 7.250	17.750	2.6769e-02
 7.250	18.000	4.5740e-02
 7.250	18.250	5.7712e-02
 7.250	18.500	6.6066e-02
 7.250	18.750	7.3120e-02
 7.250	19.000	7.5234e-02
 7.250	19.250	7.6139e-02
 7.250	19.500	7.6552e-02
 7.250	19.750	7.6626e-02
 7.250	20.000	7.6642e-02
 7.250	20.250	7.6647e-02
 7.250	20.500	7.6648e-02
 7.250	20.750	7.6648e-02
 7.250	21.000	7.6649e-02
 7.250	21.250	7.6649e-02
 7.250	21.500	7.6649e-02
 7.250	21.750	7.6650e-02
 7.250	22.000	7.6649e-02
 7.250	22.250	7.6650e-02
 7.250	22.500	7.6650e-02
 7.250	22.750	7.6650e-02
 7.250	23.000	7.6650e-02
 7.250	23.250	7.6650e-02
 7.250	23.500	7.6650e-02
 7.250	23.750	7.6651e-02
 7.250	24.000	7.6651e-02
 7.500	17.000	1.2394e-03
 7.500	17.250	2.4572e-03
 7.500	17.500	5.2142e-03
 7.500	17.750	1.1967e-02
 7.500	18.000	2.6958e-02
 7.500	18.250	4.5943e-02
 7.500	18.500	5.7828e-02
 7.500	18.750	6.6081e-02
 7.500	19.000	7.3126e-02
 7.500	19.250	7.5236e-02
 7.500	19.500	7.6139e-02
 7.500	19.750	7.6552e-02
 7.500	20.000	7.6626e-02
 7.500	20.250	7.6642e-02
 7.500	20.500	7.6647e-02
 7.500	20.750	7.6648e-02
 7.500	21.000	7.6648e-02
 7.500	21.250	7.6649e-02
 7.500	21.500	7.6649e-02
 7.500	21.750	7.6649e-02
 7.500	22.000	7.6649e-02
 7.500	22.250	7.6649e-02
 7.500	22.500	7.6649e-02
 7.500	22.750	7.6649e-02
 7.500	23.000	7.6650e-02
 7.500	23.250	7.6650e-02
 7.500	23.500	7.6650e-02
 7.500	23.750	7.6650e-02
 7.500	24.000	7.6650e-02
 7.750	17.000	6.4502e-04
 7.750	17.250	1.2434e-03
 7.750	17.500	2.4643e-03
 7.750	17.750	5.2336e-03
 7.750	18.000	1.2038e-02
 7.750	18.250	2.7154e-02
 7.750	18.500	4.6177e-02
 7.750	18.750	5.7966e-02
 7.750	19.000	6.6113e-02
 7.750	19.250	7.3134e-02
 7.750	19.500	7.5238e-02
 7.750	19.750	7.6140e-02
 7.750	20.000	7.6551e-02
 7.750	20.250	7.6626e-02
 7.750	20.500	7.6642e-02
 7.750	20.750	7.6647e-02
 7.750	21.000	7.6648e-02
 7.750	21.250	7.6648e-02
 7.750	21.500	7.6649e-02
 7.750	21.750	7.6649e-02
 7.750	22.000	7.6649e-02
 7.750	22.250	7.6649e-02
 7.750	22.500	7.6649e-02
 7.750	22.750	7.6649e-02
 7.750	23.000	7.6649e-02
 7.750	23.250	7.6649e-02
 7.750	23.500	7.6649e-02
 7.750	23.750	7.6649e-02
 7.750	24.000	7.6649e-02
 8.000	17.000	3.3712e-04
 8.000	17.250	6.4477e-04
 8.000	17.500	1.2426e-03
 8.000	17.750	2.4643e-03
 8.000	18.000	5.2431e-03
 8.000	18.250	1.2093e-02
 8.000	18.500	2.7352e-02
 8.000	18.750	4.6442e-02
 8.000	19.000	5.8133e-02
 8.000	19.250	6.6172e-02
 8.000	19.500	7.3145e-02
 8.000	19.750	7.5241e-02
 8.000	20.000	7.6140e-02
 8.000	20.250	7.6552e-02
 8.000	20.500	7.6626e-02
 8.000	20.750	7.6642e-02
 8.000	21.000	7.6646e-02
 8.000	21.250	7.6648e-02
 8.000	21.500	7.6649e-02
 8.000	21.750	7.6649e-02
 8.000	22.000	7.6649e-02
 8.000	22.250	7.6649e-02
 8.000	22.500	7.6649e-02
 8.000	22.750	7.6649e-02
 8.000	23.000	7.6649e-02
 8.000	23.250	7.6649e-02
 8.000	23.500	7.6649e-02
 8.000	23.750	7.6649e-02
 8.000	24.000	7.6649e-02
 8.250	17.000	1.7671e-04
 8.250	17.250	3.3720e-04
 8.250	17.500	6.4519e-04
 8.250	17.750	1.2435e-03
 8.250	18.000	2.4682e-03
 8.250	18.250	5.2576e-03
 8.250	18.500	1.2157e-02
 8.250	18.750	2.7559e-02
 8.250	19.000	4.6748e-02
 8.250	19.250	5.8320e-02
 8.250	19.500	6.6223e-02
 8.250	19.750	7.3160e-02
 8.250	20.000	7.5246e-02
 8.250	20.250	7.6142e-02
 8.250	20.500	7.6552e-02
 8.250	20.750	7.6626e-02
 8.250	21.000	7.6642e-02
 8.250	21.250	7.6647e-02
 8.250	21.500	7.6648e-02
 8.250	21.750	7.6648e-02
 8.250	22.000	7.6649e-02
 8.250	22.250	7.6649e-02
 8.250	22.500	7.6649e-02
 8.250	22.750	7.6649e-02
 8.250	23.000	7.6649e-02
 8.250	23.250	7.6649e-02
 8.250	23.500	7.6649e-02
 8.250	23.750	7.6649e-02
 8.250	24.000	7.6649e-02
 8.500	17.000	9.2922e-05
 8.500	17.250	1.7654e-04
 8.500	17.500	3.3695e-04
 8.500	17.750	6.4543e-04
 8.500	18.000	1.2461e-03
 8.500	18.250	2.4727e-03
 8.500	18.500	5.2714e-03
 8.500	18.750	1.2224e-02
 8.500	19.000	2.7796e-02
 8.500	19.250	4.7081e-02
 8.500	19.500	5.8539e-02
 8.500	19.750	6.6291e-02
 8.500	20.000	7.3180e-02
 8.500	20.250	7.5253e-02
 8.500	20.500	7.6144e-02
 8.500	20.750	7.6552e-02
 8.500	21.000	7.6627e-02
 8.500	21.250	7.6642e-02
 8.500	21.500	7.6647e-02
 8.500	21.750	7.6648e-02
 8.500	22.000	7.6649e-02
 8.500	22.250	7.6649e-02
 8.500	22.500	7.6649e-02
 8.500	22.750	7.6649e-02
 8.500	23.000	7.6649e-02
 8.500	23.250	7.6649e-02
 8.500	23.500	7.6649e-02
 8.500	23.750	7.6649e-02
 8.500	24.000	7.6649e-02
 8.750	17.000	4.9465e-05
 8.750	17.250	9.2757e-05
 8.750	17.500	1.7638e-04
 8.750	17.750	3.3728e-04
 8.750	18.000	6.4716e-04
 8.750	18.250	1.2487e-03
 8.750	18.500	2.4778e-03
 8.750	18.750	5.2907e-03
 8.750	19.000	1.2311e-02
 8.750	19.250	2.8048e-02
 8.750	19.500	4.7446e-02
 8.750	19.750	5.8777e-02
 8.750	20.000	6.6374e-02
 8.750	20.250	7.3204e-02
 8.750	20.500	7.5262e-02
 8.750	20.750	7.6147e-02
 8.750	21.000	7.6553e-02
 8.750	21.250	7.6627e-02
 8.750	21.500	7.6642e-02
 8.750	21.750	7.6647e-02
 8.750	22.000	7.6648e-02
 8.750	22.250	7.6648e-02
 8.750	22.500	7.6649e-02
 8.750	22.750	7.6649e-02
 8.750	23.000	7.6649e-02
 8.750	23.250	7.6649e-02
 8.750	23.500	7.6649e-02
 8.750	23.750	7.6649e-02
 8.750	24.000	7.6649e-02
 9.000	17.000	2.6502e-05
 9.000	17.250	4.9465e-05
 9.000	17.500	9.2840e-05
 9.000	17.750	1.7704e-04
 9.000	18.000	3.3893e-04
 9.000	18.250	6.4988e-04
 9.000	18.500	1.2537e-03
 9.000	18.750	2.4877e-03
 9.000	19.000	5.3190e-03
 9.000	19.250	1.2418e-02
 9.000	19.500	2.8330e-02
 9.000	19.750	4.7819e-02
 9.000	20.000	5.9041e-02
 9.000	20.250	6.6469e-02
 9.000	20.500	7.3232e-02
 9.000	20.750	7.5272e-02
 9.000	21.000	7.6151e-02
 9.000	21.250	7.6553e-02
 9.000	21.500	7.6627e-02
 9.000	21.750	7.6642e-02
 9.000	22.000	7.6646e-02
 9.000	22.250	7.6648e-02
 9.000	22.500	7.6648e-02
 9.000	22.750	7.6649e-02
 9.000	23.000	7.6649e-02
 9.000	23.250	7.6649e-02
 9.000	23.500	7.6649e-02
 9.000	23.750	7.6649e-02
 9.000	24.000	7.6649e-02
 9.250	17.000	1.4156e-05
 9.250	17.250	2.6502e-05
 9.250	17.500	4.9630e-05
 9.250	17.750	9.3580e-05
 9.250	18.000	1.7852e-04
 9.250	18.250	3.4140e-04
 9.250	18.500	6.5432e-04
 9.250	18.750	1.2638e-03
 9.250	19.000	2.5103e-03
 9.250	19.250	5.3785e-03
 9.250	19.500	1.2592e-02
 9.250	19.750	2.8678e-02
 9.250	20.000	4.8187e-02
 9.250	20.250	5.9302e-02
 9.250	20.500	6.6546e-02
 9.250	20.750	7.3263e-02
 9.250	21.000	7.5284e-02
 9.250	21.250	7.6155e-02
 9.250	21.500	7.6546e-02
 9.250	21.750	7.6589e-02
 9.250	22.000	7.6602e-02
 9.250	22.250	7.6609e-02
 9.250	22.500	7.6647e-02
 9.250	22.750	7.6648e-02
 9.250	23.000	7.6648e-02
 9.250	23.250	7.6649e-02
 9.250	23.500	7.6649e-02
 9.250	23.750	7.6649e-02
 9.250	24.000	7.6649e-02
 9.500	17.000	7.4074e-06
 9.500	17.250	1.4239e-05
 9.500	17.500	2.6914e-05
 9.500	17.750	5.0535e-05
 9.500	18.000	9.5062e-05
 9.500	18.250	1.8074e-04
 9.500	18.500	3.4568e-04
 9.500	18.750	6.6395e-04
 9.500	19.000	1.2856e-03
 9.500	19.250	2.5641e-03
 9.500	19.500	5.5102e-03
 9.500	19.750	1.2914e-02
 9.500	20.000	2.9159e-02
 9.500	20.250	4.8552e-02
 9.500	20.500	5.9554e-02
 9.500	20.750	6.6639e-02
 9.500	21.000	7.3271e-02
 9.500	21.250	7.5249e-02
 9.500	21.500	7.6114e-02
 9.500	21.750	7.6508e-02
 9.500	22.000	7.6566e-02
 9.500	22.250	7.6570e-02
 9.500	22.500	7.6577e-02
 9.500	22.750	7.6579e-02
 9.500	23.000	7.6578e-02
 9.500	23.250	7.6578e-02
 9.500	23.500	7.6601e-02
 9.500	23.750	7.6601e-02
 9.500	24.000	7.6601e-02
 9.750	17.000	3.7860e-06
 9.750	17.250	7.4897e-06
 9.750	17.500	1.4568e-05
 9.750	17.750	2.7654e-05
 9.750	18.000	5.1770e-05
 9.750	18.250	9.7119e-05
 9.750	18.500	1.8469e-04
 9.750	18.750	3.5416e-04
 9.750	19.000	6.8420e-04
 9.750	19.250	1.3355e-03
 9.750	19.500	2.6841e-03
 9.750	19.750	5.7794e-03
 9.750	20.000	1.3477e-02
 9.750	20.250	2.9963e-02
 9.750	20.500	4.8932e-02
 9.750	20.750	5.9794e-02
 9.750	21.000	6.6762e-02
 9.750	21.250	7.3328e-02
 9.750	21.500	7.5292e-02
 9.750	21.750	7.6124e-02
 9.750	22.000	7.6513e-02
 9.750	22.250	7.6575e-02
 9.750	22.500	7.6577e-02
 9.750	22.750	7.6574e-02
 9.750	23.000	7.6577e-02
 9.750	23.250	7.6578e-02
 9.750	23.500	7.6579e-02
 9.750	23.750	7.6579e-02
 9.750	24.000	7.6580e-02
10.000	17.000	1.7284e-06
10.000	17.250	3.8683e-06
10.000	17.500	7.8189e-06
10.000	17.750	1.5144e-05
10.000	18.000	2.8642e-05
10.000	18.250	5.3498e-05
10.000	18.500	1.0041e-04
10.000	18.750	1.9202e-04
10.000	19.000	3.7202e-04
10.000	19.250	7.2815e-04
10.000	19.500	1.4384e-03
10.000	19.750	2.9176e-03
10.000	20.000	6.2231e-03
10.000	20.250	1.4379e-02
10.000	20.500	3.1105e-02
10.000	20.750	4.9446e-02
10.000	21.000	6.0057e-02
10.000	21.250	6.6893e-02
10.000	21.500	7.3378e-02
10.000	21.750	7.5323e-02
10.000	22.000	7.6147e-02
10.000	22.250	7.6517e-02
10.000	22.500	7.6582e-02
10.000	22.750	7.6587e-02
10.000	23.000	7.6582e-02
10.000	23.250	7.6578e-02
10.000	23.500	7.6575e-02
10.000	23.750	7.6576e-02
10.000	24.000	7.6576e-02
10.250	17.000	8.2305e-07
10.250	17.250	1.8107e-06
10.250	17.500	4.0329e-06
10.250	17.750	8.1481e-06
10.250	18.000	1.5885e-05
10.250	18.250	2.9959e-05
10.250	18.500	5.6379e-05
10.250	18.750	1.0700e-04
10.250	19.000	2.0782e-04
10.250	19.250	4.0971e-04
10.250	19.500	8.1440e-04
10.250	19.750	1.6230e-03
10.250	20.000	3.2928e-03
10.250	20.250	6.9514e-03
10.250	20.500	1.5635e-02
10.250	20.750	3.2687e-02
10.250	21.000	5.0180e-02
10.250	21.250	6.0356e-02
10.250	21.500	6.7036e-02
10.250	21.750	7.3430e-02
10.250	22.000	7.5348e-02
10.250	22.250	7.6172e-02
10.250	22.500	7.6519e-02
10.250	22.750	7.6586e-02
10.250	23.000	7.6594e-02
10.250	23.250	7.6592e-02
10.250	23.500	7.6588e-02
10.250	23.750	7.6585e-02
10.250	24.000	7.6583e-02
10.500	17.000	1.0000e-07
10.500	17.250	9.0535e-07
10.500	17.500	1.8930e-06
10.500	17.750	4.2798e-06
10.500	18.000	8.6420e-06
10.500	18.250	1.6955e-05
10.500	18.500	3.2510e-05
10.500	18.750	6.2305e-05
10.500	19.000	1.2099e-04
10.500	19.250	2.3975e-04
10.500	19.500	4.7909e-04
10.500	19.750	9.5712e-04
10.500	20.000	1.9049e-03
10.500	20.250	3.8361e-03
10.500	20.500	7.9438e-03
10.500	20.750	1.7197e-02
10.500	21.000	3.4458e-02
10.500	21.250	5.1166e-02
10.500	21.500	6.0746e-02
10.500	21.750	6.7215e-02
10.500	22.000	7.3492e-02
10.500	22.250	7.5375e-02
10.500	22.500	7.6188e-02
10.500	22.750	7.6529e-02
10.500	23.000	7.6589e-02
10.500	23.250	7.6600e-02
10.500	23.500	7.6599e-02
10.500	23.750	7.6597e-02
10.500	24.000	7.6594e-02
10.750	17.000	1.0000e-07
10.750	17.250	1.0000e-07
10.750	17.500	9.8765e-07
10.750	17.750	2.0576e-06
10.750	18.000	4.6091e-06
10.750	18.250	9.6296e-06
10.750	18.500	1.9259e-05
10.750	18.750	3.8025e-05
10.750	19.000	7.4568e-05
10.750	19.250	1.4724e-04
10.750	19.500	2.9366e-04
10.750	19.750	5.8675e-04
10.750	20.000	1.1632e-03
10.750	20.250	2.2886e-03
10.750	20.500	4.4881e-03
10.750	20.750	9.1788e-03
10.750	21.000	1.9227e-02
10.750	21.250	3.6637e-02
10.750	21.500	5.2391e-02
10.750	21.750	6.1291e-02
10.750	22.000	6.7455e-02
10.750	22.250	7.3570e-02
10.750	22.500	7.5410e-02
10.750	22.750	7.6204e-02
10.750	23.000	7.6552e-02
10.750	23.250	7.6591e-02
10.750	23.500	7.6603e-02
10.750	23.750	7.6604e-02
10.750	24.000	7.6603e-02
11.000	17.000	1.0000e-07
11.000	17.250	1.0000e-07
11.000	17.500	1.0000e-07
11.000	17.750	1.0700e-06
11.000	18.000	2.3868e-06
11.000	18.250	5.3498e-06
11.000	18.500	1.1687e-05
11.000	18.750	2.4280e-05
11.000	19.000	4.8395e-05
11.000	19.250	9.5226e-05
11.000	19.500	1.8724e-04
11.000	19.750	3.7070e-04
11.000	20.000	7.3210e-04
11.000	20.250	1.4299e-03
11.000	20.500	2.7757e-03
11.000	20.750	5.3514e-03
11.000	21.000	1.0683e-02
11.000	21.250	2.1564e-02
11.000	21.500	3.8810e-02
11.000	21.750	5.3578e-02
11.000	22.000	6.1977e-02
11.000	22.250	6.7810e-02
11.000	22.500	7.3673e-02
11.000	22.750	7.5458e-02
11.000	23.000	7.6224e-02
11.000	23.250	7.6566e-02
11.000	23.500	7.6599e-02
11.000	23.750	7.6605e-02
11.000	24.000	7.6607e-02
11.250	17.000	1.0000e-07
11.250	17.250	1.0000e-07
11.250	17.500	1.0000e-07
11.250	17.750	1.0000e-07
11.250	18.000	1.2346e-06
11.250	18.250	2.9630e-06
11.250	18.500	6.9959e-06
11.250	18.750	1.5638e-05
11.250	19.000	3.2099e-05
11.250	19.250	6.3374e-05
11.250	19.500	1.2305e-04
11.250	19.750	2.3934e-04
11.250	20.000	4.6798e-04
11.250	20.250	9.1235e-04
11.250	20.500	1.7566e-03
11.250	20.750	3.3695e-03
11.250	21.000	6.3943e-03
11.250	21.250	1.2536e-02
11.250	21.500	2.4344e-02
11.250	21.750	4.1148e-02
11.250	22.000	5.5002e-02
11.250	22.250	6.2781e-02
11.250	22.500	6.8256e-02
11.250	22.750	7.3815e-02
11.250	23.000	7.5522e-02
11.250	23.250	7.6253e-02
11.250	23.500	7.6575e-02
11.250	23.750	7.6620e-02
11.250	24.000	7.6608e-02
11.500	17.000	1.0000e-07
11.500	17.250	1.0000e-07
11.500	17.500	1.0000e-07
11.500	17.750	1.0000e-07
11.500	18.000	1.0000e-07
11.500	18.250	1.5638e-06
11.500	18.500	4.0329e-06
11.500	18.750	9.5473e-06
11.500	19.000	2.0823e-05
11.500	19.250	4.1893e-05
11.500	19.500	8.0988e-05
11.500	19.750	1.5572e-04
11.500	20.000	3.0016e-04
11.500	20.250	5.7926e-04
11.500	20.500	1.1141e-03
11.500	20.750	2.1209e-03
11.500	21.000	4.0383e-03
11.500	21.250	7.6030e-03
11.500	21.500	1.4720e-02
11.500	21.750	2.7220e-02
11.500	22.000	4.3285e-02
11.500	22.250	5.6414e-02
11.500	22.500	6.3583e-02
11.500	22.750	6.8810e-02
11.500	23.000	7.4008e-02
11.500	23.250	7.5615e-02
11.500	23.500	7.6292e-02
11.500	23.750	7.6585e-02
11.500	24.000	7.6631e-02
11.750	17.000	1.0000e-07
11.750	17.250	1.0000e-07
11.750	17.500	1.0000e-07
11.750	17.750	1.0000e-07
11.750	18.000	1.0000e-07
11.750	18.250	8.2305e-07
11.750	18.500	2.1399e-06
11.750	18.750	5.4321e-06
11.750	19.000	1.2510e-05
11.750	19.250	2.6502e-05
11.750	19.500	5.2099e-05
11.750	19.750	9.9424e-05
11.750	20.000	1.9021e-04
11.750	20.250	3.6502e-04
11.750	20.500	6.9827e-04
11.750	20.750	1.3293e-03
11.750	21.000	2.5127e-03
11.750	21.250	4.7382e-03
11.750	21.500	8.9574e-03
11.750	21.750	1.7082e-02
11.750	22.000	3.0101e-02
11.750	22.250	4.5158e-02
11.750	22.500	5.7525e-02
11.750	22.750	6.4358e-02
11.750	23.000	6.9374e-02
11.750	23.250	7.4257e-02
11.750	23.500	7.5735e-02
11.750	23.750	7.6340e-02
11.750	24.000	7.6595e-02
12.000	17.000	1.0000e-07
12.000	17.250	1.0000e-07
12.000	17.500	1.0000e-07
12.000	17.750	1.0000e-07
12.000	18.000	1.0000e-07
12.000	18.250	1.0000e-07
12.000	18.500	1.1523e-06
12.000	18.750	2.7984e-06
12.000	19.000	6.8313e-06
12.000	19.250	1.5391e-05
12.000	19.500	3.1852e-05
12.000	19.750	6.1564e-05
12.000	20.000	1.1737e-04
12.000	20.250	2.2461e-04
12.000	20.500	4.3029e-04
12.000	20.750	8.1909e-04
12.000	21.000	1.5526e-03
12.000	21.250	2.9261e-03
12.000	21.500	5.4868e-03
12.000	21.750	1.0420e-02
12.000	22.000	1.9482e-02
12.000	22.250	3.2636e-02
12.000	22.500	4.6762e-02
12.000	22.750	5.8279e-02
12.000	23.000	6.4984e-02
12.000	23.250	6.9906e-02
12.000	23.500	7.4539e-02
12.000	23.750	7.5870e-02
12.000	24.000	7.6390e-02
12.250	17.000	1.0000e-07
12.250	17.250	1.0000e-07
12.250	17.500	1.0000e-07
12.250	17.750	1.0000e-07
12.250	18.000	1.0000e-07
12.250	18.250	1.0000e-07
12.250	18.500	1.0000e-07
12.250	18.750	1.3992e-06
12.250	19.000	3.4568e-06
12.250	19.250	8.0658e-06
12.250	19.500	1.7942e-05
12.250	19.750	3.6543e-05
12.250	20.000	7.0453e-05
12.250	20.250	1.3449e-04
12.250	20.500	2.5819e-04
12.250	20.750	4.9457e-04
12.250	21.000	9.4305e-04
12.250	21.250	1.7821e-03
12.250	21.500	3.3314e-03
12.250	21.750	6.2560e-03
12.250	22.000	1.1940e-02
12.250	22.250	2.1672e-02
12.250	22.500	3.4705e-02
12.250	22.750	4.8039e-02
12.250	23.000	5.8989e-02
12.250	23.250	6.5413e-02
12.250	23.500	7.0363e-02
12.250	23.750	7.4827e-02
12.250	24.000	7.5999e-02
12.500	17.000	1.0000e-07
12.500	17.250	1.0000e-07
12.500	17.500	1.0000e-07
12.500	17.750	1.0000e-07
12.500	18.000	1.0000e-07
12.500	18.250	1.0000e-07
12.500	18.500	1.0000e-07
12.500	18.750	1.0000e-07
12.500	19.000	1.6461e-06
12.500	19.250	3.8683e-06
12.500	19.500	9.0535e-06
12.500	19.750	2.0000e-05
12.500	20.000	4.0658e-05
12.500	20.250	7.8601e-05
12.500	20.500	1.5103e-04
12.500	20.750	2.9226e-04
12.500	21.000	5.6206e-04
12.500	21.250	1.0652e-03
12.500	21.500	1.9996e-03
12.500	21.750	3.7374e-03
12.500	22.000	7.0774e-03
12.500	22.250	1.3442e-02
12.500	22.500	2.3472e-02
12.500	22.750	3.6231e-02
12.500	23.000	4.9079e-02
12.500	23.250	5.9495e-02
12.500	23.500	6.5752e-02
12.500	23.750	7.0734e-02
12.500	24.000	7.5077e-02
12.750	17.000	1.0000e-07
12.750	17.250	1.0000e-07
12.750	17.500	1.0000e-07
12.750	17.750	1.0000e-07
12.750	18.000	1.0000e-07
12.750	18.250	1.0000e-07
12.750	18.500	1.0000e-07
12.750	18.750	1.0000e-07
12.750	19.000	1.0000e-07
12.750	19.250	1.8107e-06
12.750	19.500	4.1975e-06
12.750	19.750	9.7942e-06
12.750	20.000	2.1564e-05
12.750	20.250	4.4115e-05
12.750	20.500	8.6337e-05
12.750	20.750	1.6798e-04
12.750	21.000	3.2724e-04
12.750	21.250	6.2897e-04
12.750	21.500	1.1800e-03
12.750	21.750	2.2071e-03
12.750	22.000	4.1633e-03
12.750	22.250	7.9156e-03
12.750	22.500	1.4837e-02
12.750	22.750	2.4959e-02
12.750	23.000	3.7324e-02
12.750	23.250	4.9809e-02
12.750	23.500	5.9751e-02
12.750	23.750	6.5961e-02
12.750	24.000	7.1029e-02
13.000	17.000	1.0000e-07
13.000	17.250	1.0000e-07
13.000	17.500	1.0000e-07
13.000	17.750	1.0000e-07
13.000	18.000	1.0000e-07
13.000	18.250	1.0000e-07
13.000	18.500	1.0000e-07
13.000	18.750	1.0000e-07
13.000	19.000	1.0000e-07
13.000	19.250	8.2305e-07
13.000	19.500	1.8930e-06
13.000	19.750	4.3621e-06
13.000	20.000	1.0206e-05
13.000	20.250	2.2716e-05
13.000	20.500	4.7407e-05
13.000	20.750	9.3992e-05
13.000	21.000	1.8469e-04
13.000	21.250	3.6239e-04
13.000	21.500	6.8765e-04
13.000	21.750	1.2941e-03
13.000	22.000	2.4225e-03
13.000	22.250	4.5677e-03
13.000	22.500	8.6245e-03
13.000	22.750	1.5926e-02
13.000	23.000	2.6104e-02
13.000	23.250	3.8239e-02
13.000	23.500	5.0300e-02
13.000	23.750	5.9838e-02
13.000	24.000	6.6063e-02
13.250	17.000	1.0000e-07
13.250	17.250	1.0000e-07
13.250	17.500	1.0000e-07
13.250	17.750	1.0000e-07
13.250	18.000	1.0000e-07
13.250	18.250	1.0000e-07
13.250	18.500	1.0000e-07
13.250	18.750	1.0000e-07
13.250	19.000	1.0000e-07
13.250	19.250	1.0000e-07
13.250	19.500	9.0535e-07
13.250	19.750	1.8930e-06
13.250	20.000	4.3621e-06
13.250	20.250	1.0288e-05
13.250	20.500	2.3374e-05
13.250	20.750	4.9218e-05
13.250	21.000	1.0074e-04
13.250	21.250	1.9967e-04
13.250	21.500	3.8963e-04
13.250	21.750	7.3580e-04
13.250	22.000	1.3940e-03
13.250	22.250	2.5801e-03
13.250	22.500	4.8839e-03
13.250	22.750	9.0672e-03
13.250	23.000	1.6748e-02
13.250	23.250	2.7058e-02
13.250	23.500	3.9019e-02
13.250	23.750	5.0682e-02
13.250	24.000	5.9812e-02
13.500	17.000	1.0000e-07
13.500	17.250	1.0000e-07
13.500	17.500	1.0000e-07
13.500	17.750	1.0000e-07
13.500	18.000	1.0000e-07
13.500	18.250	1.0000e-07
13.500	18.500	1.0000e-07
13.500	18.750	1.0000e-07
13.500	19.000	1.0000e-07
13.500	19.250	1.0000e-07
13.500	19.500	1.0000e-07
13.500	19.750	9.0535e-07
13.500	20.000	1.8930e-06
13.500	20.250	4.4444e-06
13.500	20.500	1.0370e-05
13.500	20.750	2.3539e-05
13.500	21.000	4.9959e-05
13.500	21.250	1.0321e-04
13.500	21.500	2.0872e-04
13.500	21.750	4.0535e-04
13.500	22.000	7.7539e-04
13.500	22.250	1.4997e-03
13.500	22.500	2.7900e-03
13.500	22.750	5.1472e-03
13.500	23.000	9.5958e-03
13.500	23.250	1.7386e-02
13.500	23.500	2.7965e-02
13.500	23.750	3.9738e-02
13.500	24.000	5.0979e-02
13.750	17.000	1.0000e-07
13.750	17.250	1.0000e-07
13.750	17.500	1.0000e-07
13.750	17.750	1.0000e-07
13.750	18.000	1.0000e-07
13.750	18.250	1.0000e-07
13.750	18.500	1.0000e-07
13.750	18.750	1.0000e-07
13.750	19.000	1.0000e-07
13.750	19.250	1.0000e-07
13.750	19.500	1.0000e-07
13.750	19.750	1.0000e-07
13.750	20.000	9.0535e-07
13.750	20.250	1.9753e-06
13.750	20.500	4.5267e-06
13.750	20.750	1.0535e-05
13.750	21.000	2.3868e-05
13.750	21.250	5.0700e-05
13.750	21.500	1.0403e-04
13.750	21.750	2.0971e-04
13.750	22.000	4.1770e-04
13.750	22.250	8.2173e-04
13.750	22.500	1.5850e-03
13.750	22.750	2.9760e-03
13.750	23.000	5.4767e-03
13.750	23.250	1.0166e-02
13.750	23.500	1.8196e-02
13.750	23.750	2.9014e-02
13.750	24.000	4.0529e-02
14.000	17.000	1.0000e-07
14.000	17.250	1.0000e-07
14.000	17.500	1.0000e-07
14.000	17.750	1.0000e-07
14.000	18.000	1.0000e-07
14.000	18.250	1.0000e-07
14.000	18.500	1.0000e-07
14.000	18.750	1.0000e-07
14.000	19.000	1.0000e-07
14.000	19.250	1.0000e-07
14.000	19.500	1.0000e-07
14.000	19.750	1.0000e-07
14.000	20.000	1.0000e-07
14.000	20.250	9.8765e-07
14.000	20.500	2.1399e-06
14.000	20.750	4.7737e-06
14.000	21.000	1.0947e-05
14.000	21.250	2.4774e-05
14.000	21.500	5.2346e-05
14.000	21.750	1.0650e-04
14.000	22.000	2.1416e-04
14.000	22.250	4.3243e-04
14.000	22.500	8.7045e-04
14.000	22.750	1.7033e-03
14.000	23.000	3.1978e-03
14.000	23.250	5.8841e-03
14.000	23.500	1.0918e-02
14.000	23.750	1.9382e-02
14.000	24.000	3.0259e-02
