nFnu 10000.0A  relative to Inci 1215.00A scaled to 1215A.
Hden   Phi(H)  Eq_Width (A)
 7.000	17.000	5.8571e-02
 7.000	17.250	5.4497e-02
 7.000	17.500	3.6960e-02
 7.000	17.750	2.5778e-02
 7.000	18.000	1.9650e-02
 7.000	18.250	1.6518e-02
 7.000	18.500	1.4827e-02
 7.000	18.750	1.4135e-02
 7.000	19.000	1.3795e-02
 7.000	19.250	1.3603e-02
 7.000	19.500	1.3530e-02
 7.000	19.750	1.3500e-02
 7.000	20.000	1.3488e-02
 7.000	20.250	1.3482e-02
 7.000	20.500	1.3480e-02
 7.000	20.750	1.3478e-02
 7.000	21.000	1.3477e-02
 7.000	21.250	1.3477e-02
 7.000	21.500	1.3477e-02
 7.000	21.750	1.3477e-02
 7.000	22.000	1.3477e-02
 7.000	22.250	1.3477e-02
 7.000	22.500	1.3477e-02
 7.000	22.750	1.3478e-02
 7.000	23.000	1.3477e-02
 7.000	23.250	1.3477e-02
 7.000	23.500	1.3477e-02
 7.000	23.750	1.3477e-02
 7.000	24.000	1.3477e-02
 7.250	17.000	6.3258e-02
 7.250	17.250	5.9422e-02
 7.250	17.500	5.4414e-02
 7.250	17.750	3.6933e-02
 7.250	18.000	2.5764e-02
 7.250	18.250	1.9643e-02
 7.250	18.500	1.6517e-02
 7.250	18.750	1.4827e-02
 7.250	19.000	1.4135e-02
 7.250	19.250	1.3795e-02
 7.250	19.500	1.3603e-02
 7.250	19.750	1.3530e-02
 7.250	20.000	1.3500e-02
 7.250	20.250	1.3488e-02
 7.250	20.500	1.3482e-02
 7.250	20.750	1.3480e-02
 7.250	21.000	1.3478e-02
 7.250	21.250	1.3477e-02
 7.250	21.500	1.3477e-02
 7.250	21.750	1.3477e-02
 7.250	22.000	1.3477e-02
 7.250	22.250	1.3477e-02
 7.250	22.500	1.3477e-02
 7.250	22.750	1.3477e-02
 7.250	23.000	1.3477e-02
 7.250	23.250	1.3477e-02
 7.250	23.500	1.3477e-02
 7.250	23.750	1.3477e-02
 7.250	24.000	1.3477e-02
 7.500	17.000	6.4990e-02
 7.500	17.250	6.5076e-02
 7.500	17.500	6.0227e-02
 7.500	17.750	5.4344e-02
 7.500	18.000	3.6910e-02
 7.500	18.250	2.5750e-02
 7.500	18.500	1.9635e-02
 7.500	18.750	1.6517e-02
 7.500	19.000	1.4827e-02
 7.500	19.250	1.4135e-02
 7.500	19.500	1.3795e-02
 7.500	19.750	1.3603e-02
 7.500	20.000	1.3530e-02
 7.500	20.250	1.3500e-02
 7.500	20.500	1.3488e-02
 7.500	20.750	1.3482e-02
 7.500	21.000	1.3480e-02
 7.500	21.250	1.3478e-02
 7.500	21.500	1.3477e-02
 7.500	21.750	1.3477e-02
 7.500	22.000	1.3477e-02
 7.500	22.250	1.3477e-02
 7.500	22.500	1.3477e-02
 7.500	22.750	1.3477e-02
 7.500	23.000	1.3477e-02
 7.500	23.250	1.3477e-02
 7.500	23.500	1.3477e-02
 7.500	23.750	1.3477e-02
 7.500	24.000	1.3477e-02
 7.750	17.000	6.3977e-02
 7.750	17.250	6.7013e-02
 7.750	17.500	6.7171e-02
 7.750	17.750	6.1162e-02
 7.750	18.000	5.4286e-02
 7.750	18.250	3.6892e-02
 7.750	18.500	2.5735e-02
 7.750	18.750	1.9625e-02
 7.750	19.000	1.6515e-02
 7.750	19.250	1.4827e-02
 7.750	19.500	1.4135e-02
 7.750	19.750	1.3795e-02
 7.750	20.000	1.3603e-02
 7.750	20.250	1.3530e-02
 7.750	20.500	1.3500e-02
 7.750	20.750	1.3488e-02
 7.750	21.000	1.3482e-02
 7.750	21.250	1.3480e-02
 7.750	21.500	1.3478e-02
 7.750	21.750	1.3477e-02
 7.750	22.000	1.3477e-02
 7.750	22.250	1.3477e-02
 7.750	22.500	1.3477e-02
 7.750	22.750	1.3477e-02
 7.750	23.000	1.3477e-02
 7.750	23.250	1.3476e-02
 7.750	23.500	1.3476e-02
 7.750	23.750	1.3476e-02
 7.750	24.000	1.3476e-02
 8.000	17.000	6.2742e-02
 8.000	17.250	6.5162e-02
 8.000	17.500	6.8854e-02
 8.000	17.750	6.9189e-02
 8.000	18.000	6.1999e-02
 8.000	18.250	5.4217e-02
 8.000	18.500	3.6864e-02
 8.000	18.750	2.5719e-02
 8.000	19.000	1.9613e-02
 8.000	19.250	1.6513e-02
 8.000	19.500	1.4827e-02
 8.000	19.750	1.4135e-02
 8.000	20.000	1.3795e-02
 8.000	20.250	1.3603e-02
 8.000	20.500	1.3530e-02
 8.000	20.750	1.3500e-02
 8.000	21.000	1.3488e-02
 8.000	21.250	1.3482e-02
 8.000	21.500	1.3480e-02
 8.000	21.750	1.3478e-02
 8.000	22.000	1.3477e-02
 8.000	22.250	1.3477e-02
 8.000	22.500	1.3477e-02
 8.000	22.750	1.3477e-02
 8.000	23.000	1.3477e-02
 8.000	23.250	1.3476e-02
 8.000	23.500	1.3476e-02
 8.000	23.750	1.3476e-02
 8.000	24.000	1.3476e-02
 8.250	17.000	6.3248e-02
 8.250	17.250	6.4455e-02
 8.250	17.500	6.7685e-02
 8.250	17.750	7.2631e-02
 8.250	18.000	7.3253e-02
 8.250	18.250	6.3915e-02
 8.250	18.500	5.4184e-02
 8.250	18.750	3.6854e-02
 8.250	19.000	2.5702e-02
 8.250	19.250	1.9599e-02
 8.250	19.500	1.6511e-02
 8.250	19.750	1.4826e-02
 8.250	20.000	1.4135e-02
 8.250	20.250	1.3795e-02
 8.250	20.500	1.3604e-02
 8.250	20.750	1.3530e-02
 8.250	21.000	1.3500e-02
 8.250	21.250	1.3488e-02
 8.250	21.500	1.3482e-02
 8.250	21.750	1.3480e-02
 8.250	22.000	1.3478e-02
 8.250	22.250	1.3477e-02
 8.250	22.500	1.3477e-02
 8.250	22.750	1.3477e-02
 8.250	23.000	1.3477e-02
 8.250	23.250	1.3477e-02
 8.250	23.500	1.3476e-02
 8.250	23.750	1.3476e-02
 8.250	24.000	1.3476e-02
 8.500	17.000	6.4518e-02
 8.500	17.250	6.4992e-02
 8.500	17.500	6.7058e-02
 8.500	17.750	7.2063e-02
 8.500	18.000	7.9178e-02
 8.500	18.250	7.9823e-02
 8.500	18.500	6.6634e-02
 8.500	18.750	5.4166e-02
 8.500	19.000	3.6847e-02
 8.500	19.250	2.5682e-02
 8.500	19.500	1.9582e-02
 8.500	19.750	1.6508e-02
 8.500	20.000	1.4826e-02
 8.500	20.250	1.4135e-02
 8.500	20.500	1.3795e-02
 8.500	20.750	1.3603e-02
 8.500	21.000	1.3530e-02
 8.500	21.250	1.3500e-02
 8.500	21.500	1.3488e-02
 8.500	21.750	1.3482e-02
 8.500	22.000	1.3480e-02
 8.500	22.250	1.3478e-02
 8.500	22.500	1.3477e-02
 8.500	22.750	1.3477e-02
 8.500	23.000	1.3477e-02
 8.500	23.250	1.3477e-02
 8.500	23.500	1.3476e-02
 8.500	23.750	1.3476e-02
 8.500	24.000	1.3476e-02
 8.750	17.000	6.6120e-02
 8.750	17.250	6.6382e-02
 8.750	17.500	6.7852e-02
 8.750	17.750	7.1735e-02
 8.750	18.000	8.0328e-02
 8.750	18.250	9.0862e-02
 8.750	18.500	8.7147e-02
 8.750	18.750	6.9775e-02
 8.750	19.000	5.4162e-02
 8.750	19.250	3.6841e-02
 8.750	19.500	2.5661e-02
 8.750	19.750	1.9564e-02
 8.750	20.000	1.6506e-02
 8.750	20.250	1.4826e-02
 8.750	20.500	1.4135e-02
 8.750	20.750	1.3795e-02
 8.750	21.000	1.3603e-02
 8.750	21.250	1.3530e-02
 8.750	21.500	1.3500e-02
 8.750	21.750	1.3488e-02
 8.750	22.000	1.3482e-02
 8.750	22.250	1.3480e-02
 8.750	22.500	1.3478e-02
 8.750	22.750	1.3477e-02
 8.750	23.000	1.3477e-02
 8.750	23.250	1.3477e-02
 8.750	23.500	1.3477e-02
 8.750	23.750	1.3477e-02
 8.750	24.000	1.3476e-02
 9.000	17.000	6.7860e-02
 9.000	17.250	6.8134e-02
 9.000	17.500	6.9609e-02
 9.000	17.750	7.3263e-02
 9.000	18.000	8.1539e-02
 9.000	18.250	9.5619e-02
 9.000	18.500	1.0711e-01
 9.000	18.750	9.7065e-02
 9.000	19.000	7.4729e-02
 9.000	19.250	5.4186e-02
 9.000	19.500	3.6835e-02
 9.000	19.750	2.5641e-02
 9.000	20.000	1.9545e-02
 9.000	20.250	1.6502e-02
 9.000	20.500	1.4825e-02
 9.000	20.750	1.4135e-02
 9.000	21.000	1.3795e-02
 9.000	21.250	1.3604e-02
 9.000	21.500	1.3530e-02
 9.000	21.750	1.3500e-02
 9.000	22.000	1.3488e-02
 9.000	22.250	1.3482e-02
 9.000	22.500	1.3480e-02
 9.000	22.750	1.3478e-02
 9.000	23.000	1.3477e-02
 9.000	23.250	1.3477e-02
 9.000	23.500	1.3477e-02
 9.000	23.750	1.3477e-02
 9.000	24.000	1.3477e-02
 9.250	17.000	6.9724e-02
 9.250	17.250	7.0087e-02
 9.250	17.500	7.1939e-02
 9.250	17.750	7.6199e-02
 9.250	18.000	8.5016e-02
 9.250	18.250	1.0015e-01
 9.250	18.500	1.1753e-01
 9.250	18.750	1.2428e-01
 9.250	19.000	1.0504e-01
 9.250	19.250	7.9895e-02
 9.250	19.500	5.4235e-02
 9.250	19.750	3.6827e-02
 9.250	20.000	2.5623e-02
 9.250	20.250	1.9526e-02
 9.250	20.500	1.6499e-02
 9.250	20.750	1.4825e-02
 9.250	21.000	1.4135e-02
 9.250	21.250	1.3795e-02
 9.250	21.500	1.3602e-02
 9.250	21.750	1.3523e-02
 9.250	22.000	1.3493e-02
 9.250	22.250	1.3481e-02
 9.250	22.500	1.3482e-02
 9.250	22.750	1.3480e-02
 9.250	23.000	1.3478e-02
 9.250	23.250	1.3477e-02
 9.250	23.500	1.3477e-02
 9.250	23.750	1.3477e-02
 9.250	24.000	1.3477e-02
 9.500	17.000	7.1922e-02
 9.500	17.250	7.2342e-02
 9.500	17.500	7.4717e-02
 9.500	17.750	8.0156e-02
 9.500	18.000	9.0931e-02
 9.500	18.250	1.0804e-01
 9.500	18.500	1.2645e-01
 9.500	18.750	1.4204e-01
 9.500	19.000	1.4356e-01
 9.500	19.250	1.1303e-01
 9.500	19.500	8.3625e-02
 9.500	19.750	5.4227e-02
 9.500	20.000	3.6815e-02
 9.500	20.250	2.5607e-02
 9.500	20.500	1.9508e-02
 9.500	20.750	1.6496e-02
 9.500	21.000	1.4822e-02
 9.500	21.250	1.4129e-02
 9.500	21.500	1.3788e-02
 9.500	21.750	1.3595e-02
 9.500	22.000	1.3519e-02
 9.500	22.250	1.3488e-02
 9.500	22.500	1.3476e-02
 9.500	22.750	1.3470e-02
 9.500	23.000	1.3467e-02
 9.500	23.250	1.3466e-02
 9.500	23.500	1.3469e-02
 9.500	23.750	1.3469e-02
 9.500	24.000	1.3468e-02
 9.750	17.000	7.4503e-02
 9.750	17.250	7.4961e-02
 9.750	17.500	7.7881e-02
 9.750	17.750	8.4904e-02
 9.750	18.000	9.8961e-02
 9.750	18.250	1.1908e-01
 9.750	18.500	1.3888e-01
 9.750	18.750	1.5597e-01
 9.750	19.000	1.6733e-01
 9.750	19.250	1.5885e-01
 9.750	19.500	1.2349e-01
 9.750	19.750	8.5313e-02
 9.750	20.000	5.4132e-02
 9.750	20.250	3.6807e-02
 9.750	20.500	2.5596e-02
 9.750	20.750	1.9494e-02
 9.750	21.000	1.6493e-02
 9.750	21.250	1.4823e-02
 9.750	21.500	1.4132e-02
 9.750	21.750	1.3789e-02
 9.750	22.000	1.3596e-02
 9.750	22.250	1.3520e-02
 9.750	22.500	1.3489e-02
 9.750	22.750	1.3475e-02
 9.750	23.000	1.3470e-02
 9.750	23.250	1.3467e-02
 9.750	23.500	1.3466e-02
 9.750	23.750	1.3465e-02
 9.750	24.000	1.3465e-02
10.000	17.000	7.7549e-02
10.000	17.250	7.8186e-02
10.000	17.500	8.1790e-02
10.000	17.750	9.0887e-02
10.000	18.000	1.0876e-01
10.000	18.250	1.3235e-01
10.000	18.500	1.5314e-01
10.000	18.750	1.7106e-01
10.000	19.000	1.8510e-01
10.000	19.250	1.9356e-01
10.000	19.500	1.7381e-01
10.000	19.750	1.3275e-01
10.000	20.000	8.4806e-02
10.000	20.250	5.3967e-02
10.000	20.500	3.6791e-02
10.000	20.750	2.5588e-02
10.000	21.000	1.9481e-02
10.000	21.250	1.6490e-02
10.000	21.500	1.4822e-02
10.000	21.750	1.4134e-02
10.000	22.000	1.3791e-02
10.000	22.250	1.3596e-02
10.000	22.500	1.3522e-02
10.000	22.750	1.3491e-02
10.000	23.000	1.3477e-02
10.000	23.250	1.3470e-02
10.000	23.500	1.3467e-02
10.000	23.750	1.3465e-02
10.000	24.000	1.3465e-02
10.250	17.000	8.2156e-02
10.250	17.250	8.2270e-02
10.250	17.500	8.7020e-02
10.250	17.750	9.8829e-02
10.250	18.000	1.2027e-01
10.250	18.250	1.4633e-01
10.250	18.500	1.6918e-01
10.250	18.750	1.8785e-01
10.250	19.000	2.0251e-01
10.250	19.250	2.1509e-01
10.250	19.500	2.1316e-01
10.250	19.750	1.8526e-01
10.250	20.000	1.3828e-01
10.250	20.250	8.4728e-02
10.250	20.500	5.3712e-02
10.250	20.750	3.6775e-02
10.250	21.000	2.5580e-02
10.250	21.250	1.9471e-02
10.250	21.500	1.6488e-02
10.250	21.750	1.4822e-02
10.250	22.000	1.4134e-02
10.250	22.250	1.3794e-02
10.250	22.500	1.3596e-02
10.250	22.750	1.3522e-02
10.250	23.000	1.3492e-02
10.250	23.250	1.3478e-02
10.250	23.500	1.3472e-02
10.250	23.750	1.3468e-02
10.250	24.000	1.3467e-02
10.500	17.000	8.9098e-02
10.500	17.250	8.8515e-02
10.500	17.500	9.4321e-02
10.500	17.750	1.0954e-01
10.500	18.000	1.3394e-01
10.500	18.250	1.6220e-01
10.500	18.500	1.8494e-01
10.500	18.750	2.0375e-01
10.500	19.000	2.1825e-01
10.500	19.250	2.3001e-01
10.500	19.500	2.3651e-01
10.500	19.750	2.2827e-01
10.500	20.000	1.9736e-01
10.500	20.250	1.4199e-01
10.500	20.500	8.4354e-02
10.500	20.750	5.3438e-02
10.500	21.000	3.6760e-02
10.500	21.250	2.5567e-02
10.500	21.500	1.9464e-02
10.500	21.750	1.6486e-02
10.500	22.000	1.4821e-02
10.500	22.250	1.4134e-02
10.500	22.500	1.3795e-02
10.500	22.750	1.3598e-02
10.500	23.000	1.3523e-02
10.500	23.250	1.3493e-02
10.500	23.500	1.3480e-02
10.500	23.750	1.3473e-02
10.500	24.000	1.3470e-02
10.750	17.000	9.8997e-02
10.750	17.250	9.7395e-02
10.750	17.500	1.0484e-01
10.750	17.750	1.2313e-01
10.750	18.000	1.4993e-01
10.750	18.250	1.7784e-01
10.750	18.500	2.0038e-01
10.750	18.750	2.1891e-01
10.750	19.000	2.3362e-01
10.750	19.250	2.4434e-01
10.750	19.500	2.5281e-01
10.750	19.750	2.5614e-01
10.750	20.000	2.4487e-01
10.750	20.250	2.1070e-01
10.750	20.500	1.4143e-01
10.750	20.750	8.3913e-02
10.750	21.000	5.3247e-02
10.750	21.250	3.6819e-02
10.750	21.500	2.5545e-02
10.750	21.750	1.9456e-02
10.750	22.000	1.6484e-02
10.750	22.250	1.4819e-02
10.750	22.500	1.4134e-02
10.750	22.750	1.3795e-02
10.750	23.000	1.3601e-02
10.750	23.250	1.3523e-02
10.750	23.500	1.3493e-02
10.750	23.750	1.3480e-02
10.750	24.000	1.3474e-02
11.000	17.000	1.1258e-01
11.000	17.250	1.0938e-01
11.000	17.500	1.1824e-01
11.000	17.750	1.3930e-01
11.000	18.000	1.6704e-01
11.000	18.250	1.9408e-01
11.000	18.500	2.1724e-01
11.000	18.750	2.3536e-01
11.000	19.000	2.4979e-01
11.000	19.250	2.5999e-01
11.000	19.500	2.6704e-01
11.000	19.750	2.7364e-01
11.000	20.000	2.7568e-01
11.000	20.250	2.6202e-01
11.000	20.500	2.2490e-01
11.000	20.750	1.4111e-01
11.000	21.000	8.3131e-02
11.000	21.250	5.3166e-02
11.000	21.500	3.6971e-02
11.000	21.750	2.5501e-02
11.000	22.000	1.9448e-02
11.000	22.250	1.6481e-02
11.000	22.500	1.4818e-02
11.000	22.750	1.4133e-02
11.000	23.000	1.3795e-02
11.000	23.250	1.3603e-02
11.000	23.500	1.3524e-02
11.000	23.750	1.3493e-02
11.000	24.000	1.3481e-02
11.250	17.000	1.3106e-01
11.250	17.250	1.2481e-01
11.250	17.500	1.3401e-01
11.250	17.750	1.5680e-01
11.250	18.000	1.8504e-01
11.250	18.250	2.1083e-01
11.250	18.500	2.3186e-01
11.250	18.750	2.5027e-01
11.250	19.000	2.6390e-01
11.250	19.250	2.7364e-01
11.250	19.500	2.8130e-01
11.250	19.750	2.8723e-01
11.250	20.000	2.9317e-01
11.250	20.250	2.9499e-01
11.250	20.500	2.7999e-01
11.250	20.750	2.3663e-01
11.250	21.000	1.4021e-01
11.250	21.250	8.2720e-02
11.250	21.500	5.3555e-02
11.250	21.750	3.7080e-02
11.250	22.000	2.5431e-02
11.250	22.250	1.9437e-02
11.250	22.500	1.6478e-02
11.250	22.750	1.4815e-02
11.250	23.000	1.4132e-02
11.250	23.250	1.3794e-02
11.250	23.500	1.3603e-02
11.250	23.750	1.3527e-02
11.250	24.000	1.3494e-02
11.500	17.000	1.5469e-01
11.500	17.250	1.4480e-01
11.500	17.500	1.5252e-01
11.500	17.750	1.7522e-01
11.500	18.000	2.0315e-01
11.500	18.250	2.2803e-01
11.500	18.500	2.4767e-01
11.500	18.750	2.6536e-01
11.500	19.000	2.7799e-01
11.500	19.250	2.8768e-01
11.500	19.500	2.9518e-01
11.500	19.750	3.0145e-01
11.500	20.000	3.0654e-01
11.500	20.250	3.1259e-01
11.500	20.500	3.1487e-01
11.500	20.750	2.9847e-01
11.500	21.000	2.4577e-01
11.500	21.250	1.3964e-01
11.500	21.500	8.2866e-02
11.500	21.750	5.4452e-02
11.500	22.000	3.6859e-02
11.500	22.250	2.5329e-02
11.500	22.500	1.9419e-02
11.500	22.750	1.6472e-02
11.500	23.000	1.4811e-02
11.500	23.250	1.4131e-02
11.500	23.500	1.3794e-02
11.500	23.750	1.3603e-02
11.500	24.000	1.3529e-02
11.750	17.000	1.8670e-01
11.750	17.250	1.7030e-01
11.750	17.500	1.7428e-01
11.750	17.750	1.9514e-01
11.750	18.000	2.2162e-01
11.750	18.250	2.4515e-01
11.750	18.500	2.6374e-01
11.750	18.750	2.7913e-01
11.750	19.000	2.9216e-01
11.750	19.250	3.0164e-01
11.750	19.500	3.0881e-01
11.750	19.750	3.1435e-01
11.750	20.000	3.1856e-01
11.750	20.250	3.2381e-01
11.750	20.500	3.3153e-01
11.750	20.750	3.3477e-01
11.750	21.000	3.1615e-01
11.750	21.250	2.4375e-01
11.750	21.500	1.3977e-01
11.750	21.750	8.3281e-02
11.750	22.000	5.5636e-02
11.750	22.250	3.6398e-02
11.750	22.500	2.5190e-02
11.750	22.750	1.9391e-02
11.750	23.000	1.6462e-02
11.750	23.250	1.4806e-02
11.750	23.500	1.4128e-02
11.750	23.750	1.3793e-02
11.750	24.000	1.3603e-02
12.000	17.000	2.2977e-01
12.000	17.250	2.0429e-01
12.000	17.500	2.0112e-01
12.000	17.750	2.1666e-01
12.000	18.000	2.3974e-01
12.000	18.250	2.6176e-01
12.000	18.500	2.8058e-01
12.000	18.750	2.9591e-01
12.000	19.000	3.0788e-01
12.000	19.250	3.1683e-01
12.000	19.500	3.2319e-01
12.000	19.750	3.2700e-01
12.000	20.000	3.3028e-01
12.000	20.250	3.3403e-01
12.000	20.500	3.4010e-01
12.000	20.750	3.4967e-01
12.000	21.000	3.5441e-01
12.000	21.250	3.3127e-01
12.000	21.500	2.4305e-01
12.000	21.750	1.3884e-01
12.000	22.000	8.4184e-02
12.000	22.250	5.6316e-02
12.000	22.500	3.5931e-02
12.000	22.750	2.5003e-02
12.000	23.000	1.9347e-02
12.000	23.250	1.6445e-02
12.000	23.500	1.4799e-02
12.000	23.750	1.4124e-02
12.000	24.000	1.3791e-02
12.250	17.000	2.7035e-01
12.250	17.250	2.4977e-01
12.250	17.500	2.3607e-01
12.250	17.750	2.4205e-01
12.250	18.000	2.5955e-01
12.250	18.250	2.8010e-01
12.250	18.500	2.9919e-01
12.250	18.750	3.1428e-01
12.250	19.000	3.2494e-01
12.250	19.250	3.3252e-01
12.250	19.500	3.3763e-01
12.250	19.750	3.3990e-01
12.250	20.000	3.4215e-01
12.250	20.250	3.4376e-01
12.250	20.500	3.4839e-01
12.250	20.750	3.5605e-01
12.250	21.000	3.6769e-01
12.250	21.250	3.7277e-01
12.250	21.500	3.3990e-01
12.250	21.750	2.3669e-01
12.250	22.000	1.3745e-01
12.250	22.250	8.5763e-02
12.250	22.500	5.5887e-02
12.250	22.750	3.5398e-02
12.250	23.000	2.4798e-02
12.250	23.250	1.9273e-02
12.250	23.500	1.6417e-02
12.250	23.750	1.4786e-02
12.250	24.000	1.4117e-02
12.500	17.000	2.5106e-01
12.500	17.250	2.9539e-01
12.500	17.500	2.8047e-01
12.500	17.750	2.7485e-01
12.500	18.000	2.8429e-01
12.500	18.250	3.0076e-01
12.500	18.500	3.1860e-01
12.500	18.750	3.3408e-01
12.500	19.000	3.4412e-01
12.500	19.250	3.4969e-01
12.500	19.500	3.5244e-01
12.500	19.750	3.5317e-01
12.500	20.000	3.5348e-01
12.500	20.250	3.5414e-01
12.500	20.500	3.5585e-01
12.500	20.750	3.6119e-01
12.500	21.000	3.7173e-01
12.500	21.250	3.8474e-01
12.500	21.500	3.8377e-01
12.500	21.750	3.4438e-01
12.500	22.000	2.2844e-01
12.500	22.250	1.3565e-01
12.500	22.500	8.6794e-02
12.500	22.750	5.4725e-02
12.500	23.000	3.4778e-02
12.500	23.250	2.4495e-02
12.500	23.500	1.9162e-02
12.500	23.750	1.6367e-02
12.500	24.000	1.4769e-02
12.750	17.000	2.2682e-01
12.750	17.250	2.7737e-01
12.750	17.500	3.2501e-01
12.750	17.750	3.1410e-01
12.750	18.000	3.1499e-01
12.750	18.250	3.2612e-01
12.750	18.500	3.4064e-01
12.750	18.750	3.5471e-01
12.750	19.000	3.6362e-01
12.750	19.250	3.6808e-01
12.750	19.500	3.6799e-01
12.750	19.750	3.6652e-01
12.750	20.000	3.6483e-01
12.750	20.250	3.6353e-01
12.750	20.500	3.6410e-01
12.750	20.750	3.6730e-01
12.750	21.000	3.7441e-01
12.750	21.250	3.8814e-01
12.750	21.500	3.9697e-01
12.750	21.750	3.9564e-01
12.750	22.000	3.3994e-01
12.750	22.250	2.1783e-01
12.750	22.500	1.3395e-01
12.750	22.750	8.5867e-02
12.750	23.000	5.3087e-02
12.750	23.250	3.3996e-02
12.750	23.500	2.4137e-02
12.750	23.750	1.8995e-02
12.750	24.000	1.6281e-02
13.000	17.000	1.2864e-01
13.000	17.250	1.6467e-01
13.000	17.500	2.5191e-01
13.000	17.750	3.2121e-01
13.000	18.000	3.4040e-01
13.000	18.250	3.5823e-01
13.000	18.500	3.6789e-01
13.000	18.750	3.7656e-01
13.000	19.000	3.8346e-01
13.000	19.250	3.8645e-01
13.000	19.500	3.8473e-01
13.000	19.750	3.8052e-01
13.000	20.000	3.7637e-01
13.000	20.250	3.7373e-01
13.000	20.500	3.7234e-01
13.000	20.750	3.7394e-01
13.000	21.000	3.7935e-01
13.000	21.250	3.9083e-01
13.000	21.500	4.0123e-01
13.000	21.750	4.1470e-01
13.000	22.000	4.0037e-01
13.000	22.250	3.2420e-01
13.000	22.500	2.0530e-01
13.000	22.750	1.3015e-01
13.000	23.000	8.2669e-02
13.000	23.250	5.1077e-02
13.000	23.500	3.3083e-02
13.000	23.750	2.3669e-02
13.000	24.000	1.8739e-02
13.250	17.000	1.2820e-01
13.250	17.250	1.4724e-01
13.250	17.500	1.9207e-01
13.250	17.750	2.5976e-01
13.250	18.000	3.3861e-01
13.250	18.250	3.7255e-01
13.250	18.500	4.0057e-01
13.250	18.750	4.0425e-01
13.250	19.000	4.0603e-01
13.250	19.250	4.0604e-01
13.250	19.500	4.0140e-01
13.250	19.750	3.9629e-01
13.250	20.000	3.8905e-01
13.250	20.250	3.8389e-01
13.250	20.500	3.8097e-01
13.250	20.750	3.8056e-01
13.250	21.000	3.8537e-01
13.250	21.250	3.9374e-01
13.250	21.500	4.0316e-01
13.250	21.750	4.1754e-01
13.250	22.000	4.2450e-01
13.250	22.250	3.8436e-01
13.250	22.500	2.9674e-01
13.250	22.750	1.8629e-01
13.250	23.000	1.2110e-01
13.250	23.250	7.7773e-02
13.250	23.500	4.8727e-02
13.250	23.750	3.1937e-02
13.250	24.000	2.3049e-02
13.500	17.000	1.2844e-01
13.500	17.250	1.4458e-01
13.500	17.500	1.8277e-01
13.500	17.750	2.3761e-01
13.500	18.000	3.1909e-01
13.500	18.250	3.9729e-01
13.500	18.500	4.1824e-01
13.500	18.750	4.3855e-01
13.500	19.000	4.3416e-01
13.500	19.250	4.2772e-01
13.500	19.500	4.2091e-01
13.500	19.750	4.1227e-01
13.500	20.000	4.0401e-01
13.500	20.250	3.9702e-01
13.500	20.500	3.9126e-01
13.500	20.750	3.8811e-01
13.500	21.000	3.8880e-01
13.500	21.250	3.9484e-01
13.500	21.500	4.0267e-01
13.500	21.750	4.1792e-01
13.500	22.000	4.2730e-01
13.500	22.250	4.1156e-01
13.500	22.500	3.4781e-01
13.500	22.750	2.5863e-01
13.500	23.000	1.6602e-01
13.500	23.250	1.0853e-01
13.500	23.500	7.1395e-02
13.500	23.750	4.5791e-02
13.500	24.000	3.0463e-02
13.750	17.000	1.2741e-01
13.750	17.250	1.4793e-01
13.750	17.500	1.8211e-01
13.750	17.750	2.2108e-01
13.750	18.000	2.9643e-01
13.750	18.250	3.8623e-01
13.750	18.500	4.4534e-01
13.750	18.750	4.6312e-01
13.750	19.000	4.6949e-01
13.750	19.250	4.5797e-01
13.750	19.500	4.4565e-01
13.750	19.750	4.3359e-01
13.750	20.000	4.2207e-01
13.750	20.250	4.1227e-01
13.750	20.500	4.0465e-01
13.750	20.750	3.9898e-01
13.750	21.000	3.9639e-01
13.750	21.250	3.9872e-01
13.750	21.500	4.0263e-01
13.750	21.750	4.1760e-01
13.750	22.000	4.3014e-01
13.750	22.250	4.1367e-01
13.750	22.500	3.4862e-01
13.750	22.750	2.7099e-01
13.750	23.000	2.1900e-01
13.750	23.250	1.4376e-01
13.750	23.500	9.5594e-02
13.750	23.750	6.4704e-02
13.750	24.000	4.2257e-02
14.000	17.000	1.2715e-01
14.000	17.250	1.4605e-01
14.000	17.500	1.8181e-01
14.000	17.750	2.1974e-01
14.000	18.000	2.7267e-01
14.000	18.250	3.5228e-01
14.000	18.500	4.2779e-01
14.000	18.750	4.8495e-01
14.000	19.000	5.0911e-01
14.000	19.250	4.9418e-01
14.000	19.500	4.7739e-01
14.000	19.750	4.6049e-01
14.000	20.000	4.4571e-01
14.000	20.250	4.3254e-01
14.000	20.500	4.2205e-01
14.000	20.750	4.1411e-01
14.000	21.000	4.0926e-01
14.000	21.250	4.0919e-01
14.000	21.500	4.0983e-01
14.000	21.750	4.2378e-01
14.000	22.000	4.3590e-01
14.000	22.250	4.1790e-01
14.000	22.500	3.4281e-01
14.000	22.750	2.5161e-01
14.000	23.000	1.9629e-01
14.000	23.250	1.6223e-01
14.000	23.500	1.2135e-01
14.000	23.750	8.3143e-02
14.000	24.000	5.7242e-02
