InwT 1103.23A  relative to Inci 1215.00A scaled to 1215A.
Hden   Phi(H)  Eq_Width (A)
 7.000	17.000	1.2914e-01
 7.000	17.250	9.4522e-02
 7.000	17.500	9.6890e-02
 7.000	17.750	9.5433e-02
 7.000	18.000	8.9360e-02
 7.000	18.250	8.4438e-02
 7.000	18.500	8.0839e-02
 7.000	18.750	7.9064e-02
 7.000	19.000	7.8152e-02
 7.000	19.250	7.7625e-02
 7.000	19.500	7.7402e-02
 7.000	19.750	7.7308e-02
 7.000	20.000	7.7267e-02
 7.000	20.250	7.7248e-02
 7.000	20.500	7.7238e-02
 7.000	20.750	7.7233e-02
 7.000	21.000	7.7231e-02
 7.000	21.250	7.7229e-02
 7.000	21.500	7.7229e-02
 7.000	21.750	7.7228e-02
 7.000	22.000	7.7229e-02
 7.000	22.250	7.7229e-02
 7.000	22.500	7.7229e-02
 7.000	22.750	7.7238e-02
 7.000	23.000	7.7231e-02
 7.000	23.250	7.7232e-02
 7.000	23.500	7.7232e-02
 7.000	23.750	7.7232e-02
 7.000	24.000	7.7233e-02
 7.250	17.000	1.5569e-01
 7.250	17.250	1.2604e-01
 7.250	17.500	9.3545e-02
 7.250	17.750	9.6568e-02
 7.250	18.000	9.5278e-02
 7.250	18.250	8.9285e-02
 7.250	18.500	8.4399e-02
 7.250	18.750	8.0826e-02
 7.250	19.000	7.9058e-02
 7.250	19.250	7.8150e-02
 7.250	19.500	7.7624e-02
 7.250	19.750	7.7401e-02
 7.250	20.000	7.7308e-02
 7.250	20.250	7.7267e-02
 7.250	20.500	7.7248e-02
 7.250	20.750	7.7238e-02
 7.250	21.000	7.7233e-02
 7.250	21.250	7.7230e-02
 7.250	21.500	7.7229e-02
 7.250	21.750	7.7228e-02
 7.250	22.000	7.7228e-02
 7.250	22.250	7.7228e-02
 7.250	22.500	7.7228e-02
 7.250	22.750	7.7228e-02
 7.250	23.000	7.7228e-02
 7.250	23.250	7.7228e-02
 7.250	23.500	7.7228e-02
 7.250	23.750	7.7228e-02
 7.250	24.000	7.7229e-02
 7.500	17.000	1.7938e-01
 7.500	17.250	1.5143e-01
 7.500	17.500	1.2313e-01
 7.500	17.750	9.2623e-02
 7.500	18.000	9.6364e-02
 7.500	18.250	9.5197e-02
 7.500	18.500	8.9247e-02
 7.500	18.750	8.4375e-02
 7.500	19.000	8.0817e-02
 7.500	19.250	7.9055e-02
 7.500	19.500	7.8149e-02
 7.500	19.750	7.7624e-02
 7.500	20.000	7.7402e-02
 7.500	20.250	7.7308e-02
 7.500	20.500	7.7267e-02
 7.500	20.750	7.7248e-02
 7.500	21.000	7.7238e-02
 7.500	21.250	7.7233e-02
 7.500	21.500	7.7230e-02
 7.500	21.750	7.7229e-02
 7.500	22.000	7.7228e-02
 7.500	22.250	7.7228e-02
 7.500	22.500	7.7227e-02
 7.500	22.750	7.7227e-02
 7.500	23.000	7.7228e-02
 7.500	23.250	7.7227e-02
 7.500	23.500	7.7227e-02
 7.500	23.750	7.7227e-02
 7.500	24.000	7.7227e-02
 7.750	17.000	1.9657e-01
 7.750	17.250	1.7547e-01
 7.750	17.500	1.4698e-01
 7.750	17.750	1.2013e-01
 7.750	18.000	9.1928e-02
 7.750	18.250	9.6253e-02
 7.750	18.500	9.5165e-02
 7.750	18.750	8.9232e-02
 7.750	19.000	8.4359e-02
 7.750	19.250	8.0811e-02
 7.750	19.500	7.9053e-02
 7.750	19.750	7.8148e-02
 7.750	20.000	7.7624e-02
 7.750	20.250	7.7401e-02
 7.750	20.500	7.7308e-02
 7.750	20.750	7.7267e-02
 7.750	21.000	7.7247e-02
 7.750	21.250	7.7238e-02
 7.750	21.500	7.7233e-02
 7.750	21.750	7.7230e-02
 7.750	22.000	7.7229e-02
 7.750	22.250	7.7228e-02
 7.750	22.500	7.7227e-02
 7.750	22.750	7.7227e-02
 7.750	23.000	7.7227e-02
 7.750	23.250	7.7227e-02
 7.750	23.500	7.7227e-02
 7.750	23.750	7.7227e-02
 7.750	24.000	7.7227e-02
 8.000	17.000	2.0486e-01
 8.000	17.250	1.9327e-01
 8.000	17.500	1.7168e-01
 8.000	17.750	1.4271e-01
 8.000	18.000	1.1727e-01
 8.000	18.250	9.1424e-02
 8.000	18.500	9.6187e-02
 8.000	18.750	9.5165e-02
 8.000	19.000	8.9236e-02
 8.000	19.250	8.4352e-02
 8.000	19.500	8.0808e-02
 8.000	19.750	7.9051e-02
 8.000	20.000	7.8147e-02
 8.000	20.250	7.7624e-02
 8.000	20.500	7.7401e-02
 8.000	20.750	7.7308e-02
 8.000	21.000	7.7267e-02
 8.000	21.250	7.7248e-02
 8.000	21.500	7.7238e-02
 8.000	21.750	7.7233e-02
 8.000	22.000	7.7230e-02
 8.000	22.250	7.7229e-02
 8.000	22.500	7.7228e-02
 8.000	22.750	7.7227e-02
 8.000	23.000	7.7227e-02
 8.000	23.250	7.7227e-02
 8.000	23.500	7.7227e-02
 8.000	23.750	7.7227e-02
 8.000	24.000	7.7227e-02
 8.250	17.000	2.0704e-01
 8.250	17.250	2.0184e-01
 8.250	17.500	1.8976e-01
 8.250	17.750	1.6685e-01
 8.250	18.000	1.3650e-01
 8.250	18.250	1.1295e-01
 8.250	18.500	9.1110e-02
 8.250	18.750	9.6193e-02
 8.250	19.000	9.5187e-02
 8.250	19.250	8.9252e-02
 8.250	19.500	8.4347e-02
 8.250	19.750	8.0805e-02
 8.250	20.000	7.9050e-02
 8.250	20.250	7.8147e-02
 8.250	20.500	7.7624e-02
 8.250	20.750	7.7401e-02
 8.250	21.000	7.7308e-02
 8.250	21.250	7.7267e-02
 8.250	21.500	7.7248e-02
 8.250	21.750	7.7238e-02
 8.250	22.000	7.7233e-02
 8.250	22.250	7.7230e-02
 8.250	22.500	7.7229e-02
 8.250	22.750	7.7228e-02
 8.250	23.000	7.7228e-02
 8.250	23.250	7.7227e-02
 8.250	23.500	7.7227e-02
 8.250	23.750	7.7227e-02
 8.250	24.000	7.7227e-02
 8.500	17.000	2.0544e-01
 8.500	17.250	2.0427e-01
 8.500	17.500	1.9862e-01
 8.500	17.750	1.8511e-01
 8.500	18.000	1.6010e-01
 8.500	18.250	1.2798e-01
 8.500	18.500	1.0761e-01
 8.500	18.750	9.0929e-02
 8.500	19.000	9.6249e-02
 8.500	19.250	9.5222e-02
 8.500	19.500	8.9276e-02
 8.500	19.750	8.4343e-02
 8.500	20.000	8.0803e-02
 8.500	20.250	7.9050e-02
 8.500	20.500	7.8147e-02
 8.500	20.750	7.7624e-02
 8.500	21.000	7.7401e-02
 8.500	21.250	7.7308e-02
 8.500	21.500	7.7267e-02
 8.500	21.750	7.7248e-02
 8.500	22.000	7.7238e-02
 8.500	22.250	7.7233e-02
 8.500	22.500	7.7230e-02
 8.500	22.750	7.7229e-02
 8.500	23.000	7.7228e-02
 8.500	23.250	7.7227e-02
 8.500	23.500	7.7227e-02
 8.500	23.750	7.7227e-02
 8.500	24.000	7.7227e-02
 8.750	17.000	2.0116e-01
 8.750	17.250	2.0286e-01
 8.750	17.500	2.0123e-01
 8.750	17.750	1.9444e-01
 8.750	18.000	1.7845e-01
 8.750	18.250	1.4982e-01
 8.750	18.500	1.1947e-01
 8.750	18.750	1.0244e-01
 8.750	19.000	9.0819e-02
 8.750	19.250	9.6311e-02
 8.750	19.500	9.5266e-02
 8.750	19.750	8.9307e-02
 8.750	20.000	8.4341e-02
 8.750	20.250	8.0802e-02
 8.750	20.500	7.9049e-02
 8.750	20.750	7.8147e-02
 8.750	21.000	7.7624e-02
 8.750	21.250	7.7401e-02
 8.750	21.500	7.7308e-02
 8.750	21.750	7.7267e-02
 8.750	22.000	7.7248e-02
 8.750	22.250	7.7238e-02
 8.750	22.500	7.7233e-02
 8.750	22.750	7.7230e-02
 8.750	23.000	7.7229e-02
 8.750	23.250	7.7228e-02
 8.750	23.500	7.7227e-02
 8.750	23.750	7.7227e-02
 8.750	24.000	7.7227e-02
 9.000	17.000	1.9460e-01
 9.000	17.250	1.9865e-01
 9.000	17.500	1.9990e-01
 9.000	17.750	1.9719e-01
 9.000	18.000	1.8781e-01
 9.000	18.250	1.6840e-01
 9.000	18.500	1.3751e-01
 9.000	18.750	1.0910e-01
 9.000	19.000	9.5493e-02
 9.000	19.250	9.0724e-02
 9.000	19.500	9.6374e-02
 9.000	19.750	9.5309e-02
 9.000	20.000	8.9339e-02
 9.000	20.250	8.4340e-02
 9.000	20.500	8.0801e-02
 9.000	20.750	7.9049e-02
 9.000	21.000	7.8147e-02
 9.000	21.250	7.7624e-02
 9.000	21.500	7.7401e-02
 9.000	21.750	7.7308e-02
 9.000	22.000	7.7267e-02
 9.000	22.250	7.7248e-02
 9.000	22.500	7.7238e-02
 9.000	22.750	7.7233e-02
 9.000	23.000	7.7230e-02
 9.000	23.250	7.7229e-02
 9.000	23.500	7.7228e-02
 9.000	23.750	7.7227e-02
 9.000	24.000	7.7227e-02
 9.250	17.000	1.8602e-01
 9.250	17.250	1.9199e-01
 9.250	17.500	1.9558e-01
 9.250	17.750	1.9573e-01
 9.250	18.000	1.9105e-01
 9.250	18.250	1.7833e-01
 9.250	18.500	1.5647e-01
 9.250	18.750	1.2604e-01
 9.250	19.000	1.0245e-01
 9.250	19.250	8.9998e-02
 9.250	19.500	9.0611e-02
 9.250	19.750	9.6408e-02
 9.250	20.000	9.5347e-02
 9.250	20.250	8.9370e-02
 9.250	20.500	8.4339e-02
 9.250	20.750	8.0800e-02
 9.250	21.000	7.9049e-02
 9.250	21.250	7.8147e-02
 9.250	21.500	7.7615e-02
 9.250	21.750	7.7364e-02
 9.250	22.000	7.7267e-02
 9.250	22.250	7.7229e-02
 9.250	22.500	7.7247e-02
 9.250	22.750	7.7237e-02
 9.250	23.000	7.7233e-02
 9.250	23.250	7.7230e-02
 9.250	23.500	7.7229e-02
 9.250	23.750	7.7228e-02
 9.250	24.000	7.7227e-02
 9.500	17.000	1.7588e-01
 9.500	17.250	1.8319e-01
 9.500	17.500	1.8861e-01
 9.500	17.750	1.9104e-01
 9.500	18.000	1.8923e-01
 9.500	18.250	1.8109e-01
 9.500	18.500	1.6739e-01
 9.500	18.750	1.4494e-01
 9.500	19.000	1.1408e-01
 9.500	19.250	9.7004e-02
 9.500	19.500	8.7073e-02
 9.500	19.750	9.0536e-02
 9.500	20.000	9.6415e-02
 9.500	20.250	9.5375e-02
 9.500	20.500	8.9397e-02
 9.500	20.750	8.4337e-02
 9.500	21.000	8.0788e-02
 9.500	21.250	7.9016e-02
 9.500	21.500	7.8107e-02
 9.500	21.750	7.7577e-02
 9.500	22.000	7.7340e-02
 9.500	22.250	7.7234e-02
 9.500	22.500	7.7196e-02
 9.500	22.750	7.7178e-02
 9.500	23.000	7.7167e-02
 9.500	23.250	7.7161e-02
 9.500	23.500	7.7182e-02
 9.500	23.750	7.7181e-02
 9.500	24.000	7.7180e-02
 9.750	17.000	1.6461e-01
 9.750	17.250	1.7258e-01
 9.750	17.500	1.7930e-01
 9.750	17.750	1.8345e-01
 9.750	18.000	1.8358e-01
 9.750	18.250	1.7878e-01
 9.750	18.500	1.7060e-01
 9.750	18.750	1.5642e-01
 9.750	19.000	1.3392e-01
 9.750	19.250	1.0641e-01
 9.750	19.500	9.0113e-02
 9.750	19.750	8.5901e-02
 9.750	20.000	9.0527e-02
 9.750	20.250	9.6374e-02
 9.750	20.500	9.5388e-02
 9.750	20.750	8.9419e-02
 9.750	21.000	8.4337e-02
 9.750	21.250	8.0795e-02
 9.750	21.500	7.9036e-02
 9.750	21.750	7.8110e-02
 9.750	22.000	7.7581e-02
 9.750	22.250	7.7349e-02
 9.750	22.500	7.7241e-02
 9.750	22.750	7.7193e-02
 9.750	23.000	7.7176e-02
 9.750	23.250	7.7167e-02
 9.750	23.500	7.7163e-02
 9.750	23.750	7.7160e-02
 9.750	24.000	7.7159e-02
10.000	17.000	1.5264e-01
10.000	17.250	1.6064e-01
10.000	17.500	1.6793e-01
10.000	17.750	1.7301e-01
10.000	18.000	1.7452e-01
10.000	18.250	1.7227e-01
10.000	18.500	1.6857e-01
10.000	18.750	1.6095e-01
10.000	19.000	1.4738e-01
10.000	19.250	1.2430e-01
10.000	19.500	1.0035e-01
10.000	19.750	8.5594e-02
10.000	20.000	8.6265e-02
10.000	20.250	9.0604e-02
10.000	20.500	9.6375e-02
10.000	20.750	9.5389e-02
10.000	21.000	8.9437e-02
10.000	21.250	8.4337e-02
10.000	21.500	8.0796e-02
10.000	21.750	7.9045e-02
10.000	22.000	7.8124e-02
10.000	22.250	7.7583e-02
10.000	22.500	7.7355e-02
10.000	22.750	7.7251e-02
10.000	23.000	7.7201e-02
10.000	23.250	7.7177e-02
10.000	23.500	7.7164e-02
10.000	23.750	7.7159e-02
10.000	24.000	7.7157e-02
10.250	17.000	1.4035e-01
10.250	17.250	1.4791e-01
10.250	17.500	1.5500e-01
10.250	17.750	1.6015e-01
10.250	18.000	1.6224e-01
10.250	18.250	1.6227e-01
10.250	18.500	1.6161e-01
10.250	18.750	1.5936e-01
10.250	19.000	1.5325e-01
10.250	19.250	1.3945e-01
10.250	19.500	1.1881e-01
10.250	19.750	9.7062e-02
10.250	20.000	8.3432e-02
10.250	20.250	8.6274e-02
10.250	20.500	9.0861e-02
10.250	20.750	9.6502e-02
10.250	21.000	9.5382e-02
10.250	21.250	8.9450e-02
10.250	21.500	8.4337e-02
10.250	21.750	8.0795e-02
10.250	22.000	7.9048e-02
10.250	22.250	7.8140e-02
10.250	22.500	7.7584e-02
10.250	22.750	7.7359e-02
10.250	23.000	7.7259e-02
10.250	23.250	7.7211e-02
10.250	23.500	7.7187e-02
10.250	23.750	7.7173e-02
10.250	24.000	7.7167e-02
10.500	17.000	1.2759e-01
10.500	17.250	1.3464e-01
10.500	17.500	1.4096e-01
10.500	17.750	1.4545e-01
10.500	18.000	1.4738e-01
10.500	18.250	1.4796e-01
10.500	18.500	1.5116e-01
10.500	18.750	1.5356e-01
10.500	19.000	1.5361e-01
10.500	19.250	1.4850e-01
10.500	19.500	1.3625e-01
10.500	19.750	1.1621e-01
10.500	20.000	9.3706e-02
10.500	20.250	8.2575e-02
10.500	20.500	8.6665e-02
10.500	20.750	9.1395e-02
10.500	21.000	9.6881e-02
10.500	21.250	9.5382e-02
10.500	21.500	8.9458e-02
10.500	21.750	8.4336e-02
10.500	22.000	8.0794e-02
10.500	22.250	7.9048e-02
10.500	22.500	7.8145e-02
10.500	22.750	7.7591e-02
10.500	23.000	7.7361e-02
10.500	23.250	7.7264e-02
10.500	23.500	7.7218e-02
10.500	23.750	7.7196e-02
10.500	24.000	7.7183e-02
10.750	17.000	1.1431e-01
10.750	17.250	1.2094e-01
10.750	17.500	1.2637e-01
10.750	17.750	1.2972e-01
10.750	18.000	1.3086e-01
10.750	18.250	1.3230e-01
10.750	18.500	1.3753e-01
10.750	18.750	1.4345e-01
10.750	19.000	1.4824e-01
10.750	19.250	1.4968e-01
10.750	19.500	1.4565e-01
10.750	19.750	1.3361e-01
10.750	20.000	1.1306e-01
10.750	20.250	8.9906e-02
10.750	20.500	8.3300e-02
10.750	20.750	8.7429e-02
10.750	21.000	9.2253e-02
10.750	21.250	9.7631e-02
10.750	21.500	9.5412e-02
10.750	21.750	8.9461e-02
10.750	22.000	8.4331e-02
10.750	22.250	8.0793e-02
10.750	22.500	7.9049e-02
10.750	22.750	7.8147e-02
10.750	23.000	7.7610e-02
10.750	23.250	7.7362e-02
10.750	23.500	7.7267e-02
10.750	23.750	7.7223e-02
10.750	24.000	7.7202e-02
11.000	17.000	1.0006e-01
11.000	17.250	1.0685e-01
11.000	17.500	1.1145e-01
11.000	17.750	1.1368e-01
11.000	18.000	1.1414e-01
11.000	18.250	1.1594e-01
11.000	18.500	1.2135e-01
11.000	18.750	1.2916e-01
11.000	19.000	1.3755e-01
11.000	19.250	1.4413e-01
11.000	19.500	1.4662e-01
11.000	19.750	1.4299e-01
11.000	20.000	1.3071e-01
11.000	20.250	1.0951e-01
11.000	20.500	8.5961e-02
11.000	20.750	8.3938e-02
11.000	21.000	8.8959e-02
11.000	21.250	9.3842e-02
11.000	21.500	9.9038e-02
11.000	21.750	9.5489e-02
11.000	22.000	8.9462e-02
11.000	22.250	8.4330e-02
11.000	22.500	8.0791e-02
11.000	22.750	7.9048e-02
11.000	23.000	7.8147e-02
11.000	23.250	7.7619e-02
11.000	23.500	7.7368e-02
11.000	23.750	7.7268e-02
11.000	24.000	7.7226e-02
11.250	17.000	8.6003e-02
11.250	17.250	9.2167e-02
11.250	17.500	9.6418e-02
11.250	17.750	9.7973e-02
11.250	18.000	9.8171e-02
11.250	18.250	1.0009e-01
11.250	18.500	1.0552e-01
11.250	18.750	1.1341e-01
11.250	19.000	1.2326e-01
11.250	19.250	1.3311e-01
11.250	19.500	1.4030e-01
11.250	19.750	1.4333e-01
11.250	20.000	1.4002e-01
11.250	20.250	1.2746e-01
11.250	20.500	1.0555e-01
11.250	20.750	8.2925e-02
11.250	21.000	8.5373e-02
11.250	21.250	9.1042e-02
11.250	21.500	9.6440e-02
11.250	21.750	1.0095e-01
11.250	22.000	9.5622e-02
11.250	22.250	8.9463e-02
11.250	22.500	8.4323e-02
11.250	22.750	8.0789e-02
11.250	23.000	7.9048e-02
11.250	23.250	7.8147e-02
11.250	23.500	7.7622e-02
11.250	23.750	7.7387e-02
11.250	24.000	7.7270e-02
11.500	17.000	7.4194e-02
11.500	17.250	7.8367e-02
11.500	17.500	8.1669e-02
11.500	17.750	8.3073e-02
11.500	18.000	8.3650e-02
11.500	18.250	8.5647e-02
11.500	18.500	9.0405e-02
11.500	18.750	9.7644e-02
11.500	19.000	1.0728e-01
11.500	19.250	1.1781e-01
11.500	19.500	1.2811e-01
11.500	19.750	1.3574e-01
11.500	20.000	1.3942e-01
11.500	20.250	1.3669e-01
11.500	20.500	1.2395e-01
11.500	20.750	1.0138e-01
11.500	21.000	8.0701e-02
11.500	21.250	8.7486e-02
11.500	21.500	9.4327e-02
11.500	21.750	1.0035e-01
11.500	22.000	1.0275e-01
11.500	22.250	9.5818e-02
11.500	22.500	8.9466e-02
11.500	22.750	8.4325e-02
11.500	23.000	8.0788e-02
11.500	23.250	7.9047e-02
11.500	23.500	7.8148e-02
11.500	23.750	7.7623e-02
11.500	24.000	7.7397e-02
11.750	17.000	6.4506e-02
11.750	17.250	6.6970e-02
11.750	17.500	6.9057e-02
11.750	17.750	7.0246e-02
11.750	18.000	7.1427e-02
11.750	18.250	7.3846e-02
11.750	18.500	7.7900e-02
11.750	18.750	8.3573e-02
11.750	19.000	9.1223e-02
11.750	19.250	1.0082e-01
11.750	19.500	1.1154e-01
11.750	19.750	1.2217e-01
11.750	20.000	1.3060e-01
11.750	20.250	1.3530e-01
11.750	20.500	1.3312e-01
11.750	20.750	1.2011e-01
11.750	21.000	9.7403e-02
11.750	21.250	8.2653e-02
11.750	21.500	9.0707e-02
11.750	21.750	9.9059e-02
11.750	22.000	1.0506e-01
11.750	22.250	1.0394e-01
11.750	22.500	9.6074e-02
11.750	22.750	8.9465e-02
11.750	23.000	8.4323e-02
11.750	23.250	8.0785e-02
11.750	23.500	7.9047e-02
11.750	23.750	7.8148e-02
11.750	24.000	7.7624e-02
12.000	17.000	5.6329e-02
12.000	17.250	5.7560e-02
12.000	17.500	5.9075e-02
12.000	17.750	6.0743e-02
12.000	18.000	6.2824e-02
12.000	18.250	6.5322e-02
12.000	18.500	6.8012e-02
12.000	18.750	7.1467e-02
12.000	19.000	7.6613e-02
12.000	19.250	8.4088e-02
12.000	19.500	9.3677e-02
12.000	19.750	1.0467e-01
12.000	20.000	1.1598e-01
12.000	20.250	1.2522e-01
12.000	20.500	1.3076e-01
12.000	20.750	1.2931e-01
12.000	21.000	1.1632e-01
12.000	21.250	9.4388e-02
12.000	21.500	8.6193e-02
12.000	21.750	9.5385e-02
12.000	22.000	1.0492e-01
12.000	22.250	1.0956e-01
12.000	22.500	1.0502e-01
12.000	22.750	9.6406e-02
12.000	23.000	8.9466e-02
12.000	23.250	8.4318e-02
12.000	23.500	8.0784e-02
12.000	23.750	7.9045e-02
12.000	24.000	7.8148e-02
12.250	17.000	4.9449e-02
12.250	17.250	5.0122e-02
12.250	17.500	5.1560e-02
12.250	17.750	5.4009e-02
12.250	18.000	5.6614e-02
12.250	18.250	5.8338e-02
12.250	18.500	5.9793e-02
12.250	18.750	6.1897e-02
12.250	19.000	6.5140e-02
12.250	19.250	7.0111e-02
12.250	19.500	7.7439e-02
12.250	19.750	8.7041e-02
12.250	20.000	9.8178e-02
12.250	20.250	1.0998e-01
12.250	20.500	1.1960e-01
12.250	20.750	1.2591e-01
12.250	21.000	1.2545e-01
12.250	21.250	1.1289e-01
12.250	21.500	9.3816e-02
12.250	21.750	9.0718e-02
12.250	22.000	1.0142e-01
12.250	22.250	1.1199e-01
12.250	22.500	1.1347e-01
12.250	22.750	1.0612e-01
12.250	23.000	9.6673e-02
12.250	23.250	8.9478e-02
12.250	23.500	8.4312e-02
12.250	23.750	8.0778e-02
12.250	24.000	7.9044e-02
12.500	17.000	4.5208e-02
12.500	17.250	4.5806e-02
12.500	17.500	4.7581e-02
12.500	17.750	4.9805e-02
12.500	18.000	5.1157e-02
12.500	18.250	5.1902e-02
12.500	18.500	5.2801e-02
12.500	18.750	5.4319e-02
12.500	19.000	5.6592e-02
12.500	19.250	5.9855e-02
12.500	19.500	6.4691e-02
12.500	19.750	7.1667e-02
12.500	20.000	8.0947e-02
12.500	20.250	9.1978e-02
12.500	20.500	1.0379e-01
12.500	20.750	1.1384e-01
12.500	21.000	1.2105e-01
12.500	21.250	1.2130e-01
12.500	21.500	1.1141e-01
12.500	21.750	9.3729e-02
12.500	22.000	9.6701e-02
12.500	22.250	1.0886e-01
12.500	22.500	1.1888e-01
12.500	22.750	1.1711e-01
12.500	23.000	1.0720e-01
12.500	23.250	9.7089e-02
12.500	23.500	8.9489e-02
12.500	23.750	8.4304e-02
12.500	24.000	8.0774e-02
12.750	17.000	4.4596e-02
12.750	17.250	4.4787e-02
12.750	17.500	4.5211e-02
12.750	17.750	4.5589e-02
12.750	18.000	4.5914e-02
12.750	18.250	4.6410e-02
12.750	18.500	4.7092e-02
12.750	18.750	4.8174e-02
12.750	19.000	4.9855e-02
12.750	19.250	5.2146e-02
12.750	19.500	5.5331e-02
12.750	19.750	5.9945e-02
12.750	20.000	6.6424e-02
12.750	20.250	7.5149e-02
12.750	20.500	8.5840e-02
12.750	20.750	9.7456e-02
12.750	21.000	1.0788e-01
12.750	21.250	1.1575e-01
12.750	21.500	1.1845e-01
12.750	21.750	1.0884e-01
12.750	22.000	9.6320e-02
12.750	22.250	1.0402e-01
12.750	22.500	1.1820e-01
12.750	22.750	1.2515e-01
12.750	23.000	1.2037e-01
12.750	23.250	1.0843e-01
12.750	23.500	9.7430e-02
12.750	23.750	8.9504e-02
12.750	24.000	8.4291e-02
13.000	17.000	4.1238e-02
13.000	17.250	4.2037e-02
13.000	17.500	4.1612e-02
13.000	17.750	4.1490e-02
13.000	18.000	4.1630e-02
13.000	18.250	4.1949e-02
13.000	18.500	4.2415e-02
13.000	18.750	4.3130e-02
13.000	19.000	4.4274e-02
13.000	19.250	4.5922e-02
13.000	19.500	4.8086e-02
13.000	19.750	5.1137e-02
13.000	20.000	5.5407e-02
13.000	20.250	6.1409e-02
13.000	20.500	6.9529e-02
13.000	20.750	7.9591e-02
13.000	21.000	9.0865e-02
13.000	21.250	1.0136e-01
13.000	21.500	1.1090e-01
13.000	21.750	1.1363e-01
13.000	22.000	1.0676e-01
13.000	22.250	1.0102e-01
13.000	22.500	1.1153e-01
13.000	22.750	1.2709e-01
13.000	23.000	1.3055e-01
13.000	23.250	1.2350e-01
13.000	23.500	1.0950e-01
13.000	23.750	9.7747e-02
13.000	24.000	8.9529e-02
13.250	17.000	3.8784e-02
13.250	17.250	3.9256e-02
13.250	17.500	3.8783e-02
13.250	17.750	3.8214e-02
13.250	18.000	3.8108e-02
13.250	18.250	3.8259e-02
13.250	18.500	3.8553e-02
13.250	18.750	3.8979e-02
13.250	19.000	3.9664e-02
13.250	19.250	4.0733e-02
13.250	19.500	4.2225e-02
13.250	19.750	4.4333e-02
13.250	20.000	4.7119e-02
13.250	20.250	5.1052e-02
13.250	20.500	5.6528e-02
13.250	20.750	6.3725e-02
13.250	21.000	7.3163e-02
13.250	21.250	8.3475e-02
13.250	21.500	9.4596e-02
13.250	21.750	1.0151e-01
13.250	22.000	1.0629e-01
13.250	22.250	1.0324e-01
13.250	22.500	1.0700e-01
13.250	22.750	1.1785e-01
13.250	23.000	1.3306e-01
13.250	23.250	1.3600e-01
13.250	23.500	1.2630e-01
13.250	23.750	1.1052e-01
13.250	24.000	9.8002e-02
13.500	17.000	3.6279e-02
13.500	17.250	3.6730e-02
13.500	17.500	3.6179e-02
13.500	17.750	3.5365e-02
13.500	18.000	3.5058e-02
13.500	18.250	3.5113e-02
13.500	18.500	3.5284e-02
13.500	18.750	3.5521e-02
13.500	19.000	3.5872e-02
13.500	19.250	3.6454e-02
13.500	19.500	3.7372e-02
13.500	19.750	3.8710e-02
13.500	20.000	4.0581e-02
13.500	20.250	4.3215e-02
13.500	20.500	4.6737e-02
13.500	20.750	5.1593e-02
13.500	21.000	5.7820e-02
13.500	21.250	6.5726e-02
13.500	21.500	7.5414e-02
13.500	21.750	8.2738e-02
13.500	22.000	8.9342e-02
13.500	22.250	9.8557e-02
13.500	22.500	1.0357e-01
13.500	22.750	1.1474e-01
13.500	23.000	1.2757e-01
13.500	23.250	1.4048e-01
13.500	23.500	1.4179e-01
13.500	23.750	1.2932e-01
13.500	24.000	1.1152e-01
13.750	17.000	3.3347e-02
13.750	17.250	3.4412e-02
13.750	17.500	3.3799e-02
13.750	17.750	3.2863e-02
13.750	18.000	3.2379e-02
13.750	18.250	3.2331e-02
13.750	18.500	3.2439e-02
13.750	18.750	3.2554e-02
13.750	19.000	3.2703e-02
13.750	19.250	3.2970e-02
13.750	19.500	3.3439e-02
13.750	19.750	3.4214e-02
13.750	20.000	3.5402e-02
13.750	20.250	3.7095e-02
13.750	20.500	3.9493e-02
13.750	20.750	4.2682e-02
13.750	21.000	4.6761e-02
13.750	21.250	5.1909e-02
13.750	21.500	5.8783e-02
13.750	21.750	6.4418e-02
13.750	22.000	6.9971e-02
13.750	22.250	7.8680e-02
13.750	22.500	9.2577e-02
13.750	22.750	1.0762e-01
13.750	23.000	1.2753e-01
13.750	23.250	1.4042e-01
13.750	23.500	1.4992e-01
13.750	23.750	1.4871e-01
13.750	24.000	1.3209e-01
14.000	17.000	2.9879e-02
14.000	17.250	3.1760e-02
14.000	17.500	3.1565e-02
14.000	17.750	3.0531e-02
14.000	18.000	2.9957e-02
14.000	18.250	2.9817e-02
14.000	18.500	2.9883e-02
14.000	18.750	2.9953e-02
14.000	19.000	2.9983e-02
14.000	19.250	3.0060e-02
14.000	19.500	3.0251e-02
14.000	19.750	3.0648e-02
14.000	20.000	3.1336e-02
14.000	20.250	3.2434e-02
14.000	20.500	3.4017e-02
14.000	20.750	3.6188e-02
14.000	21.000	3.9018e-02
14.000	21.250	4.2526e-02
14.000	21.500	4.7215e-02
14.000	21.750	5.1650e-02
14.000	22.000	5.5554e-02
14.000	22.250	6.1268e-02
14.000	22.500	7.4079e-02
14.000	22.750	9.6007e-02
14.000	23.000	1.2159e-01
14.000	23.250	1.4747e-01
14.000	23.500	1.5869e-01
14.000	23.750	1.6409e-01
14.000	24.000	1.5665e-01
