InwC 5600.00A  relative to Inci 1215.00A scaled to 1215A.
Hden   Phi(H)  Eq_Width (A)
 7.000	17.000	2.6541e-02
 7.000	17.250	3.5304e-02
 7.000	17.500	3.6459e-02
 7.000	17.750	3.7169e-02
 7.000	18.000	3.7187e-02
 7.000	18.250	3.7212e-02
 7.000	18.500	3.7216e-02
 7.000	18.750	3.7220e-02
 7.000	19.000	3.7225e-02
 7.000	19.250	3.7228e-02
 7.000	19.500	3.7229e-02
 7.000	19.750	3.7230e-02
 7.000	20.000	3.7230e-02
 7.000	20.250	3.7230e-02
 7.000	20.500	3.7230e-02
 7.000	20.750	3.7230e-02
 7.000	21.000	3.7231e-02
 7.000	21.250	3.7231e-02
 7.000	21.500	3.7231e-02
 7.000	21.750	3.7231e-02
 7.000	22.000	3.7231e-02
 7.000	22.250	3.7231e-02
 7.000	22.500	3.7231e-02
 7.000	22.750	3.7236e-02
 7.000	23.000	3.7232e-02
 7.000	23.250	3.7233e-02
 7.000	23.500	3.7233e-02
 7.000	23.750	3.7233e-02
 7.000	24.000	3.7233e-02
 7.250	17.000	1.9973e-02
 7.250	17.250	2.6892e-02
 7.250	17.500	3.5308e-02
 7.250	17.750	3.6468e-02
 7.250	18.000	3.7169e-02
 7.250	18.250	3.7187e-02
 7.250	18.500	3.7212e-02
 7.250	18.750	3.7216e-02
 7.250	19.000	3.7221e-02
 7.250	19.250	3.7225e-02
 7.250	19.500	3.7228e-02
 7.250	19.750	3.7229e-02
 7.250	20.000	3.7230e-02
 7.250	20.250	3.7230e-02
 7.250	20.500	3.7230e-02
 7.250	20.750	3.7230e-02
 7.250	21.000	3.7230e-02
 7.250	21.250	3.7230e-02
 7.250	21.500	3.7230e-02
 7.250	21.750	3.7231e-02
 7.250	22.000	3.7231e-02
 7.250	22.250	3.7231e-02
 7.250	22.500	3.7231e-02
 7.250	22.750	3.7231e-02
 7.250	23.000	3.7231e-02
 7.250	23.250	3.7231e-02
 7.250	23.500	3.7231e-02
 7.250	23.750	3.7231e-02
 7.250	24.000	3.7231e-02
 7.500	17.000	1.4218e-02
 7.500	17.250	2.0479e-02
 7.500	17.500	2.7215e-02
 7.500	17.750	3.5312e-02
 7.500	18.000	3.6476e-02
 7.500	18.250	3.7169e-02
 7.500	18.500	3.7187e-02
 7.500	18.750	3.7212e-02
 7.500	19.000	3.7216e-02
 7.500	19.250	3.7220e-02
 7.500	19.500	3.7225e-02
 7.500	19.750	3.7228e-02
 7.500	20.000	3.7229e-02
 7.500	20.250	3.7230e-02
 7.500	20.500	3.7230e-02
 7.500	20.750	3.7230e-02
 7.500	21.000	3.7230e-02
 7.500	21.250	3.7230e-02
 7.500	21.500	3.7230e-02
 7.500	21.750	3.7230e-02
 7.500	22.000	3.7230e-02
 7.500	22.250	3.7231e-02
 7.500	22.500	3.7231e-02
 7.500	22.750	3.7231e-02
 7.500	23.000	3.7231e-02
 7.500	23.250	3.7231e-02
 7.500	23.500	3.7231e-02
 7.500	23.750	3.7231e-02
 7.500	24.000	3.7231e-02
 7.750	17.000	9.5709e-03
 7.750	17.250	1.4611e-02
 7.750	17.500	2.1037e-02
 7.750	17.750	2.7574e-02
 7.750	18.000	3.5315e-02
 7.750	18.250	3.6484e-02
 7.750	18.500	3.7169e-02
 7.750	18.750	3.7187e-02
 7.750	19.000	3.7211e-02
 7.750	19.250	3.7216e-02
 7.750	19.500	3.7220e-02
 7.750	19.750	3.7225e-02
 7.750	20.000	3.7228e-02
 7.750	20.250	3.7229e-02
 7.750	20.500	3.7230e-02
 7.750	20.750	3.7230e-02
 7.750	21.000	3.7230e-02
 7.750	21.250	3.7230e-02
 7.750	21.500	3.7230e-02
 7.750	21.750	3.7230e-02
 7.750	22.000	3.7230e-02
 7.750	22.250	3.7230e-02
 7.750	22.500	3.7230e-02
 7.750	22.750	3.7230e-02
 7.750	23.000	3.7230e-02
 7.750	23.250	3.7230e-02
 7.750	23.500	3.7230e-02
 7.750	23.750	3.7231e-02
 7.750	24.000	3.7230e-02
 8.000	17.000	6.4472e-03
 8.000	17.250	9.7653e-03
 8.000	17.500	1.4975e-02
 8.000	17.750	2.1551e-02
 8.000	18.000	2.7897e-02
 8.000	18.250	3.5313e-02
 8.000	18.500	3.6486e-02
 8.000	18.750	3.7169e-02
 8.000	19.000	3.7187e-02
 8.000	19.250	3.7212e-02
 8.000	19.500	3.7216e-02
 8.000	19.750	3.7220e-02
 8.000	20.000	3.7225e-02
 8.000	20.250	3.7228e-02
 8.000	20.500	3.7229e-02
 8.000	20.750	3.7230e-02
 8.000	21.000	3.7230e-02
 8.000	21.250	3.7230e-02
 8.000	21.500	3.7230e-02
 8.000	21.750	3.7230e-02
 8.000	22.000	3.7230e-02
 8.000	22.250	3.7230e-02
 8.000	22.500	3.7230e-02
 8.000	22.750	3.7230e-02
 8.000	23.000	3.7230e-02
 8.000	23.250	3.7230e-02
 8.000	23.500	3.7230e-02
 8.000	23.750	3.7230e-02
 8.000	24.000	3.7231e-02
 8.250	17.000	4.4739e-03
 8.250	17.250	6.6179e-03
 8.250	17.500	1.0099e-02
 8.250	17.750	1.5618e-02
 8.250	18.000	2.2486e-02
 8.250	18.250	2.8537e-02
 8.250	18.500	3.5313e-02
 8.250	18.750	3.6494e-02
 8.250	19.000	3.7169e-02
 8.250	19.250	3.7187e-02
 8.250	19.500	3.7212e-02
 8.250	19.750	3.7216e-02
 8.250	20.000	3.7221e-02
 8.250	20.250	3.7225e-02
 8.250	20.500	3.7228e-02
 8.250	20.750	3.7229e-02
 8.250	21.000	3.7230e-02
 8.250	21.250	3.7230e-02
 8.250	21.500	3.7230e-02
 8.250	21.750	3.7230e-02
 8.250	22.000	3.7230e-02
 8.250	22.250	3.7230e-02
 8.250	22.500	3.7230e-02
 8.250	22.750	3.7230e-02
 8.250	23.000	3.7231e-02
 8.250	23.250	3.7230e-02
 8.250	23.500	3.7230e-02
 8.250	23.750	3.7230e-02
 8.250	24.000	3.7230e-02
 8.500	17.000	3.1618e-03
 8.500	17.250	4.5979e-03
 8.500	17.500	6.8709e-03
 8.500	17.750	1.0654e-02
 8.500	18.000	1.6638e-02
 8.500	18.250	2.3834e-02
 8.500	18.500	2.9377e-02
 8.500	18.750	3.5308e-02
 8.500	19.000	3.6502e-02
 8.500	19.250	3.7169e-02
 8.500	19.500	3.7187e-02
 8.500	19.750	3.7211e-02
 8.500	20.000	3.7216e-02
 8.500	20.250	3.7220e-02
 8.500	20.500	3.7225e-02
 8.500	20.750	3.7228e-02
 8.500	21.000	3.7229e-02
 8.500	21.250	3.7230e-02
 8.500	21.500	3.7230e-02
 8.500	21.750	3.7230e-02
 8.500	22.000	3.7230e-02
 8.500	22.250	3.7230e-02
 8.500	22.500	3.7230e-02
 8.500	22.750	3.7230e-02
 8.500	23.000	3.7230e-02
 8.500	23.250	3.7230e-02
 8.500	23.500	3.7230e-02
 8.500	23.750	3.7230e-02
 8.500	24.000	3.7230e-02
 8.750	17.000	2.2565e-03
 8.750	17.250	3.2542e-03
 8.750	17.500	4.7947e-03
 8.750	17.750	7.2958e-03
 8.750	18.000	1.1602e-02
 8.750	18.250	1.8292e-02
 8.750	18.500	2.5169e-02
 8.750	18.750	3.0240e-02
 8.750	19.000	3.5295e-02
 8.750	19.250	3.6510e-02
 8.750	19.500	3.7170e-02
 8.750	19.750	3.7187e-02
 8.750	20.000	3.7211e-02
 8.750	20.250	3.7216e-02
 8.750	20.500	3.7220e-02
 8.750	20.750	3.7225e-02
 8.750	21.000	3.7228e-02
 8.750	21.250	3.7229e-02
 8.750	21.500	3.7230e-02
 8.750	21.750	3.7230e-02
 8.750	22.000	3.7230e-02
 8.750	22.250	3.7230e-02
 8.750	22.500	3.7230e-02
 8.750	22.750	3.7230e-02
 8.750	23.000	3.7231e-02
 8.750	23.250	3.7230e-02
 8.750	23.500	3.7230e-02
 8.750	23.750	3.7230e-02
 8.750	24.000	3.7230e-02
 9.000	17.000	1.6182e-03
 9.000	17.250	2.3236e-03
 9.000	17.500	3.4019e-03
 9.000	17.750	5.1288e-03
 9.000	18.000	8.1074e-03
 9.000	18.250	1.3164e-02
 9.000	18.500	2.0349e-02
 9.000	18.750	2.6882e-02
 9.000	19.000	3.1558e-02
 9.000	19.250	3.5260e-02
 9.000	19.500	3.6515e-02
 9.000	19.750	3.7169e-02
 9.000	20.000	3.7187e-02
 9.000	20.250	3.7211e-02
 9.000	20.500	3.7216e-02
 9.000	20.750	3.7220e-02
 9.000	21.000	3.7225e-02
 9.000	21.250	3.7228e-02
 9.000	21.500	3.7229e-02
 9.000	21.750	3.7230e-02
 9.000	22.000	3.7230e-02
 9.000	22.250	3.7230e-02
 9.000	22.500	3.7230e-02
 9.000	22.750	3.7230e-02
 9.000	23.000	3.7230e-02
 9.000	23.250	3.7230e-02
 9.000	23.500	3.7230e-02
 9.000	23.750	3.7230e-02
 9.000	24.000	3.7230e-02
 9.250	17.000	1.1644e-03
 9.250	17.250	1.6668e-03
 9.250	17.500	2.4357e-03
 9.250	17.750	3.6682e-03
 9.250	18.000	5.7775e-03
 9.250	18.250	9.4319e-03
 9.250	18.500	1.5124e-02
 9.250	18.750	2.2260e-02
 9.250	19.000	2.8057e-02
 9.250	19.250	3.2850e-02
 9.250	19.500	3.5214e-02
 9.250	19.750	3.6513e-02
 9.250	20.000	3.7169e-02
 9.250	20.250	3.7187e-02
 9.250	20.500	3.7211e-02
 9.250	20.750	3.7216e-02
 9.250	21.000	3.7220e-02
 9.250	21.250	3.7225e-02
 9.250	21.500	3.7224e-02
 9.250	21.750	3.7211e-02
 9.250	22.000	3.7211e-02
 9.250	22.250	3.7212e-02
 9.250	22.500	3.7230e-02
 9.250	22.750	3.7230e-02
 9.250	23.000	3.7230e-02
 9.250	23.250	3.7230e-02
 9.250	23.500	3.7230e-02
 9.250	23.750	3.7230e-02
 9.250	24.000	3.7230e-02
 9.500	17.000	8.3942e-04
 9.500	17.250	1.1995e-03
 9.500	17.500	1.7535e-03
 9.500	17.750	2.6514e-03
 9.500	18.000	4.2063e-03
 9.500	18.250	6.9072e-03
 9.500	18.500	1.1073e-02
 9.500	18.750	1.7058e-02
 9.500	19.000	2.4261e-02
 9.500	19.250	2.9136e-02
 9.500	19.500	3.3756e-02
 9.500	19.750	3.5151e-02
 9.500	20.000	3.6502e-02
 9.500	20.250	3.7168e-02
 9.500	20.500	3.7187e-02
 9.500	20.750	3.7211e-02
 9.500	21.000	3.7210e-02
 9.500	21.250	3.7205e-02
 9.500	21.500	3.7206e-02
 9.500	21.750	3.7206e-02
 9.500	22.000	3.7200e-02
 9.500	22.250	3.7195e-02
 9.500	22.500	3.7196e-02
 9.500	22.750	3.7197e-02
 9.500	23.000	3.7196e-02
 9.500	23.250	3.7196e-02
 9.500	23.500	3.7207e-02
 9.500	23.750	3.7207e-02
 9.500	24.000	3.7207e-02
 9.750	17.000	6.0700e-04
 9.750	17.250	8.6543e-04
 9.750	17.500	1.2653e-03
 9.750	17.750	1.9252e-03
 9.750	18.000	3.0960e-03
 9.750	18.250	5.1263e-03
 9.750	18.500	8.2146e-03
 9.750	18.750	1.2681e-02
 9.750	19.000	1.8787e-02
 9.750	19.250	2.5493e-02
 9.750	19.500	3.0593e-02
 9.750	19.750	3.4215e-02
 9.750	20.000	3.5087e-02
 9.750	20.250	3.6466e-02
 9.750	20.500	3.7165e-02
 9.750	20.750	3.7187e-02
 9.750	21.000	3.7211e-02
 9.750	21.250	3.7214e-02
 9.750	21.500	3.7214e-02
 9.750	21.750	3.7207e-02
 9.750	22.000	3.7208e-02
 9.750	22.250	3.7204e-02
 9.750	22.500	3.7198e-02
 9.750	22.750	3.7195e-02
 9.750	23.000	3.7196e-02
 9.750	23.250	3.7196e-02
 9.750	23.500	3.7196e-02
 9.750	23.750	3.7197e-02
 9.750	24.000	3.7197e-02
10.000	17.000	4.4049e-04
10.000	17.250	6.2658e-04
10.000	17.500	9.1597e-04
10.000	17.750	1.4041e-03
10.000	18.000	2.2880e-03
10.000	18.250	3.8199e-03
10.000	18.500	6.0901e-03
10.000	18.750	9.4072e-03
10.000	19.000	1.4043e-02
10.000	19.250	2.0300e-02
10.000	19.500	2.6477e-02
10.000	19.750	3.1735e-02
10.000	20.000	3.4099e-02
10.000	20.250	3.4992e-02
10.000	20.500	3.6426e-02
10.000	20.750	3.7156e-02
10.000	21.000	3.7185e-02
10.000	21.250	3.7211e-02
10.000	21.500	3.7215e-02
10.000	21.750	3.7218e-02
10.000	22.000	3.7214e-02
10.000	22.250	3.7209e-02
10.000	22.500	3.7207e-02
10.000	22.750	3.7203e-02
10.000	23.000	3.7199e-02
10.000	23.250	3.7196e-02
10.000	23.500	3.7195e-02
10.000	23.750	3.7195e-02
10.000	24.000	3.7195e-02
10.250	17.000	3.2206e-04
10.250	17.250	4.5547e-04
10.250	17.500	6.6584e-04
10.250	17.750	1.0292e-03
10.250	18.000	1.6928e-03
10.250	18.250	2.8221e-03
10.250	18.500	4.5280e-03
10.250	18.750	6.9814e-03
10.250	19.000	1.0412e-02
10.250	19.250	1.5263e-02
10.250	19.500	2.1205e-02
10.250	19.750	2.7320e-02
10.250	20.000	3.2701e-02
10.250	20.250	3.3988e-02
10.250	20.500	3.4938e-02
10.250	20.750	3.6411e-02
10.250	21.000	3.7142e-02
10.250	21.250	3.7183e-02
10.250	21.500	3.7210e-02
10.250	21.750	3.7215e-02
10.250	22.000	3.7219e-02
10.250	22.250	3.7221e-02
10.250	22.500	3.7209e-02
10.250	22.750	3.7209e-02
10.250	23.000	3.7206e-02
10.250	23.250	3.7203e-02
10.250	23.500	3.7201e-02
10.250	23.750	3.7199e-02
10.250	24.000	3.7199e-02
10.500	17.000	2.3827e-04
10.500	17.250	3.3399e-04
10.500	17.500	4.8774e-04
10.500	17.750	7.5852e-04
10.500	18.000	1.2533e-03
10.500	18.250	2.1002e-03
10.500	18.500	3.3334e-03
10.500	18.750	5.1347e-03
10.500	19.000	7.6453e-03
10.500	19.250	1.1192e-02
10.500	19.500	1.6001e-02
10.500	19.750	2.1889e-02
10.500	20.000	2.8269e-02
10.500	20.250	3.3168e-02
10.500	20.500	3.3872e-02
10.500	20.750	3.4901e-02
10.500	21.000	3.6417e-02
10.500	21.250	3.7120e-02
10.500	21.500	3.7177e-02
10.500	21.750	3.7208e-02
10.500	22.000	3.7214e-02
10.500	22.250	3.7220e-02
10.500	22.500	3.7223e-02
10.500	22.750	3.7213e-02
10.500	23.000	3.7210e-02
10.500	23.250	3.7209e-02
10.500	23.500	3.7207e-02
10.500	23.750	3.7205e-02
10.500	24.000	3.7204e-02
10.750	17.000	1.7852e-04
10.750	17.250	2.4716e-04
10.750	17.500	3.5967e-04
10.750	17.750	5.6091e-04
10.750	18.000	9.2815e-04
10.750	18.250	1.5398e-03
10.750	18.500	2.4335e-03
10.750	18.750	3.7279e-03
10.750	19.000	5.5649e-03
10.750	19.250	8.1223e-03
10.750	19.500	1.1716e-02
10.750	19.750	1.6588e-02
10.750	20.000	2.2619e-02
10.750	20.250	2.9230e-02
10.750	20.500	3.3083e-02
10.750	20.750	3.3815e-02
10.750	21.000	3.4854e-02
10.750	21.250	3.6450e-02
10.750	21.500	3.7095e-02
10.750	21.750	3.7167e-02
10.750	22.000	3.7203e-02
10.750	22.250	3.7213e-02
10.750	22.500	3.7219e-02
10.750	22.750	3.7224e-02
10.750	23.000	3.7222e-02
10.750	23.250	3.7210e-02
10.750	23.500	3.7210e-02
10.750	23.750	3.7209e-02
10.750	24.000	3.7208e-02
11.000	17.000	1.3564e-04
11.000	17.250	1.8486e-04
11.000	17.500	2.6683e-04
11.000	17.750	4.1564e-04
11.000	18.000	6.8346e-04
11.000	18.250	1.1203e-03
11.000	18.500	1.7807e-03
11.000	18.750	2.7162e-03
11.000	19.000	4.0467e-03
11.000	19.250	5.8937e-03
11.000	19.500	8.4626e-03
11.000	19.750	1.2129e-02
11.000	20.000	1.7137e-02
11.000	20.250	2.3324e-02
11.000	20.500	3.0173e-02
11.000	20.750	3.2992e-02
11.000	21.000	3.3788e-02
11.000	21.250	3.4899e-02
11.000	21.500	3.6583e-02
11.000	21.750	3.7069e-02
11.000	22.000	3.7152e-02
11.000	22.250	3.7198e-02
11.000	22.500	3.7212e-02
11.000	22.750	3.7218e-02
11.000	23.000	3.7224e-02
11.000	23.250	3.7226e-02
11.000	23.500	3.7213e-02
11.000	23.750	3.7211e-02
11.000	24.000	3.7210e-02
11.250	17.000	1.0510e-04
11.250	17.250	1.3992e-04
11.250	17.500	1.9909e-04
11.250	17.750	3.0716e-04
11.250	18.000	4.9984e-04
11.250	18.250	8.0831e-04
11.250	18.500	1.2642e-03
11.250	18.750	1.9425e-03
11.250	19.000	2.8884e-03
11.250	19.250	4.2035e-03
11.250	19.500	6.0738e-03
11.250	19.750	8.7140e-03
11.250	20.000	1.2477e-02
11.250	20.250	1.7634e-02
11.250	20.500	2.4036e-02
11.250	20.750	3.0899e-02
11.250	21.000	3.2919e-02
11.250	21.250	3.3795e-02
11.250	21.500	3.5057e-02
11.250	21.750	3.6715e-02
11.250	22.000	3.7035e-02
11.250	22.250	3.7131e-02
11.250	22.500	3.7184e-02
11.250	22.750	3.7209e-02
11.250	23.000	3.7217e-02
11.250	23.250	3.7223e-02
11.250	23.500	3.7227e-02
11.250	23.750	3.7222e-02
11.250	24.000	3.7212e-02
11.500	17.000	8.2963e-05
11.500	17.250	1.0774e-04
11.500	17.500	1.4996e-04
11.500	17.750	2.2683e-04
11.500	18.000	3.6230e-04
11.500	18.250	5.7967e-04
11.500	18.500	9.0058e-04
11.500	18.750	1.3823e-03
11.500	19.000	2.0497e-03
11.500	19.250	2.9933e-03
11.500	19.500	4.3374e-03
11.500	19.750	6.2517e-03
11.500	20.000	8.9550e-03
11.500	20.250	1.2821e-02
11.500	20.500	1.8144e-02
11.500	20.750	2.4745e-02
11.500	21.000	3.1347e-02
11.500	21.250	3.2844e-02
11.500	21.500	3.3894e-02
11.500	21.750	3.5341e-02
11.500	22.000	3.6764e-02
11.500	22.250	3.6990e-02
11.500	22.500	3.7107e-02
11.500	22.750	3.7172e-02
11.500	23.000	3.7205e-02
11.500	23.250	3.7214e-02
11.500	23.500	3.7222e-02
11.500	23.750	3.7227e-02
11.500	24.000	3.7227e-02
11.750	17.000	6.7901e-05
11.750	17.250	8.4774e-05
11.750	17.500	1.1424e-04
11.750	17.750	1.6807e-04
11.750	18.000	2.6189e-04
11.750	18.250	4.1226e-04
11.750	18.500	6.3580e-04
11.750	18.750	9.6403e-04
11.750	19.000	1.4408e-03
11.750	19.250	2.1163e-03
11.750	19.500	3.0782e-03
11.750	19.750	4.4489e-03
11.750	20.000	6.3751e-03
11.750	20.250	9.1392e-03
11.750	20.500	1.3147e-02
11.750	20.750	1.8630e-02
11.750	21.000	2.5400e-02
11.750	21.250	3.1164e-02
11.750	21.500	3.2818e-02
11.750	21.750	3.4035e-02
11.750	22.000	3.5687e-02
11.750	22.250	3.6705e-02
11.750	22.500	3.6942e-02
11.750	22.750	3.7075e-02
11.750	23.000	3.7153e-02
11.750	23.250	3.7198e-02
11.750	23.500	3.7211e-02
11.750	23.750	3.7220e-02
11.750	24.000	3.7227e-02
12.000	17.000	5.7613e-05
12.000	17.250	6.9136e-05
12.000	17.500	8.9053e-05
12.000	17.750	1.2535e-04
12.000	18.000	1.8848e-04
12.000	18.250	2.9037e-04
12.000	18.500	4.4617e-04
12.000	18.750	6.7663e-04
12.000	19.000	1.0118e-03
12.000	19.250	1.4935e-03
12.000	19.500	2.1844e-03
12.000	19.750	3.1535e-03
12.000	20.000	4.5291e-03
12.000	20.250	6.4914e-03
12.000	20.500	9.3209e-03
12.000	20.750	1.3428e-02
12.000	21.000	1.9074e-02
12.000	21.250	2.5922e-02
12.000	21.500	3.0946e-02
12.000	21.750	3.2760e-02
12.000	22.000	3.4222e-02
12.000	22.250	3.5943e-02
12.000	22.500	3.6632e-02
12.000	22.750	3.6888e-02
12.000	23.000	3.7033e-02
12.000	23.250	3.7128e-02
12.000	23.500	3.7189e-02
12.000	23.750	3.7206e-02
12.000	24.000	3.7218e-02
12.250	17.000	4.5679e-05
12.250	17.250	5.8519e-05
12.250	17.500	7.2016e-05
12.250	17.750	9.5720e-05
12.250	18.000	1.3737e-04
12.250	18.250	2.0626e-04
12.250	18.500	3.1383e-04
12.250	18.750	4.7457e-04
12.250	19.000	7.0864e-04
12.250	19.250	1.0499e-03
12.250	19.500	1.5412e-03
12.250	19.750	2.2292e-03
12.250	20.000	3.2188e-03
12.250	20.250	4.5998e-03
12.250	20.500	6.6119e-03
12.250	20.750	9.5002e-03
12.250	21.000	1.3666e-02
12.250	21.250	1.9407e-02
12.250	21.500	2.5984e-02
12.250	21.750	3.0588e-02
12.250	22.000	3.2676e-02
12.250	22.250	3.4445e-02
12.250	22.500	3.6002e-02
12.250	22.750	3.6541e-02
12.250	23.000	3.6814e-02
12.250	23.250	3.6975e-02
12.250	23.500	3.7092e-02
12.250	23.750	3.7177e-02
12.250	24.000	3.7200e-02
12.500	17.000	2.4115e-05
12.500	17.250	4.8066e-05
12.500	17.500	6.0494e-05
12.500	17.750	7.6214e-05
12.500	18.000	1.0329e-04
12.500	18.250	1.4856e-04
12.500	18.500	2.2140e-04
12.500	18.750	3.3399e-04
12.500	19.000	4.9984e-04
12.500	19.250	7.4049e-04
12.500	19.500	1.0855e-03
12.500	19.750	1.5753e-03
12.500	20.000	2.2740e-03
12.500	20.250	3.2695e-03
12.500	20.500	4.6765e-03
12.500	20.750	6.6967e-03
12.500	21.000	9.6295e-03
12.500	21.250	1.3824e-02
12.500	21.500	1.9352e-02
12.500	21.750	2.5972e-02
12.500	22.000	3.0085e-02
12.500	22.250	3.2559e-02
12.500	22.500	3.4553e-02
12.500	22.750	3.5912e-02
12.500	23.000	3.6414e-02
12.500	23.250	3.6712e-02
12.500	23.500	3.6893e-02
12.500	23.750	3.7040e-02
12.500	24.000	3.7160e-02
12.750	17.000	1.2510e-05
12.750	17.250	2.7572e-05
12.750	17.500	5.1440e-05
12.750	17.750	6.2716e-05
12.750	18.000	8.0412e-05
12.750	18.250	1.1021e-04
12.750	18.500	1.5909e-04
12.750	18.750	2.3654e-04
12.750	19.000	3.5152e-04
12.750	19.250	5.2041e-04
12.750	19.500	7.6346e-04
12.750	19.750	1.1095e-03
12.750	20.000	1.6028e-03
12.750	20.250	2.3044e-03
12.750	20.500	3.3086e-03
12.750	20.750	4.7375e-03
12.750	21.000	6.7637e-03
12.750	21.250	9.7165e-03
12.750	21.500	1.3746e-02
12.750	21.750	1.9320e-02
12.750	22.000	2.5607e-02
12.750	22.250	2.9447e-02
12.750	22.500	3.2346e-02
12.750	22.750	3.4375e-02
12.750	23.000	3.5678e-02
12.750	23.250	3.6232e-02
12.750	23.500	3.6570e-02
12.750	23.750	3.6778e-02
12.750	24.000	3.6964e-02
13.000	17.000	2.7160e-06
13.000	17.250	6.2551e-06
13.000	17.500	2.0905e-05
13.000	17.750	4.3457e-05
13.000	18.000	6.0658e-05
13.000	18.250	8.4938e-05
13.000	18.500	1.1745e-04
13.000	18.750	1.6881e-04
13.000	19.000	2.4798e-04
13.000	19.250	3.6568e-04
13.000	19.500	5.3737e-04
13.000	19.750	7.7909e-04
13.000	20.000	1.1272e-03
13.000	20.250	1.6246e-03
13.000	20.500	2.3290e-03
13.000	20.750	3.3432e-03
13.000	21.000	4.7839e-03
13.000	21.250	6.8449e-03
13.000	21.500	9.6708e-03
13.000	21.750	1.3720e-02
13.000	22.000	1.9014e-02
13.000	22.250	2.4796e-02
13.000	22.500	2.8594e-02
13.000	22.750	3.1678e-02
13.000	23.000	3.3871e-02
13.000	23.250	3.5298e-02
13.000	23.500	3.5957e-02
13.000	23.750	3.6355e-02
13.000	24.000	3.6601e-02
13.250	17.000	1.6461e-06
13.250	17.250	3.1276e-06
13.250	17.500	7.3251e-06
13.250	17.750	1.7695e-05
13.250	18.000	3.8189e-05
13.250	18.250	5.8601e-05
13.250	18.500	8.9383e-05
13.250	18.750	1.2346e-04
13.250	19.000	1.7663e-04
13.250	19.250	2.5794e-04
13.250	19.500	3.7613e-04
13.250	19.750	5.4724e-04
13.250	20.000	7.9095e-04
13.250	20.250	1.1411e-03
13.250	20.500	1.6410e-03
13.250	20.750	2.3546e-03
13.250	21.000	3.3803e-03
13.250	21.250	4.8342e-03
13.250	21.500	6.8173e-03
13.250	21.750	9.6109e-03
13.250	22.000	1.3355e-02
13.250	22.250	1.8075e-02
13.250	22.500	2.3436e-02
13.250	22.750	2.7164e-02
13.250	23.000	3.0506e-02
13.250	23.250	3.3074e-02
13.250	23.500	3.4728e-02
13.250	23.750	3.5541e-02
13.250	24.000	3.6026e-02
13.500	17.000	9.8765e-07
13.500	17.250	1.8107e-06
13.500	17.500	4.0329e-06
13.500	17.750	9.1358e-06
13.500	18.000	2.1481e-05
13.500	18.250	4.3210e-05
13.500	18.500	6.3045e-05
13.500	18.750	9.3333e-05
13.500	19.000	1.2823e-04
13.500	19.250	1.8189e-04
13.500	19.500	2.6354e-04
13.500	19.750	3.8247e-04
13.500	20.000	5.5416e-04
13.500	20.250	8.0016e-04
13.500	20.500	1.1537e-03
13.500	20.750	1.6584e-03
13.500	21.000	2.3792e-03
13.500	21.250	3.4053e-03
13.500	21.500	4.8105e-03
13.500	21.750	6.7625e-03
13.500	22.000	9.2203e-03
13.500	22.250	1.2366e-02
13.500	22.500	1.6770e-02
13.500	22.750	2.1568e-02
13.500	23.000	2.5523e-02
13.500	23.250	2.9052e-02
13.500	23.500	3.1948e-02
13.500	23.750	3.3898e-02
13.500	24.000	3.4916e-02
13.750	17.000	1.0000e-07
13.750	17.250	1.1523e-06
13.750	17.500	2.3868e-06
13.750	17.750	4.8560e-06
13.750	18.000	1.1605e-05
13.750	18.250	2.6173e-05
13.750	18.500	4.6420e-05
13.750	18.750	6.7490e-05
13.750	19.000	9.6214e-05
13.750	19.250	1.3169e-04
13.750	19.500	1.8609e-04
13.750	19.750	2.6774e-04
13.750	20.000	3.8700e-04
13.750	20.250	5.5967e-04
13.750	20.500	8.0823e-04
13.750	20.750	1.1647e-03
13.750	21.000	1.6747e-03
13.750	21.250	2.4053e-03
13.750	21.500	3.3967e-03
13.750	21.750	4.7762e-03
13.750	22.000	6.4334e-03
13.750	22.250	8.2181e-03
13.750	22.500	1.0715e-02
13.750	22.750	1.5018e-02
13.750	23.000	1.9657e-02
13.750	23.250	2.3657e-02
13.750	23.500	2.7322e-02
13.750	23.750	3.0495e-02
13.750	24.000	3.2727e-02
14.000	17.000	1.0000e-07
14.000	17.250	1.0000e-07
14.000	17.500	1.3992e-06
14.000	17.750	2.8807e-06
14.000	18.000	5.9259e-06
14.000	18.250	1.3580e-05
14.000	18.500	2.7490e-05
14.000	18.750	4.8724e-05
14.000	19.000	7.4239e-05
14.000	19.250	9.8025e-05
14.000	19.500	1.3391e-04
14.000	19.750	1.8856e-04
14.000	20.000	2.7078e-04
14.000	20.250	3.9095e-04
14.000	20.500	5.6527e-04
14.000	20.750	8.1638e-04
14.000	21.000	1.1776e-03
14.000	21.250	1.6975e-03
14.000	21.500	2.4037e-03
14.000	21.750	3.3905e-03
14.000	22.000	4.5235e-03
14.000	22.250	5.5468e-03
14.000	22.500	6.7575e-03
14.000	22.750	9.1833e-03
14.000	23.000	1.3297e-02
14.000	23.250	1.7565e-02
14.000	23.500	2.1480e-02
14.000	23.750	2.5103e-02
14.000	24.000	2.8589e-02
