InwC 1.11867m  relative to Inci 1215.00A scaled to 1215A.
Hden   Phi(H)  Eq_Width (A)
 7.000	17.000	1.4647e-02
 7.000	17.250	2.1239e-02
 7.000	17.500	2.9939e-02
 7.000	17.750	3.8154e-02
 7.000	18.000	4.5496e-02
 7.000	18.250	4.6749e-02
 7.000	18.500	4.7264e-02
 7.000	18.750	4.7223e-02
 7.000	19.000	4.7175e-02
 7.000	19.250	4.7167e-02
 7.000	19.500	4.7155e-02
 7.000	19.750	4.7156e-02
 7.000	20.000	4.7156e-02
 7.000	20.250	4.7156e-02
 7.000	20.500	4.7156e-02
 7.000	20.750	4.7156e-02
 7.000	21.000	4.7156e-02
 7.000	21.250	4.7156e-02
 7.000	21.500	4.7156e-02
 7.000	21.750	4.7156e-02
 7.000	22.000	4.7156e-02
 7.000	22.250	4.7156e-02
 7.000	22.500	4.7156e-02
 7.000	22.750	4.7157e-02
 7.000	23.000	4.7157e-02
 7.000	23.250	4.7156e-02
 7.000	23.500	4.7156e-02
 7.000	23.750	4.7156e-02
 7.000	24.000	4.7157e-02
 7.250	17.000	1.0134e-02
 7.250	17.250	1.5047e-02
 7.250	17.500	2.1894e-02
 7.250	17.750	3.0776e-02
 7.250	18.000	3.8771e-02
 7.250	18.250	4.5503e-02
 7.250	18.500	4.6756e-02
 7.250	18.750	4.7263e-02
 7.250	19.000	4.7224e-02
 7.250	19.250	4.7175e-02
 7.250	19.500	4.7167e-02
 7.250	19.750	4.7155e-02
 7.250	20.000	4.7155e-02
 7.250	20.250	4.7156e-02
 7.250	20.500	4.7156e-02
 7.250	20.750	4.7156e-02
 7.250	21.000	4.7156e-02
 7.250	21.250	4.7156e-02
 7.250	21.500	4.7156e-02
 7.250	21.750	4.7156e-02
 7.250	22.000	4.7156e-02
 7.250	22.250	4.7156e-02
 7.250	22.500	4.7156e-02
 7.250	22.750	4.7156e-02
 7.250	23.000	4.7156e-02
 7.250	23.250	4.7156e-02
 7.250	23.500	4.7156e-02
 7.250	23.750	4.7156e-02
 7.250	24.000	4.7156e-02
 7.500	17.000	6.9765e-03
 7.500	17.250	1.0459e-02
 7.500	17.500	1.5690e-02
 7.500	17.750	2.2893e-02
 7.500	18.000	3.2009e-02
 7.500	18.250	3.9443e-02
 7.500	18.500	4.5507e-02
 7.500	18.750	4.6766e-02
 7.500	19.000	4.7263e-02
 7.500	19.250	4.7223e-02
 7.500	19.500	4.7175e-02
 7.500	19.750	4.7167e-02
 7.500	20.000	4.7155e-02
 7.500	20.250	4.7155e-02
 7.500	20.500	4.7156e-02
 7.500	20.750	4.7156e-02
 7.500	21.000	4.7156e-02
 7.500	21.250	4.7156e-02
 7.500	21.500	4.7156e-02
 7.500	21.750	4.7156e-02
 7.500	22.000	4.7156e-02
 7.500	22.250	4.7156e-02
 7.500	22.500	4.7156e-02
 7.500	22.750	4.7156e-02
 7.500	23.000	4.7156e-02
 7.500	23.250	4.7156e-02
 7.500	23.500	4.7156e-02
 7.500	23.750	4.7156e-02
 7.500	24.000	4.7160e-02
 7.750	17.000	4.8525e-03
 7.750	17.250	7.2314e-03
 7.750	17.500	1.0997e-02
 7.750	17.750	1.6730e-02
 7.750	18.000	2.4424e-02
 7.750	18.250	3.3702e-02
 7.750	18.500	4.0262e-02
 7.750	18.750	4.5512e-02
 7.750	19.000	4.6776e-02
 7.750	19.250	4.7264e-02
 7.750	19.500	4.7223e-02
 7.750	19.750	4.7174e-02
 7.750	20.000	4.7168e-02
 7.750	20.250	4.7155e-02
 7.750	20.500	4.7156e-02
 7.750	20.750	4.7156e-02
 7.750	21.000	4.7156e-02
 7.750	21.250	4.7156e-02
 7.750	21.500	4.7156e-02
 7.750	21.750	4.7156e-02
 7.750	22.000	4.7156e-02
 7.750	22.250	4.7156e-02
 7.750	22.500	4.7156e-02
 7.750	22.750	4.7156e-02
 7.750	23.000	4.7156e-02
 7.750	23.250	4.7156e-02
 7.750	23.500	4.7156e-02
 7.750	23.750	4.7156e-02
 7.750	24.000	4.7156e-02
 8.000	17.000	3.4317e-03
 8.000	17.250	5.0288e-03
 8.000	17.500	7.6357e-03
 8.000	17.750	1.1904e-02
 8.000	18.000	1.8400e-02
 8.000	18.250	2.6734e-02
 8.000	18.500	3.5417e-02
 8.000	18.750	4.1000e-02
 8.000	19.000	4.5513e-02
 8.000	19.250	4.6782e-02
 8.000	19.500	4.7264e-02
 8.000	19.750	4.7223e-02
 8.000	20.000	4.7174e-02
 8.000	20.250	4.7168e-02
 8.000	20.500	4.7155e-02
 8.000	20.750	4.7156e-02
 8.000	21.000	4.7156e-02
 8.000	21.250	4.7156e-02
 8.000	21.500	4.7156e-02
 8.000	21.750	4.7156e-02
 8.000	22.000	4.7156e-02
 8.000	22.250	4.7156e-02
 8.000	22.500	4.7156e-02
 8.000	22.750	4.7156e-02
 8.000	23.000	4.7156e-02
 8.000	23.250	4.7156e-02
 8.000	23.500	4.7156e-02
 8.000	23.750	4.7156e-02
 8.000	24.000	4.7156e-02
 8.250	17.000	2.4682e-03
 8.250	17.250	3.5707e-03
 8.250	17.500	5.3562e-03
 8.250	17.750	8.4025e-03
 8.250	18.000	1.3539e-02
 8.250	18.250	2.1078e-02
 8.250	18.500	2.9574e-02
 8.250	18.750	3.7515e-02
 8.250	19.000	4.1861e-02
 8.250	19.250	4.5515e-02
 8.250	19.500	4.6796e-02
 8.250	19.750	4.7263e-02
 8.250	20.000	4.7225e-02
 8.250	20.250	4.7175e-02
 8.250	20.500	4.7167e-02
 8.250	20.750	4.7155e-02
 8.250	21.000	4.7156e-02
 8.250	21.250	4.7156e-02
 8.250	21.500	4.7156e-02
 8.250	21.750	4.7156e-02
 8.250	22.000	4.7156e-02
 8.250	22.250	4.7156e-02
 8.250	22.500	4.7156e-02
 8.250	22.750	4.7156e-02
 8.250	23.000	4.7156e-02
 8.250	23.250	4.7156e-02
 8.250	23.500	4.7156e-02
 8.250	23.750	4.7156e-02
 8.250	24.000	4.7156e-02
 8.500	17.000	1.7907e-03
 8.500	17.250	2.5719e-03
 8.500	17.500	3.8146e-03
 8.500	17.750	5.9553e-03
 8.500	18.000	9.7916e-03
 8.500	18.250	1.6127e-02
 8.500	18.500	2.4147e-02
 8.500	18.750	3.2228e-02
 8.500	19.000	3.9049e-02
 8.500	19.250	4.2497e-02
 8.500	19.500	4.5507e-02
 8.500	19.750	4.6812e-02
 8.500	20.000	4.7263e-02
 8.500	20.250	4.7223e-02
 8.500	20.500	4.7175e-02
 8.500	20.750	4.7167e-02
 8.500	21.000	4.7155e-02
 8.500	21.250	4.7155e-02
 8.500	21.500	4.7156e-02
 8.500	21.750	4.7156e-02
 8.500	22.000	4.7156e-02
 8.500	22.250	4.7156e-02
 8.500	22.500	4.7156e-02
 8.500	22.750	4.7156e-02
 8.500	23.000	4.7156e-02
 8.500	23.250	4.7156e-02
 8.500	23.500	4.7156e-02
 8.500	23.750	4.7156e-02
 8.500	24.000	4.7156e-02
 8.750	17.000	1.2998e-03
 8.750	17.250	1.8675e-03
 8.750	17.500	2.7513e-03
 8.750	17.750	4.2630e-03
 8.750	18.000	7.0259e-03
 8.750	18.250	1.1968e-02
 8.750	18.500	1.9023e-02
 8.750	18.750	2.6956e-02
 8.750	19.000	3.4653e-02
 8.750	19.250	3.9689e-02
 8.750	19.500	4.3176e-02
 8.750	19.750	4.5492e-02
 8.750	20.000	4.6830e-02
 8.750	20.250	4.7263e-02
 8.750	20.500	4.7222e-02
 8.750	20.750	4.7175e-02
 8.750	21.000	4.7167e-02
 8.750	21.250	4.7155e-02
 8.750	21.500	4.7156e-02
 8.750	21.750	4.7156e-02
 8.750	22.000	4.7156e-02
 8.750	22.250	4.7156e-02
 8.750	22.500	4.7156e-02
 8.750	22.750	4.7156e-02
 8.750	23.000	4.7156e-02
 8.750	23.250	4.7156e-02
 8.750	23.500	4.7156e-02
 8.750	23.750	4.7156e-02
 8.750	24.000	4.7156e-02
 9.000	17.000	9.4189e-04
 9.000	17.250	1.3570e-03
 9.000	17.500	1.9998e-03
 9.000	17.750	3.0895e-03
 9.000	18.000	5.1083e-03
 9.000	18.250	8.7983e-03
 9.000	18.500	1.4539e-02
 9.000	18.750	2.1658e-02
 9.000	19.000	2.9443e-02
 9.000	19.250	3.6864e-02
 9.000	19.500	4.0515e-02
 9.000	19.750	4.3700e-02
 9.000	20.000	4.5451e-02
 9.000	20.250	4.6850e-02
 9.000	20.500	4.7262e-02
 9.000	20.750	4.7222e-02
 9.000	21.000	4.7173e-02
 9.000	21.250	4.7167e-02
 9.000	21.500	4.7155e-02
 9.000	21.750	4.7156e-02
 9.000	22.000	4.7156e-02
 9.000	22.250	4.7156e-02
 9.000	22.500	4.7156e-02
 9.000	22.750	4.7156e-02
 9.000	23.000	4.7156e-02
 9.000	23.250	4.7156e-02
 9.000	23.500	4.7156e-02
 9.000	23.750	4.7156e-02
 9.000	24.000	4.7156e-02
 9.250	17.000	6.7967e-04
 9.250	17.250	9.8403e-04
 9.250	17.500	1.4556e-03
 9.250	17.750	2.2544e-03
 9.250	18.000	3.7708e-03
 9.250	18.250	6.5388e-03
 9.250	18.500	1.0890e-02
 9.250	18.750	1.6747e-02
 9.250	19.000	2.3742e-02
 9.250	19.250	3.1095e-02
 9.250	19.500	3.7644e-02
 9.250	19.750	4.1081e-02
 9.250	20.000	4.4257e-02
 9.250	20.250	4.5386e-02
 9.250	20.500	4.6869e-02
 9.250	20.750	4.7261e-02
 9.250	21.000	4.7220e-02
 9.250	21.250	4.7174e-02
 9.250	21.500	4.7167e-02
 9.250	21.750	4.7147e-02
 9.250	22.000	4.7113e-02
 9.250	22.250	4.7148e-02
 9.250	22.500	4.7156e-02
 9.250	22.750	4.7156e-02
 9.250	23.000	4.7156e-02
 9.250	23.250	4.7156e-02
 9.250	23.500	4.7156e-02
 9.250	23.750	4.7156e-02
 9.250	24.000	4.7156e-02
 9.500	17.000	4.8848e-04
 9.500	17.250	7.1119e-04
 9.500	17.500	1.0600e-03
 9.500	17.750	1.6526e-03
 9.500	18.000	2.8021e-03
 9.500	18.250	4.9262e-03
 9.500	18.500	8.2216e-03
 9.500	18.750	1.2656e-02
 9.500	19.000	1.8356e-02
 9.500	19.250	2.5300e-02
 9.500	19.500	3.2560e-02
 9.500	19.750	3.8262e-02
 9.500	20.000	4.1756e-02
 9.500	20.250	4.4164e-02
 9.500	20.500	4.5314e-02
 9.500	20.750	4.6885e-02
 9.500	21.000	4.7256e-02
 9.500	21.250	4.7214e-02
 9.500	21.500	4.7153e-02
 9.500	21.750	4.7112e-02
 9.500	22.000	4.7051e-02
 9.500	22.250	4.7019e-02
 9.500	22.500	4.7001e-02
 9.500	22.750	4.6986e-02
 9.500	23.000	4.6976e-02
 9.500	23.250	4.6973e-02
 9.500	23.500	4.7047e-02
 9.500	23.750	4.7047e-02
 9.500	24.000	4.7047e-02
 9.750	17.000	3.5012e-04
 9.750	17.250	5.1259e-04
 9.750	17.500	7.6831e-04
 9.750	17.750	1.2136e-03
 9.750	18.000	2.0872e-03
 9.750	18.250	3.7150e-03
 9.750	18.500	6.2248e-03
 9.750	18.750	9.5419e-03
 9.750	19.000	1.3855e-02
 9.750	19.250	1.9510e-02
 9.750	19.500	2.6395e-02
 9.750	19.750	3.4383e-02
 9.750	20.000	3.8949e-02
 9.750	20.250	4.2205e-02
 9.750	20.500	4.4017e-02
 9.750	20.750	4.5258e-02
 9.750	21.000	4.6895e-02
 9.750	21.250	4.7252e-02
 9.750	21.500	4.7217e-02
 9.750	21.750	4.7166e-02
 9.750	22.000	4.7112e-02
 9.750	22.250	4.7057e-02
 9.750	22.500	4.7033e-02
 9.750	22.750	4.7021e-02
 9.750	23.000	4.7011e-02
 9.750	23.250	4.7003e-02
 9.750	23.500	4.7000e-02
 9.750	23.750	4.6997e-02
 9.750	24.000	4.6995e-02
10.000	17.000	2.5012e-04
10.000	17.250	3.6757e-04
10.000	17.500	5.5523e-04
10.000	17.750	8.8790e-04
10.000	18.000	1.5421e-03
10.000	18.250	2.7739e-03
10.000	18.500	4.6680e-03
10.000	18.750	7.1333e-03
10.000	19.000	1.0345e-02
10.000	19.250	1.4647e-02
10.000	19.500	2.0276e-02
10.000	19.750	2.7863e-02
10.000	20.000	3.4717e-02
10.000	20.250	3.9479e-02
10.000	20.500	4.2697e-02
10.000	20.750	4.3874e-02
10.000	21.000	4.5209e-02
10.000	21.250	4.6914e-02
10.000	21.500	4.7246e-02
10.000	21.750	4.7216e-02
10.000	22.000	4.7169e-02
10.000	22.250	4.7130e-02
10.000	22.500	4.7061e-02
10.000	22.750	4.7041e-02
10.000	23.000	4.7034e-02
10.000	23.250	4.7028e-02
10.000	23.500	4.7022e-02
10.000	23.750	4.7021e-02
10.000	24.000	4.7019e-02
10.250	17.000	1.7901e-04
10.250	17.250	2.6280e-04
10.250	17.500	3.9885e-04
10.250	17.750	6.4716e-04
10.250	18.000	1.1455e-03
10.250	18.250	2.0528e-03
10.250	18.500	3.4451e-03
10.250	18.750	5.2598e-03
10.250	19.000	7.6521e-03
10.250	19.250	1.0858e-02
10.250	19.500	1.5215e-02
10.250	19.750	2.1088e-02
10.250	20.000	2.8614e-02
10.250	20.250	3.5020e-02
10.250	20.500	3.9963e-02
10.250	20.750	4.2664e-02
10.250	21.000	4.3753e-02
10.250	21.250	4.5184e-02
10.250	21.500	4.6934e-02
10.250	21.750	4.7231e-02
10.250	22.000	4.7214e-02
10.250	22.250	4.7169e-02
10.250	22.500	4.7154e-02
10.250	22.750	4.7067e-02
10.250	23.000	4.7045e-02
10.250	23.250	4.7041e-02
10.250	23.500	4.7038e-02
10.250	23.750	4.7034e-02
10.250	24.000	4.7034e-02
10.500	17.000	1.2856e-04
10.500	17.250	1.8790e-04
10.500	17.500	2.8568e-04
10.500	17.750	4.6790e-04
10.500	18.000	8.3786e-04
10.500	18.250	1.5038e-03
10.500	18.500	2.5030e-03
10.500	18.750	3.8141e-03
10.500	19.000	5.5509e-03
10.500	19.250	7.9328e-03
10.500	19.500	1.1194e-02
10.500	19.750	1.5661e-02
10.500	20.000	2.1618e-02
10.500	20.250	2.9037e-02
10.500	20.500	3.5409e-02
10.500	20.750	4.0450e-02
10.500	21.000	4.2467e-02
10.500	21.250	4.3627e-02
10.500	21.500	4.5299e-02
10.500	21.750	4.6897e-02
10.500	22.000	4.7204e-02
10.500	22.250	4.7206e-02
10.500	22.500	4.7166e-02
10.500	22.750	4.7161e-02
10.500	23.000	4.7115e-02
10.500	23.250	4.7050e-02
10.500	23.500	4.7044e-02
10.500	23.750	4.7043e-02
10.500	24.000	4.7042e-02
10.750	17.000	9.2593e-05
10.750	17.250	1.3457e-04
10.750	17.500	2.0436e-04
10.750	17.750	3.3638e-04
10.750	18.000	6.0650e-04
10.750	18.250	1.0914e-03
10.750	18.500	1.7974e-03
10.750	18.750	2.7270e-03
10.750	19.000	3.9990e-03
10.750	19.250	5.7586e-03
10.750	19.500	8.1624e-03
10.750	19.750	1.1487e-02
10.750	20.000	1.5976e-02
10.750	20.250	2.1932e-02
10.750	20.500	2.9289e-02
10.750	20.750	3.5681e-02
10.750	21.000	4.0646e-02
10.750	21.250	4.2197e-02
10.750	21.500	4.3674e-02
10.750	21.750	4.5431e-02
10.750	22.000	4.6820e-02
10.750	22.250	4.7165e-02
10.750	22.500	4.7195e-02
10.750	22.750	4.7161e-02
10.750	23.000	4.7162e-02
10.750	23.250	4.7141e-02
10.750	23.500	4.7088e-02
10.750	23.750	4.7053e-02
10.750	24.000	4.7046e-02
11.000	17.000	6.6584e-05
11.000	17.250	9.6543e-05
11.000	17.500	1.4609e-04
11.000	17.750	2.4016e-04
11.000	18.000	4.3021e-04
11.000	18.250	7.6757e-04
11.000	18.500	1.2525e-03
11.000	18.750	1.9064e-03
11.000	19.000	2.8230e-03
11.000	19.250	4.1142e-03
11.000	19.500	5.9042e-03
11.000	19.750	8.3407e-03
11.000	20.000	1.1659e-02
11.000	20.250	1.6130e-02
11.000	20.500	2.2016e-02
11.000	20.750	2.9229e-02
11.000	21.000	3.5666e-02
11.000	21.250	4.0387e-02
11.000	21.500	4.2183e-02
11.000	21.750	4.3638e-02
11.000	22.000	4.5571e-02
11.000	22.250	4.6702e-02
11.000	22.500	4.7105e-02
11.000	22.750	4.7179e-02
11.000	23.000	4.7153e-02
11.000	23.250	4.7160e-02
11.000	23.500	4.7148e-02
11.000	23.750	4.7133e-02
11.000	24.000	4.7093e-02
11.250	17.000	4.8395e-05
11.250	17.250	6.8971e-05
11.250	17.500	1.0428e-04
11.250	17.750	1.7021e-04
11.250	18.000	3.0222e-04
11.250	18.250	5.2864e-04
11.250	18.500	8.4634e-04
11.250	18.750	1.3277e-03
11.250	19.000	1.9794e-03
11.250	19.250	2.9053e-03
11.250	19.500	4.2039e-03
11.250	19.750	5.9964e-03
11.250	20.000	8.4411e-03
11.250	20.250	1.1743e-02
11.250	20.500	1.6124e-02
11.250	20.750	2.1757e-02
11.250	21.000	2.8701e-02
11.250	21.250	3.5190e-02
11.250	21.500	4.0107e-02
11.250	21.750	4.1828e-02
11.250	22.000	4.3529e-02
11.250	22.250	4.5560e-02
11.250	22.500	4.6507e-02
11.250	22.750	4.7021e-02
11.250	23.000	4.7154e-02
11.250	23.250	4.7140e-02
11.250	23.500	4.7156e-02
11.250	23.750	4.7150e-02
11.250	24.000	4.7147e-02
11.500	17.000	3.5967e-05
11.500	17.250	4.9959e-05
11.500	17.500	7.3909e-05
11.500	17.750	1.1942e-04
11.500	18.000	2.0889e-04
11.500	18.250	3.5786e-04
11.500	18.500	5.7490e-04
11.500	18.750	9.0115e-04
11.500	19.000	1.3701e-03
11.500	19.250	2.0301e-03
11.500	19.500	2.9670e-03
11.500	19.750	4.2691e-03
11.500	20.000	6.0634e-03
11.500	20.250	8.4784e-03
11.500	20.500	1.1692e-02
11.500	20.750	1.5821e-02
11.500	21.000	2.0993e-02
11.500	21.250	2.7524e-02
11.500	21.500	3.4763e-02
11.500	21.750	3.9144e-02
11.500	22.000	4.1290e-02
11.500	22.250	4.3252e-02
11.500	22.500	4.5289e-02
11.500	22.750	4.6233e-02
11.500	23.000	4.6903e-02
11.500	23.250	4.7114e-02
11.500	23.500	4.7120e-02
11.500	23.750	4.7150e-02
11.500	24.000	4.7149e-02
11.750	17.000	2.5021e-05
11.750	17.250	3.7037e-05
11.750	17.500	5.3169e-05
11.750	17.750	8.3374e-05
11.750	18.000	1.4222e-04
11.750	18.250	2.3951e-04
11.750	18.500	3.8551e-04
11.750	18.750	6.1103e-04
11.750	19.000	9.3374e-04
11.750	19.250	1.4049e-03
11.750	19.500	2.0706e-03
11.750	19.750	3.0079e-03
11.750	20.000	4.3129e-03
11.750	20.250	6.0840e-03
11.750	20.500	8.4388e-03
11.750	20.750	1.1433e-02
11.750	21.000	1.5113e-02
11.750	21.250	1.9600e-02
11.750	21.500	2.6339e-02
11.750	21.750	3.3268e-02
11.750	22.000	3.7769e-02
11.750	22.250	4.0420e-02
11.750	22.500	4.2684e-02
11.750	22.750	4.4750e-02
11.750	23.000	4.5834e-02
11.750	23.250	4.6726e-02
11.750	23.500	4.7063e-02
11.750	23.750	4.7089e-02
11.750	24.000	4.7141e-02
12.000	17.000	1.2346e-05
12.000	17.250	2.6996e-05
12.000	17.500	3.9177e-05
12.000	17.750	5.8765e-05
12.000	18.000	9.6296e-05
12.000	18.250	1.5975e-04
12.000	18.500	2.6049e-04
12.000	18.750	4.1202e-04
12.000	19.000	6.3580e-04
12.000	19.250	9.5695e-04
12.000	19.500	1.4254e-03
12.000	19.750	2.0960e-03
12.000	20.000	3.0309e-03
12.000	20.250	4.3233e-03
12.000	20.500	6.0381e-03
12.000	20.750	8.2361e-03
12.000	21.000	1.0871e-02
12.000	21.250	1.3876e-02
12.000	21.500	1.8284e-02
12.000	21.750	2.4119e-02
12.000	22.000	3.0884e-02
12.000	22.250	3.5829e-02
12.000	22.500	3.9035e-02
12.000	22.750	4.1769e-02
12.000	23.000	4.3907e-02
12.000	23.250	4.5243e-02
12.000	23.500	4.6455e-02
12.000	23.750	4.6981e-02
12.000	24.000	4.7042e-02
12.250	17.000	5.8436e-06
12.250	17.250	1.3909e-05
12.250	17.500	2.9136e-05
12.250	17.750	4.2798e-05
12.250	18.000	6.6584e-05
12.250	18.250	1.0840e-04
12.250	18.500	1.7556e-04
12.250	18.750	2.7547e-04
12.250	19.000	4.2593e-04
12.250	19.250	6.4700e-04
12.250	19.500	9.7300e-04
12.250	19.750	1.4438e-03
12.250	20.000	2.1114e-03
12.250	20.250	3.0381e-03
12.250	20.500	4.2886e-03
12.250	20.750	5.8858e-03
12.250	21.000	7.8208e-03
12.250	21.250	9.9061e-03
12.250	21.500	1.2729e-02
12.250	21.750	1.6011e-02
12.250	22.000	2.1326e-02
12.250	22.250	2.7857e-02
12.250	22.500	3.3268e-02
12.250	22.750	3.6993e-02
12.250	23.000	4.0214e-02
12.250	23.250	4.2663e-02
12.250	23.500	4.4371e-02
12.250	23.750	4.6043e-02
12.250	24.000	4.6858e-02
12.500	17.000	2.9630e-06
12.500	17.250	6.4198e-06
12.500	17.500	1.5226e-05
12.500	17.750	3.1852e-05
12.500	18.000	4.8230e-05
12.500	18.250	7.5144e-05
12.500	18.500	1.1802e-04
12.500	18.750	1.8387e-04
12.500	19.000	2.8461e-04
12.500	19.250	4.3514e-04
12.500	19.500	6.5737e-04
12.500	19.750	9.8239e-04
12.500	20.000	1.4526e-03
12.500	20.250	2.1137e-03
12.500	20.500	3.0127e-03
12.500	20.750	4.1837e-03
12.500	21.000	5.5970e-03
12.500	21.250	7.1056e-03
12.500	21.500	9.0131e-03
12.500	21.750	1.0738e-02
12.500	22.000	1.3398e-02
12.500	22.250	1.8306e-02
12.500	22.500	2.4770e-02
12.500	22.750	2.9869e-02
12.500	23.000	3.4091e-02
12.500	23.250	3.7942e-02
12.500	23.500	4.0886e-02
12.500	23.750	4.3096e-02
12.500	24.000	4.5421e-02
12.750	17.000	1.4815e-06
12.750	17.250	3.2099e-06
12.750	17.500	6.9959e-06
12.750	17.750	1.5391e-05
12.750	18.000	3.1934e-05
12.750	18.250	5.2510e-05
12.750	18.500	7.9671e-05
12.750	18.750	1.2206e-04
12.750	19.000	1.8848e-04
12.750	19.250	2.8947e-04
12.750	19.500	4.4033e-04
12.750	19.750	6.6420e-04
12.750	20.000	9.8996e-04
12.750	20.250	1.4542e-03
12.750	20.500	2.0936e-03
12.750	20.750	2.9434e-03
12.750	21.000	3.9829e-03
12.750	21.250	5.0947e-03
12.750	21.500	6.4499e-03
12.750	21.750	7.3860e-03
12.750	22.000	8.5134e-03
12.750	22.250	1.0870e-02
12.750	22.500	1.5414e-02
12.750	22.750	2.0825e-02
12.750	23.000	2.5581e-02
12.750	23.250	3.0392e-02
12.750	23.500	3.4926e-02
12.750	23.750	3.8425e-02
12.750	24.000	4.1260e-02
13.000	17.000	1.0000e-07
13.000	17.250	9.8765e-07
13.000	17.500	2.7160e-06
13.000	17.750	6.3374e-06
13.000	18.000	1.3909e-05
13.000	18.250	2.7984e-05
13.000	18.500	4.8724e-05
13.000	18.750	7.7695e-05
13.000	19.000	1.2337e-04
13.000	19.250	1.9070e-04
13.000	19.500	2.9284e-04
13.000	19.750	4.4420e-04
13.000	20.000	6.6733e-04
13.000	20.250	9.8831e-04
13.000	20.500	1.4419e-03
13.000	20.750	2.0509e-03
13.000	21.000	2.8088e-03
13.000	21.250	3.6349e-03
13.000	21.500	4.6280e-03
13.000	21.750	5.1744e-03
13.000	22.000	5.5396e-03
13.000	22.250	6.4884e-03
13.000	22.500	8.7877e-03
13.000	22.750	1.2396e-02
13.000	23.000	1.6574e-02
13.000	23.250	2.1072e-02
13.000	23.500	2.6197e-02
13.000	23.750	3.1159e-02
13.000	24.000	3.5163e-02
13.250	17.000	1.0000e-07
13.250	17.250	1.0000e-07
13.250	17.500	1.0700e-06
13.250	17.750	2.5514e-06
13.250	18.000	6.2551e-06
13.250	18.250	1.3909e-05
13.250	18.500	2.8971e-05
13.250	18.750	5.0617e-05
13.250	19.000	8.0823e-05
13.250	19.250	1.2609e-04
13.250	19.500	1.9012e-04
13.250	19.750	2.9440e-04
13.250	20.000	4.4519e-04
13.250	20.250	6.6560e-04
13.250	20.500	9.8016e-04
13.250	20.750	1.4123e-03
13.250	21.000	1.9625e-03
13.250	21.250	2.5719e-03
13.250	21.500	3.3110e-03
13.250	21.750	3.6640e-03
13.250	22.000	3.6859e-03
13.250	22.250	3.9399e-03
13.250	22.500	4.9773e-03
13.250	22.750	6.8762e-03
13.250	23.000	9.5669e-03
13.250	23.250	1.2856e-02
13.250	23.500	1.6938e-02
13.250	23.750	2.1738e-02
13.250	24.000	2.6767e-02
13.500	17.000	1.0000e-07
13.500	17.250	1.0000e-07
13.500	17.500	1.0000e-07
13.500	17.750	1.3169e-06
13.500	18.000	3.2099e-06
13.500	18.250	6.9959e-06
13.500	18.500	1.4568e-05
13.500	18.750	2.9300e-05
13.500	19.000	5.3004e-05
13.500	19.250	8.3210e-05
13.500	19.500	1.2634e-04
13.500	19.750	1.9342e-04
13.500	20.000	2.9416e-04
13.500	20.250	4.4337e-04
13.500	20.500	6.5951e-04
13.500	20.750	9.6099e-04
13.500	21.000	1.3542e-03
13.500	21.250	1.8047e-03
13.500	21.500	2.3475e-03
13.500	21.750	2.5992e-03
13.500	22.000	2.4960e-03
13.500	22.250	2.4374e-03
13.500	22.500	2.8822e-03
13.500	22.750	3.8858e-03
13.500	23.000	5.3584e-03
13.500	23.250	7.3876e-03
13.500	23.500	1.0009e-02
13.500	23.750	1.3182e-02
13.500	24.000	1.7369e-02
13.750	17.000	1.0000e-07
13.750	17.250	1.0000e-07
13.750	17.500	1.0000e-07
13.750	17.750	1.0000e-07
13.750	18.000	1.6461e-06
13.750	18.250	3.7037e-06
13.750	18.500	7.5720e-06
13.750	18.750	1.5473e-05
13.750	19.000	3.0288e-05
13.750	19.250	5.6461e-05
13.750	19.500	8.4444e-05
13.750	19.750	1.2683e-04
13.750	20.000	1.9333e-04
13.750	20.250	2.9276e-04
13.750	20.500	4.3901e-04
13.750	20.750	6.4642e-04
13.750	21.000	9.2329e-04
13.750	21.250	1.2501e-03
13.750	21.500	1.6503e-03
13.750	21.750	1.8356e-03
13.750	22.000	1.7173e-03
13.750	22.250	1.5407e-03
13.750	22.500	1.6970e-03
13.750	22.750	2.2405e-03
13.750	23.000	3.0528e-03
13.750	23.250	4.1735e-03
13.750	23.500	5.6893e-03
13.750	23.750	7.5348e-03
13.750	24.000	1.0053e-02
14.000	17.000	1.0000e-07
14.000	17.250	1.0000e-07
14.000	17.500	1.0000e-07
14.000	17.750	1.0000e-07
14.000	18.000	9.0535e-07
14.000	18.250	1.8930e-06
14.000	18.500	4.0329e-06
14.000	18.750	8.1481e-06
14.000	19.000	1.6132e-05
14.000	19.250	3.5062e-05
14.000	19.500	5.6214e-05
14.000	19.750	8.4774e-05
14.000	20.000	1.2724e-04
14.000	20.250	1.9226e-04
14.000	20.500	2.8979e-04
14.000	20.750	4.3062e-04
14.000	21.000	6.2255e-04
14.000	21.250	8.5597e-04
14.000	21.500	1.1476e-03
14.000	21.750	1.2873e-03
14.000	22.000	1.1863e-03
14.000	22.250	9.9728e-04
14.000	22.500	1.0104e-03
14.000	22.750	1.3016e-03
14.000	23.000	1.7713e-03
14.000	23.250	2.3773e-03
14.000	23.500	3.2105e-03
14.000	23.750	4.2551e-03
14.000	24.000	5.6046e-03
