InwT 1.10000m  relative to Inci 1215.00A scaled to 1215A.
Hden   Phi(H)  Eq_Width (A)
 7.000	17.000	4.9586e-02
 7.000	17.250	5.5888e-02
 7.000	17.500	6.3254e-02
 7.000	17.750	6.6724e-02
 7.000	18.000	6.7743e-02
 7.000	18.250	5.9934e-02
 7.000	18.500	5.4688e-02
 7.000	18.750	5.1744e-02
 7.000	19.000	5.0678e-02
 7.000	19.250	5.0142e-02
 7.000	19.500	4.9905e-02
 7.000	19.750	4.9821e-02
 7.000	20.000	4.9786e-02
 7.000	20.250	4.9770e-02
 7.000	20.500	4.9763e-02
 7.000	20.750	4.9759e-02
 7.000	21.000	4.9757e-02
 7.000	21.250	4.9756e-02
 7.000	21.500	4.9755e-02
 7.000	21.750	4.9755e-02
 7.000	22.000	4.9755e-02
 7.000	22.250	4.9754e-02
 7.000	22.500	4.9754e-02
 7.000	22.750	4.9755e-02
 7.000	23.000	4.9755e-02
 7.000	23.250	4.9754e-02
 7.000	23.500	4.9754e-02
 7.000	23.750	4.9754e-02
 7.000	24.000	4.9755e-02
 7.250	17.000	4.5663e-02
 7.250	17.250	5.1396e-02
 7.250	17.500	5.8151e-02
 7.250	17.750	6.5575e-02
 7.250	18.000	6.8062e-02
 7.250	18.250	6.7703e-02
 7.250	18.500	5.9929e-02
 7.250	18.750	5.4685e-02
 7.250	19.000	5.1744e-02
 7.250	19.250	5.0678e-02
 7.250	19.500	5.0142e-02
 7.250	19.750	4.9905e-02
 7.250	20.000	4.9820e-02
 7.250	20.250	4.9786e-02
 7.250	20.500	4.9770e-02
 7.250	20.750	4.9763e-02
 7.250	21.000	4.9759e-02
 7.250	21.250	4.9757e-02
 7.250	21.500	4.9756e-02
 7.250	21.750	4.9755e-02
 7.250	22.000	4.9755e-02
 7.250	22.250	4.9754e-02
 7.250	22.500	4.9754e-02
 7.250	22.750	4.9755e-02
 7.250	23.000	4.9754e-02
 7.250	23.250	4.9754e-02
 7.250	23.500	4.9754e-02
 7.250	23.750	4.9754e-02
 7.250	24.000	4.9755e-02
 7.500	17.000	4.2491e-02
 7.500	17.250	4.7520e-02
 7.500	17.500	5.4197e-02
 7.500	17.750	6.1645e-02
 7.500	18.000	6.9085e-02
 7.500	18.250	6.9575e-02
 7.500	18.500	6.7667e-02
 7.500	18.750	5.9926e-02
 7.500	19.000	5.4680e-02
 7.500	19.250	5.1744e-02
 7.500	19.500	5.0678e-02
 7.500	19.750	5.0142e-02
 7.500	20.000	4.9905e-02
 7.500	20.250	4.9820e-02
 7.500	20.500	4.9786e-02
 7.500	20.750	4.9770e-02
 7.500	21.000	4.9763e-02
 7.500	21.250	4.9759e-02
 7.500	21.500	4.9757e-02
 7.500	21.750	4.9756e-02
 7.500	22.000	4.9755e-02
 7.500	22.250	4.9755e-02
 7.500	22.500	4.9754e-02
 7.500	22.750	4.9754e-02
 7.500	23.000	4.9754e-02
 7.500	23.250	4.9755e-02
 7.500	23.500	4.9754e-02
 7.500	23.750	4.9754e-02
 7.500	24.000	4.9758e-02
 7.750	17.000	4.0318e-02
 7.750	17.250	4.4265e-02
 7.750	17.500	5.0497e-02
 7.750	17.750	5.8841e-02
 7.750	18.000	6.7196e-02
 7.750	18.250	7.4091e-02
 7.750	18.500	7.1492e-02
 7.750	18.750	6.7636e-02
 7.750	19.000	5.9924e-02
 7.750	19.250	5.4673e-02
 7.750	19.500	5.1744e-02
 7.750	19.750	5.0677e-02
 7.750	20.000	5.0143e-02
 7.750	20.250	4.9906e-02
 7.750	20.500	4.9821e-02
 7.750	20.750	4.9785e-02
 7.750	21.000	4.9770e-02
 7.750	21.250	4.9763e-02
 7.750	21.500	4.9759e-02
 7.750	21.750	4.9757e-02
 7.750	22.000	4.9756e-02
 7.750	22.250	4.9755e-02
 7.750	22.500	4.9754e-02
 7.750	22.750	4.9754e-02
 7.750	23.000	4.9755e-02
 7.750	23.250	4.9754e-02
 7.750	23.500	4.9754e-02
 7.750	23.750	4.9754e-02
 7.750	24.000	4.9754e-02
 8.000	17.000	3.9040e-02
 8.000	17.250	4.1646e-02
 8.000	17.500	4.6877e-02
 8.000	17.750	5.5502e-02
 8.000	18.000	6.6605e-02
 8.000	18.250	7.5918e-02
 8.000	18.500	7.9537e-02
 8.000	18.750	7.3298e-02
 8.000	19.000	6.7594e-02
 8.000	19.250	5.9914e-02
 8.000	19.500	5.4665e-02
 8.000	19.750	5.1744e-02
 8.000	20.000	5.0677e-02
 8.000	20.250	5.0143e-02
 8.000	20.500	4.9905e-02
 8.000	20.750	4.9821e-02
 8.000	21.000	4.9785e-02
 8.000	21.250	4.9770e-02
 8.000	21.500	4.9763e-02
 8.000	21.750	4.9759e-02
 8.000	22.000	4.9757e-02
 8.000	22.250	4.9756e-02
 8.000	22.500	4.9755e-02
 8.000	22.750	4.9755e-02
 8.000	23.000	4.9754e-02
 8.000	23.250	4.9755e-02
 8.000	23.500	4.9754e-02
 8.000	23.750	4.9754e-02
 8.000	24.000	4.9755e-02
 8.250	17.000	3.9137e-02
 8.250	17.250	4.0602e-02
 8.250	17.500	4.4444e-02
 8.250	17.750	5.2300e-02
 8.250	18.000	6.5472e-02
 8.250	18.250	8.0221e-02
 8.250	18.500	8.7815e-02
 8.250	18.750	8.6509e-02
 8.250	19.000	7.5475e-02
 8.250	19.250	6.7562e-02
 8.250	19.500	5.9916e-02
 8.250	19.750	5.4655e-02
 8.250	20.000	5.1745e-02
 8.250	20.250	5.0678e-02
 8.250	20.500	5.0142e-02
 8.250	20.750	4.9905e-02
 8.250	21.000	4.9820e-02
 8.250	21.250	4.9786e-02
 8.250	21.500	4.9770e-02
 8.250	21.750	4.9762e-02
 8.250	22.000	4.9759e-02
 8.250	22.250	4.9757e-02
 8.250	22.500	4.9756e-02
 8.250	22.750	4.9755e-02
 8.250	23.000	4.9755e-02
 8.250	23.250	4.9755e-02
 8.250	23.500	4.9754e-02
 8.250	23.750	4.9754e-02
 8.250	24.000	4.9754e-02
 8.500	17.000	3.9970e-02
 8.500	17.250	4.0698e-02
 8.500	17.500	4.3350e-02
 8.500	17.750	4.9849e-02
 8.500	18.000	6.3237e-02
 8.500	18.250	8.3159e-02
 8.500	18.500	9.8068e-02
 8.500	18.750	1.0050e-01
 8.500	19.000	9.2158e-02
 8.500	19.250	7.7139e-02
 8.500	19.500	6.7524e-02
 8.500	19.750	5.9921e-02
 8.500	20.000	5.4644e-02
 8.500	20.250	5.1743e-02
 8.500	20.500	5.0678e-02
 8.500	20.750	5.0142e-02
 8.500	21.000	4.9905e-02
 8.500	21.250	4.9820e-02
 8.500	21.500	4.9786e-02
 8.500	21.750	4.9770e-02
 8.500	22.000	4.9762e-02
 8.500	22.250	4.9759e-02
 8.500	22.500	4.9757e-02
 8.500	22.750	4.9755e-02
 8.500	23.000	4.9755e-02
 8.500	23.250	4.9754e-02
 8.500	23.500	4.9754e-02
 8.500	23.750	4.9754e-02
 8.500	24.000	4.9755e-02
 8.750	17.000	4.1248e-02
 8.750	17.250	4.1593e-02
 8.750	17.500	4.3514e-02
 8.750	17.750	4.8784e-02
 8.750	18.000	6.1014e-02
 8.750	18.250	8.3235e-02
 8.750	18.500	1.0635e-01
 8.750	18.750	1.1681e-01
 8.750	19.000	1.1302e-01
 8.750	19.250	9.4950e-02
 8.750	19.500	7.8909e-02
 8.750	19.750	6.7466e-02
 8.750	20.000	5.9931e-02
 8.750	20.250	5.4631e-02
 8.750	20.500	5.1741e-02
 8.750	20.750	5.0678e-02
 8.750	21.000	5.0142e-02
 8.750	21.250	4.9905e-02
 8.750	21.500	4.9820e-02
 8.750	21.750	4.9786e-02
 8.750	22.000	4.9770e-02
 8.750	22.250	4.9763e-02
 8.750	22.500	4.9759e-02
 8.750	22.750	4.9757e-02
 8.750	23.000	4.9756e-02
 8.750	23.250	4.9755e-02
 8.750	23.500	4.9755e-02
 8.750	23.750	4.9755e-02
 8.750	24.000	4.9754e-02
 9.000	17.000	4.2871e-02
 9.000	17.250	4.2976e-02
 9.000	17.500	4.4600e-02
 9.000	17.750	4.9297e-02
 9.000	18.000	6.0646e-02
 9.000	18.250	8.2520e-02
 9.000	18.500	1.1032e-01
 9.000	18.750	1.3044e-01
 9.000	19.000	1.3528e-01
 9.000	19.250	1.2476e-01
 9.000	19.500	9.8409e-02
 9.000	19.750	8.0074e-02
 9.000	20.000	6.7366e-02
 9.000	20.250	5.9944e-02
 9.000	20.500	5.4615e-02
 9.000	20.750	5.1740e-02
 9.000	21.000	5.0677e-02
 9.000	21.250	5.0142e-02
 9.000	21.500	4.9905e-02
 9.000	21.750	4.9820e-02
 9.000	22.000	4.9786e-02
 9.000	22.250	4.9770e-02
 9.000	22.500	4.9763e-02
 9.000	22.750	4.9759e-02
 9.000	23.000	4.9757e-02
 9.000	23.250	4.9756e-02
 9.000	23.500	4.9755e-02
 9.000	23.750	4.9755e-02
 9.000	24.000	4.9754e-02
 9.250	17.000	4.4836e-02
 9.250	17.250	4.4757e-02
 9.250	17.500	4.6334e-02
 9.250	17.750	5.1058e-02
 9.250	18.000	6.2776e-02
 9.250	18.250	8.4402e-02
 9.250	18.500	1.1193e-01
 9.250	18.750	1.3738e-01
 9.250	19.000	1.5237e-01
 9.250	19.250	1.5036e-01
 9.250	19.500	1.3012e-01
 9.250	19.750	1.0076e-01
 9.250	20.000	8.1432e-02
 9.250	20.250	6.7232e-02
 9.250	20.500	5.9962e-02
 9.250	20.750	5.4599e-02
 9.250	21.000	5.1738e-02
 9.250	21.250	5.0678e-02
 9.250	21.500	5.0142e-02
 9.250	21.750	4.9897e-02
 9.250	22.000	4.9775e-02
 9.250	22.250	4.9777e-02
 9.250	22.500	4.9770e-02
 9.250	22.750	4.9763e-02
 9.250	23.000	4.9759e-02
 9.250	23.250	4.9757e-02
 9.250	23.500	4.9756e-02
 9.250	23.750	4.9755e-02
 9.250	24.000	4.9754e-02
 9.500	17.000	4.7330e-02
 9.500	17.250	4.7027e-02
 9.500	17.500	4.8669e-02
 9.500	17.750	5.3865e-02
 9.500	18.000	6.6895e-02
 9.500	18.250	8.9549e-02
 9.500	18.500	1.1673e-01
 9.500	18.750	1.4135e-01
 9.500	19.000	1.6084e-01
 9.500	19.250	1.7117e-01
 9.500	19.500	1.6442e-01
 9.500	19.750	1.3501e-01
 9.500	20.000	1.0341e-01
 9.500	20.250	8.1110e-02
 9.500	20.500	6.7066e-02
 9.500	20.750	5.9985e-02
 9.500	21.000	5.4583e-02
 9.500	21.250	5.1731e-02
 9.500	21.500	5.0655e-02
 9.500	21.750	5.0083e-02
 9.500	22.000	4.9795e-02
 9.500	22.250	4.9677e-02
 9.500	22.500	4.9622e-02
 9.500	22.750	4.9591e-02
 9.500	23.000	4.9573e-02
 9.500	23.250	4.9565e-02
 9.500	23.500	4.9642e-02
 9.500	23.750	4.9640e-02
 9.500	24.000	4.9640e-02
 9.750	17.000	5.0471e-02
 9.750	17.250	4.9850e-02
 9.750	17.500	5.1525e-02
 9.750	17.750	5.7624e-02
 9.750	18.000	7.2552e-02
 9.750	18.250	9.7149e-02
 9.750	18.500	1.2448e-01
 9.750	18.750	1.4721e-01
 9.750	19.000	1.6572e-01
 9.750	19.250	1.8124e-01
 9.750	19.500	1.8809e-01
 9.750	19.750	1.8186e-01
 9.750	20.000	1.4033e-01
 9.750	20.250	1.0487e-01
 9.750	20.500	8.0651e-02
 9.750	20.750	6.6921e-02
 9.750	21.000	6.0013e-02
 9.750	21.250	5.4563e-02
 9.750	21.500	5.1734e-02
 9.750	21.750	5.0669e-02
 9.750	22.000	5.0084e-02
 9.750	22.250	4.9802e-02
 9.750	22.500	4.9691e-02
 9.750	22.750	4.9643e-02
 9.750	23.000	4.9617e-02
 9.750	23.250	4.9601e-02
 9.750	23.500	4.9594e-02
 9.750	23.750	4.9589e-02
 9.750	24.000	4.9586e-02
10.000	17.000	5.4484e-02
10.000	17.250	5.3413e-02
10.000	17.500	5.5210e-02
10.000	17.750	6.2418e-02
10.000	18.000	7.9388e-02
10.000	18.250	1.0588e-01
10.000	18.500	1.3351e-01
10.000	18.750	1.5460e-01
10.000	19.000	1.7114e-01
10.000	19.250	1.8732e-01
10.000	19.500	2.0352e-01
10.000	19.750	2.1680e-01
10.000	20.000	1.9401e-01
10.000	20.250	1.4652e-01
10.000	20.500	1.0633e-01
10.000	20.750	8.0164e-02
10.000	21.000	6.6826e-02
10.000	21.250	6.0054e-02
10.000	21.500	5.4544e-02
10.000	21.750	5.1732e-02
10.000	22.000	5.0672e-02
10.000	22.250	5.0103e-02
10.000	22.500	4.9806e-02
10.000	22.750	4.9699e-02
10.000	23.000	4.9657e-02
10.000	23.250	4.9635e-02
10.000	23.500	4.9621e-02
10.000	23.750	4.9616e-02
10.000	24.000	4.9612e-02
10.250	17.000	5.9894e-02
10.250	17.250	5.7963e-02
10.250	17.500	5.9973e-02
10.250	17.750	6.8675e-02
10.250	18.000	8.7992e-02
10.250	18.250	1.1531e-01
10.250	18.500	1.4238e-01
10.250	18.750	1.6222e-01
10.250	19.000	1.7756e-01
10.250	19.250	1.9230e-01
10.250	19.500	2.0822e-01
10.250	19.750	2.2345e-01
10.250	20.000	2.3051e-01
10.250	20.250	1.9831e-01
10.250	20.500	1.4913e-01
10.250	20.750	1.0561e-01
10.250	21.000	7.9798e-02
10.250	21.250	6.6801e-02
10.250	21.500	6.0084e-02
10.250	21.750	5.4516e-02
10.250	22.000	5.1728e-02
10.250	22.250	5.0672e-02
10.250	22.500	5.0128e-02
10.250	22.750	4.9813e-02
10.250	23.000	4.9703e-02
10.250	23.250	4.9664e-02
10.250	23.500	4.9645e-02
10.250	23.750	4.9633e-02
10.250	24.000	4.9630e-02
10.500	17.000	6.7576e-02
10.500	17.250	6.4327e-02
10.500	17.500	6.6337e-02
10.500	17.750	7.6689e-02
10.500	18.000	9.7683e-02
10.500	18.250	1.2535e-01
10.500	18.500	1.5061e-01
10.500	18.750	1.6870e-01
10.500	19.000	1.8260e-01
10.500	19.250	1.9543e-01
10.500	19.500	2.0886e-01
10.500	19.750	2.2381e-01
10.500	20.000	2.3714e-01
10.500	20.250	2.3986e-01
10.500	20.500	2.0321e-01
10.500	20.750	1.5180e-01
10.500	21.000	1.0434e-01
10.500	21.250	7.9437e-02
10.500	21.500	6.7068e-02
10.500	21.750	5.9988e-02
10.500	22.000	5.4476e-02
10.500	22.250	5.1718e-02
10.500	22.500	5.0669e-02
10.500	22.750	5.0135e-02
10.500	23.000	4.9863e-02
10.500	23.250	4.9709e-02
10.500	23.500	4.9668e-02
10.500	23.750	4.9651e-02
10.500	24.000	4.9642e-02
10.750	17.000	7.8109e-02
10.750	17.250	7.3047e-02
10.750	17.500	7.5080e-02
10.750	17.750	8.6668e-02
10.750	18.000	1.0888e-01
10.750	18.250	1.3625e-01
10.750	18.500	1.5931e-01
10.750	18.750	1.7546e-01
10.750	19.000	1.8855e-01
10.750	19.250	2.0030e-01
10.750	19.500	2.1135e-01
10.750	19.750	2.2380e-01
10.750	20.000	2.3742e-01
10.750	20.250	2.4917e-01
10.750	20.500	2.4911e-01
10.750	20.750	2.0863e-01
10.750	21.000	1.5206e-01
10.750	21.250	1.0332e-01
10.750	21.500	7.9433e-02
10.750	21.750	6.7465e-02
10.750	22.000	5.9783e-02
10.750	22.250	5.4420e-02
10.750	22.500	5.1704e-02
10.750	22.750	5.0664e-02
10.750	23.000	5.0136e-02
10.750	23.250	4.9890e-02
10.750	23.500	4.9749e-02
10.750	23.750	4.9678e-02
10.750	24.000	4.9654e-02
11.000	17.000	9.1873e-02
11.000	17.250	8.4649e-02
11.000	17.500	8.6241e-02
11.000	17.750	9.8543e-02
11.000	18.000	1.2062e-01
11.000	18.250	1.4662e-01
11.000	18.500	1.6712e-01
11.000	18.750	1.8176e-01
11.000	19.000	1.9398e-01
11.000	19.250	2.0514e-01
11.000	19.500	2.1527e-01
11.000	19.750	2.2520e-01
11.000	20.000	2.3667e-01
11.000	20.250	2.4970e-01
11.000	20.500	2.6016e-01
11.000	20.750	2.5728e-01
11.000	21.000	2.1297e-01
11.000	21.250	1.5124e-01
11.000	21.500	1.0268e-01
11.000	21.750	7.9343e-02
11.000	22.000	6.7948e-02
11.000	22.250	5.9479e-02
11.000	22.500	5.4345e-02
11.000	22.750	5.1686e-02
11.000	23.000	5.0655e-02
11.000	23.250	5.0135e-02
11.000	23.500	4.9899e-02
11.000	23.750	4.9797e-02
11.000	24.000	4.9719e-02
11.250	17.000	1.1069e-01
11.250	17.250	9.9241e-02
11.250	17.500	9.9858e-02
11.250	17.750	1.1195e-01
11.250	18.000	1.3370e-01
11.250	18.250	1.5733e-01
11.250	18.500	1.7402e-01
11.250	18.750	1.8977e-01
11.250	19.000	2.0066e-01
11.250	19.250	2.1036e-01
11.250	19.500	2.1931e-01
11.250	19.750	2.2794e-01
11.250	20.000	2.3740e-01
11.250	20.250	2.4873e-01
11.250	20.500	2.6109e-01
11.250	20.750	2.6916e-01
11.250	21.000	2.6266e-01
11.250	21.250	2.1422e-01
11.250	21.500	1.5034e-01
11.250	21.750	1.0196e-01
11.250	22.000	7.9470e-02
11.250	22.250	6.8023e-02
11.250	22.500	5.9116e-02
11.250	22.750	5.4238e-02
11.250	23.000	5.1658e-02
11.250	23.250	5.0643e-02
11.250	23.500	5.0131e-02
11.250	23.750	4.9900e-02
11.250	24.000	4.9812e-02
11.500	17.000	1.3714e-01
11.500	17.250	1.1899e-01
11.500	17.500	1.1591e-01
11.500	17.750	1.2670e-01
11.500	18.000	1.4753e-01
11.500	18.250	1.6849e-01
11.500	18.500	1.8357e-01
11.500	18.750	1.9682e-01
11.500	19.000	2.0752e-01
11.500	19.250	2.1618e-01
11.500	19.500	2.2431e-01
11.500	19.750	2.3186e-01
11.500	20.000	2.3969e-01
11.500	20.250	2.4854e-01
11.500	20.500	2.5939e-01
11.500	20.750	2.6995e-01
11.500	21.000	2.7381e-01
11.500	21.250	2.6235e-01
11.500	21.500	2.1420e-01
11.500	21.750	1.4622e-01
11.500	22.000	1.0061e-01
11.500	22.250	7.9232e-02
11.500	22.500	6.7396e-02
11.500	22.750	5.8666e-02
11.500	23.000	5.4089e-02
11.500	23.250	5.1615e-02
11.500	23.500	5.0621e-02
11.500	23.750	5.0124e-02
11.500	24.000	4.9899e-02
11.750	17.000	1.6177e-01
11.750	17.250	1.4659e-01
11.750	17.500	1.3678e-01
11.750	17.750	1.4350e-01
11.750	18.000	1.6206e-01
11.750	18.250	1.8037e-01
11.750	18.500	1.9385e-01
11.750	18.750	2.0607e-01
11.750	19.000	2.1508e-01
11.750	19.250	2.2317e-01
11.750	19.500	2.2992e-01
11.750	19.750	2.3623e-01
11.750	20.000	2.4279e-01
11.750	20.250	2.4982e-01
11.750	20.500	2.5835e-01
11.750	20.750	2.6768e-01
11.750	21.000	2.7465e-01
11.750	21.250	2.7199e-01
11.750	21.500	2.5763e-01
11.750	21.750	2.0682e-01
11.750	22.000	1.4039e-01
11.750	22.250	9.8842e-02
11.750	22.500	7.8770e-02
11.750	22.750	6.6224e-02
11.750	23.000	5.8032e-02
11.750	23.250	5.3872e-02
11.750	23.500	5.1559e-02
11.750	23.750	5.0588e-02
11.750	24.000	5.0115e-02
12.000	17.000	1.4229e-01
12.000	17.250	1.7933e-01
12.000	17.500	1.6533e-01
12.000	17.750	1.6433e-01
12.000	18.000	1.7788e-01
12.000	18.250	1.9379e-01
12.000	18.500	2.0734e-01
12.000	18.750	2.1747e-01
12.000	19.000	2.2525e-01
12.000	19.250	2.3078e-01
12.000	19.500	2.3604e-01
12.000	19.750	2.4106e-01
12.000	20.000	2.4596e-01
12.000	20.250	2.5170e-01
12.000	20.500	2.5801e-01
12.000	20.750	2.6564e-01
12.000	21.000	2.7236e-01
12.000	21.250	2.7303e-01
12.000	21.500	2.6531e-01
12.000	21.750	2.4537e-01
12.000	22.000	1.9353e-01
12.000	22.250	1.3316e-01
12.000	22.500	9.6229e-02
12.000	22.750	7.7470e-02
12.000	23.000	6.4593e-02
12.000	23.250	5.7175e-02
12.000	23.500	5.3547e-02
12.000	23.750	5.1470e-02
12.000	24.000	5.0540e-02
12.250	17.000	1.2227e-01
12.250	17.250	1.6440e-01
12.250	17.500	2.0312e-01
12.250	17.750	1.9387e-01
12.250	18.000	1.9868e-01
12.250	18.250	2.1138e-01
12.250	18.500	2.2273e-01
12.250	18.750	2.3024e-01
12.250	19.000	2.3585e-01
12.250	19.250	2.3984e-01
12.250	19.500	2.4339e-01
12.250	19.750	2.4655e-01
12.250	20.000	2.4976e-01
12.250	20.250	2.5362e-01
12.250	20.500	2.5848e-01
12.250	20.750	2.6381e-01
12.250	21.000	2.7000e-01
12.250	21.250	2.7189e-01
12.250	21.500	2.6679e-01
12.250	21.750	2.5076e-01
12.250	22.000	2.2531e-01
12.250	22.250	1.7507e-01
12.250	22.500	1.2515e-01
12.250	22.750	9.2816e-02
12.250	23.000	7.4648e-02
12.250	23.250	6.2488e-02
12.250	23.500	5.5992e-02
12.250	23.750	5.3058e-02
12.250	24.000	5.1336e-02
12.500	17.000	1.1036e-01
12.500	17.250	1.3782e-01
12.500	17.500	1.8737e-01
12.500	17.750	2.3369e-01
12.500	18.000	2.3009e-01
12.500	18.250	2.3401e-01
12.500	18.500	2.4025e-01
12.500	18.750	2.4530e-01
12.500	19.000	2.4881e-01
12.500	19.250	2.5047e-01
12.500	19.500	2.5142e-01
12.500	19.750	2.5242e-01
12.500	20.000	2.5396e-01
12.500	20.250	2.5614e-01
12.500	20.500	2.5910e-01
12.500	20.750	2.6322e-01
12.500	21.000	2.6786e-01
12.500	21.250	2.7041e-01
12.500	21.500	2.6739e-01
12.500	21.750	2.5280e-01
12.500	22.000	2.2808e-01
12.500	22.250	1.9906e-01
12.500	22.500	1.5676e-01
12.500	22.750	1.1537e-01
12.500	23.000	8.7063e-02
12.500	23.250	7.0199e-02
12.500	23.500	5.9620e-02
12.500	23.750	5.4325e-02
12.500	24.000	5.2332e-02
12.750	17.000	9.9305e-02
12.750	17.250	1.2139e-01
12.750	17.500	1.5580e-01
12.750	17.750	2.0076e-01
12.750	18.000	2.4977e-01
12.750	18.250	2.6150e-01
12.750	18.500	2.6014e-01
12.750	18.750	2.6045e-01
12.750	19.000	2.6182e-01
12.750	19.250	2.6193e-01
12.750	19.500	2.6052e-01
12.750	19.750	2.5946e-01
12.750	20.000	2.5894e-01
12.750	20.250	2.5928e-01
12.750	20.500	2.6025e-01
12.750	20.750	2.6298e-01
12.750	21.000	2.6681e-01
12.750	21.250	2.6894e-01
12.750	21.500	2.6787e-01
12.750	21.750	2.5544e-01
12.750	22.000	2.2961e-01
12.750	22.250	1.9727e-01
12.750	22.500	1.6918e-01
12.750	22.750	1.3444e-01
12.750	23.000	1.0098e-01
12.750	23.250	7.8306e-02
12.750	23.500	6.4386e-02
12.750	23.750	5.5931e-02
12.750	24.000	5.1988e-02
13.000	17.000	5.6961e-02
13.000	17.250	7.3953e-02
13.000	17.500	1.1265e-01
13.000	17.750	1.5386e-01
13.000	18.000	1.9872e-01
13.000	18.250	2.4071e-01
13.000	18.500	2.6218e-01
13.000	18.750	2.6887e-01
13.000	19.000	2.7393e-01
13.000	19.250	2.7322e-01
13.000	19.500	2.7085e-01
13.000	19.750	2.6732e-01
13.000	20.000	2.6452e-01
13.000	20.250	2.6262e-01
13.000	20.500	2.6264e-01
13.000	20.750	2.6403e-01
13.000	21.000	2.6610e-01
13.000	21.250	2.6815e-01
13.000	21.500	2.6808e-01
13.000	21.750	2.5773e-01
13.000	22.000	2.3202e-01
13.000	22.250	1.9530e-01
13.000	22.500	1.6262e-01
13.000	22.750	1.3522e-01
13.000	23.000	1.0782e-01
13.000	23.250	8.4036e-02
13.000	23.500	6.7578e-02
13.000	23.750	5.7354e-02
13.000	24.000	5.1195e-02
13.250	17.000	5.6573e-02
13.250	17.250	6.5724e-02
13.250	17.500	8.5882e-02
13.250	17.750	1.1683e-01
13.250	18.000	1.6321e-01
13.250	18.250	2.1186e-01
13.250	18.500	2.5949e-01
13.250	18.750	2.8140e-01
13.250	19.000	2.8679e-01
13.250	19.250	2.8633e-01
13.250	19.500	2.7856e-01
13.250	19.750	2.7619e-01
13.250	20.000	2.7121e-01
13.250	20.250	2.6717e-01
13.250	20.500	2.6489e-01
13.250	20.750	2.6485e-01
13.250	21.000	2.6605e-01
13.250	21.250	2.6697e-01
13.250	21.500	2.6749e-01
13.250	21.750	2.5868e-01
13.250	22.000	2.3449e-01
13.250	22.250	1.9450e-01
13.250	22.500	1.5567e-01
13.250	22.750	1.2514e-01
13.250	23.000	1.0082e-01
13.250	23.250	8.0638e-02
13.250	23.500	6.6546e-02
13.250	23.750	5.6197e-02
13.250	24.000	4.9319e-02
13.500	17.000	5.5938e-02
13.500	17.250	6.3919e-02
13.500	17.500	8.2080e-02
13.500	17.750	1.0570e-01
13.500	18.000	1.4610e-01
13.500	18.250	1.8772e-01
13.500	18.500	2.3005e-01
13.500	18.750	2.7295e-01
13.500	19.000	3.0030e-01
13.500	19.250	3.0042e-01
13.500	19.500	2.9270e-01
13.500	19.750	2.8589e-01
13.500	20.000	2.7915e-01
13.500	20.250	2.7356e-01
13.500	20.500	2.6907e-01
13.500	20.750	2.6641e-01
13.500	21.000	2.6537e-01
13.500	21.250	2.6595e-01
13.500	21.500	2.6552e-01
13.500	21.750	2.5707e-01
13.500	22.000	2.3306e-01
13.500	22.250	1.9332e-01
13.500	22.500	1.5244e-01
13.500	22.750	1.1976e-01
13.500	23.000	9.2498e-02
13.500	23.250	7.3423e-02
13.500	23.500	5.9534e-02
13.500	23.750	4.9753e-02
13.500	24.000	4.4194e-02
13.750	17.000	5.5527e-02
13.750	17.250	6.4599e-02
13.750	17.500	8.0973e-02
13.750	17.750	9.8337e-02
13.750	18.000	1.3153e-01
13.750	18.250	1.7168e-01
13.750	18.500	2.0934e-01
13.750	18.750	2.4973e-01
13.750	19.000	2.8846e-01
13.750	19.250	3.2125e-01
13.750	19.500	3.0980e-01
13.750	19.750	2.9832e-01
13.750	20.000	2.8973e-01
13.750	20.250	2.8187e-01
13.750	20.500	2.7557e-01
13.750	20.750	2.7059e-01
13.750	21.000	2.6715e-01
13.750	21.250	2.6466e-01
13.750	21.500	2.6355e-01
13.750	21.750	2.5598e-01
13.750	22.000	2.3177e-01
13.750	22.250	1.9148e-01
13.750	22.500	1.5088e-01
13.750	22.750	1.1759e-01
13.750	23.000	8.9117e-02
13.750	23.250	6.8356e-02
13.750	23.500	5.3627e-02
13.750	23.750	4.3382e-02
13.750	24.000	3.6615e-02
14.000	17.000	5.5249e-02
14.000	17.250	6.3665e-02
14.000	17.500	8.0121e-02
14.000	17.750	9.7165e-02
14.000	18.000	1.2189e-01
14.000	18.250	1.5663e-01
14.000	18.500	1.9248e-01
14.000	18.750	2.2901e-01
14.000	19.000	2.6639e-01
14.000	19.250	3.2529e-01
14.000	19.500	3.2761e-01
14.000	19.750	3.1666e-01
14.000	20.000	3.0392e-01
14.000	20.250	2.9306e-01
14.000	20.500	2.8457e-01
14.000	20.750	2.7763e-01
14.000	21.000	2.7213e-01
14.000	21.250	2.6784e-01
14.000	21.500	2.6509e-01
14.000	21.750	2.5623e-01
14.000	22.000	2.3219e-01
14.000	22.250	1.9123e-01
14.000	22.500	1.4993e-01
14.000	22.750	1.1690e-01
14.000	23.000	8.9058e-02
14.000	23.250	6.5794e-02
14.000	23.500	4.9993e-02
14.000	23.750	3.8780e-02
14.000	24.000	3.1268e-02
