InwC 1.30000m  relative to Inci 1215.00A scaled to 1215A.
Hden   Phi(H)  Eq_Width (A)
 7.000	17.000	9.4216e-03
 7.000	17.250	1.3662e-02
 7.000	17.500	1.9259e-02
 7.000	17.750	2.4543e-02
 7.000	18.000	2.9266e-02
 7.000	18.250	3.0072e-02
 7.000	18.500	3.0404e-02
 7.000	18.750	3.0377e-02
 7.000	19.000	3.0346e-02
 7.000	19.250	3.0341e-02
 7.000	19.500	3.0333e-02
 7.000	19.750	3.0334e-02
 7.000	20.000	3.0334e-02
 7.000	20.250	3.0334e-02
 7.000	20.500	3.0334e-02
 7.000	20.750	3.0334e-02
 7.000	21.000	3.0334e-02
 7.000	21.250	3.0334e-02
 7.000	21.500	3.0334e-02
 7.000	21.750	3.0334e-02
 7.000	22.000	3.0334e-02
 7.000	22.250	3.0334e-02
 7.000	22.500	3.0334e-02
 7.000	22.750	3.0335e-02
 7.000	23.000	3.0334e-02
 7.000	23.250	3.0334e-02
 7.000	23.500	3.0334e-02
 7.000	23.750	3.0334e-02
 7.000	24.000	3.0335e-02
 7.250	17.000	6.5185e-03
 7.250	17.250	9.6795e-03
 7.250	17.500	1.4084e-02
 7.250	17.750	1.9797e-02
 7.250	18.000	2.4940e-02
 7.250	18.250	2.9271e-02
 7.250	18.500	3.0077e-02
 7.250	18.750	3.0403e-02
 7.250	19.000	3.0378e-02
 7.250	19.250	3.0346e-02
 7.250	19.500	3.0341e-02
 7.250	19.750	3.0333e-02
 7.250	20.000	3.0334e-02
 7.250	20.250	3.0334e-02
 7.250	20.500	3.0334e-02
 7.250	20.750	3.0334e-02
 7.250	21.000	3.0334e-02
 7.250	21.250	3.0334e-02
 7.250	21.500	3.0334e-02
 7.250	21.750	3.0334e-02
 7.250	22.000	3.0334e-02
 7.250	22.250	3.0334e-02
 7.250	22.500	3.0334e-02
 7.250	22.750	3.0334e-02
 7.250	23.000	3.0334e-02
 7.250	23.250	3.0334e-02
 7.250	23.500	3.0334e-02
 7.250	23.750	3.0334e-02
 7.250	24.000	3.0334e-02
 7.500	17.000	4.4876e-03
 7.500	17.250	6.7281e-03
 7.500	17.500	1.0093e-02
 7.500	17.750	1.4727e-02
 7.500	18.000	2.0590e-02
 7.500	18.250	2.5372e-02
 7.500	18.500	2.9273e-02
 7.500	18.750	3.0083e-02
 7.500	19.000	3.0403e-02
 7.500	19.250	3.0377e-02
 7.500	19.500	3.0346e-02
 7.500	19.750	3.0341e-02
 7.500	20.000	3.0333e-02
 7.500	20.250	3.0334e-02
 7.500	20.500	3.0334e-02
 7.500	20.750	3.0334e-02
 7.500	21.000	3.0334e-02
 7.500	21.250	3.0334e-02
 7.500	21.500	3.0334e-02
 7.500	21.750	3.0334e-02
 7.500	22.000	3.0334e-02
 7.500	22.250	3.0334e-02
 7.500	22.500	3.0334e-02
 7.500	22.750	3.0334e-02
 7.500	23.000	3.0334e-02
 7.500	23.250	3.0334e-02
 7.500	23.500	3.0334e-02
 7.500	23.750	3.0334e-02
 7.500	24.000	3.0337e-02
 7.750	17.000	3.1213e-03
 7.750	17.250	4.6518e-03
 7.750	17.500	7.0744e-03
 7.750	17.750	1.0763e-02
 7.750	18.000	1.5711e-02
 7.750	18.250	2.1678e-02
 7.750	18.500	2.5898e-02
 7.750	18.750	2.9276e-02
 7.750	19.000	3.0090e-02
 7.750	19.250	3.0404e-02
 7.750	19.500	3.0377e-02
 7.750	19.750	3.0346e-02
 7.750	20.000	3.0342e-02
 7.750	20.250	3.0334e-02
 7.750	20.500	3.0334e-02
 7.750	20.750	3.0334e-02
 7.750	21.000	3.0334e-02
 7.750	21.250	3.0334e-02
 7.750	21.500	3.0334e-02
 7.750	21.750	3.0334e-02
 7.750	22.000	3.0334e-02
 7.750	22.250	3.0334e-02
 7.750	22.500	3.0334e-02
 7.750	22.750	3.0334e-02
 7.750	23.000	3.0334e-02
 7.750	23.250	3.0334e-02
 7.750	23.500	3.0334e-02
 7.750	23.750	3.0334e-02
 7.750	24.000	3.0334e-02
 8.000	17.000	2.2073e-03
 8.000	17.250	3.2350e-03
 8.000	17.500	4.9123e-03
 8.000	17.750	7.6579e-03
 8.000	18.000	1.1834e-02
 8.000	18.250	1.7192e-02
 8.000	18.500	2.2773e-02
 8.000	18.750	2.6369e-02
 8.000	19.000	2.9276e-02
 8.000	19.250	3.0093e-02
 8.000	19.500	3.0403e-02
 8.000	19.750	3.0378e-02
 8.000	20.000	3.0346e-02
 8.000	20.250	3.0342e-02
 8.000	20.500	3.0334e-02
 8.000	20.750	3.0334e-02
 8.000	21.000	3.0334e-02
 8.000	21.250	3.0334e-02
 8.000	21.500	3.0334e-02
 8.000	21.750	3.0334e-02
 8.000	22.000	3.0334e-02
 8.000	22.250	3.0334e-02
 8.000	22.500	3.0334e-02
 8.000	22.750	3.0334e-02
 8.000	23.000	3.0334e-02
 8.000	23.250	3.0334e-02
 8.000	23.500	3.0334e-02
 8.000	23.750	3.0334e-02
 8.000	24.000	3.0334e-02
 8.250	17.000	1.5876e-03
 8.250	17.250	2.2970e-03
 8.250	17.500	3.4459e-03
 8.250	17.750	5.4056e-03
 8.250	18.000	8.7071e-03
 8.250	18.250	1.3547e-02
 8.250	18.500	1.8998e-02
 8.250	18.750	2.4100e-02
 8.250	19.000	2.6911e-02
 8.250	19.250	2.9275e-02
 8.250	19.500	3.0102e-02
 8.250	19.750	3.0403e-02
 8.250	20.000	3.0379e-02
 8.250	20.250	3.0346e-02
 8.250	20.500	3.0341e-02
 8.250	20.750	3.0333e-02
 8.250	21.000	3.0334e-02
 8.250	21.250	3.0334e-02
 8.250	21.500	3.0334e-02
 8.250	21.750	3.0334e-02
 8.250	22.000	3.0334e-02
 8.250	22.250	3.0334e-02
 8.250	22.500	3.0334e-02
 8.250	22.750	3.0334e-02
 8.250	23.000	3.0334e-02
 8.250	23.250	3.0334e-02
 8.250	23.500	3.0334e-02
 8.250	23.750	3.0334e-02
 8.250	24.000	3.0334e-02
 8.500	17.000	1.1518e-03
 8.500	17.250	1.6546e-03
 8.500	17.500	2.4543e-03
 8.500	17.750	3.8315e-03
 8.500	18.000	6.2965e-03
 8.500	18.250	1.0358e-02
 8.500	18.500	1.5488e-02
 8.500	18.750	2.0658e-02
 8.500	19.000	2.5045e-02
 8.500	19.250	2.7297e-02
 8.500	19.500	2.9266e-02
 8.500	19.750	3.0112e-02
 8.500	20.000	3.0403e-02
 8.500	20.250	3.0377e-02
 8.500	20.500	3.0346e-02
 8.500	20.750	3.0341e-02
 8.500	21.000	3.0334e-02
 8.500	21.250	3.0334e-02
 8.500	21.500	3.0334e-02
 8.500	21.750	3.0334e-02
 8.500	22.000	3.0334e-02
 8.500	22.250	3.0334e-02
 8.500	22.500	3.0334e-02
 8.500	22.750	3.0334e-02
 8.500	23.000	3.0334e-02
 8.500	23.250	3.0334e-02
 8.500	23.500	3.0334e-02
 8.500	23.750	3.0334e-02
 8.500	24.000	3.0334e-02
 8.750	17.000	8.3597e-04
 8.750	17.250	1.2014e-03
 8.750	17.500	1.7703e-03
 8.750	17.750	2.7430e-03
 8.750	18.000	4.5181e-03
 8.750	18.250	7.6833e-03
 8.750	18.500	1.2184e-02
 8.750	18.750	1.7233e-02
 8.750	19.000	2.2147e-02
 8.750	19.250	2.5404e-02
 8.750	19.500	2.7706e-02
 8.750	19.750	2.9248e-02
 8.750	20.000	3.0123e-02
 8.750	20.250	3.0402e-02
 8.750	20.500	3.0376e-02
 8.750	20.750	3.0346e-02
 8.750	21.000	3.0341e-02
 8.750	21.250	3.0333e-02
 8.750	21.500	3.0334e-02
 8.750	21.750	3.0334e-02
 8.750	22.000	3.0334e-02
 8.750	22.250	3.0334e-02
 8.750	22.500	3.0334e-02
 8.750	22.750	3.0334e-02
 8.750	23.000	3.0334e-02
 8.750	23.250	3.0334e-02
 8.750	23.500	3.0334e-02
 8.750	23.750	3.0334e-02
 8.750	24.000	3.0334e-02
 9.000	17.000	6.0576e-04
 9.000	17.250	8.7300e-04
 9.000	17.500	1.2869e-03
 9.000	17.750	1.9881e-03
 9.000	18.000	3.2853e-03
 9.000	18.250	5.6482e-03
 9.000	18.500	9.3063e-03
 9.000	18.750	1.3820e-02
 9.000	19.000	1.8746e-02
 9.000	19.250	2.3472e-02
 9.000	19.500	2.5871e-02
 9.000	19.750	2.8018e-02
 9.000	20.000	2.9205e-02
 9.000	20.250	3.0133e-02
 9.000	20.500	3.0402e-02
 9.000	20.750	3.0376e-02
 9.000	21.000	3.0345e-02
 9.000	21.250	3.0341e-02
 9.000	21.500	3.0333e-02
 9.000	21.750	3.0334e-02
 9.000	22.000	3.0334e-02
 9.000	22.250	3.0334e-02
 9.000	22.500	3.0334e-02
 9.000	22.750	3.0334e-02
 9.000	23.000	3.0334e-02
 9.000	23.250	3.0334e-02
 9.000	23.500	3.0334e-02
 9.000	23.750	3.0334e-02
 9.000	24.000	3.0334e-02
 9.250	17.000	4.3704e-04
 9.250	17.250	6.3317e-04
 9.250	17.500	9.3687e-04
 9.250	17.750	1.4511e-03
 9.250	18.000	2.4257e-03
 9.250	18.250	4.1987e-03
 9.250	18.500	6.9723e-03
 9.250	18.750	1.0679e-02
 9.250	19.000	1.5081e-02
 9.250	19.250	1.9709e-02
 9.250	19.500	2.3883e-02
 9.250	19.750	2.6177e-02
 9.250	20.000	2.8323e-02
 9.250	20.250	2.9140e-02
 9.250	20.500	3.0142e-02
 9.250	20.750	3.0400e-02
 9.250	21.000	3.0375e-02
 9.250	21.250	3.0346e-02
 9.250	21.500	3.0341e-02
 9.250	21.750	3.0328e-02
 9.250	22.000	3.0306e-02
 9.250	22.250	3.0329e-02
 9.250	22.500	3.0334e-02
 9.250	22.750	3.0334e-02
 9.250	23.000	3.0334e-02
 9.250	23.250	3.0334e-02
 9.250	23.500	3.0334e-02
 9.250	23.750	3.0334e-02
 9.250	24.000	3.0334e-02
 9.500	17.000	3.1416e-04
 9.500	17.250	4.5770e-04
 9.500	17.500	6.8239e-04
 9.500	17.750	1.0640e-03
 9.500	18.000	1.8034e-03
 9.500	18.250	3.1655e-03
 9.500	18.500	5.2683e-03
 9.500	18.750	8.0781e-03
 9.500	19.000	1.1660e-02
 9.500	19.250	1.5998e-02
 9.500	19.500	2.0543e-02
 9.500	19.750	2.4195e-02
 9.500	20.000	2.6553e-02
 9.500	20.250	2.8220e-02
 9.500	20.500	2.9066e-02
 9.500	20.750	3.0145e-02
 9.500	21.000	3.0396e-02
 9.500	21.250	3.0371e-02
 9.500	21.500	3.0332e-02
 9.500	21.750	3.0306e-02
 9.500	22.000	3.0267e-02
 9.500	22.250	3.0246e-02
 9.500	22.500	3.0234e-02
 9.500	22.750	3.0225e-02
 9.500	23.000	3.0219e-02
 9.500	23.250	3.0216e-02
 9.500	23.500	3.0264e-02
 9.500	23.750	3.0264e-02
 9.500	24.000	3.0264e-02
 9.750	17.000	2.2519e-04
 9.750	17.250	3.2988e-04
 9.750	17.500	4.9473e-04
 9.750	17.750	7.8173e-04
 9.750	18.000	1.3443e-03
 9.750	18.250	2.3900e-03
 9.750	18.500	3.9956e-03
 9.750	18.750	6.1034e-03
 9.750	19.000	8.8179e-03
 9.750	19.250	1.2343e-02
 9.750	19.500	1.6607e-02
 9.750	19.750	2.1575e-02
 9.750	20.000	2.4559e-02
 9.750	20.250	2.6779e-02
 9.750	20.500	2.8083e-02
 9.750	20.750	2.9002e-02
 9.750	21.000	3.0137e-02
 9.750	21.250	3.0392e-02
 9.750	21.500	3.0373e-02
 9.750	21.750	3.0340e-02
 9.750	22.000	3.0306e-02
 9.750	22.250	3.0271e-02
 9.750	22.500	3.0255e-02
 9.750	22.750	3.0247e-02
 9.750	23.000	3.0241e-02
 9.750	23.250	3.0236e-02
 9.750	23.500	3.0234e-02
 9.750	23.750	3.0232e-02
 9.750	24.000	3.0231e-02
10.000	17.000	1.6082e-04
10.000	17.250	2.3663e-04
10.000	17.500	3.5770e-04
10.000	17.750	5.7235e-04
10.000	18.000	9.9440e-04
10.000	18.250	1.7879e-03
10.000	18.500	3.0047e-03
10.000	18.750	4.5785e-03
10.000	19.000	6.6088e-03
10.000	19.250	9.2946e-03
10.000	19.500	1.2750e-02
10.000	19.750	1.7350e-02
10.000	20.000	2.1619e-02
10.000	20.250	2.4811e-02
10.000	20.500	2.7053e-02
10.000	20.750	2.7947e-02
10.000	21.000	2.8938e-02
10.000	21.250	3.0136e-02
10.000	21.500	3.0387e-02
10.000	21.750	3.0371e-02
10.000	22.000	3.0342e-02
10.000	22.250	3.0317e-02
10.000	22.500	3.0273e-02
10.000	22.750	3.0260e-02
10.000	23.000	3.0255e-02
10.000	23.250	3.0252e-02
10.000	23.500	3.0248e-02
10.000	23.750	3.0247e-02
10.000	24.000	3.0246e-02
10.250	17.000	1.1523e-04
10.250	17.250	1.6922e-04
10.250	17.500	2.5720e-04
10.250	17.750	4.1761e-04
10.250	18.000	7.4000e-04
10.250	18.250	1.3272e-03
10.250	18.500	2.2272e-03
10.250	18.750	3.3937e-03
10.250	19.000	4.9165e-03
10.250	19.250	6.9280e-03
10.250	19.500	9.6150e-03
10.250	19.750	1.3180e-02
10.250	20.000	1.7725e-02
10.250	20.250	2.1744e-02
10.250	20.500	2.5076e-02
10.250	20.750	2.6980e-02
10.250	21.000	2.7828e-02
10.250	21.250	2.8885e-02
10.250	21.500	3.0135e-02
10.250	21.750	3.0373e-02
10.250	22.000	3.0369e-02
10.250	22.250	3.0341e-02
10.250	22.500	3.0332e-02
10.250	22.750	3.0277e-02
10.250	23.000	3.0262e-02
10.250	23.250	3.0260e-02
10.250	23.500	3.0258e-02
10.250	23.750	3.0255e-02
10.250	24.000	3.0255e-02
10.500	17.000	8.2798e-05
10.500	17.250	1.2115e-04
10.500	17.500	1.8436e-04
10.500	17.750	3.0247e-04
10.500	18.000	5.4280e-04
10.500	18.250	9.7679e-04
10.500	18.500	1.6282e-03
10.500	18.750	2.4787e-03
10.500	19.000	3.5930e-03
10.500	19.250	5.0990e-03
10.500	19.500	7.1272e-03
10.500	19.750	9.8570e-03
10.500	20.000	1.3442e-02
10.500	20.250	1.7896e-02
10.500	20.500	2.1915e-02
10.500	20.750	2.5325e-02
10.500	21.000	2.6803e-02
10.500	21.250	2.7698e-02
10.500	21.500	2.8943e-02
10.500	21.750	3.0088e-02
10.500	22.000	3.0348e-02
10.500	22.250	3.0363e-02
10.500	22.500	3.0338e-02
10.500	22.750	3.0336e-02
10.500	23.000	3.0307e-02
10.500	23.250	3.0266e-02
10.500	23.500	3.0262e-02
10.500	23.750	3.0262e-02
10.500	24.000	3.0260e-02
10.750	17.000	5.9753e-05
10.750	17.250	8.6914e-05
10.750	17.500	1.3218e-04
10.750	17.750	2.1802e-04
10.750	18.000	3.9457e-04
10.750	18.250	7.1374e-04
10.750	18.500	1.1790e-03
10.750	18.750	1.7879e-03
10.750	19.000	2.6107e-03
10.750	19.250	3.7320e-03
10.750	19.500	5.2389e-03
10.750	19.750	7.2889e-03
10.750	20.000	1.0003e-02
10.750	20.250	1.3542e-02
10.750	20.500	1.7916e-02
10.750	20.750	2.1961e-02
10.750	21.000	2.5363e-02
10.750	21.250	2.6559e-02
10.750	21.500	2.7727e-02
10.750	21.750	2.8990e-02
10.750	22.000	3.0012e-02
10.750	22.250	3.0312e-02
10.750	22.500	3.0353e-02
10.750	22.750	3.0334e-02
10.750	23.000	3.0337e-02
10.750	23.250	3.0324e-02
10.750	23.500	3.0290e-02
10.750	23.750	3.0268e-02
10.750	24.000	3.0263e-02
11.000	17.000	4.3045e-05
11.000	17.250	6.2551e-05
11.000	17.500	9.4733e-05
11.000	17.750	1.5621e-04
11.000	18.000	2.8156e-04
11.000	18.250	5.0634e-04
11.000	18.500	8.2971e-04
11.000	18.750	1.2621e-03
11.000	19.000	1.8602e-03
11.000	19.250	2.6898e-03
11.000	19.500	3.8220e-03
11.000	19.750	5.3369e-03
11.000	20.000	7.3581e-03
11.000	20.250	1.0018e-02
11.000	20.500	1.3448e-02
11.000	20.750	1.7669e-02
11.000	21.000	2.1757e-02
11.000	21.250	2.5051e-02
11.000	21.500	2.6569e-02
11.000	21.750	2.7654e-02
11.000	22.000	2.9032e-02
11.000	22.250	2.9905e-02
11.000	22.500	3.0260e-02
11.000	22.750	3.0339e-02
11.000	23.000	3.0326e-02
11.000	23.250	3.0335e-02
11.000	23.500	3.0329e-02
11.000	23.750	3.0319e-02
11.000	24.000	3.0293e-02
11.250	17.000	3.1358e-05
11.250	17.250	4.4856e-05
11.250	17.500	6.7984e-05
11.250	17.750	1.1136e-04
11.250	18.000	1.9942e-04
11.250	18.250	3.5243e-04
11.250	18.500	5.6683e-04
11.250	18.750	8.8897e-04
11.250	19.000	1.3174e-03
11.250	19.250	1.9168e-03
11.250	19.500	2.7457e-03
11.250	19.750	3.8705e-03
11.250	20.000	5.3723e-03
11.250	20.250	7.3472e-03
11.250	20.500	9.8837e-03
11.250	20.750	1.3064e-02
11.250	21.000	1.7040e-02
11.250	21.250	2.1188e-02
11.250	21.500	2.4888e-02
11.250	21.750	2.6255e-02
11.250	22.000	2.7506e-02
11.250	22.250	2.8966e-02
11.250	22.500	2.9738e-02
11.250	22.750	3.0185e-02
11.250	23.000	3.0317e-02
11.250	23.250	3.0315e-02
11.250	23.500	3.0331e-02
11.250	23.750	3.0329e-02
11.250	24.000	3.0328e-02
11.500	17.000	2.3128e-05
11.500	17.250	3.2593e-05
11.500	17.500	4.8477e-05
11.500	17.750	7.8765e-05
11.500	18.000	1.3926e-04
11.500	18.250	2.4156e-04
11.500	18.500	3.8988e-04
11.500	18.750	6.0988e-04
11.500	19.000	9.2049e-04
11.500	19.250	1.3524e-03
11.500	19.500	1.9568e-03
11.500	19.750	2.7814e-03
11.500	20.000	3.8931e-03
11.500	20.250	5.3472e-03
11.500	20.500	7.2106e-03
11.500	20.750	9.4989e-03
11.500	21.000	1.2286e-02
11.500	21.250	1.5941e-02
11.500	21.500	2.0910e-02
11.500	21.750	2.4108e-02
11.500	22.000	2.5786e-02
11.500	22.250	2.7219e-02
11.500	22.500	2.8716e-02
11.500	22.750	2.9505e-02
11.500	23.000	3.0082e-02
11.500	23.250	3.0282e-02
11.500	23.500	3.0296e-02
11.500	23.750	3.0326e-02
11.500	24.000	3.0328e-02
11.750	17.000	1.5885e-05
11.750	17.250	2.4033e-05
11.750	17.500	3.4979e-05
11.750	17.750	5.5473e-05
11.750	18.000	9.5967e-05
11.750	18.250	1.6362e-04
11.750	18.500	2.6436e-04
11.750	18.750	4.1737e-04
11.750	19.000	6.3374e-04
11.750	19.250	9.4609e-04
11.750	19.500	1.3803e-03
11.750	19.750	1.9799e-03
11.750	20.000	2.7956e-03
11.750	20.250	3.8702e-03
11.750	20.500	5.2428e-03
11.750	20.750	6.8912e-03
11.750	21.000	8.7918e-03
11.750	21.250	1.1070e-02
11.750	21.500	1.5196e-02
11.750	21.750	1.9690e-02
11.750	22.000	2.3015e-02
11.750	22.250	2.5047e-02
11.750	22.500	2.6695e-02
11.750	22.750	2.8263e-02
11.750	23.000	2.9171e-02
11.750	23.250	2.9930e-02
11.750	23.500	3.0236e-02
11.750	23.750	3.0269e-02
11.750	24.000	3.0318e-02
12.000	17.000	7.7366e-06
12.000	17.250	1.7284e-05
12.000	17.500	2.5679e-05
12.000	17.750	3.9342e-05
12.000	18.000	6.5679e-05
12.000	18.250	1.1029e-04
12.000	18.500	1.8000e-04
12.000	18.750	2.8379e-04
12.000	19.000	4.3638e-04
12.000	19.250	6.5202e-04
12.000	19.500	9.6140e-04
12.000	19.750	1.3954e-03
12.000	20.000	1.9853e-03
12.000	20.250	2.7765e-03
12.000	20.500	3.7824e-03
12.000	20.750	4.9946e-03
12.000	21.000	6.3248e-03
12.000	21.250	7.7177e-03
12.000	21.500	1.0249e-02
12.000	21.750	1.3549e-02
12.000	22.000	1.7887e-02
12.000	22.250	2.1508e-02
12.000	22.500	2.3905e-02
12.000	22.750	2.5899e-02
12.000	23.000	2.7573e-02
12.000	23.250	2.8679e-02
12.000	23.500	2.9700e-02
12.000	23.750	3.0165e-02
12.000	24.000	3.0229e-02
12.250	17.000	3.7037e-06
12.250	17.250	8.8066e-06
12.250	17.500	1.8848e-05
12.250	17.750	2.8560e-05
12.250	18.000	4.5432e-05
12.250	18.250	7.4979e-05
12.250	18.500	1.2173e-04
12.250	18.750	1.9144e-04
12.250	19.000	2.9556e-04
12.250	19.250	4.4626e-04
12.250	19.500	6.6453e-04
12.250	19.750	9.7309e-04
12.250	20.000	1.3994e-03
12.250	20.250	1.9723e-03
12.250	20.500	2.7121e-03
12.250	20.750	3.5975e-03
12.250	21.000	4.5687e-03
12.250	21.250	5.4720e-03
12.250	21.500	6.9950e-03
12.250	21.750	8.6458e-03
12.250	22.000	1.1654e-02
12.250	22.250	1.5762e-02
12.250	22.500	1.9560e-02
12.250	22.750	2.2260e-02
12.250	23.000	2.4641e-02
12.250	23.250	2.6569e-02
12.250	23.500	2.7961e-02
12.250	23.750	2.9354e-02
12.250	24.000	3.0060e-02
12.500	17.000	1.8107e-06
12.500	17.250	4.0329e-06
12.500	17.500	9.7119e-06
12.500	17.750	2.0741e-05
12.500	18.000	3.2346e-05
12.500	18.250	5.1440e-05
12.500	18.500	8.2058e-05
12.500	18.750	1.2881e-04
12.500	19.000	1.9951e-04
12.500	19.250	3.0370e-04
12.500	19.500	4.5473e-04
12.500	19.750	6.7070e-04
12.500	20.000	9.7531e-04
12.500	20.250	1.3890e-03
12.500	20.500	1.9265e-03
12.500	20.750	2.5817e-03
12.500	21.000	3.2929e-03
12.500	21.250	3.9246e-03
12.500	21.500	4.8990e-03
12.500	21.750	5.6134e-03
12.500	22.000	7.0067e-03
12.500	22.250	9.7794e-03
12.500	22.500	1.3695e-02
12.500	22.750	1.7076e-02
12.500	23.000	2.0053e-02
12.500	23.250	2.2882e-02
12.500	23.500	2.5157e-02
12.500	23.750	2.6925e-02
12.500	24.000	2.8837e-02
12.750	17.000	9.0535e-07
12.750	17.250	1.9753e-06
12.750	17.500	4.3621e-06
12.750	17.750	9.7942e-06
12.750	18.000	2.0658e-05
12.750	18.250	3.5226e-05
12.750	18.500	5.5062e-05
12.750	18.750	8.5761e-05
12.750	19.000	1.3309e-04
12.750	19.250	2.0420e-04
12.750	19.500	3.0831e-04
12.750	19.750	4.5967e-04
12.750	20.000	6.7383e-04
12.750	20.250	9.6872e-04
12.750	20.500	1.3560e-03
12.750	20.750	1.8374e-03
12.750	21.000	2.3656e-03
12.750	21.250	2.8279e-03
12.750	21.500	3.4944e-03
12.750	21.750	3.7705e-03
12.750	22.000	4.2840e-03
12.750	22.250	5.5995e-03
12.750	22.500	8.1001e-03
12.750	22.750	1.1182e-02
12.750	23.000	1.4172e-02
12.750	23.250	1.7412e-02
12.750	23.500	2.0628e-02
12.750	23.750	2.3246e-02
12.750	24.000	2.5457e-02
13.000	17.000	1.0000e-07
13.000	17.250	1.0000e-07
13.000	17.500	1.6461e-06
13.000	17.750	3.9506e-06
13.000	18.000	8.8889e-06
13.000	18.250	1.8272e-05
13.000	18.500	3.2840e-05
13.000	18.750	5.3909e-05
13.000	19.000	8.7160e-05
13.000	19.250	1.3539e-04
13.000	19.500	2.0733e-04
13.000	19.750	3.1128e-04
13.000	20.000	4.6066e-04
13.000	20.250	6.6782e-04
13.000	20.500	9.4733e-04
13.000	20.750	1.2976e-03
13.000	21.000	1.6884e-03
13.000	21.250	2.0352e-03
13.000	21.500	2.5146e-03
13.000	21.750	2.6028e-03
13.000	22.000	2.6965e-03
13.000	22.250	3.2491e-03
13.000	22.500	4.5157e-03
13.000	22.750	6.4077e-03
13.000	23.000	8.6844e-03
13.000	23.250	1.1359e-02
13.000	23.500	1.4595e-02
13.000	23.750	1.7926e-02
13.000	24.000	2.0792e-02
13.250	17.000	1.0000e-07
13.250	17.250	1.0000e-07
13.250	17.500	1.0000e-07
13.250	17.750	1.6461e-06
13.250	18.000	3.9506e-06
13.250	18.250	8.9712e-06
13.250	18.500	1.9012e-05
13.250	18.750	3.4321e-05
13.250	19.000	5.6461e-05
13.250	19.250	8.9712e-05
13.250	19.500	1.3531e-04
13.250	19.750	2.0872e-04
13.250	20.000	3.1144e-04
13.250	20.250	4.5646e-04
13.250	20.500	6.5399e-04
13.250	20.750	9.0741e-04
13.250	21.000	1.1968e-03
13.250	21.250	1.4576e-03
13.250	21.500	1.8128e-03
13.250	21.750	1.8306e-03
13.250	22.000	1.7449e-03
13.250	22.250	1.9213e-03
13.250	22.500	2.5237e-03
13.250	22.750	3.5170e-03
13.250	23.000	4.8977e-03
13.250	23.250	6.6528e-03
13.250	23.500	8.9486e-03
13.250	23.750	1.1782e-02
13.250	24.000	1.4933e-02
13.500	17.000	1.0000e-07
13.500	17.250	1.0000e-07
13.500	17.500	1.0000e-07
13.500	17.750	8.2305e-07
13.500	18.000	1.9753e-06
13.500	18.250	4.4444e-06
13.500	18.500	9.3827e-06
13.500	18.750	1.9342e-05
13.500	19.000	3.6049e-05
13.500	19.250	5.8436e-05
13.500	19.500	9.0123e-05
13.500	19.750	1.3811e-04
13.500	20.000	2.0815e-04
13.500	20.250	3.0840e-04
13.500	20.500	4.4691e-04
13.500	20.750	6.2782e-04
13.500	21.000	8.4000e-04
13.500	21.250	1.0385e-03
13.500	21.500	1.2998e-03
13.500	21.750	1.2996e-03
13.500	22.000	1.1554e-03
13.500	22.250	1.1578e-03
13.500	22.500	1.4475e-03
13.500	22.750	1.9760e-03
13.500	23.000	2.7335e-03
13.500	23.250	3.7755e-03
13.500	23.500	5.1465e-03
13.500	23.750	6.8817e-03
13.500	24.000	9.1951e-03
13.750	17.000	1.0000e-07
13.750	17.250	1.0000e-07
13.750	17.500	1.0000e-07
13.750	17.750	1.0000e-07
13.750	18.000	1.0700e-06
13.750	18.250	2.3045e-06
13.750	18.500	4.8560e-06
13.750	18.750	9.9588e-06
13.750	19.000	2.0000e-05
13.750	19.250	3.8519e-05
13.750	19.500	5.9424e-05
13.750	19.750	9.0535e-05
13.750	20.000	1.3786e-04
13.750	20.250	2.0601e-04
13.750	20.500	3.0189e-04
13.750	20.750	4.2922e-04
13.750	21.000	5.8280e-04
13.750	21.250	7.3251e-04
13.750	21.500	9.2733e-04
13.750	21.750	9.2296e-04
13.750	22.000	7.8337e-04
13.750	22.250	7.1144e-04
13.750	22.500	8.4420e-04
13.750	22.750	1.1374e-03
13.750	23.000	1.5500e-03
13.750	23.250	2.1211e-03
13.750	23.500	2.8949e-03
13.750	23.750	3.8681e-03
13.750	24.000	5.2085e-03
14.000	17.000	1.0000e-07
14.000	17.250	1.0000e-07
14.000	17.500	1.0000e-07
14.000	17.750	1.0000e-07
14.000	18.000	1.0000e-07
14.000	18.250	1.2346e-06
14.000	18.500	2.5514e-06
14.000	18.750	5.1852e-06
14.000	19.000	1.0453e-05
14.000	19.250	2.3128e-05
14.000	19.500	3.8354e-05
14.000	19.750	5.9671e-05
14.000	20.000	9.0700e-05
14.000	20.250	1.3630e-04
14.000	20.500	2.0165e-04
14.000	20.750	2.9029e-04
14.000	21.000	3.9967e-04
14.000	21.250	5.1037e-04
14.000	21.500	6.5498e-04
14.000	21.750	6.5317e-04
14.000	22.000	5.3654e-04
14.000	22.250	4.4831e-04
14.000	22.500	4.9547e-04
14.000	22.750	6.6033e-04
14.000	23.000	8.9514e-04
14.000	23.250	1.2012e-03
14.000	23.500	1.6216e-03
14.000	23.750	2.1551e-03
14.000	24.000	2.8703e-03
