He 2 1215.23A  relative to Inci 1215.00A scaled to 1215A.
Hden   Phi(H)  Eq_Width (A)
 7.000	17.000	1.0793e-02
 7.000	17.250	1.0769e-02
 7.000	17.500	1.0611e-02
 7.000	17.750	1.0206e-02
 7.000	18.000	9.5003e-03
 7.000	18.250	8.3947e-03
 7.000	18.500	2.8530e-03
 7.000	18.750	3.1276e-04
 7.000	19.000	8.5021e-05
 7.000	19.250	1.6132e-05
 7.000	19.500	2.8807e-06
 7.000	19.750	1.0000e-07
 7.000	20.000	1.0000e-07
 7.000	20.250	1.0000e-07
 7.000	20.500	1.0000e-07
 7.000	20.750	1.0000e-07
 7.000	21.000	1.0000e-07
 7.000	21.250	1.0000e-07
 7.000	21.500	1.0000e-07
 7.000	21.750	1.0000e-07
 7.000	22.000	1.0000e-07
 7.000	22.250	1.0000e-07
 7.000	22.500	1.0000e-07
 7.000	22.750	1.0000e-07
 7.000	23.000	1.0000e-07
 7.000	23.250	1.0000e-07
 7.000	23.500	1.0000e-07
 7.000	23.750	1.0000e-07
 7.000	24.000	1.0000e-07
 7.250	17.000	1.0622e-02
 7.250	17.250	1.0687e-02
 7.250	17.500	1.0665e-02
 7.250	17.750	1.0500e-02
 7.250	18.000	1.0061e-02
 7.250	18.250	9.3459e-03
 7.250	18.500	8.2270e-03
 7.250	18.750	2.8430e-03
 7.250	19.000	3.1276e-04
 7.250	19.250	8.5350e-05
 7.250	19.500	1.6296e-05
 7.250	19.750	2.8807e-06
 7.250	20.000	1.0000e-07
 7.250	20.250	1.0000e-07
 7.250	20.500	1.0000e-07
 7.250	20.750	1.0000e-07
 7.250	21.000	1.0000e-07
 7.250	21.250	1.0000e-07
 7.250	21.500	1.0000e-07
 7.250	21.750	1.0000e-07
 7.250	22.000	1.0000e-07
 7.250	22.250	1.0000e-07
 7.250	22.500	1.0000e-07
 7.250	22.750	1.0000e-07
 7.250	23.000	1.0000e-07
 7.250	23.250	1.0000e-07
 7.250	23.500	1.0000e-07
 7.250	23.750	1.0000e-07
 7.250	24.000	1.0000e-07
 7.500	17.000	1.0378e-02
 7.500	17.250	1.0473e-02
 7.500	17.500	1.0545e-02
 7.500	17.750	1.0526e-02
 7.500	18.000	1.0351e-02
 7.500	18.250	9.8656e-03
 7.500	18.500	9.1412e-03
 7.500	18.750	8.0143e-03
 7.500	19.000	2.7973e-03
 7.500	19.250	3.1366e-04
 7.500	19.500	8.5761e-05
 7.500	19.750	1.6379e-05
 7.500	20.000	2.9630e-06
 7.500	20.250	1.0000e-07
 7.500	20.500	1.0000e-07
 7.500	20.750	1.0000e-07
 7.500	21.000	1.0000e-07
 7.500	21.250	1.0000e-07
 7.500	21.500	1.0000e-07
 7.500	21.750	1.0000e-07
 7.500	22.000	1.0000e-07
 7.500	22.250	1.0000e-07
 7.500	22.500	1.0000e-07
 7.500	22.750	1.0000e-07
 7.500	23.000	1.0000e-07
 7.500	23.250	1.0000e-07
 7.500	23.500	1.0000e-07
 7.500	23.750	1.0000e-07
 7.500	24.000	1.0000e-07
 7.750	17.000	1.0065e-02
 7.750	17.250	1.0192e-02
 7.750	17.500	1.0289e-02
 7.750	17.750	1.0365e-02
 7.750	18.000	1.0342e-02
 7.750	18.250	1.0148e-02
 7.750	18.500	9.6051e-03
 7.750	18.750	8.8586e-03
 7.750	19.000	7.7435e-03
 7.750	19.250	2.7708e-03
 7.750	19.500	3.1424e-04
 7.750	19.750	8.6173e-05
 7.750	20.000	1.6461e-05
 7.750	20.250	2.9630e-06
 7.750	20.500	1.0000e-07
 7.750	20.750	1.0000e-07
 7.750	21.000	1.0000e-07
 7.750	21.250	1.0000e-07
 7.750	21.500	1.0000e-07
 7.750	21.750	1.0000e-07
 7.750	22.000	1.0000e-07
 7.750	22.250	1.0000e-07
 7.750	22.500	1.0000e-07
 7.750	22.750	1.0000e-07
 7.750	23.000	1.0000e-07
 7.750	23.250	1.0000e-07
 7.750	23.500	1.0000e-07
 7.750	23.750	1.0000e-07
 7.750	24.000	1.0000e-07
 8.000	17.000	9.5534e-03
 8.000	17.250	9.7174e-03
 8.000	17.500	9.8585e-03
 8.000	17.750	9.9807e-03
 8.000	18.000	1.0078e-02
 8.000	18.250	1.0059e-02
 8.000	18.500	9.8432e-03
 8.000	18.750	9.2412e-03
 8.000	19.000	8.4615e-03
 8.000	19.250	7.3774e-03
 8.000	19.500	2.7452e-03
 8.000	19.750	3.1506e-04
 8.000	20.000	8.6584e-05
 8.000	20.250	1.6626e-05
 8.000	20.500	2.9630e-06
 8.000	20.750	1.0000e-07
 8.000	21.000	1.0000e-07
 8.000	21.250	1.0000e-07
 8.000	21.500	1.0000e-07
 8.000	21.750	1.0000e-07
 8.000	22.000	1.0000e-07
 8.000	22.250	1.0000e-07
 8.000	22.500	1.0000e-07
 8.000	22.750	1.0000e-07
 8.000	23.000	1.0000e-07
 8.000	23.250	1.0000e-07
 8.000	23.500	1.0000e-07
 8.000	23.750	1.0000e-07
 8.000	24.000	1.0000e-07
 8.250	17.000	9.1635e-03
 8.250	17.250	9.3343e-03
 8.250	17.500	9.4877e-03
 8.250	17.750	9.6144e-03
 8.250	18.000	9.7212e-03
 8.250	18.250	9.8016e-03
 8.250	18.500	9.7574e-03
 8.250	18.750	9.5081e-03
 8.250	19.000	8.8363e-03
 8.250	19.250	8.0109e-03
 8.250	19.500	6.9502e-03
 8.250	19.750	2.7067e-03
 8.250	20.000	3.1506e-04
 8.250	20.250	8.6996e-05
 8.250	20.500	1.6708e-05
 8.250	20.750	2.9630e-06
 8.250	21.000	1.0000e-07
 8.250	21.250	1.0000e-07
 8.250	21.500	1.0000e-07
 8.250	21.750	1.0000e-07
 8.250	22.000	1.0000e-07
 8.250	22.250	1.0000e-07
 8.250	22.500	1.0000e-07
 8.250	22.750	1.0000e-07
 8.250	23.000	1.0000e-07
 8.250	23.250	1.0000e-07
 8.250	23.500	1.0000e-07
 8.250	23.750	1.0000e-07
 8.250	24.000	1.0000e-07
 8.500	17.000	8.7745e-03
 8.500	17.250	8.9473e-03
 8.500	17.500	9.1073e-03
 8.500	17.750	9.2399e-03
 8.500	18.000	9.3394e-03
 8.500	18.250	9.4150e-03
 8.500	18.500	9.4612e-03
 8.500	18.750	9.3807e-03
 8.500	19.000	9.0891e-03
 8.500	19.250	8.3413e-03
 8.500	19.500	7.4640e-03
 8.500	19.750	6.4487e-03
 8.500	20.000	2.6507e-03
 8.500	20.250	3.1449e-04
 8.500	20.500	8.7243e-05
 8.500	20.750	1.6790e-05
 8.500	21.000	3.0453e-06
 8.500	21.250	1.0000e-07
 8.500	21.500	1.0000e-07
 8.500	21.750	1.0000e-07
 8.500	22.000	1.0000e-07
 8.500	22.250	1.0000e-07
 8.500	22.500	1.0000e-07
 8.500	22.750	1.0000e-07
 8.500	23.000	1.0000e-07
 8.500	23.250	1.0000e-07
 8.500	23.500	1.0000e-07
 8.500	23.750	1.0000e-07
 8.500	24.000	1.0000e-07
 8.750	17.000	8.3834e-03
 8.750	17.250	8.5700e-03
 8.750	17.500	8.7380e-03
 8.750	17.750	8.8735e-03
 8.750	18.000	8.9760e-03
 8.750	18.250	9.0320e-03
 8.750	18.500	9.0559e-03
 8.750	18.750	9.0469e-03
 8.750	19.000	8.9153e-03
 8.750	19.250	8.5739e-03
 8.750	19.500	7.7398e-03
 8.750	19.750	6.8304e-03
 8.750	20.000	5.8821e-03
 8.750	20.250	2.5755e-03
 8.750	20.500	3.1333e-04
 8.750	20.750	8.7407e-05
 8.750	21.000	1.6872e-05
 8.750	21.250	3.0453e-06
 8.750	21.500	1.0000e-07
 8.750	21.750	1.0000e-07
 8.750	22.000	1.0000e-07
 8.750	22.250	1.0000e-07
 8.750	22.500	1.0000e-07
 8.750	22.750	1.0000e-07
 8.750	23.000	1.0000e-07
 8.750	23.250	1.0000e-07
 8.750	23.500	1.0000e-07
 8.750	23.750	1.0000e-07
 8.750	24.000	1.0000e-07
 9.000	17.000	7.9916e-03
 9.000	17.250	8.1972e-03
 9.000	17.500	8.3813e-03
 9.000	17.750	8.5313e-03
 9.000	18.000	8.6347e-03
 9.000	18.250	8.6877e-03
 9.000	18.500	8.6811e-03
 9.000	18.750	8.6284e-03
 9.000	19.000	8.5434e-03
 9.000	19.250	8.3441e-03
 9.000	19.500	7.9454e-03
 9.000	19.750	7.0499e-03
 9.000	20.000	6.1556e-03
 9.000	20.250	5.2880e-03
 9.000	20.500	2.4905e-03
 9.000	20.750	3.1193e-04
 9.000	21.000	8.7407e-05
 9.000	21.250	1.6872e-05
 9.000	21.500	3.0453e-06
 9.000	21.750	1.0000e-07
 9.000	22.000	1.0000e-07
 9.000	22.250	1.0000e-07
 9.000	22.500	1.0000e-07
 9.000	22.750	1.0000e-07
 9.000	23.000	1.0000e-07
 9.000	23.250	1.0000e-07
 9.000	23.500	1.0000e-07
 9.000	23.750	1.0000e-07
 9.000	24.000	1.0000e-07
 9.250	17.000	7.5687e-03
 9.250	17.250	7.8170e-03
 9.250	17.500	8.0337e-03
 9.250	17.750	8.2043e-03
 9.250	18.000	8.3222e-03
 9.250	18.250	8.3779e-03
 9.250	18.500	8.3537e-03
 9.250	18.750	8.2563e-03
 9.250	19.000	8.1050e-03
 9.250	19.250	7.9308e-03
 9.250	19.500	7.6627e-03
 9.250	19.750	7.2314e-03
 9.250	20.000	6.3584e-03
 9.250	20.250	5.5261e-03
 9.250	20.500	4.7477e-03
 9.250	20.750	2.3862e-03
 9.250	21.000	3.0979e-04
 9.250	21.250	8.7243e-05
 9.250	21.500	1.6955e-05
 9.250	21.750	3.0453e-06
 9.250	22.000	1.0000e-07
 9.250	22.250	1.0000e-07
 9.250	22.500	1.0000e-07
 9.250	22.750	1.0000e-07
 9.250	23.000	1.0000e-07
 9.250	23.250	1.0000e-07
 9.250	23.500	1.0000e-07
 9.250	23.750	1.0000e-07
 9.250	24.000	1.0000e-07
 9.500	17.000	7.0588e-03
 9.500	17.250	7.4081e-03
 9.500	17.500	7.6674e-03
 9.500	17.750	7.8784e-03
 9.500	18.000	8.0209e-03
 9.500	18.250	8.0842e-03
 9.500	18.500	8.0622e-03
 9.500	18.750	7.9366e-03
 9.500	19.000	7.7195e-03
 9.500	19.250	7.4714e-03
 9.500	19.500	7.2153e-03
 9.500	19.750	6.9201e-03
 9.500	20.000	6.5508e-03
 9.500	20.250	5.7770e-03
 9.500	20.500	5.0412e-03
 9.500	20.750	4.3669e-03
 9.500	21.000	2.2518e-03
 9.500	21.250	3.0658e-04
 9.500	21.500	8.6996e-05
 9.500	21.750	1.6872e-05
 9.500	22.000	3.0453e-06
 9.500	22.250	1.0000e-07
 9.500	22.500	1.0000e-07
 9.500	22.750	1.0000e-07
 9.500	23.000	1.0000e-07
 9.500	23.250	1.0000e-07
 9.500	23.500	1.0000e-07
 9.500	23.750	1.0000e-07
 9.500	24.000	1.0000e-07
 9.750	17.000	6.3643e-03
 9.750	17.250	6.9094e-03
 9.750	17.500	7.2779e-03
 9.750	17.750	7.5356e-03
 9.750	18.000	7.7232e-03
 9.750	18.250	7.8158e-03
 9.750	18.500	7.7956e-03
 9.750	18.750	7.6554e-03
 9.750	19.000	7.3946e-03
 9.750	19.250	7.0775e-03
 9.750	19.500	6.7641e-03
 9.750	19.750	6.4952e-03
 9.750	20.000	6.2821e-03
 9.750	20.250	6.0640e-03
 9.750	20.500	5.4380e-03
 9.750	20.750	4.9337e-03
 9.750	21.000	4.3880e-03
 9.750	21.250	2.1145e-03
 9.750	21.500	3.0428e-04
 9.750	21.750	8.7160e-05
 9.750	22.000	1.6955e-05
 9.750	22.250	3.0453e-06
 9.750	22.500	1.0000e-07
 9.750	22.750	1.0000e-07
 9.750	23.000	1.0000e-07
 9.750	23.250	1.0000e-07
 9.750	23.500	1.0000e-07
 9.750	23.750	1.0000e-07
 9.750	24.000	1.0000e-07
10.000	17.000	5.4592e-03
10.000	17.250	6.2413e-03
10.000	17.500	6.8160e-03
10.000	17.750	7.1872e-03
10.000	18.000	7.4287e-03
10.000	18.250	7.5681e-03
10.000	18.500	7.5709e-03
10.000	18.750	7.4216e-03
10.000	19.000	7.1286e-03
10.000	19.250	6.7627e-03
10.000	19.500	6.4030e-03
10.000	19.750	6.1176e-03
10.000	20.000	5.9779e-03
10.000	20.250	5.9401e-03
10.000	20.500	5.9178e-03
10.000	20.750	5.6630e-03
10.000	21.000	5.5629e-03
10.000	21.250	4.9139e-03
10.000	21.500	1.9593e-03
10.000	21.750	3.0173e-04
10.000	22.000	8.7572e-05
10.000	22.250	1.7119e-05
10.000	22.500	3.1276e-06
10.000	22.750	1.0000e-07
10.000	23.000	1.0000e-07
10.000	23.250	1.0000e-07
10.000	23.500	1.0000e-07
10.000	23.750	1.0000e-07
10.000	24.000	1.0000e-07
10.250	17.000	4.3510e-03
10.250	17.250	5.3511e-03
10.250	17.500	6.2076e-03
10.250	17.750	6.7953e-03
10.250	18.000	7.1559e-03
10.250	18.250	7.3561e-03
10.250	18.500	7.3900e-03
10.250	18.750	7.2493e-03
10.250	19.000	6.9282e-03
10.250	19.250	6.5251e-03
10.250	19.500	6.1422e-03
10.250	19.750	5.8630e-03
10.250	20.000	5.7769e-03
10.250	20.250	5.8175e-03
10.250	20.500	6.0193e-03
10.250	20.750	6.4381e-03
10.250	21.000	6.7086e-03
10.250	21.250	6.9305e-03
10.250	21.500	6.1881e-03
10.250	21.750	1.8046e-03
10.250	22.000	2.9984e-04
10.250	22.250	8.8395e-05
10.250	22.500	1.7366e-05
10.250	22.750	3.1276e-06
10.250	23.000	1.0000e-07
10.250	23.250	1.0000e-07
10.250	23.500	1.0000e-07
10.250	23.750	1.0000e-07
10.250	24.000	1.0000e-07
10.500	17.000	3.2969e-03
10.500	17.250	4.3115e-03
10.500	17.500	5.3990e-03
10.500	17.750	6.3113e-03
10.500	18.000	6.8833e-03
10.500	18.250	7.1817e-03
10.500	18.500	7.2698e-03
10.500	18.750	7.1470e-03
10.500	19.000	6.8190e-03
10.500	19.250	6.3677e-03
10.500	19.500	5.9644e-03
10.500	19.750	5.7117e-03
10.500	20.000	5.6895e-03
10.500	20.250	5.7781e-03
10.500	20.500	6.0756e-03
10.500	20.750	6.7413e-03
10.500	21.000	7.7206e-03
10.500	21.250	8.4174e-03
10.500	21.500	8.9804e-03
10.500	21.750	7.3669e-03
10.500	22.000	1.6914e-03
10.500	22.250	2.9827e-04
10.500	22.500	8.9712e-05
10.500	22.750	1.7860e-05
10.500	23.000	3.2099e-06
10.500	23.250	1.0000e-07
10.500	23.500	1.0000e-07
10.500	23.750	1.0000e-07
10.500	24.000	1.0000e-07
10.750	17.000	2.4111e-03
10.750	17.250	3.2570e-03
10.750	17.500	4.4325e-03
10.750	17.750	5.6346e-03
10.750	18.000	6.5127e-03
10.750	18.250	7.0272e-03
10.750	18.500	7.1956e-03
10.750	18.750	7.1090e-03
10.750	19.000	6.7812e-03
10.750	19.250	6.3016e-03
10.750	19.500	5.8528e-03
10.750	19.750	5.6378e-03
10.750	20.000	5.6586e-03
10.750	20.250	5.7898e-03
10.750	20.500	6.0863e-03
10.750	20.750	6.8742e-03
10.750	21.000	8.1512e-03
10.750	21.250	9.3724e-03
10.750	21.500	1.0418e-02
10.750	21.750	1.0522e-02
10.750	22.000	8.4403e-03
10.750	22.250	1.6901e-03
10.750	22.500	2.9498e-04
10.750	22.750	9.1358e-05
10.750	23.000	1.8601e-05
10.750	23.250	3.3745e-06
10.750	23.500	8.2305e-07
10.750	23.750	1.0000e-07
10.750	24.000	1.0000e-07
11.000	17.000	1.7305e-03
11.000	17.250	2.3365e-03
11.000	17.500	3.3430e-03
11.000	17.750	4.7444e-03
11.000	18.000	5.9743e-03
11.000	18.250	6.7721e-03
11.000	18.500	7.1297e-03
11.000	18.750	7.1248e-03
11.000	19.000	6.8061e-03
11.000	19.250	6.3074e-03
11.000	19.500	5.8139e-03
11.000	19.750	5.5663e-03
11.000	20.000	5.6237e-03
11.000	20.250	5.8179e-03
11.000	20.500	6.1392e-03
11.000	20.750	6.9188e-03
11.000	21.000	8.4635e-03
11.000	21.250	9.5980e-03
11.000	21.500	1.0653e-02
11.000	21.750	1.1380e-02
11.000	22.000	1.1084e-02
11.000	22.250	9.0962e-03
11.000	22.500	1.6372e-03
11.000	22.750	2.9095e-04
11.000	23.000	9.3251e-05
11.000	23.250	1.9506e-05
11.000	23.500	3.5391e-06
11.000	23.750	9.0535e-07
11.000	24.000	1.0000e-07
11.250	17.000	1.2240e-03
11.250	17.250	1.6212e-03
11.250	17.500	2.3370e-03
11.250	17.750	3.6035e-03
11.250	18.000	5.1179e-03
11.250	18.250	6.3202e-03
11.250	18.500	6.9863e-03
11.250	18.750	7.1560e-03
11.250	19.000	6.8932e-03
11.250	19.250	6.3820e-03
11.250	19.500	5.8308e-03
11.250	19.750	5.5257e-03
11.250	20.000	5.6241e-03
11.250	20.250	5.8298e-03
11.250	20.500	6.2424e-03
11.250	20.750	7.1358e-03
11.250	21.000	8.5891e-03
11.250	21.250	9.5273e-03
11.250	21.500	1.0306e-02
11.250	21.750	1.1035e-02
11.250	22.000	1.1395e-02
11.250	22.250	1.0446e-02
11.250	22.500	7.4793e-03
11.250	22.750	1.7213e-03
11.250	23.000	2.8494e-04
11.250	23.250	9.4733e-05
11.250	23.500	2.0412e-05
11.250	23.750	3.7037e-06
11.250	24.000	9.0535e-07
11.500	17.000	8.5325e-04
11.500	17.250	1.1032e-03
11.500	17.500	1.5481e-03
11.500	17.750	2.4394e-03
11.500	18.000	3.9172e-03
11.500	18.250	5.5296e-03
11.500	18.500	6.6632e-03
11.500	18.750	7.1310e-03
11.500	19.000	7.0147e-03
11.500	19.250	6.5194e-03
11.500	19.500	5.9159e-03
11.500	19.750	5.5227e-03
11.500	20.000	5.5783e-03
11.500	20.250	5.8779e-03
11.500	20.500	6.1909e-03
11.500	20.750	7.0520e-03
11.500	21.000	8.3773e-03
11.500	21.250	9.3812e-03
11.500	21.500	9.4587e-03
11.500	21.750	9.9496e-03
11.500	22.000	1.0404e-02
11.500	22.250	1.0303e-02
11.500	22.500	8.9110e-03
11.500	22.750	6.6472e-03
11.500	23.000	1.9965e-03
11.500	23.250	2.7786e-04
11.500	23.500	9.5062e-05
11.500	23.750	2.0905e-05
11.500	24.000	3.7860e-06
11.750	17.000	5.8749e-04
11.750	17.250	7.4173e-04
11.750	17.500	1.0021e-03
11.750	17.750	1.5388e-03
11.750	18.000	2.6330e-03
11.750	18.250	4.3342e-03
11.750	18.500	6.0301e-03
11.750	18.750	6.9667e-03
11.750	19.000	7.1315e-03
11.750	19.250	6.7109e-03
11.750	19.500	6.0226e-03
11.750	19.750	5.5781e-03
11.750	20.000	5.5470e-03
11.750	20.250	5.8803e-03
11.750	20.500	6.3160e-03
11.750	20.750	7.6519e-03
11.750	21.000	8.0136e-03
11.750	21.250	8.7812e-03
11.750	21.500	8.7307e-03
11.750	21.750	8.5412e-03
11.750	22.000	8.7090e-03
11.750	22.250	8.9506e-03
11.750	22.500	8.4558e-03
11.750	22.750	6.9531e-03
11.750	23.000	6.0593e-03
11.750	23.250	1.9055e-03
11.750	23.500	2.7309e-04
11.750	23.750	9.3745e-05
11.750	24.000	2.0823e-05
12.000	17.000	4.0469e-04
12.000	17.250	4.9959e-04
12.000	17.500	6.4765e-04
12.000	17.750	9.4897e-04
12.000	18.000	1.6207e-03
12.000	18.250	2.9790e-03
12.000	18.500	4.9222e-03
12.000	18.750	6.5472e-03
12.000	19.000	7.1880e-03
12.000	19.250	6.9983e-03
12.000	19.500	6.3164e-03
12.000	19.750	5.5966e-03
12.000	20.000	5.5681e-03
12.000	20.250	5.8935e-03
12.000	20.500	6.4140e-03
12.000	20.750	7.6859e-03
12.000	21.000	8.1291e-03
12.000	21.250	8.5483e-03
12.000	21.500	7.9534e-03
12.000	21.750	7.3624e-03
12.000	22.000	7.1315e-03
12.000	22.250	7.0801e-03
12.000	22.500	7.1358e-03
12.000	22.750	6.3657e-03
12.000	23.000	4.9566e-03
12.000	23.250	3.7515e-03
12.000	23.500	1.5296e-03
12.000	23.750	2.7753e-04
12.000	24.000	9.0864e-05
12.250	17.000	2.8016e-04
12.250	17.250	3.3942e-04
12.250	17.500	4.2650e-04
12.250	17.750	5.9177e-04
12.250	18.000	9.6453e-04
12.250	18.250	1.8519e-03
12.250	18.500	3.5671e-03
12.250	18.750	5.6665e-03
12.250	19.000	6.9816e-03
12.250	19.250	7.2681e-03
12.250	19.500	6.7651e-03
12.250	19.750	5.9664e-03
12.250	20.000	5.4279e-03
12.250	20.250	5.9637e-03
12.250	20.500	6.5530e-03
12.250	20.750	7.7836e-03
12.250	21.000	8.6077e-03
12.250	21.250	7.9570e-03
12.250	21.500	7.3618e-03
12.250	21.750	6.5009e-03
12.250	22.000	5.7747e-03
12.250	22.250	5.5754e-03
12.250	22.500	5.9259e-03
12.250	22.750	5.5891e-03
12.250	23.000	4.5370e-03
12.250	23.250	3.5870e-03
12.250	23.500	2.6593e-03
12.250	23.750	1.0410e-03
12.250	24.000	2.7621e-04
12.500	17.000	1.9531e-04
12.500	17.250	2.3449e-04
12.500	17.500	2.8741e-04
12.500	17.750	3.8049e-04
12.500	18.000	5.8132e-04
12.500	18.250	1.0852e-03
12.500	18.500	2.3050e-03
12.500	18.750	4.3432e-03
12.500	19.000	6.3650e-03
12.500	19.250	7.3117e-03
12.500	19.500	7.1713e-03
12.500	19.750	6.5491e-03
12.500	20.000	5.8616e-03
12.500	20.250	5.6850e-03
12.500	20.500	6.7162e-03
12.500	20.750	7.8376e-03
12.500	21.000	8.6193e-03
12.500	21.250	7.3660e-03
12.500	21.500	6.8968e-03
12.500	21.750	5.8879e-03
12.500	22.000	4.9732e-03
12.500	22.250	4.4932e-03
12.500	22.500	4.8152e-03
12.500	22.750	4.8382e-03
12.500	23.000	3.9180e-03
12.500	23.250	2.9706e-03
12.500	23.500	3.1049e-03
12.500	23.750	1.9770e-03
12.500	24.000	8.2963e-04
12.750	17.000	1.3695e-04
12.750	17.250	1.6453e-04
12.750	17.500	1.9827e-04
12.750	17.750	2.5276e-04
12.750	18.000	3.6321e-04
12.750	18.250	6.3119e-04
12.750	18.500	1.3329e-03
12.750	18.750	2.8805e-03
12.750	19.000	4.9726e-03
12.750	19.250	6.8100e-03
12.750	19.500	7.4347e-03
12.750	19.750	7.1115e-03
12.750	20.000	6.5648e-03
12.750	20.250	6.2729e-03
12.750	20.500	6.3711e-03
12.750	20.750	6.8586e-03
12.750	21.000	8.5650e-03
12.750	21.250	7.5050e-03
12.750	21.500	6.4947e-03
12.750	21.750	5.5514e-03
12.750	22.000	4.5002e-03
12.750	22.250	3.8204e-03
12.750	22.500	3.6119e-03
12.750	22.750	4.0794e-03
12.750	23.000	3.5509e-03
12.750	23.250	2.6163e-03
12.750	23.500	1.9470e-03
12.750	23.750	2.0676e-03
12.750	24.000	1.2238e-03
13.000	17.000	9.6461e-05
13.000	17.250	1.1654e-04
13.000	17.500	1.3951e-04
13.000	17.750	1.7333e-04
13.000	18.000	2.3572e-04
13.000	18.250	3.7745e-04
13.000	18.500	7.4947e-04
13.000	18.750	1.6623e-03
13.000	19.000	3.3430e-03
13.000	19.250	5.5004e-03
13.000	19.500	7.1379e-03
13.000	19.750	7.6298e-03
13.000	20.000	7.2794e-03
13.000	20.250	6.9813e-03
13.000	20.500	7.3477e-03
13.000	20.750	7.6220e-03
13.000	21.000	7.8259e-03
13.000	21.250	7.5539e-03
13.000	21.500	6.5258e-03
13.000	21.750	5.3476e-03
13.000	22.000	4.4060e-03
13.000	22.250	3.5425e-03
13.000	22.500	3.1482e-03
13.000	22.750	3.1393e-03
13.000	23.000	3.0895e-03
13.000	23.250	2.5518e-03
13.000	23.500	3.2139e-03
13.000	23.750	1.2356e-03
13.000	24.000	3.0311e-03
13.250	17.000	6.7737e-05
13.250	17.250	8.3128e-05
13.250	17.500	9.9671e-05
13.250	17.750	1.2181e-04
13.250	18.000	1.6008e-04
13.250	18.250	2.3819e-04
13.250	18.500	4.2716e-04
13.250	18.750	8.8864e-04
13.250	19.000	1.8555e-03
13.250	19.250	3.4324e-03
13.250	19.500	5.3009e-03
13.250	19.750	6.9399e-03
13.250	20.000	7.6723e-03
13.250	20.250	7.5083e-03
13.250	20.500	7.6150e-03
13.250	20.750	8.5543e-03
13.250	21.000	8.5430e-03
13.250	21.250	8.1613e-03
13.250	21.500	7.0296e-03
13.250	21.750	5.4502e-03
13.250	22.000	4.4746e-03
13.250	22.250	3.5079e-03
13.250	22.500	2.7049e-03
13.250	22.750	2.5022e-03
13.250	23.000	2.2309e-03
13.250	23.250	2.5210e-03
13.250	23.500	1.7063e-03
13.250	23.750	1.1945e-03
13.250	24.000	8.1827e-04
13.500	17.000	4.7243e-05
13.500	17.250	5.9259e-05
13.500	17.500	7.1687e-05
13.500	17.750	8.7490e-05
13.500	18.000	1.1218e-04
13.500	18.250	1.5860e-04
13.500	18.500	2.5449e-04
13.500	18.750	4.6831e-04
13.500	19.000	9.2370e-04
13.500	19.250	1.7357e-03
13.500	19.500	2.9998e-03
13.500	19.750	4.5918e-03
13.500	20.000	5.7731e-03
13.500	20.250	6.9210e-03
13.500	20.500	7.1669e-03
13.500	20.750	7.6455e-03
13.500	21.000	8.4717e-03
13.500	21.250	8.7377e-03
13.500	21.500	7.2383e-03
13.500	21.750	5.9030e-03
13.500	22.000	4.3854e-03
13.500	22.250	3.4565e-03
13.500	22.500	2.5940e-03
13.500	22.750	2.1374e-03
13.500	23.000	1.8044e-03
13.500	23.250	1.6679e-03
13.500	23.500	1.5784e-03
13.500	23.750	1.3271e-03
13.500	24.000	8.3695e-04
13.750	17.000	3.2757e-05
13.750	17.250	4.1975e-05
13.750	17.500	5.1687e-05
13.750	17.750	6.3292e-05
13.750	18.000	8.0082e-05
13.750	18.250	1.0872e-04
13.750	18.500	1.6074e-04
13.750	18.750	2.5786e-04
13.750	19.000	4.3885e-04
13.750	19.250	7.5868e-04
13.750	19.500	1.2598e-03
13.750	19.750	1.9991e-03
13.750	20.000	2.9975e-03
13.750	20.250	3.7638e-03
13.750	20.500	4.6087e-03
13.750	20.750	5.5007e-03
13.750	21.000	5.9290e-03
13.750	21.250	5.9445e-03
13.750	21.500	6.6153e-03
13.750	21.750	5.5764e-03
13.750	22.000	4.5647e-03
13.750	22.250	3.6452e-03
13.750	22.500	2.8441e-03
13.750	22.750	2.1063e-03
13.750	23.000	1.5716e-03
13.750	23.250	1.4628e-03
13.750	23.500	1.3325e-03
13.750	23.750	2.4272e-03
13.750	24.000	1.0065e-03
14.000	17.000	2.2469e-05
14.000	17.250	2.9547e-05
14.000	17.500	3.7119e-05
14.000	17.750	4.5844e-05
14.000	18.000	5.7613e-05
14.000	18.250	7.5473e-05
14.000	18.500	1.0370e-04
14.000	18.750	1.4881e-04
14.000	19.000	2.1802e-04
14.000	19.250	3.2535e-04
14.000	19.500	4.9029e-04
14.000	19.750	7.3407e-04
14.000	20.000	1.0714e-03
14.000	20.250	1.5128e-03
14.000	20.500	1.9245e-03
14.000	20.750	2.3370e-03
14.000	21.000	2.8274e-03
14.000	21.250	3.3463e-03
14.000	21.500	3.3020e-03
14.000	21.750	3.5581e-03
14.000	22.000	3.9332e-03
14.000	22.250	3.7895e-03
14.000	22.500	3.2909e-03
14.000	22.750	2.5430e-03
14.000	23.000	1.8944e-03
14.000	23.250	1.4075e-03
14.000	23.500	1.1960e-03
14.000	23.750	1.2178e-03
14.000	24.000	1.3030e-03
