InwC 1.43649m  relative to Inci 1215.00A scaled to 1215A.
Hden   Phi(H)  Eq_Width (A)
 7.000	17.000	6.7393e-03
 7.000	17.250	9.7728e-03
 7.000	17.500	1.3776e-02
 7.000	17.750	1.7556e-02
 7.000	18.000	2.0934e-02
 7.000	18.250	2.1511e-02
 7.000	18.500	2.1748e-02
 7.000	18.750	2.1729e-02
 7.000	19.000	2.1707e-02
 7.000	19.250	2.1703e-02
 7.000	19.500	2.1698e-02
 7.000	19.750	2.1698e-02
 7.000	20.000	2.1698e-02
 7.000	20.250	2.1698e-02
 7.000	20.500	2.1698e-02
 7.000	20.750	2.1698e-02
 7.000	21.000	2.1698e-02
 7.000	21.250	2.1698e-02
 7.000	21.500	2.1698e-02
 7.000	21.750	2.1698e-02
 7.000	22.000	2.1698e-02
 7.000	22.250	2.1698e-02
 7.000	22.500	2.1698e-02
 7.000	22.750	2.1698e-02
 7.000	23.000	2.1698e-02
 7.000	23.250	2.1698e-02
 7.000	23.500	2.1698e-02
 7.000	23.750	2.1698e-02
 7.000	24.000	2.1699e-02
 7.250	17.000	4.6628e-03
 7.250	17.250	6.9240e-03
 7.250	17.500	1.0074e-02
 7.250	17.750	1.4161e-02
 7.250	18.000	1.7840e-02
 7.250	18.250	2.0937e-02
 7.250	18.500	2.1514e-02
 7.250	18.750	2.1747e-02
 7.250	19.000	2.1729e-02
 7.250	19.250	2.1707e-02
 7.250	19.500	2.1703e-02
 7.250	19.750	2.1697e-02
 7.250	20.000	2.1698e-02
 7.250	20.250	2.1698e-02
 7.250	20.500	2.1698e-02
 7.250	20.750	2.1698e-02
 7.250	21.000	2.1698e-02
 7.250	21.250	2.1698e-02
 7.250	21.500	2.1698e-02
 7.250	21.750	2.1698e-02
 7.250	22.000	2.1698e-02
 7.250	22.250	2.1698e-02
 7.250	22.500	2.1698e-02
 7.250	22.750	2.1698e-02
 7.250	23.000	2.1698e-02
 7.250	23.250	2.1698e-02
 7.250	23.500	2.1698e-02
 7.250	23.750	2.1698e-02
 7.250	24.000	2.1698e-02
 7.500	17.000	3.2100e-03
 7.500	17.250	4.8129e-03
 7.500	17.500	7.2199e-03
 7.500	17.750	1.0534e-02
 7.500	18.000	1.4728e-02
 7.500	18.250	1.8149e-02
 7.500	18.500	2.0939e-02
 7.500	18.750	2.1519e-02
 7.500	19.000	2.1747e-02
 7.500	19.250	2.1729e-02
 7.500	19.500	2.1707e-02
 7.500	19.750	2.1703e-02
 7.500	20.000	2.1698e-02
 7.500	20.250	2.1698e-02
 7.500	20.500	2.1698e-02
 7.500	20.750	2.1698e-02
 7.500	21.000	2.1698e-02
 7.500	21.250	2.1698e-02
 7.500	21.500	2.1698e-02
 7.500	21.750	2.1698e-02
 7.500	22.000	2.1698e-02
 7.500	22.250	2.1698e-02
 7.500	22.500	2.1698e-02
 7.500	22.750	2.1698e-02
 7.500	23.000	2.1698e-02
 7.500	23.250	2.1698e-02
 7.500	23.500	2.1698e-02
 7.500	23.750	2.1698e-02
 7.500	24.000	2.1700e-02
 7.750	17.000	2.2328e-03
 7.750	17.250	3.3277e-03
 7.750	17.500	5.0608e-03
 7.750	17.750	7.6988e-03
 7.750	18.000	1.1238e-02
 7.750	18.250	1.5505e-02
 7.750	18.500	1.8524e-02
 7.750	18.750	2.0941e-02
 7.750	19.000	2.1523e-02
 7.750	19.250	2.1748e-02
 7.750	19.500	2.1729e-02
 7.750	19.750	2.1706e-02
 7.750	20.000	2.1704e-02
 7.750	20.250	2.1698e-02
 7.750	20.500	2.1698e-02
 7.750	20.750	2.1698e-02
 7.750	21.000	2.1698e-02
 7.750	21.250	2.1698e-02
 7.750	21.500	2.1698e-02
 7.750	21.750	2.1698e-02
 7.750	22.000	2.1698e-02
 7.750	22.250	2.1698e-02
 7.750	22.500	2.1698e-02
 7.750	22.750	2.1698e-02
 7.750	23.000	2.1698e-02
 7.750	23.250	2.1698e-02
 7.750	23.500	2.1698e-02
 7.750	23.750	2.1698e-02
 7.750	24.000	2.1698e-02
 8.000	17.000	1.5790e-03
 8.000	17.250	2.3143e-03
 8.000	17.500	3.5142e-03
 8.000	17.750	5.4782e-03
 8.000	18.000	8.4644e-03
 8.000	18.250	1.2293e-02
 8.000	18.500	1.6283e-02
 8.000	18.750	1.8858e-02
 8.000	19.000	2.0941e-02
 8.000	19.250	2.1526e-02
 8.000	19.500	2.1747e-02
 8.000	19.750	2.1729e-02
 8.000	20.000	2.1706e-02
 8.000	20.250	2.1704e-02
 8.000	20.500	2.1698e-02
 8.000	20.750	2.1698e-02
 8.000	21.000	2.1698e-02
 8.000	21.250	2.1698e-02
 8.000	21.500	2.1698e-02
 8.000	21.750	2.1698e-02
 8.000	22.000	2.1698e-02
 8.000	22.250	2.1698e-02
 8.000	22.500	2.1698e-02
 8.000	22.750	2.1698e-02
 8.000	23.000	2.1698e-02
 8.000	23.250	2.1698e-02
 8.000	23.500	2.1698e-02
 8.000	23.750	2.1698e-02
 8.000	24.000	2.1698e-02
 8.250	17.000	1.1357e-03
 8.250	17.250	1.6435e-03
 8.250	17.500	2.4655e-03
 8.250	17.750	3.8672e-03
 8.250	18.000	6.2268e-03
 8.250	18.250	9.6817e-03
 8.250	18.500	1.3572e-02
 8.250	18.750	1.7217e-02
 8.250	19.000	1.9238e-02
 8.250	19.250	2.0939e-02
 8.250	19.500	2.1532e-02
 8.250	19.750	2.1747e-02
 8.250	20.000	2.1730e-02
 8.250	20.250	2.1707e-02
 8.250	20.500	2.1703e-02
 8.250	20.750	2.1697e-02
 8.250	21.000	2.1698e-02
 8.250	21.250	2.1698e-02
 8.250	21.500	2.1698e-02
 8.250	21.750	2.1698e-02
 8.250	22.000	2.1698e-02
 8.250	22.250	2.1698e-02
 8.250	22.500	2.1698e-02
 8.250	22.750	2.1698e-02
 8.250	23.000	2.1698e-02
 8.250	23.250	2.1698e-02
 8.250	23.500	2.1698e-02
 8.250	23.750	2.1698e-02
 8.250	24.000	2.1698e-02
 8.500	17.000	8.2403e-04
 8.500	17.250	1.1839e-03
 8.500	17.500	1.7562e-03
 8.500	17.750	2.7414e-03
 8.500	18.000	4.5026e-03
 8.500	18.250	7.3981e-03
 8.500	18.500	1.1050e-02
 8.500	18.750	1.4730e-02
 8.500	19.000	1.7868e-02
 8.500	19.250	1.9500e-02
 8.500	19.500	2.0928e-02
 8.500	19.750	2.1538e-02
 8.500	20.000	2.1747e-02
 8.500	20.250	2.1729e-02
 8.500	20.500	2.1707e-02
 8.500	20.750	2.1703e-02
 8.500	21.000	2.1698e-02
 8.500	21.250	2.1698e-02
 8.500	21.500	2.1698e-02
 8.500	21.750	2.1698e-02
 8.500	22.000	2.1698e-02
 8.500	22.250	2.1698e-02
 8.500	22.500	2.1698e-02
 8.500	22.750	2.1698e-02
 8.500	23.000	2.1698e-02
 8.500	23.250	2.1698e-02
 8.500	23.500	2.1698e-02
 8.500	23.750	2.1698e-02
 8.500	24.000	2.1698e-02
 8.750	17.000	5.9819e-04
 8.750	17.250	8.5975e-04
 8.750	17.500	1.2670e-03
 8.750	17.750	1.9629e-03
 8.750	18.000	3.2310e-03
 8.750	18.250	5.4858e-03
 8.750	18.500	8.6816e-03
 8.750	18.750	1.2259e-02
 8.750	19.000	1.5749e-02
 8.750	19.250	1.8091e-02
 8.750	19.500	1.9775e-02
 8.750	19.750	2.0912e-02
 8.750	20.000	2.1546e-02
 8.750	20.250	2.1747e-02
 8.750	20.500	2.1728e-02
 8.750	20.750	2.1707e-02
 8.750	21.000	2.1703e-02
 8.750	21.250	2.1698e-02
 8.750	21.500	2.1698e-02
 8.750	21.750	2.1698e-02
 8.750	22.000	2.1698e-02
 8.750	22.250	2.1698e-02
 8.750	22.500	2.1698e-02
 8.750	22.750	2.1698e-02
 8.750	23.000	2.1698e-02
 8.750	23.250	2.1698e-02
 8.750	23.500	2.1698e-02
 8.750	23.750	2.1698e-02
 8.750	24.000	2.1698e-02
 9.000	17.000	4.3350e-04
 9.000	17.250	6.2486e-04
 9.000	17.500	9.2123e-04
 9.000	17.750	1.4230e-03
 9.000	18.000	2.3496e-03
 9.000	18.250	4.0328e-03
 9.000	18.500	6.6271e-03
 9.000	18.750	9.8141e-03
 9.000	19.000	1.3286e-02
 9.000	19.250	1.6636e-02
 9.000	19.500	1.8385e-02
 9.000	19.750	1.9982e-02
 9.000	20.000	2.0870e-02
 9.000	20.250	2.1552e-02
 9.000	20.500	2.1746e-02
 9.000	20.750	2.1728e-02
 9.000	21.000	2.1706e-02
 9.000	21.250	2.1703e-02
 9.000	21.500	2.1698e-02
 9.000	21.750	2.1698e-02
 9.000	22.000	2.1698e-02
 9.000	22.250	2.1698e-02
 9.000	22.500	2.1698e-02
 9.000	22.750	2.1698e-02
 9.000	23.000	2.1698e-02
 9.000	23.250	2.1698e-02
 9.000	23.500	2.1698e-02
 9.000	23.750	2.1698e-02
 9.000	24.000	2.1698e-02
 9.250	17.000	3.1284e-04
 9.250	17.250	4.5333e-04
 9.250	17.500	6.7086e-04
 9.250	17.750	1.0389e-03
 9.250	18.000	1.7354e-03
 9.250	18.250	2.9984e-03
 9.250	18.500	4.9658e-03
 9.250	18.750	7.5785e-03
 9.250	19.000	1.0666e-02
 9.250	19.250	1.3913e-02
 9.250	19.500	1.6876e-02
 9.250	19.750	1.8568e-02
 9.250	20.000	2.0168e-02
 9.250	20.250	2.0809e-02
 9.250	20.500	2.1556e-02
 9.250	20.750	2.1745e-02
 9.250	21.000	2.1727e-02
 9.250	21.250	2.1706e-02
 9.250	21.500	2.1703e-02
 9.250	21.750	2.1694e-02
 9.250	22.000	2.1678e-02
 9.250	22.250	2.1694e-02
 9.250	22.500	2.1698e-02
 9.250	22.750	2.1698e-02
 9.250	23.000	2.1698e-02
 9.250	23.250	2.1698e-02
 9.250	23.500	2.1698e-02
 9.250	23.750	2.1698e-02
 9.250	24.000	2.1698e-02
 9.500	17.000	2.2494e-04
 9.500	17.250	3.2782e-04
 9.500	17.500	4.8881e-04
 9.500	17.750	7.6206e-04
 9.500	18.000	1.2908e-03
 9.500	18.250	2.2621e-03
 9.500	18.500	3.7549e-03
 9.500	18.750	5.7374e-03
 9.500	19.000	8.2462e-03
 9.500	19.250	1.1269e-02
 9.500	19.500	1.4444e-02
 9.500	19.750	1.7047e-02
 9.500	20.000	1.8802e-02
 9.500	20.250	2.0068e-02
 9.500	20.500	2.0738e-02
 9.500	20.750	2.1553e-02
 9.500	21.000	2.1741e-02
 9.500	21.250	2.1724e-02
 9.500	21.500	2.1696e-02
 9.500	21.750	2.1678e-02
 9.500	22.000	2.1650e-02
 9.500	22.250	2.1635e-02
 9.500	22.500	2.1627e-02
 9.500	22.750	2.1620e-02
 9.500	23.000	2.1615e-02
 9.500	23.250	2.1614e-02
 9.500	23.500	2.1648e-02
 9.500	23.750	2.1648e-02
 9.500	24.000	2.1648e-02
 9.750	17.000	1.6132e-04
 9.750	17.250	2.3638e-04
 9.750	17.500	3.5457e-04
 9.750	17.750	5.6025e-04
 9.750	18.000	9.6296e-04
 9.750	18.250	1.7097e-03
 9.750	18.500	2.8523e-03
 9.750	18.750	4.3427e-03
 9.750	19.000	6.2463e-03
 9.750	19.250	8.6980e-03
 9.750	19.500	1.1648e-02
 9.750	19.750	1.5098e-02
 9.750	20.000	1.7262e-02
 9.750	20.250	1.8927e-02
 9.750	20.500	1.9944e-02
 9.750	20.750	2.0675e-02
 9.750	21.000	2.1539e-02
 9.750	21.250	2.1737e-02
 9.750	21.500	2.1725e-02
 9.750	21.750	2.1702e-02
 9.750	22.000	2.1678e-02
 9.750	22.250	2.1653e-02
 9.750	22.500	2.1641e-02
 9.750	22.750	2.1636e-02
 9.750	23.000	2.1631e-02
 9.750	23.250	2.1628e-02
 9.750	23.500	2.1626e-02
 9.750	23.750	2.1625e-02
 9.750	24.000	2.1624e-02
10.000	17.000	1.1539e-04
10.000	17.250	1.6971e-04
10.000	17.500	2.5654e-04
10.000	17.750	4.1053e-04
10.000	18.000	7.1317e-04
10.000	18.250	1.2815e-03
10.000	18.500	2.1504e-03
10.000	18.750	3.2678e-03
10.000	19.000	4.6967e-03
10.000	19.250	6.5660e-03
10.000	19.500	8.9365e-03
10.000	19.750	1.2059e-02
10.000	20.000	1.5032e-02
10.000	20.250	1.7393e-02
10.000	20.500	1.9098e-02
10.000	20.750	1.9820e-02
10.000	21.000	2.0609e-02
10.000	21.250	2.1529e-02
10.000	21.500	2.1733e-02
10.000	21.750	2.1724e-02
10.000	22.000	2.1703e-02
10.000	22.250	2.1686e-02
10.000	22.500	2.1654e-02
10.000	22.750	2.1645e-02
10.000	23.000	2.1642e-02
10.000	23.250	2.1639e-02
10.000	23.500	2.1637e-02
10.000	23.750	2.1636e-02
10.000	24.000	2.1635e-02
10.250	17.000	8.2798e-05
10.250	17.250	1.2156e-04
10.250	17.500	1.8469e-04
10.250	17.750	2.9992e-04
10.250	18.000	5.3177e-04
10.250	18.250	9.5407e-04
10.250	18.500	1.6006e-03
10.250	18.750	2.4342e-03
10.250	19.000	3.5119e-03
10.250	19.250	4.9172e-03
10.250	19.500	6.7666e-03
10.250	19.750	9.1886e-03
10.250	20.000	1.2267e-02
10.250	20.250	1.5085e-02
10.250	20.500	1.7557e-02
10.250	20.750	1.9017e-02
10.250	21.000	1.9710e-02
10.250	21.250	2.0548e-02
10.250	21.500	2.1520e-02
10.250	21.750	2.1720e-02
10.250	22.000	2.1722e-02
10.250	22.250	2.1702e-02
10.250	22.500	2.1696e-02
10.250	22.750	2.1657e-02
10.250	23.000	2.1647e-02
10.250	23.250	2.1645e-02
10.250	23.500	2.1644e-02
10.250	23.750	2.1642e-02
10.250	24.000	2.1642e-02
10.500	17.000	5.9671e-05
10.500	17.250	8.7160e-05
10.500	17.500	1.3267e-04
10.500	17.750	2.1770e-04
10.500	18.000	3.9128e-04
10.500	18.250	7.0560e-04
10.500	18.500	1.1774e-03
10.500	18.750	1.7902e-03
10.500	19.000	2.5847e-03
10.500	19.250	3.6435e-03
10.500	19.500	5.0487e-03
10.500	19.750	6.9125e-03
10.500	20.000	9.3300e-03
10.500	20.250	1.2333e-02
10.500	20.500	1.5164e-02
10.500	20.750	1.7700e-02
10.500	21.000	1.8860e-02
10.500	21.250	1.9588e-02
10.500	21.500	2.0581e-02
10.500	21.750	2.1472e-02
10.500	22.000	2.1698e-02
10.500	22.250	2.1716e-02
10.500	22.500	2.1700e-02
10.500	22.750	2.1699e-02
10.500	23.000	2.1679e-02
10.500	23.250	2.1649e-02
10.500	23.500	2.1647e-02
10.500	23.750	2.1646e-02
10.500	24.000	2.1645e-02
10.750	17.000	4.3210e-05
10.750	17.250	6.2798e-05
10.750	17.500	9.5391e-05
10.750	17.750	1.5745e-04
10.750	18.000	2.8568e-04
10.750	18.250	5.1918e-04
10.750	18.500	8.5984e-04
10.750	18.750	1.3028e-03
10.750	19.000	1.8939e-03
10.750	19.250	2.6876e-03
10.750	19.500	3.7383e-03
10.750	19.750	5.1474e-03
10.750	20.000	6.9828e-03
10.750	20.250	9.3450e-03
10.750	20.500	1.2272e-02
10.750	20.750	1.5129e-02
10.750	21.000	1.7677e-02
10.750	21.250	1.8645e-02
10.750	21.500	1.9609e-02
10.750	21.750	2.0592e-02
10.750	22.000	2.1401e-02
10.750	22.250	2.1665e-02
10.750	22.500	2.1708e-02
10.750	22.750	2.1696e-02
10.750	23.000	2.1699e-02
10.750	23.250	2.1691e-02
10.750	23.500	2.1666e-02
10.750	23.750	2.1651e-02
10.750	24.000	2.1647e-02
11.000	17.000	3.1358e-05
11.000	17.250	4.5350e-05
11.000	17.500	6.8724e-05
11.000	17.750	1.1333e-04
11.000	18.000	2.0519e-04
11.000	18.250	3.7160e-04
11.000	18.500	6.1128e-04
11.000	18.750	9.2889e-04
11.000	19.000	1.3622e-03
11.000	19.250	1.9538e-03
11.000	19.500	2.7493e-03
11.000	19.750	3.7974e-03
11.000	20.000	5.1719e-03
11.000	20.250	6.9448e-03
11.000	20.500	9.1959e-03
11.000	20.750	1.1988e-02
11.000	21.000	1.4884e-02
11.000	21.250	1.7373e-02
11.000	21.500	1.8668e-02
11.000	21.750	1.9529e-02
11.000	22.000	2.0592e-02
11.000	22.250	2.1306e-02
11.000	22.500	2.1618e-02
11.000	22.750	2.1695e-02
11.000	23.000	2.1689e-02
11.000	23.250	2.1697e-02
11.000	23.500	2.1694e-02
11.000	23.750	2.1687e-02
11.000	24.000	2.1669e-02
11.250	17.000	2.2881e-05
11.250	17.250	3.2757e-05
11.250	17.500	4.9547e-05
11.250	17.750	8.1399e-05
11.250	18.000	1.4658e-04
11.250	18.250	2.6165e-04
11.250	18.500	4.2247e-04
11.250	18.750	6.6206e-04
11.250	19.000	9.7481e-04
11.250	19.250	1.4053e-03
11.250	19.500	1.9924e-03
11.250	19.750	2.7765e-03
11.250	20.000	3.8041e-03
11.250	20.250	5.1249e-03
11.250	20.500	6.7762e-03
11.250	20.750	8.8091e-03
11.250	21.000	1.1400e-02
11.250	21.250	1.4347e-02
11.250	21.500	1.7280e-02
11.250	21.750	1.8397e-02
11.250	22.000	1.9378e-02
11.250	22.250	2.0511e-02
11.250	22.500	2.1162e-02
11.250	22.750	2.1553e-02
11.250	23.000	2.1675e-02
11.250	23.250	2.1678e-02
11.250	23.500	2.1694e-02
11.250	23.750	2.1694e-02
11.250	24.000	2.1693e-02
11.500	17.000	1.6872e-05
11.500	17.250	2.3868e-05
11.500	17.500	3.5720e-05
11.500	17.750	5.8107e-05
11.500	18.000	1.0362e-04
11.500	18.250	1.8181e-04
11.500	18.500	2.9457e-04
11.500	18.750	4.5951e-04
11.500	19.000	6.8807e-04
11.500	19.250	1.0016e-03
11.500	19.500	1.4340e-03
11.500	19.750	2.0133e-03
11.500	20.000	2.7788e-03
11.500	20.250	3.7556e-03
11.500	20.500	4.9676e-03
11.500	20.750	6.4000e-03
11.500	21.000	8.1165e-03
11.500	21.250	1.0468e-02
11.500	21.500	1.4179e-02
11.500	21.750	1.6641e-02
11.500	22.000	1.7995e-02
11.500	22.250	1.9112e-02
11.500	22.500	2.0289e-02
11.500	22.750	2.0962e-02
11.500	23.000	2.1463e-02
11.500	23.250	2.1645e-02
11.500	23.500	2.1662e-02
11.500	23.750	2.1689e-02
11.500	24.000	2.1693e-02
11.750	17.000	1.1523e-05
11.750	17.250	1.7613e-05
11.750	17.500	2.5926e-05
11.750	17.750	4.1399e-05
11.750	18.000	7.2428e-05
11.750	18.250	1.2486e-04
11.750	18.500	2.0222e-04
11.750	18.750	3.1770e-04
11.750	19.000	4.7885e-04
11.750	19.250	7.0872e-04
11.750	19.500	1.0228e-03
11.750	19.750	1.4479e-03
11.750	20.000	2.0136e-03
11.750	20.250	2.7391e-03
11.750	20.500	3.6338e-03
11.750	20.750	4.6553e-03
11.750	21.000	5.7722e-03
11.750	21.250	7.1181e-03
11.750	21.500	9.9956e-03
11.750	21.750	1.3198e-02
11.750	22.000	1.5758e-02
11.750	22.250	1.7370e-02
11.750	22.500	1.8651e-02
11.750	22.750	1.9906e-02
11.750	23.000	2.0677e-02
11.750	23.250	2.1331e-02
11.750	23.500	2.1604e-02
11.750	23.750	2.1638e-02
11.750	24.000	2.1682e-02
12.000	17.000	5.5967e-06
12.000	17.250	1.2593e-05
12.000	17.500	1.9095e-05
12.000	17.750	2.9630e-05
12.000	18.000	5.0123e-05
12.000	18.250	8.5103e-05
12.000	18.500	1.3893e-04
12.000	18.750	2.1811e-04
12.000	19.000	3.3374e-04
12.000	19.250	4.9465e-04
12.000	19.500	7.2123e-04
12.000	19.750	1.0323e-03
12.000	20.000	1.4449e-03
12.000	20.250	1.9824e-03
12.000	20.500	2.6402e-03
12.000	20.750	3.3900e-03
12.000	21.000	4.1480e-03
12.000	21.250	4.8921e-03
12.000	21.500	6.5949e-03
12.000	21.750	8.7633e-03
12.000	22.000	1.1809e-02
12.000	22.250	1.4559e-02
12.000	22.500	1.6424e-02
12.000	22.750	1.7971e-02
12.000	23.000	1.9331e-02
12.000	23.250	2.0262e-02
12.000	23.500	2.1134e-02
12.000	23.750	2.1542e-02
12.000	24.000	2.1603e-02
12.250	17.000	2.6337e-06
12.250	17.250	6.3374e-06
12.250	17.500	1.3827e-05
12.250	17.750	2.1481e-05
12.250	18.000	3.4815e-05
12.250	18.250	5.8107e-05
12.250	18.500	9.4403e-05
12.250	18.750	1.4856e-04
12.250	19.000	2.2881e-04
12.250	19.250	3.4305e-04
12.250	19.500	5.0535e-04
12.250	19.750	7.2938e-04
12.250	20.000	1.0306e-03
12.250	20.250	1.4228e-03
12.250	20.500	1.9092e-03
12.250	20.750	2.4575e-03
12.250	21.000	3.0038e-03
12.250	21.250	3.4420e-03
12.250	21.500	4.4269e-03
12.250	21.750	5.4405e-03
12.250	22.000	7.4205e-03
12.250	22.250	1.0247e-02
12.250	22.500	1.3035e-02
12.250	22.750	1.5087e-02
12.250	23.000	1.6940e-02
12.250	23.250	1.8502e-02
12.250	23.500	1.9660e-02
12.250	23.750	2.0839e-02
12.250	24.000	2.1451e-02
12.500	17.000	1.3169e-06
12.500	17.250	2.8807e-06
12.500	17.500	6.9959e-06
12.500	17.750	1.5309e-05
12.500	18.000	2.4362e-05
12.500	18.250	3.9506e-05
12.500	18.500	6.3951e-05
12.500	18.750	1.0091e-04
12.500	19.000	1.5630e-04
12.500	19.250	2.3663e-04
12.500	19.500	3.5062e-04
12.500	19.750	5.0971e-04
12.500	20.000	7.2782e-04
12.500	20.250	1.0141e-03
12.500	20.500	1.3701e-03
12.500	20.750	1.7779e-03
12.500	21.000	2.1765e-03
12.500	21.250	2.4638e-03
12.500	21.500	3.0682e-03
12.500	21.750	3.4472e-03
12.500	22.000	4.3479e-03
12.500	22.250	6.1589e-03
12.500	22.500	8.7685e-03
12.500	22.750	1.1151e-02
12.500	23.000	1.3365e-02
12.500	23.250	1.5539e-02
12.500	23.500	1.7352e-02
12.500	23.750	1.8800e-02
12.500	24.000	2.0401e-02
12.750	17.000	1.0000e-07
12.750	17.250	1.3992e-06
12.750	17.500	3.1276e-06
12.750	17.750	6.9959e-06
12.750	18.000	1.5226e-05
12.750	18.250	2.6667e-05
12.750	18.500	4.2716e-05
12.750	18.750	6.7490e-05
12.750	19.000	1.0527e-04
12.750	19.250	1.6099e-04
12.750	19.500	2.4099e-04
12.750	19.750	3.5449e-04
12.750	20.000	5.1029e-04
12.750	20.250	7.1695e-04
12.750	20.500	9.7613e-04
12.750	20.750	1.2783e-03
12.750	21.000	1.5754e-03
12.750	21.250	1.7799e-03
12.750	21.500	2.1788e-03
12.750	21.750	2.2703e-03
12.750	22.000	2.5959e-03
12.750	22.250	3.4671e-03
12.750	22.500	5.0610e-03
12.750	22.750	7.0310e-03
12.750	23.000	9.0695e-03
12.750	23.250	1.1392e-02
12.750	23.500	1.3791e-02
12.750	23.750	1.5823e-02
12.750	24.000	1.7598e-02
13.000	17.000	1.0000e-07
13.000	17.250	1.0000e-07
13.000	17.500	1.1523e-06
13.000	17.750	2.8807e-06
13.000	18.000	6.4198e-06
13.000	18.250	1.3498e-05
13.000	18.500	2.4856e-05
13.000	18.750	4.1893e-05
13.000	19.000	6.9053e-05
13.000	19.250	1.0774e-04
13.000	19.500	1.6412e-04
13.000	19.750	2.4354e-04
13.000	20.000	3.5416e-04
13.000	20.250	5.0181e-04
13.000	20.500	6.9160e-04
13.000	20.750	9.1383e-04
13.000	21.000	1.1356e-03
13.000	21.250	1.2887e-03
13.000	21.500	1.5690e-03
13.000	21.750	1.5453e-03
13.000	22.000	1.5982e-03
13.000	22.250	1.9863e-03
13.000	22.500	2.7965e-03
13.000	22.750	3.9682e-03
13.000	23.000	5.3973e-03
13.000	23.250	7.1617e-03
13.000	23.500	9.3772e-03
13.000	23.750	1.1759e-02
13.000	24.000	1.3907e-02
13.250	17.000	1.0000e-07
13.250	17.250	1.0000e-07
13.250	17.500	1.0000e-07
13.250	17.750	1.1523e-06
13.250	18.000	2.7984e-06
13.250	18.250	6.5021e-06
13.250	18.500	1.4074e-05
13.250	18.750	2.6091e-05
13.250	19.000	4.4280e-05
13.250	19.250	7.1605e-05
13.250	19.500	1.0782e-04
13.250	19.750	1.6551e-04
13.250	20.000	2.4305e-04
13.250	20.250	3.4848e-04
13.250	20.500	4.8494e-04
13.250	20.750	6.4840e-04
13.250	21.000	8.1506e-04
13.250	21.250	9.3152e-04
13.250	21.500	1.1365e-03
13.250	21.750	1.0777e-03
13.250	22.000	1.0130e-03
13.250	22.250	1.1594e-03
13.250	22.500	1.5550e-03
13.250	22.750	2.1713e-03
13.250	23.000	3.0198e-03
13.250	23.250	4.1189e-03
13.250	23.500	5.5887e-03
13.250	23.750	7.4489e-03
13.250	24.000	9.5921e-03
13.500	17.000	1.0000e-07
13.500	17.250	1.0000e-07
13.500	17.500	1.0000e-07
13.500	17.750	1.0000e-07
13.500	18.000	1.3992e-06
13.500	18.250	3.2099e-06
13.500	18.500	6.8313e-06
13.500	18.750	1.4321e-05
13.500	19.000	2.7490e-05
13.500	19.250	4.6008e-05
13.500	19.500	7.2099e-05
13.500	19.750	1.1053e-04
13.500	20.000	1.6461e-04
13.500	20.250	2.3909e-04
13.500	20.500	3.3687e-04
13.500	20.750	4.5588e-04
13.500	21.000	5.8074e-04
13.500	21.250	6.7185e-04
13.500	21.500	8.2132e-04
13.500	21.750	7.6296e-04
13.500	22.000	6.5761e-04
13.500	22.250	6.8889e-04
13.500	22.500	8.8864e-04
13.500	22.750	1.2166e-03
13.500	23.000	1.6849e-03
13.500	23.250	2.3259e-03
13.500	23.500	3.1765e-03
13.500	23.750	4.2754e-03
13.500	24.000	5.7388e-03
13.750	17.000	1.0000e-07
13.750	17.250	1.0000e-07
13.750	17.500	1.0000e-07
13.750	17.750	1.0000e-07
13.750	18.000	1.0000e-07
13.750	18.250	1.6461e-06
13.750	18.500	3.4568e-06
13.750	18.750	7.2428e-06
13.750	19.000	1.4815e-05
13.750	19.250	2.9547e-05
13.750	19.500	4.6914e-05
13.750	19.750	7.2510e-05
13.750	20.000	1.1012e-04
13.750	20.250	1.6189e-04
13.750	20.500	2.3119e-04
13.750	20.750	3.1695e-04
13.750	21.000	4.0955e-04
13.750	21.250	4.8107e-04
13.750	21.500	5.9251e-04
13.750	21.750	5.4255e-04
13.750	22.000	4.3893e-04
13.750	22.250	4.1588e-04
13.750	22.500	5.1638e-04
13.750	22.750	6.9926e-04
13.750	23.000	9.5276e-04
13.750	23.250	1.3030e-03
13.750	23.500	1.7768e-03
13.750	23.750	2.3835e-03
13.750	24.000	3.2184e-03
14.000	17.000	1.0000e-07
14.000	17.250	1.0000e-07
14.000	17.500	1.0000e-07
14.000	17.750	1.0000e-07
14.000	18.000	1.0000e-07
14.000	18.250	8.2305e-07
14.000	18.500	1.8107e-06
14.000	18.750	3.7037e-06
14.000	19.000	7.5720e-06
14.000	19.250	1.7202e-05
14.000	19.500	2.9383e-05
14.000	19.750	4.7160e-05
14.000	20.000	7.2510e-05
14.000	20.250	1.0815e-04
14.000	20.500	1.5654e-04
14.000	20.750	2.1778e-04
14.000	21.000	2.8551e-04
14.000	21.250	3.4041e-04
14.000	21.500	4.2362e-04
14.000	21.750	3.8568e-04
14.000	22.000	2.9720e-04
14.000	22.250	2.5728e-04
14.000	22.500	3.0099e-04
14.000	22.750	4.0527e-04
14.000	23.000	5.4798e-04
14.000	23.250	7.3514e-04
14.000	23.500	9.9045e-04
14.000	23.750	1.3167e-03
14.000	24.000	1.7606e-03
