He 2 4686.01A  relative to Inci 1215.00A scaled to 1215A.
Hden   Phi(H)  Eq_Width (A)
 7.000	17.000	3.7521e-03
 7.000	17.250	3.6593e-03
 7.000	17.500	3.5517e-03
 7.000	17.750	3.4462e-03
 7.000	18.000	3.2720e-03
 7.000	18.250	2.8670e-03
 7.000	18.500	8.3095e-04
 7.000	18.750	7.3498e-05
 7.000	19.000	1.7942e-05
 7.000	19.250	3.2099e-06
 7.000	19.500	1.0000e-07
 7.000	19.750	1.0000e-07
 7.000	20.000	1.0000e-07
 7.000	20.250	1.0000e-07
 7.000	20.500	1.0000e-07
 7.000	20.750	1.0000e-07
 7.000	21.000	1.0000e-07
 7.000	21.250	1.0000e-07
 7.000	21.500	1.0000e-07
 7.000	21.750	1.0000e-07
 7.000	22.000	1.0000e-07
 7.000	22.250	1.0000e-07
 7.000	22.500	1.0000e-07
 7.000	22.750	1.0000e-07
 7.000	23.000	1.0000e-07
 7.000	23.250	1.0000e-07
 7.000	23.500	1.0000e-07
 7.000	23.750	1.0000e-07
 7.000	24.000	1.0000e-07
 7.250	17.000	3.8109e-03
 7.250	17.250	3.7367e-03
 7.250	17.500	3.6485e-03
 7.250	17.750	3.5486e-03
 7.250	18.000	3.4582e-03
 7.250	18.250	3.2913e-03
 7.250	18.500	2.8984e-03
 7.250	18.750	8.2617e-04
 7.250	19.000	7.4486e-05
 7.250	19.250	1.8354e-05
 7.250	19.500	3.2922e-06
 7.250	19.750	1.0000e-07
 7.250	20.000	1.0000e-07
 7.250	20.250	1.0000e-07
 7.250	20.500	1.0000e-07
 7.250	20.750	1.0000e-07
 7.250	21.000	1.0000e-07
 7.250	21.250	1.0000e-07
 7.250	21.500	1.0000e-07
 7.250	21.750	1.0000e-07
 7.250	22.000	1.0000e-07
 7.250	22.250	1.0000e-07
 7.250	22.500	1.0000e-07
 7.250	22.750	1.0000e-07
 7.250	23.000	1.0000e-07
 7.250	23.250	1.0000e-07
 7.250	23.500	1.0000e-07
 7.250	23.750	1.0000e-07
 7.250	24.000	1.0000e-07
 7.500	17.000	3.8541e-03
 7.500	17.250	3.8017e-03
 7.500	17.500	3.7305e-03
 7.500	17.750	3.6479e-03
 7.500	18.000	3.5584e-03
 7.500	18.250	3.4877e-03
 7.500	18.500	3.3356e-03
 7.500	18.750	2.9453e-03
 7.500	19.000	8.2255e-04
 7.500	19.250	7.5638e-05
 7.500	19.500	1.8765e-05
 7.500	19.750	3.3745e-06
 7.500	20.000	1.0000e-07
 7.500	20.250	1.0000e-07
 7.500	20.500	1.0000e-07
 7.500	20.750	1.0000e-07
 7.500	21.000	1.0000e-07
 7.500	21.250	1.0000e-07
 7.500	21.500	1.0000e-07
 7.500	21.750	1.0000e-07
 7.500	22.000	1.0000e-07
 7.500	22.250	1.0000e-07
 7.500	22.500	1.0000e-07
 7.500	22.750	1.0000e-07
 7.500	23.000	1.0000e-07
 7.500	23.250	1.0000e-07
 7.500	23.500	1.0000e-07
 7.500	23.750	1.0000e-07
 7.500	24.000	1.0000e-07
 7.750	17.000	3.8739e-03
 7.750	17.250	3.8543e-03
 7.750	17.500	3.8046e-03
 7.750	17.750	3.7373e-03
 7.750	18.000	3.6612e-03
 7.750	18.250	3.5849e-03
 7.750	18.500	3.5375e-03
 7.750	18.750	3.4063e-03
 7.750	19.000	3.0135e-03
 7.750	19.250	8.1539e-04
 7.750	19.500	7.6872e-05
 7.750	19.750	1.9177e-05
 7.750	20.000	3.4568e-06
 7.750	20.250	1.0000e-07
 7.750	20.500	1.0000e-07
 7.750	20.750	1.0000e-07
 7.750	21.000	1.0000e-07
 7.750	21.250	1.0000e-07
 7.750	21.500	1.0000e-07
 7.750	21.750	1.0000e-07
 7.750	22.000	1.0000e-07
 7.750	22.250	1.0000e-07
 7.750	22.500	1.0000e-07
 7.750	22.750	1.0000e-07
 7.750	23.000	1.0000e-07
 7.750	23.250	1.0000e-07
 7.750	23.500	1.0000e-07
 7.750	23.750	1.0000e-07
 7.750	24.000	1.0000e-07
 8.000	17.000	3.8108e-03
 8.000	17.250	3.8276e-03
 8.000	17.500	3.8195e-03
 8.000	17.750	3.7857e-03
 8.000	18.000	3.7326e-03
 8.000	18.250	3.6713e-03
 8.000	18.500	3.6123e-03
 8.000	18.750	3.5937e-03
 8.000	19.000	3.4877e-03
 8.000	19.250	3.0911e-03
 8.000	19.500	8.0658e-04
 8.000	19.750	7.8107e-05
 8.000	20.000	1.9671e-05
 8.000	20.250	3.5391e-06
 8.000	20.500	1.0000e-07
 8.000	20.750	1.0000e-07
 8.000	21.000	1.0000e-07
 8.000	21.250	1.0000e-07
 8.000	21.500	1.0000e-07
 8.000	21.750	1.0000e-07
 8.000	22.000	1.0000e-07
 8.000	22.250	1.0000e-07
 8.000	22.500	1.0000e-07
 8.000	22.750	1.0000e-07
 8.000	23.000	1.0000e-07
 8.000	23.250	1.0000e-07
 8.000	23.500	1.0000e-07
 8.000	23.750	1.0000e-07
 8.000	24.000	1.0000e-07
 8.250	17.000	3.7857e-03
 8.250	17.250	3.8308e-03
 8.250	17.500	3.8506e-03
 8.250	17.750	3.8466e-03
 8.250	18.000	3.8175e-03
 8.250	18.250	3.7704e-03
 8.250	18.500	3.7213e-03
 8.250	18.750	3.6803e-03
 8.250	19.000	3.6925e-03
 8.250	19.250	3.6210e-03
 8.250	19.500	3.2167e-03
 8.250	19.750	7.9654e-04
 8.250	20.000	7.9342e-05
 8.250	20.250	2.0165e-05
 8.250	20.500	3.7037e-06
 8.250	20.750	1.0000e-07
 8.250	21.000	1.0000e-07
 8.250	21.250	1.0000e-07
 8.250	21.500	1.0000e-07
 8.250	21.750	1.0000e-07
 8.250	22.000	1.0000e-07
 8.250	22.250	1.0000e-07
 8.250	22.500	1.0000e-07
 8.250	22.750	1.0000e-07
 8.250	23.000	1.0000e-07
 8.250	23.250	1.0000e-07
 8.250	23.500	1.0000e-07
 8.250	23.750	1.0000e-07
 8.250	24.000	1.0000e-07
 8.500	17.000	3.7413e-03
 8.500	17.250	3.8171e-03
 8.500	17.500	3.8652e-03
 8.500	17.750	3.8889e-03
 8.500	18.000	3.8901e-03
 8.500	18.250	3.8658e-03
 8.500	18.500	3.8294e-03
 8.500	18.750	3.7982e-03
 8.500	19.000	3.7809e-03
 8.500	19.250	3.8332e-03
 8.500	19.500	3.7988e-03
 8.500	19.750	3.3790e-03
 8.500	20.000	7.8741e-04
 8.500	20.250	8.0576e-05
 8.500	20.500	2.0741e-05
 8.500	20.750	3.7860e-06
 8.500	21.000	1.0000e-07
 8.500	21.250	1.0000e-07
 8.500	21.500	1.0000e-07
 8.500	21.750	1.0000e-07
 8.500	22.000	1.0000e-07
 8.500	22.250	1.0000e-07
 8.500	22.500	1.0000e-07
 8.500	22.750	1.0000e-07
 8.500	23.000	1.0000e-07
 8.500	23.250	1.0000e-07
 8.500	23.500	1.0000e-07
 8.500	23.750	1.0000e-07
 8.500	24.000	1.0000e-07
 8.750	17.000	3.6775e-03
 8.750	17.250	3.7844e-03
 8.750	17.500	3.8626e-03
 8.750	17.750	3.9156e-03
 8.750	18.000	3.9436e-03
 8.750	18.250	3.9502e-03
 8.750	18.500	3.9366e-03
 8.750	18.750	3.9183e-03
 8.750	19.000	3.9103e-03
 8.750	19.250	3.9207e-03
 8.750	19.500	4.0263e-03
 8.750	19.750	4.0321e-03
 8.750	20.000	3.5886e-03
 8.750	20.250	7.7704e-04
 8.750	20.500	8.1646e-05
 8.750	20.750	2.1235e-05
 8.750	21.000	3.9506e-06
 8.750	21.250	1.0000e-07
 8.750	21.500	1.0000e-07
 8.750	21.750	1.0000e-07
 8.750	22.000	1.0000e-07
 8.750	22.250	1.0000e-07
 8.750	22.500	1.0000e-07
 8.750	22.750	1.0000e-07
 8.750	23.000	1.0000e-07
 8.750	23.250	1.0000e-07
 8.750	23.500	1.0000e-07
 8.750	23.750	1.0000e-07
 8.750	24.000	1.0000e-07
 9.000	17.000	3.5915e-03
 9.000	17.250	3.7302e-03
 9.000	17.500	3.8406e-03
 9.000	17.750	3.9232e-03
 9.000	18.000	3.9802e-03
 9.000	18.250	4.0143e-03
 9.000	18.500	4.0341e-03
 9.000	18.750	4.0398e-03
 9.000	19.000	4.0483e-03
 9.000	19.250	4.0756e-03
 9.000	19.500	4.1306e-03
 9.000	19.750	4.3051e-03
 9.000	20.000	4.3338e-03
 9.000	20.250	3.8571e-03
 9.000	20.500	7.6947e-04
 9.000	20.750	8.2716e-05
 9.000	21.000	2.1811e-05
 9.000	21.250	4.0329e-06
 9.000	21.500	1.0000e-07
 9.000	21.750	1.0000e-07
 9.000	22.000	1.0000e-07
 9.000	22.250	1.0000e-07
 9.000	22.500	1.0000e-07
 9.000	22.750	1.0000e-07
 9.000	23.000	1.0000e-07
 9.000	23.250	1.0000e-07
 9.000	23.500	1.0000e-07
 9.000	23.750	1.0000e-07
 9.000	24.000	1.0000e-07
 9.250	17.000	3.4765e-03
 9.250	17.250	3.6522e-03
 9.250	17.500	3.7938e-03
 9.250	17.750	3.9086e-03
 9.250	18.000	3.9955e-03
 9.250	18.250	4.0577e-03
 9.250	18.500	4.1073e-03
 9.250	18.750	4.1477e-03
 9.250	19.000	4.1790e-03
 9.250	19.250	4.2277e-03
 9.250	19.500	4.3007e-03
 9.250	19.750	4.4100e-03
 9.250	20.000	4.6316e-03
 9.250	20.250	4.7315e-03
 9.250	20.500	4.1965e-03
 9.250	20.750	7.6502e-04
 9.250	21.000	8.3621e-05
 9.250	21.250	2.2387e-05
 9.250	21.500	4.1975e-06
 9.250	21.750	1.0000e-07
 9.250	22.000	1.0000e-07
 9.250	22.250	1.0000e-07
 9.250	22.500	1.0000e-07
 9.250	22.750	1.0000e-07
 9.250	23.000	1.0000e-07
 9.250	23.250	1.0000e-07
 9.250	23.500	1.0000e-07
 9.250	23.750	1.0000e-07
 9.250	24.000	1.0000e-07
 9.500	17.000	3.3124e-03
 9.500	17.250	3.5480e-03
 9.500	17.500	3.7273e-03
 9.500	17.750	3.8709e-03
 9.500	18.000	3.9885e-03
 9.500	18.250	4.0818e-03
 9.500	18.500	4.1588e-03
 9.500	18.750	4.2309e-03
 9.500	19.000	4.2982e-03
 9.500	19.250	4.3612e-03
 9.500	19.500	4.4550e-03
 9.500	19.750	4.5728e-03
 9.500	20.000	4.7735e-03
 9.500	20.250	5.0848e-03
 9.500	20.500	5.2501e-03
 9.500	20.750	4.5888e-03
 9.500	21.000	7.7276e-04
 9.500	21.250	8.4198e-05
 9.500	21.500	2.2881e-05
 9.500	21.750	4.2798e-06
 9.500	22.000	1.0000e-07
 9.500	22.250	1.0000e-07
 9.500	22.500	1.0000e-07
 9.500	22.750	1.0000e-07
 9.500	23.000	1.0000e-07
 9.500	23.250	1.0000e-07
 9.500	23.500	1.0000e-07
 9.500	23.750	1.0000e-07
 9.500	24.000	1.0000e-07
 9.750	17.000	3.0601e-03
 9.750	17.250	3.3985e-03
 9.750	17.500	3.6370e-03
 9.750	17.750	3.8164e-03
 9.750	18.000	3.9609e-03
 9.750	18.250	4.0831e-03
 9.750	18.500	4.1899e-03
 9.750	18.750	4.2905e-03
 9.750	19.000	4.3874e-03
 9.750	19.250	4.4854e-03
 9.750	19.500	4.5765e-03
 9.750	19.750	4.7248e-03
 9.750	20.000	4.9388e-03
 9.750	20.250	5.2300e-03
 9.750	20.500	5.6241e-03
 9.750	20.750	5.8102e-03
 9.750	21.000	4.8717e-03
 9.750	21.250	7.8864e-04
 9.750	21.500	8.4938e-05
 9.750	21.750	2.3457e-05
 9.750	22.000	4.4444e-06
 9.750	22.250	1.0000e-07
 9.750	22.500	1.0000e-07
 9.750	22.750	1.0000e-07
 9.750	23.000	1.0000e-07
 9.750	23.250	1.0000e-07
 9.750	23.500	1.0000e-07
 9.750	23.750	1.0000e-07
 9.750	24.000	1.0000e-07
10.000	17.000	2.6716e-03
10.000	17.250	3.1644e-03
10.000	17.500	3.5064e-03
10.000	17.750	3.7420e-03
10.000	18.000	3.9201e-03
10.000	18.250	4.0663e-03
10.000	18.500	4.1970e-03
10.000	18.750	4.3256e-03
10.000	19.000	4.4528e-03
10.000	19.250	4.5742e-03
10.000	19.500	4.6830e-03
10.000	19.750	4.7893e-03
10.000	20.000	5.0258e-03
10.000	20.250	5.3599e-03
10.000	20.500	5.7167e-03
10.000	20.750	6.0637e-03
10.000	21.000	6.2021e-03
10.000	21.250	4.8047e-03
10.000	21.500	8.1745e-04
10.000	21.750	8.5514e-05
10.000	22.000	2.4033e-05
10.000	22.250	4.6091e-06
10.000	22.500	1.0000e-07
10.000	22.750	1.0000e-07
10.000	23.000	1.0000e-07
10.000	23.250	1.0000e-07
10.000	23.500	1.0000e-07
10.000	23.750	1.0000e-07
10.000	24.000	1.0000e-07
10.250	17.000	2.1512e-03
10.250	17.250	2.7677e-03
10.250	17.500	3.2972e-03
10.250	17.750	3.6341e-03
10.250	18.000	3.8630e-03
10.250	18.250	4.0343e-03
10.250	18.500	4.1834e-03
10.250	18.750	4.3343e-03
10.250	19.000	4.4895e-03
10.250	19.250	4.6399e-03
10.250	19.500	4.7807e-03
10.250	19.750	4.9195e-03
10.250	20.000	5.1151e-03
10.250	20.250	5.4241e-03
10.250	20.500	5.7739e-03
10.250	20.750	5.9907e-03
10.250	21.000	6.2784e-03
10.250	21.250	6.3404e-03
10.250	21.500	4.8691e-03
10.250	21.750	8.5457e-04
10.250	22.000	8.6337e-05
10.250	22.250	2.4609e-05
10.250	22.500	4.7737e-06
10.250	22.750	8.2305e-07
10.250	23.000	1.0000e-07
10.250	23.250	1.0000e-07
10.250	23.500	1.0000e-07
10.250	23.750	1.0000e-07
10.250	24.000	1.0000e-07
10.500	17.000	1.6201e-03
10.500	17.250	2.2737e-03
10.500	17.500	2.9262e-03
10.500	17.750	3.4555e-03
10.500	18.000	3.7770e-03
10.500	18.250	3.9842e-03
10.500	18.500	4.1454e-03
10.500	18.750	4.3125e-03
10.500	19.000	4.4970e-03
10.500	19.250	4.6900e-03
10.500	19.500	4.8660e-03
10.500	19.750	5.0270e-03
10.500	20.000	5.2200e-03
10.500	20.250	5.4740e-03
10.500	20.500	5.7594e-03
10.500	20.750	5.7964e-03
10.500	21.000	5.9487e-03
10.500	21.250	6.1495e-03
10.500	21.500	6.1255e-03
10.500	21.750	4.3742e-03
10.500	22.000	8.9605e-04
10.500	22.250	8.7490e-05
10.500	22.500	2.5267e-05
10.500	22.750	4.9383e-06
10.500	23.000	9.0535e-07
10.500	23.250	1.0000e-07
10.500	23.500	1.0000e-07
10.500	23.750	1.0000e-07
10.500	24.000	1.0000e-07
10.750	17.000	1.1542e-03
10.750	17.250	1.7096e-03
10.750	17.500	2.4337e-03
10.750	17.750	3.1342e-03
10.750	18.000	3.6212e-03
10.750	18.250	3.8930e-03
10.750	18.500	4.0774e-03
10.750	18.750	4.2636e-03
10.750	19.000	4.4780e-03
10.750	19.250	4.7128e-03
10.750	19.500	4.9332e-03
10.750	19.750	5.1194e-03
10.750	20.000	5.3132e-03
10.750	20.250	5.5576e-03
10.750	20.500	5.7328e-03
10.750	20.750	5.6457e-03
10.750	21.000	5.5712e-03
10.750	21.250	5.5829e-03
10.750	21.500	5.7895e-03
10.750	21.750	5.5877e-03
10.750	22.000	3.5444e-03
10.750	22.250	9.0881e-04
10.750	22.500	8.8313e-05
10.750	22.750	2.5926e-05
10.750	23.000	5.1852e-06
10.750	23.250	9.0535e-07
10.750	23.500	1.0000e-07
10.750	23.750	1.0000e-07
10.750	24.000	1.0000e-07
11.000	17.000	7.9597e-04
11.000	17.250	1.1877e-03
11.000	17.500	1.8213e-03
11.000	17.750	2.6406e-03
11.000	18.000	3.3131e-03
11.000	18.250	3.7182e-03
11.000	18.500	3.9814e-03
11.000	18.750	4.1926e-03
11.000	19.000	4.4356e-03
11.000	19.250	4.7101e-03
11.000	19.500	4.9784e-03
11.000	19.750	5.2006e-03
11.000	20.000	5.4034e-03
11.000	20.250	5.6500e-03
11.000	20.500	5.8089e-03
11.000	20.750	5.5395e-03
11.000	21.000	5.4786e-03
11.000	21.250	5.0382e-03
11.000	21.500	4.9338e-03
11.000	21.750	4.8551e-03
11.000	22.000	4.6043e-03
11.000	22.250	2.1347e-03
11.000	22.500	9.2626e-04
11.000	22.750	8.9383e-05
11.000	23.000	2.6502e-05
11.000	23.250	5.3498e-06
11.000	23.500	9.8765e-07
11.000	23.750	1.0000e-07
11.000	24.000	1.0000e-07
11.250	17.000	5.4263e-04
11.250	17.250	7.8148e-04
11.250	17.500	1.2199e-03
11.250	17.750	1.9616e-03
11.250	18.000	2.7984e-03
11.250	18.250	3.4036e-03
11.250	18.500	3.7984e-03
11.250	18.750	4.0953e-03
11.250	19.000	4.3721e-03
11.250	19.250	4.6844e-03
11.250	19.500	5.0000e-03
11.250	19.750	5.2688e-03
11.250	20.000	5.4989e-03
11.250	20.250	5.7537e-03
11.250	20.500	5.9830e-03
11.250	20.750	5.7026e-03
11.250	21.000	5.3476e-03
11.250	21.250	4.6337e-03
11.250	21.500	4.2165e-03
11.250	21.750	4.0662e-03
11.250	22.000	3.9798e-03
11.250	22.250	3.1940e-03
11.250	22.500	1.8678e-03
11.250	22.750	8.1259e-04
11.250	23.000	9.0947e-05
11.250	23.250	2.6831e-05
11.250	23.500	5.5967e-06
11.250	23.750	9.8765e-07
11.250	24.000	1.0000e-07
11.500	17.000	3.7128e-04
11.500	17.250	5.0519e-04
11.500	17.500	7.5770e-04
11.500	17.750	1.2719e-03
11.500	18.000	2.0797e-03
11.500	18.250	2.9012e-03
11.500	18.500	3.5024e-03
11.500	18.750	3.9376e-03
11.500	19.000	4.2929e-03
11.500	19.250	4.6385e-03
11.500	19.500	4.9928e-03
11.500	19.750	5.3147e-03
11.500	20.000	5.5872e-03
11.500	20.250	5.8853e-03
11.500	20.500	6.0369e-03
11.500	20.750	5.9683e-03
11.500	21.000	5.2774e-03
11.500	21.250	4.4175e-03
11.500	21.500	3.6721e-03
11.500	21.750	3.3092e-03
11.500	22.000	3.2226e-03
11.500	22.250	3.1241e-03
11.500	22.500	2.1121e-03
11.500	22.750	1.0991e-03
11.500	23.000	6.8486e-04
11.500	23.250	9.3827e-05
11.500	23.500	2.6831e-05
11.500	23.750	5.6790e-06
11.500	24.000	9.8765e-07
11.750	17.000	2.5613e-04
11.750	17.250	3.3078e-04
11.750	17.500	4.6239e-04
11.750	17.750	7.5342e-04
11.750	18.000	1.3356e-03
11.750	18.250	2.2078e-03
11.750	18.500	3.0732e-03
11.750	18.750	3.6976e-03
11.750	19.000	4.1691e-03
11.750	19.250	4.5762e-03
11.750	19.500	4.9662e-03
11.750	19.750	5.3348e-03
11.750	20.000	5.6643e-03
11.750	20.250	6.0118e-03
11.750	20.500	6.2487e-03
11.750	20.750	6.3396e-03
11.750	21.000	5.0799e-03
11.750	21.250	4.2481e-03
11.750	21.500	3.2680e-03
11.750	21.750	2.7049e-03
11.750	22.000	2.4757e-03
11.750	22.250	2.4793e-03
11.750	22.500	2.0263e-03
11.750	22.750	1.2758e-03
11.750	23.000	7.8823e-04
11.750	23.250	4.9572e-04
11.750	23.500	9.8683e-05
11.750	23.750	2.6502e-05
11.750	24.000	5.5967e-06
12.000	17.000	1.7679e-04
12.000	17.250	2.2156e-04
12.000	17.500	2.9086e-04
12.000	17.750	4.4041e-04
12.000	18.000	7.8255e-04
12.000	18.250	1.4685e-03
12.000	18.500	2.4589e-03
12.000	18.750	3.3423e-03
12.000	19.000	3.9835e-03
12.000	19.250	4.4853e-03
12.000	19.500	4.9374e-03
12.000	19.750	5.3570e-03
12.000	20.000	5.7288e-03
12.000	20.250	6.1310e-03
12.000	20.500	6.4641e-03
12.000	20.750	6.4340e-03
12.000	21.000	5.5529e-03
12.000	21.250	4.0301e-03
12.000	21.500	3.1172e-03
12.000	21.750	2.2570e-03
12.000	22.000	1.9798e-03
12.000	22.250	1.7739e-03
12.000	22.500	1.6590e-03
12.000	22.750	1.7102e-03
12.000	23.000	1.2786e-03
12.000	23.250	5.0107e-04
12.000	23.500	3.7934e-04
12.000	23.750	1.0527e-04
12.000	24.000	2.5761e-05
12.250	17.000	1.2165e-04
12.250	17.250	1.5111e-04
12.250	17.500	1.9160e-04
12.250	17.750	2.7004e-04
12.250	18.000	4.5342e-04
12.250	18.250	8.9638e-04
12.250	18.500	1.7593e-03
12.250	18.750	2.8141e-03
12.250	19.000	3.6633e-03
12.250	19.250	4.3269e-03
12.250	19.500	4.9068e-03
12.250	19.750	5.4073e-03
12.250	20.000	5.8149e-03
12.250	20.250	6.2383e-03
12.250	20.500	6.6598e-03
12.250	20.750	6.5488e-03
12.250	21.000	5.5884e-03
12.250	21.250	4.0286e-03
12.250	21.500	2.9724e-03
12.250	21.750	2.0961e-03
12.250	22.000	1.6286e-03
12.250	22.250	1.4839e-03
12.250	22.500	1.4782e-03
12.250	22.750	1.1493e-03
12.250	23.000	9.1934e-04
12.250	23.250	6.0280e-04
12.250	23.500	4.3407e-04
12.250	23.750	3.2683e-04
12.250	24.000	1.0617e-04
12.500	17.000	8.3786e-05
12.500	17.250	1.0444e-04
12.500	17.500	1.3111e-04
12.500	17.750	1.7794e-04
12.500	18.000	2.7934e-04
12.500	18.250	5.3235e-04
12.500	18.500	1.1387e-03
12.500	18.750	2.1396e-03
12.500	19.000	3.2089e-03
12.500	19.250	4.0424e-03
12.500	19.500	4.7365e-03
12.500	19.750	5.4458e-03
12.500	20.000	6.0031e-03
12.500	20.250	6.4548e-03
12.500	20.500	6.9199e-03
12.500	20.750	6.6479e-03
12.500	21.000	5.6188e-03
12.500	21.250	4.6009e-03
12.500	21.500	2.8587e-03
12.500	21.750	1.9602e-03
12.500	22.000	1.5057e-03
12.500	22.250	1.1420e-03
12.500	22.500	1.1873e-03
12.500	22.750	1.1572e-03
12.500	23.000	8.2510e-04
12.500	23.250	5.0733e-04
12.500	23.500	3.3531e-04
12.500	23.750	2.2156e-04
12.500	24.000	2.2230e-04
12.750	17.000	5.7613e-05
12.750	17.250	7.3004e-05
12.750	17.500	9.1440e-05
12.750	17.750	1.2173e-04
12.750	18.000	1.8198e-04
12.750	18.250	3.2239e-04
12.750	18.500	6.7885e-04
12.750	18.750	1.4414e-03
12.750	19.000	2.4734e-03
12.750	19.250	3.5398e-03
12.750	19.500	4.3961e-03
12.750	19.750	5.1578e-03
12.750	20.000	6.0218e-03
12.750	20.250	6.8244e-03
12.750	20.500	7.1440e-03
12.750	20.750	7.3410e-03
12.750	21.000	5.4937e-03
12.750	21.250	5.4358e-03
12.750	21.500	3.6067e-03
12.750	21.750	1.9473e-03
12.750	22.000	1.4247e-03
12.750	22.250	1.0127e-03
12.750	22.500	9.2477e-04
12.750	22.750	9.3547e-04
12.750	23.000	7.5580e-04
12.750	23.250	4.9514e-04
12.750	23.500	3.1704e-04
12.750	23.750	2.3045e-04
12.750	24.000	3.6626e-04
13.000	17.000	3.9588e-05
13.000	17.250	5.1193e-05
13.000	17.500	6.4280e-05
13.000	17.750	8.4444e-05
13.000	18.000	1.2206e-04
13.000	18.250	2.0379e-04
13.000	18.500	4.0551e-04
13.000	18.750	8.7251e-04
13.000	19.000	1.6955e-03
13.000	19.250	2.7783e-03
13.000	19.500	3.8172e-03
13.000	19.750	4.7143e-03
13.000	20.000	5.5850e-03
13.000	20.250	6.4835e-03
13.000	20.500	7.5131e-03
13.000	20.750	7.8796e-03
13.000	21.000	7.0261e-03
13.000	21.250	6.1691e-03
13.000	21.500	4.0485e-03
13.000	21.750	2.0131e-03
13.000	22.000	1.3114e-03
13.000	22.250	1.0182e-03
13.000	22.500	8.8033e-04
13.000	22.750	7.0387e-04
13.000	23.000	6.5514e-04
13.000	23.250	5.2807e-04
13.000	23.500	3.6733e-04
13.000	23.750	2.0329e-04
13.000	24.000	1.3226e-04
13.250	17.000	2.6831e-05
13.250	17.250	3.5720e-05
13.250	17.500	4.5514e-05
13.250	17.750	5.9259e-05
13.250	18.000	8.3786e-05
13.250	18.250	1.3350e-04
13.250	18.500	2.4642e-04
13.250	18.750	5.0198e-04
13.250	19.000	9.9284e-04
13.250	19.250	1.7536e-03
13.250	19.500	2.6957e-03
13.250	19.750	3.7142e-03
13.250	20.000	4.6193e-03
13.250	20.250	5.3202e-03
13.250	20.500	6.4102e-03
13.250	20.750	7.7457e-03
13.250	21.000	7.4944e-03
13.250	21.250	6.6086e-03
13.250	21.500	3.9571e-03
13.250	21.750	3.8137e-03
13.250	22.000	1.3820e-03
13.250	22.250	9.3342e-04
13.250	22.500	1.0139e-03
13.250	22.750	6.0115e-04
13.250	23.000	6.2889e-04
13.250	23.250	6.9202e-04
13.250	23.500	3.3449e-04
13.250	23.750	2.1498e-04
13.250	24.000	1.3605e-04
13.500	17.000	1.7860e-05
13.500	17.250	2.4609e-05
13.500	17.500	3.2099e-05
13.500	17.750	4.2058e-05
13.500	18.000	5.8683e-05
13.500	18.250	9.0453e-05
13.500	18.500	1.5399e-04
13.500	18.750	2.8584e-04
13.500	19.000	5.4033e-04
13.500	19.250	9.4486e-04
13.500	19.500	1.5328e-03
13.500	19.750	2.3009e-03
13.500	20.000	2.9625e-03
13.500	20.250	3.8456e-03
13.500	20.500	4.5526e-03
13.500	20.750	5.6798e-03
13.500	21.000	5.8579e-03
13.500	21.250	6.7419e-03
13.500	21.500	5.9971e-03
13.500	21.750	2.7049e-03
13.500	22.000	2.3442e-03
13.500	22.250	1.3053e-03
13.500	22.500	7.4255e-04
13.500	22.750	8.4593e-04
13.500	23.000	3.6477e-04
13.500	23.250	3.0156e-04
13.500	23.500	2.6403e-04
13.500	23.750	3.0428e-04
13.500	24.000	1.4403e-04
13.750	17.000	1.1770e-05
13.750	17.250	1.6708e-05
13.750	17.500	2.2469e-05
13.750	17.750	2.9794e-05
13.750	18.000	4.1317e-05
13.750	18.250	6.1975e-05
13.750	18.500	9.9259e-05
13.750	18.750	1.6634e-04
13.750	19.000	2.8041e-04
13.750	19.250	4.5852e-04
13.750	19.500	6.9588e-04
13.750	19.750	1.0205e-03
13.750	20.000	1.4655e-03
13.750	20.250	1.8337e-03
13.750	20.500	2.3326e-03
13.750	20.750	3.0039e-03
13.750	21.000	3.5597e-03
13.750	21.250	3.4412e-03
13.750	21.500	3.0061e-03
13.750	21.750	2.8584e-03
13.750	22.000	2.1809e-03
13.750	22.250	1.2747e-03
13.750	22.500	8.5070e-04
13.750	22.750	4.8782e-04
13.750	23.000	4.6724e-04
13.750	23.250	2.8831e-04
13.750	23.500	2.1720e-04
13.750	23.750	2.1556e-04
13.750	24.000	1.6099e-04
14.000	17.000	7.5720e-06
14.000	17.250	1.1111e-05
14.000	17.500	1.5473e-05
14.000	17.750	2.0905e-05
14.000	18.000	2.8971e-05
14.000	18.250	4.2222e-05
14.000	18.500	6.3704e-05
14.000	18.750	9.7778e-05
14.000	19.000	1.4700e-04
14.000	19.250	2.1506e-04
14.000	19.500	3.0091e-04
14.000	19.750	4.0469e-04
14.000	20.000	5.3712e-04
14.000	20.250	7.1844e-04
14.000	20.500	8.9366e-04
14.000	20.750	1.0866e-03
14.000	21.000	1.3679e-03
14.000	21.250	1.6987e-03
14.000	21.500	1.7199e-03
14.000	21.750	1.8241e-03
14.000	22.000	1.7336e-03
14.000	22.250	1.3991e-03
14.000	22.500	9.0650e-04
14.000	22.750	5.8584e-04
14.000	23.000	4.0642e-04
14.000	23.250	2.6387e-04
14.000	23.500	1.9004e-04
14.000	23.750	1.7004e-04
14.000	24.000	1.5358e-04
