InwC 1.05000m  relative to Inci 1215.00A scaled to 1215A.
Hden   Phi(H)  Eq_Width (A)
 7.000	17.000	1.7365e-02
 7.000	17.250	2.5181e-02
 7.000	17.500	3.5495e-02
 7.000	17.750	4.5235e-02
 7.000	18.000	5.3940e-02
 7.000	18.250	5.5425e-02
 7.000	18.500	5.6036e-02
 7.000	18.750	5.5987e-02
 7.000	19.000	5.5930e-02
 7.000	19.250	5.5921e-02
 7.000	19.500	5.5907e-02
 7.000	19.750	5.5907e-02
 7.000	20.000	5.5908e-02
 7.000	20.250	5.5908e-02
 7.000	20.500	5.5908e-02
 7.000	20.750	5.5908e-02
 7.000	21.000	5.5908e-02
 7.000	21.250	5.5908e-02
 7.000	21.500	5.5908e-02
 7.000	21.750	5.5908e-02
 7.000	22.000	5.5908e-02
 7.000	22.250	5.5908e-02
 7.000	22.500	5.5908e-02
 7.000	22.750	5.5908e-02
 7.000	23.000	5.5908e-02
 7.000	23.250	5.5908e-02
 7.000	23.500	5.5908e-02
 7.000	23.750	5.5908e-02
 7.000	24.000	5.5909e-02
 7.250	17.000	1.2015e-02
 7.250	17.250	1.7840e-02
 7.250	17.500	2.5957e-02
 7.250	17.750	3.6487e-02
 7.250	18.000	4.5967e-02
 7.250	18.250	5.3948e-02
 7.250	18.500	5.5433e-02
 7.250	18.750	5.6035e-02
 7.250	19.000	5.5988e-02
 7.250	19.250	5.5930e-02
 7.250	19.500	5.5921e-02
 7.250	19.750	5.5906e-02
 7.250	20.000	5.5907e-02
 7.250	20.250	5.5907e-02
 7.250	20.500	5.5908e-02
 7.250	20.750	5.5908e-02
 7.250	21.000	5.5908e-02
 7.250	21.250	5.5908e-02
 7.250	21.500	5.5908e-02
 7.250	21.750	5.5908e-02
 7.250	22.000	5.5908e-02
 7.250	22.250	5.5908e-02
 7.250	22.500	5.5908e-02
 7.250	22.750	5.5908e-02
 7.250	23.000	5.5908e-02
 7.250	23.250	5.5908e-02
 7.250	23.500	5.5908e-02
 7.250	23.750	5.5908e-02
 7.250	24.000	5.5908e-02
 7.500	17.000	8.2718e-03
 7.500	17.250	1.2401e-02
 7.500	17.500	1.8602e-02
 7.500	17.750	2.7142e-02
 7.500	18.000	3.7949e-02
 7.500	18.250	4.6763e-02
 7.500	18.500	5.3953e-02
 7.500	18.750	5.5446e-02
 7.500	19.000	5.6035e-02
 7.500	19.250	5.5987e-02
 7.500	19.500	5.5930e-02
 7.500	19.750	5.5921e-02
 7.500	20.000	5.5906e-02
 7.500	20.250	5.5907e-02
 7.500	20.500	5.5908e-02
 7.500	20.750	5.5908e-02
 7.500	21.000	5.5908e-02
 7.500	21.250	5.5908e-02
 7.500	21.500	5.5908e-02
 7.500	21.750	5.5908e-02
 7.500	22.000	5.5908e-02
 7.500	22.250	5.5908e-02
 7.500	22.500	5.5908e-02
 7.500	22.750	5.5908e-02
 7.500	23.000	5.5908e-02
 7.500	23.250	5.5908e-02
 7.500	23.500	5.5908e-02
 7.500	23.750	5.5908e-02
 7.500	24.000	5.5912e-02
 7.750	17.000	5.7537e-03
 7.750	17.250	8.5739e-03
 7.750	17.500	1.3038e-02
 7.750	17.750	1.9836e-02
 7.750	18.000	2.8957e-02
 7.750	18.250	3.9957e-02
 7.750	18.500	4.7735e-02
 7.750	18.750	5.3959e-02
 7.750	19.000	5.5458e-02
 7.750	19.250	5.6036e-02
 7.750	19.500	5.5987e-02
 7.750	19.750	5.5929e-02
 7.750	20.000	5.5922e-02
 7.750	20.250	5.5907e-02
 7.750	20.500	5.5907e-02
 7.750	20.750	5.5907e-02
 7.750	21.000	5.5908e-02
 7.750	21.250	5.5908e-02
 7.750	21.500	5.5908e-02
 7.750	21.750	5.5908e-02
 7.750	22.000	5.5908e-02
 7.750	22.250	5.5908e-02
 7.750	22.500	5.5908e-02
 7.750	22.750	5.5908e-02
 7.750	23.000	5.5908e-02
 7.750	23.250	5.5908e-02
 7.750	23.500	5.5908e-02
 7.750	23.750	5.5908e-02
 7.750	24.000	5.5908e-02
 8.000	17.000	4.0691e-03
 8.000	17.250	5.9626e-03
 8.000	17.500	9.0532e-03
 8.000	17.750	1.4114e-02
 8.000	18.000	2.1816e-02
 8.000	18.250	3.1700e-02
 8.000	18.500	4.1996e-02
 8.000	18.750	4.8613e-02
 8.000	19.000	5.3960e-02
 8.000	19.250	5.5465e-02
 8.000	19.500	5.6035e-02
 8.000	19.750	5.5988e-02
 8.000	20.000	5.5929e-02
 8.000	20.250	5.5922e-02
 8.000	20.500	5.5907e-02
 8.000	20.750	5.5907e-02
 8.000	21.000	5.5907e-02
 8.000	21.250	5.5907e-02
 8.000	21.500	5.5908e-02
 8.000	21.750	5.5908e-02
 8.000	22.000	5.5908e-02
 8.000	22.250	5.5908e-02
 8.000	22.500	5.5908e-02
 8.000	22.750	5.5908e-02
 8.000	23.000	5.5908e-02
 8.000	23.250	5.5908e-02
 8.000	23.500	5.5908e-02
 8.000	23.750	5.5908e-02
 8.000	24.000	5.5908e-02
 8.250	17.000	2.9269e-03
 8.250	17.250	4.2339e-03
 8.250	17.500	6.3505e-03
 8.250	17.750	9.9621e-03
 8.250	18.000	1.6054e-02
 8.250	18.250	2.4998e-02
 8.250	18.500	3.5079e-02
 8.250	18.750	4.4497e-02
 8.250	19.000	4.9641e-02
 8.250	19.250	5.3964e-02
 8.250	19.500	5.5481e-02
 8.250	19.750	5.6035e-02
 8.250	20.000	5.5989e-02
 8.250	20.250	5.5930e-02
 8.250	20.500	5.5920e-02
 8.250	20.750	5.5906e-02
 8.250	21.000	5.5907e-02
 8.250	21.250	5.5908e-02
 8.250	21.500	5.5908e-02
 8.250	21.750	5.5908e-02
 8.250	22.000	5.5908e-02
 8.250	22.250	5.5908e-02
 8.250	22.500	5.5908e-02
 8.250	22.750	5.5908e-02
 8.250	23.000	5.5908e-02
 8.250	23.250	5.5908e-02
 8.250	23.500	5.5908e-02
 8.250	23.750	5.5908e-02
 8.250	24.000	5.5908e-02
 8.500	17.000	2.1236e-03
 8.500	17.250	3.0498e-03
 8.500	17.500	4.5228e-03
 8.500	17.750	7.0607e-03
 8.500	18.000	1.1611e-02
 8.500	18.250	1.9131e-02
 8.500	18.500	2.8656e-02
 8.500	18.750	3.8254e-02
 8.500	19.000	4.6341e-02
 8.500	19.250	5.0409e-02
 8.500	19.500	5.3958e-02
 8.500	19.750	5.5500e-02
 8.500	20.000	5.6035e-02
 8.500	20.250	5.5987e-02
 8.500	20.500	5.5930e-02
 8.500	20.750	5.5920e-02
 8.500	21.000	5.5907e-02
 8.500	21.250	5.5907e-02
 8.500	21.500	5.5908e-02
 8.500	21.750	5.5908e-02
 8.500	22.000	5.5907e-02
 8.500	22.250	5.5908e-02
 8.500	22.500	5.5908e-02
 8.500	22.750	5.5908e-02
 8.500	23.000	5.5908e-02
 8.500	23.250	5.5908e-02
 8.500	23.500	5.5908e-02
 8.500	23.750	5.5908e-02
 8.500	24.000	5.5908e-02
 8.750	17.000	1.5417e-03
 8.750	17.250	2.2146e-03
 8.750	17.500	3.2621e-03
 8.750	17.750	5.0543e-03
 8.750	18.000	8.3314e-03
 8.750	18.250	1.4199e-02
 8.750	18.500	2.2586e-02
 8.750	18.750	3.2025e-02
 8.750	19.000	4.1174e-02
 8.750	19.250	4.7132e-02
 8.750	19.500	5.1231e-02
 8.750	19.750	5.3944e-02
 8.750	20.000	5.5522e-02
 8.750	20.250	5.6034e-02
 8.750	20.500	5.5986e-02
 8.750	20.750	5.5930e-02
 8.750	21.000	5.5921e-02
 8.750	21.250	5.5906e-02
 8.750	21.500	5.5907e-02
 8.750	21.750	5.5907e-02
 8.750	22.000	5.5908e-02
 8.750	22.250	5.5908e-02
 8.750	22.500	5.5908e-02
 8.750	22.750	5.5908e-02
 8.750	23.000	5.5908e-02
 8.750	23.250	5.5908e-02
 8.750	23.500	5.5908e-02
 8.750	23.750	5.5908e-02
 8.750	24.000	5.5908e-02
 9.000	17.000	1.1173e-03
 9.000	17.250	1.6093e-03
 9.000	17.500	2.3713e-03
 9.000	17.750	3.6630e-03
 9.000	18.000	6.0575e-03
 9.000	18.250	1.0439e-02
 9.000	18.500	1.7266e-02
 9.000	18.750	2.5747e-02
 9.000	19.000	3.5028e-02
 9.000	19.250	4.3856e-02
 9.000	19.500	4.8153e-02
 9.000	19.750	5.1867e-02
 9.000	20.000	5.3905e-02
 9.000	20.250	5.5547e-02
 9.000	20.500	5.6034e-02
 9.000	20.750	5.5986e-02
 9.000	21.000	5.5928e-02
 9.000	21.250	5.5921e-02
 9.000	21.500	5.5906e-02
 9.000	21.750	5.5907e-02
 9.000	22.000	5.5907e-02
 9.000	22.250	5.5908e-02
 9.000	22.500	5.5908e-02
 9.000	22.750	5.5908e-02
 9.000	23.000	5.5908e-02
 9.000	23.250	5.5908e-02
 9.000	23.500	5.5908e-02
 9.000	23.750	5.5908e-02
 9.000	24.000	5.5908e-02
 9.250	17.000	8.0642e-04
 9.250	17.250	1.1672e-03
 9.250	17.500	1.7261e-03
 9.250	17.750	2.6730e-03
 9.250	18.000	4.4714e-03
 9.250	18.250	7.7577e-03
 9.250	18.500	1.2931e-02
 9.250	18.750	1.9914e-02
 9.250	19.000	2.8268e-02
 9.250	19.250	3.7049e-02
 9.250	19.500	4.4838e-02
 9.250	19.750	4.8860e-02
 9.250	20.000	5.2561e-02
 9.250	20.250	5.3843e-02
 9.250	20.500	5.5572e-02
 9.250	20.750	5.6033e-02
 9.250	21.000	5.5984e-02
 9.250	21.250	5.5929e-02
 9.250	21.500	5.5921e-02
 9.250	21.750	5.5897e-02
 9.250	22.000	5.5856e-02
 9.250	22.250	5.5898e-02
 9.250	22.500	5.5907e-02
 9.250	22.750	5.5908e-02
 9.250	23.000	5.5908e-02
 9.250	23.250	5.5908e-02
 9.250	23.500	5.5908e-02
 9.250	23.750	5.5908e-02
 9.250	24.000	5.5908e-02
 9.500	17.000	5.7984e-04
 9.500	17.250	8.4370e-04
 9.500	17.500	1.2570e-03
 9.500	17.750	1.9595e-03
 9.500	18.000	3.3226e-03
 9.500	18.250	5.8435e-03
 9.500	18.500	9.7612e-03
 9.500	18.750	1.5044e-02
 9.500	19.000	2.1856e-02
 9.500	19.250	3.0169e-02
 9.500	19.500	3.8855e-02
 9.500	19.750	4.5624e-02
 9.500	20.000	4.9698e-02
 9.500	20.250	5.2477e-02
 9.500	20.500	5.3775e-02
 9.500	20.750	5.5595e-02
 9.500	21.000	5.6027e-02
 9.500	21.250	5.5977e-02
 9.500	21.500	5.5904e-02
 9.500	21.750	5.5855e-02
 9.500	22.000	5.5783e-02
 9.500	22.250	5.5746e-02
 9.500	22.500	5.5723e-02
 9.500	22.750	5.5707e-02
 9.500	23.000	5.5695e-02
 9.500	23.250	5.5690e-02
 9.500	23.500	5.5779e-02
 9.500	23.750	5.5778e-02
 9.500	24.000	5.5778e-02
 9.750	17.000	4.1572e-04
 9.750	17.250	6.0823e-04
 9.750	17.500	9.1119e-04
 9.750	17.750	1.4389e-03
 9.750	18.000	2.4746e-03
 9.750	18.250	4.4055e-03
 9.750	18.500	7.3868e-03
 9.750	18.750	1.1336e-02
 9.750	19.000	1.6486e-02
 9.750	19.250	2.3261e-02
 9.750	19.500	3.1528e-02
 9.750	19.750	4.1107e-02
 9.750	20.000	4.6490e-02
 9.750	20.250	5.0270e-02
 9.750	20.500	5.2329e-02
 9.750	20.750	5.3725e-02
 9.750	21.000	5.5615e-02
 9.750	21.250	5.6023e-02
 9.750	21.500	5.5981e-02
 9.750	21.750	5.5920e-02
 9.750	22.000	5.5856e-02
 9.750	22.250	5.5791e-02
 9.750	22.500	5.5762e-02
 9.750	22.750	5.5747e-02
 9.750	23.000	5.5736e-02
 9.750	23.250	5.5727e-02
 9.750	23.500	5.5723e-02
 9.750	23.750	5.5719e-02
 9.750	24.000	5.5717e-02
10.000	17.000	2.9712e-04
10.000	17.250	4.3621e-04
10.000	17.500	6.5860e-04
10.000	17.750	1.0527e-03
10.000	18.000	1.8279e-03
10.000	18.250	3.2879e-03
10.000	18.500	5.5352e-03
10.000	18.750	8.4660e-03
10.000	19.000	1.2296e-02
10.000	19.250	1.7446e-02
10.000	19.500	2.4223e-02
10.000	19.750	3.3400e-02
10.000	20.000	4.1617e-02
10.000	20.250	4.7175e-02
10.000	20.500	5.0880e-02
10.000	20.750	5.2188e-02
10.000	21.000	5.3687e-02
10.000	21.250	5.5645e-02
10.000	21.500	5.6018e-02
10.000	21.750	5.5980e-02
10.000	22.000	5.5924e-02
10.000	22.250	5.5877e-02
10.000	22.500	5.5795e-02
10.000	22.750	5.5771e-02
10.000	23.000	5.5762e-02
10.000	23.250	5.5755e-02
10.000	23.500	5.5749e-02
10.000	23.750	5.5747e-02
10.000	24.000	5.5745e-02
10.250	17.000	2.1284e-04
10.250	17.250	3.1202e-04
10.250	17.500	4.7317e-04
10.250	17.750	7.6724e-04
10.250	18.000	1.3572e-03
10.250	18.250	2.4313e-03
10.250	18.500	4.0804e-03
10.250	18.750	6.2334e-03
10.250	19.000	9.0803e-03
10.250	19.250	1.2913e-02
10.250	19.500	1.8150e-02
10.250	19.750	2.5247e-02
10.250	20.000	3.4362e-02
10.250	20.250	4.2021e-02
10.250	20.500	4.7779e-02
10.250	20.750	5.0873e-02
10.250	21.000	5.2070e-02
10.250	21.250	5.3678e-02
10.250	21.500	5.5679e-02
10.250	21.750	5.6003e-02
10.250	22.000	5.5978e-02
10.250	22.250	5.5923e-02
10.250	22.500	5.5905e-02
10.250	22.750	5.5803e-02
10.250	23.000	5.5776e-02
10.250	23.250	5.5771e-02
10.250	23.500	5.5767e-02
10.250	23.750	5.5763e-02
10.250	24.000	5.5763e-02
10.500	17.000	1.5292e-04
10.500	17.250	2.2321e-04
10.500	17.500	3.3893e-04
10.500	17.750	5.5457e-04
10.500	18.000	9.9218e-04
10.500	18.250	1.7790e-03
10.500	18.500	2.9599e-03
10.500	18.750	4.5114e-03
10.500	19.000	6.5733e-03
10.500	19.250	9.4135e-03
10.500	19.500	1.3322e-02
10.500	19.750	1.8706e-02
10.500	20.000	2.5927e-02
10.500	20.250	3.4932e-02
10.500	20.500	4.2537e-02
10.500	20.750	4.8398e-02
10.500	21.000	5.0671e-02
10.500	21.250	5.1945e-02
10.500	21.500	5.3818e-02
10.500	21.750	5.5648e-02
10.500	22.000	5.5975e-02
10.500	22.250	5.5969e-02
10.500	22.500	5.5920e-02
10.500	22.750	5.5913e-02
10.500	23.000	5.5859e-02
10.500	23.250	5.5783e-02
10.500	23.500	5.5775e-02
10.500	23.750	5.5774e-02
10.500	24.000	5.5772e-02
10.750	17.000	1.1021e-04
10.750	17.250	1.6000e-04
10.750	17.500	2.4255e-04
10.750	17.750	3.9860e-04
10.750	18.000	7.1753e-04
10.750	18.250	1.2891e-03
10.750	18.500	2.1208e-03
10.750	18.750	3.2182e-03
10.750	19.000	4.7249e-03
10.750	19.250	6.8178e-03
10.750	19.500	9.6909e-03
10.750	19.750	1.3687e-02
10.750	20.000	1.9116e-02
10.750	20.250	2.6366e-02
10.750	20.500	3.5327e-02
10.750	20.750	4.2947e-02
10.750	21.000	4.8688e-02
10.750	21.250	5.0391e-02
10.750	21.500	5.1991e-02
10.750	21.750	5.3974e-02
10.750	22.000	5.5572e-02
10.750	22.250	5.5934e-02
10.750	22.500	5.5957e-02
10.750	22.750	5.5915e-02
10.750	23.000	5.5915e-02
10.750	23.250	5.5890e-02
10.750	23.500	5.5827e-02
10.750	23.750	5.5786e-02
10.750	24.000	5.5777e-02
11.000	17.000	7.9259e-05
11.000	17.250	1.1481e-04
11.000	17.500	1.7333e-04
11.000	17.750	2.8444e-04
11.000	18.000	5.0840e-04
11.000	18.250	9.0469e-04
11.000	18.500	1.4743e-03
11.000	18.750	2.2443e-03
11.000	19.000	3.3274e-03
11.000	19.250	4.8595e-03
11.000	19.500	6.9930e-03
11.000	19.750	9.9123e-03
11.000	20.000	1.3915e-02
11.000	20.250	1.9353e-02
11.000	20.500	2.6566e-02
11.000	20.750	3.5403e-02
11.000	21.000	4.3064e-02
11.000	21.250	4.8473e-02
11.000	21.500	5.0351e-02
11.000	21.750	5.1939e-02
11.000	22.000	5.4140e-02
11.000	22.250	5.5446e-02
11.000	22.500	5.5873e-02
11.000	22.750	5.5940e-02
11.000	23.000	5.5907e-02
11.000	23.250	5.5913e-02
11.000	23.500	5.5899e-02
11.000	23.750	5.5881e-02
11.000	24.000	5.5833e-02
11.250	17.000	5.7778e-05
11.250	17.250	8.2058e-05
11.250	17.500	1.2379e-04
11.250	17.750	2.0140e-04
11.250	18.000	3.5646e-04
11.250	18.250	6.2148e-04
11.250	18.500	9.9358e-04
11.250	18.750	1.5587e-03
11.250	19.000	2.3271e-03
11.250	19.250	3.4234e-03
11.250	19.500	4.9670e-03
11.250	19.750	7.1086e-03
11.250	20.000	1.0049e-02
11.250	20.250	1.4057e-02
11.250	20.500	1.9432e-02
11.250	20.750	2.6411e-02
11.250	21.000	3.4989e-02
11.250	21.250	4.2686e-02
11.250	21.500	4.8133e-02
11.250	21.750	4.9951e-02
11.250	22.000	5.1809e-02
11.250	22.250	5.4144e-02
11.250	22.500	5.5232e-02
11.250	22.750	5.5785e-02
11.250	23.000	5.5913e-02
11.250	23.250	5.5894e-02
11.250	23.500	5.5909e-02
11.250	23.750	5.5901e-02
11.250	24.000	5.5897e-02
11.500	17.000	4.3128e-05
11.500	17.250	5.9506e-05
11.500	17.500	8.7737e-05
11.500	17.750	1.4123e-04
11.500	18.000	2.4584e-04
11.500	18.250	4.1951e-04
11.500	18.500	6.7292e-04
11.500	18.750	1.0551e-03
11.500	19.000	1.6070e-03
11.500	19.250	2.3862e-03
11.500	19.500	3.4966e-03
11.500	19.750	5.0480e-03
11.500	20.000	7.2002e-03
11.500	20.250	1.0124e-02
11.500	20.500	1.4062e-02
11.500	20.750	1.9204e-02
11.500	21.000	2.5716e-02
11.500	21.250	3.3860e-02
11.500	21.500	4.2213e-02
11.500	21.750	4.7082e-02
11.500	22.000	4.9347e-02
11.500	22.250	5.1507e-02
11.500	22.500	5.3856e-02
11.500	22.750	5.4928e-02
11.500	23.000	5.5659e-02
11.500	23.250	5.5872e-02
11.500	23.500	5.5872e-02
11.500	23.750	5.5903e-02
11.500	24.000	5.5900e-02
11.750	17.000	3.0206e-05
11.750	17.250	4.4280e-05
11.750	17.500	6.3128e-05
11.750	17.750	9.8436e-05
11.750	18.000	1.6700e-04
11.750	18.250	2.8000e-04
11.750	18.500	4.5004e-04
11.750	18.750	7.1391e-04
11.750	19.000	1.0925e-03
11.750	19.250	1.6467e-03
11.750	19.500	2.4335e-03
11.750	19.750	3.5471e-03
11.750	20.000	5.1080e-03
11.750	20.250	7.2461e-03
11.750	20.500	1.0127e-02
11.750	20.750	1.3859e-02
11.750	21.000	1.8548e-02
11.750	21.250	2.4324e-02
11.750	21.500	3.2502e-02
11.750	21.750	4.0634e-02
11.750	22.000	4.5569e-02
11.750	22.250	4.8388e-02
11.750	22.500	5.0907e-02
11.750	22.750	5.3274e-02
11.750	23.000	5.4493e-02
11.750	23.250	5.5468e-02
11.750	23.500	5.5818e-02
11.750	23.750	5.5839e-02
11.750	24.000	5.5893e-02
12.000	17.000	1.4897e-05
12.000	17.250	3.2510e-05
12.000	17.500	4.6667e-05
12.000	17.750	6.9383e-05
12.000	18.000	1.1292e-04
12.000	18.250	1.8650e-04
12.000	18.500	3.0370e-04
12.000	18.750	4.8049e-04
12.000	19.000	7.4189e-04
12.000	19.250	1.1185e-03
12.000	19.500	1.6704e-03
12.000	19.750	2.4645e-03
12.000	20.000	3.5795e-03
12.000	20.250	5.1352e-03
12.000	20.500	7.2276e-03
12.000	20.750	9.9636e-03
12.000	21.000	1.3340e-02
12.000	21.250	1.7307e-02
12.000	21.500	2.2807e-02
12.000	21.750	3.0090e-02
12.000	22.000	3.8027e-02
12.000	22.250	4.3425e-02
12.000	22.500	4.6874e-02
12.000	22.750	4.9947e-02
12.000	23.000	5.2369e-02
12.000	23.250	5.3853e-02
12.000	23.500	5.5176e-02
12.000	23.750	5.5732e-02
12.000	24.000	5.5790e-02
12.250	17.000	7.0782e-06
12.250	17.250	1.6872e-05
12.250	17.500	3.4979e-05
12.250	17.750	5.0782e-05
12.250	18.000	7.8107e-05
12.250	18.250	1.2650e-04
12.250	18.500	2.0461e-04
12.250	18.750	3.2066e-04
12.250	19.000	4.9580e-04
12.250	19.250	7.5407e-04
12.250	19.500	1.1366e-03
12.250	19.750	1.6923e-03
12.250	20.000	2.4859e-03
12.250	20.250	3.5981e-03
12.250	20.500	5.1193e-03
12.250	20.750	7.1026e-03
12.250	21.000	9.5826e-03
12.250	21.250	1.2379e-02
12.250	21.500	1.5990e-02
12.250	21.750	2.0293e-02
12.250	22.000	2.6929e-02
12.250	22.250	3.4594e-02
12.250	22.500	4.0541e-02
12.250	22.750	4.4644e-02
12.250	23.000	4.8285e-02
12.250	23.250	5.1033e-02
12.250	23.500	5.2917e-02
12.250	23.750	5.4733e-02
12.250	24.000	5.5600e-02
12.500	17.000	3.6214e-06
12.500	17.250	7.8189e-06
12.500	17.500	1.8436e-05
12.500	17.750	3.8107e-05
12.500	18.000	5.7037e-05
12.500	18.250	8.8148e-05
12.500	18.500	1.3753e-04
12.500	18.750	2.1374e-04
12.500	19.000	3.3053e-04
12.500	19.250	5.0576e-04
12.500	19.500	7.6560e-04
12.500	19.750	1.1478e-03
12.500	20.000	1.7047e-03
12.500	20.250	2.4951e-03
12.500	20.500	3.5849e-03
12.500	20.750	5.0340e-03
12.500	21.000	6.8414e-03
12.500	21.250	8.8774e-03
12.500	21.500	1.1363e-02
12.500	21.750	1.3778e-02
12.500	22.000	1.7255e-02
12.500	22.250	2.3363e-02
12.500	22.500	3.0955e-02
12.500	22.750	3.6676e-02
12.500	23.000	4.1450e-02
12.500	23.250	4.5821e-02
12.500	23.500	4.9118e-02
12.500	23.750	5.1549e-02
12.500	24.000	5.4067e-02
12.750	17.000	1.8107e-06
12.750	17.250	3.8683e-06
12.750	17.500	8.4774e-06
12.750	17.750	1.8519e-05
12.750	18.000	3.8189e-05
12.750	18.250	6.1975e-05
12.750	18.500	9.3169e-05
12.750	18.750	1.4189e-04
12.750	19.000	2.1860e-04
12.750	19.250	3.3572e-04
12.750	19.500	5.1136e-04
12.750	19.750	7.7358e-04
12.750	20.000	1.1579e-03
12.750	20.250	1.7108e-03
12.750	20.500	2.4825e-03
12.750	20.750	3.5296e-03
12.750	21.000	4.8537e-03
12.750	21.250	6.3533e-03
12.750	21.500	8.1390e-03
12.750	21.750	9.5564e-03
12.750	22.000	1.1146e-02
12.750	22.250	1.4146e-02
12.750	22.500	1.9800e-02
12.750	22.750	2.6250e-02
12.750	23.000	3.1755e-02
12.750	23.250	3.7313e-02
12.750	23.500	4.2510e-02
12.750	23.750	4.6448e-02
12.750	24.000	4.9575e-02
13.000	17.000	1.0000e-07
13.000	17.250	1.1523e-06
13.000	17.500	3.2099e-06
13.000	17.750	7.6543e-06
13.000	18.000	1.6626e-05
13.000	18.250	3.3333e-05
13.000	18.500	5.7366e-05
13.000	18.750	9.0700e-05
13.000	19.000	1.4313e-04
13.000	19.250	2.2082e-04
13.000	19.500	3.3926e-04
13.000	19.750	5.1572e-04
13.000	20.000	7.7786e-04
13.000	20.250	1.1584e-03
13.000	20.500	1.7033e-03
13.000	20.750	2.4500e-03
13.000	21.000	3.4102e-03
13.000	21.250	4.5193e-03
13.000	21.500	5.8328e-03
13.000	21.750	6.7273e-03
13.000	22.000	7.3513e-03
13.000	22.250	8.5725e-03
13.000	22.500	1.1453e-02
13.000	22.750	1.6012e-02
13.000	23.000	2.1114e-02
13.000	23.250	2.6473e-02
13.000	23.500	3.2535e-02
13.000	23.750	3.8315e-02
13.000	24.000	4.2871e-02
13.250	17.000	1.0000e-07
13.250	17.250	1.0000e-07
13.250	17.500	1.3169e-06
13.250	17.750	3.0453e-06
13.250	18.000	7.4897e-06
13.250	18.250	1.6708e-05
13.250	18.500	3.4403e-05
13.250	18.750	5.9506e-05
13.250	19.000	9.4156e-05
13.250	19.250	1.4609e-04
13.250	19.500	2.2008e-04
13.250	19.750	3.4107e-04
13.250	20.000	5.1728e-04
13.250	20.250	7.7728e-04
13.250	20.500	1.1533e-03
13.250	20.750	1.6799e-03
13.250	21.000	2.3723e-03
13.250	21.250	3.1848e-03
13.250	21.500	4.1615e-03
13.250	21.750	4.7723e-03
13.250	22.000	4.9435e-03
13.250	22.250	5.2781e-03
13.250	22.500	6.5533e-03
13.250	22.750	8.9743e-03
13.250	23.000	1.2409e-02
13.250	23.250	1.6513e-02
13.250	23.500	2.1519e-02
13.250	23.750	2.7338e-02
13.250	24.000	3.3330e-02
13.500	17.000	1.0000e-07
13.500	17.250	1.0000e-07
13.500	17.500	1.0000e-07
13.500	17.750	1.5638e-06
13.500	18.000	3.7860e-06
13.500	18.250	8.3951e-06
13.500	18.500	1.7449e-05
13.500	18.750	3.4815e-05
13.500	19.000	6.2305e-05
13.500	19.250	9.6872e-05
13.500	19.500	1.4626e-04
13.500	19.750	2.2379e-04
13.500	20.000	3.4091e-04
13.500	20.250	5.1613e-04
13.500	20.500	7.7292e-04
13.500	20.750	1.1380e-03
13.500	21.000	1.6291e-03
13.500	21.250	2.2240e-03
13.500	21.500	2.9391e-03
13.500	21.750	3.3824e-03
13.500	22.000	3.3733e-03
13.500	22.250	3.3081e-03
13.500	22.500	3.8237e-03
13.500	22.750	5.0985e-03
13.500	23.000	7.0071e-03
13.500	23.250	9.6163e-03
13.500	23.500	1.2941e-02
13.500	23.750	1.6883e-02
13.500	24.000	2.2109e-02
13.750	17.000	1.0000e-07
13.750	17.250	1.0000e-07
13.750	17.500	1.0000e-07
13.750	17.750	8.2305e-07
13.750	18.000	1.9753e-06
13.750	18.250	4.4444e-06
13.750	18.500	9.1358e-06
13.750	18.750	1.8436e-05
13.750	19.000	3.5967e-05
13.750	19.250	6.6337e-05
13.750	19.500	9.8272e-05
13.750	19.750	1.4683e-04
13.750	20.000	2.2379e-04
13.750	20.250	3.3992e-04
13.750	20.500	5.1276e-04
13.750	20.750	7.6222e-04
13.750	21.000	1.1052e-03
13.750	21.250	1.5320e-03
13.750	21.500	2.0560e-03
13.750	21.750	2.3829e-03
13.750	22.000	2.3305e-03
13.750	22.250	2.1174e-03
13.750	22.500	2.2671e-03
13.750	22.750	2.9467e-03
13.750	23.000	4.0078e-03
13.750	23.250	5.4630e-03
13.750	23.500	7.4205e-03
13.750	23.750	9.7527e-03
13.750	24.000	1.2944e-02
14.000	17.000	1.0000e-07
14.000	17.250	1.0000e-07
14.000	17.500	1.0000e-07
14.000	17.750	1.0000e-07
14.000	18.000	1.0700e-06
14.000	18.250	2.3045e-06
14.000	18.500	4.8560e-06
14.000	18.750	9.7119e-06
14.000	19.000	1.9259e-05
14.000	19.250	4.1646e-05
14.000	19.500	6.6008e-05
14.000	19.750	9.8601e-05
14.000	20.000	1.4733e-04
14.000	20.250	2.2288e-04
14.000	20.500	3.3753e-04
14.000	20.750	5.0593e-04
14.000	21.000	7.4189e-04
14.000	21.250	1.0435e-03
14.000	21.500	1.4226e-03
14.000	21.750	1.6652e-03
14.000	22.000	1.6128e-03
14.000	22.250	1.3849e-03
14.000	22.500	1.3616e-03
14.000	22.750	1.7138e-03
14.000	23.000	2.3293e-03
14.000	23.250	3.1248e-03
14.000	23.500	4.2087e-03
14.000	23.750	5.5523e-03
14.000	24.000	7.2574e-03
