InwT 1218.08A  relative to Inci 1215.00A scaled to 1215A.
Hden   Phi(H)  Eq_Width (A)
 7.000	17.000	1.8035e-02
 7.000	17.250	1.4523e-02
 7.000	17.500	1.2050e-02
 7.000	17.750	1.0342e-02
 7.000	18.000	9.3057e-03
 7.000	18.250	8.7018e-03
 7.000	18.500	8.3440e-03
 7.000	18.750	8.1782e-03
 7.000	19.000	8.0919e-03
 7.000	19.250	8.0437e-03
 7.000	19.500	8.0234e-03
 7.000	19.750	8.0149e-03
 7.000	20.000	8.0112e-03
 7.000	20.250	8.0095e-03
 7.000	20.500	8.0086e-03
 7.000	20.750	8.0081e-03
 7.000	21.000	8.0079e-03
 7.000	21.250	8.0077e-03
 7.000	21.500	8.0078e-03
 7.000	21.750	8.0077e-03
 7.000	22.000	8.0076e-03
 7.000	22.250	8.0076e-03
 7.000	22.500	8.0076e-03
 7.000	22.750	8.0078e-03
 7.000	23.000	8.0078e-03
 7.000	23.250	8.0076e-03
 7.000	23.500	8.0076e-03
 7.000	23.750	8.0076e-03
 7.000	24.000	8.0076e-03
 7.250	17.000	2.2665e-02
 7.250	17.250	1.7943e-02
 7.250	17.500	1.4476e-02
 7.250	17.750	1.2026e-02
 7.250	18.000	1.0329e-02
 7.250	18.250	9.2990e-03
 7.250	18.500	8.6987e-03
 7.250	18.750	8.3430e-03
 7.250	19.000	8.1778e-03
 7.250	19.250	8.0917e-03
 7.250	19.500	8.0437e-03
 7.250	19.750	8.0234e-03
 7.250	20.000	8.0149e-03
 7.250	20.250	8.0112e-03
 7.250	20.500	8.0095e-03
 7.250	20.750	8.0086e-03
 7.250	21.000	8.0081e-03
 7.250	21.250	8.0079e-03
 7.250	21.500	8.0077e-03
 7.250	21.750	8.0093e-03
 7.250	22.000	8.0077e-03
 7.250	22.250	8.0076e-03
 7.250	22.500	8.0076e-03
 7.250	22.750	8.0084e-03
 7.250	23.000	8.0084e-03
 7.250	23.250	8.0076e-03
 7.250	23.500	8.0076e-03
 7.250	23.750	8.0076e-03
 7.250	24.000	8.0076e-03
 7.500	17.000	2.7651e-02
 7.500	17.250	2.2584e-02
 7.500	17.500	1.7889e-02
 7.500	17.750	1.4448e-02
 7.500	18.000	1.2012e-02
 7.500	18.250	1.0321e-02
 7.500	18.500	9.2947e-03
 7.500	18.750	8.6966e-03
 7.500	19.000	8.3422e-03
 7.500	19.250	8.1775e-03
 7.500	19.500	8.0916e-03
 7.500	19.750	8.0436e-03
 7.500	20.000	8.0234e-03
 7.500	20.250	8.0149e-03
 7.500	20.500	8.0111e-03
 7.500	20.750	8.0094e-03
 7.500	21.000	8.0086e-03
 7.500	21.250	8.0081e-03
 7.500	21.500	8.0079e-03
 7.500	21.750	8.0077e-03
 7.500	22.000	8.0077e-03
 7.500	22.250	8.0077e-03
 7.500	22.500	8.0076e-03
 7.500	22.750	8.0076e-03
 7.500	23.000	8.0080e-03
 7.500	23.250	8.0084e-03
 7.500	23.500	8.0076e-03
 7.500	23.750	8.0086e-03
 7.500	24.000	8.0076e-03
 7.750	17.000	9.9730e-01
 7.750	17.250	2.7039e-02
 7.750	17.500	2.2542e-02
 7.750	17.750	1.7857e-02
 7.750	18.000	1.4433e-02
 7.750	18.250	1.2005e-02
 7.750	18.500	1.0316e-02
 7.750	18.750	9.2919e-03
 7.750	19.000	8.6953e-03
 7.750	19.250	8.3417e-03
 7.750	19.500	8.1774e-03
 7.750	19.750	8.0916e-03
 7.750	20.000	8.0436e-03
 7.750	20.250	8.0234e-03
 7.750	20.500	8.0149e-03
 7.750	20.750	8.0111e-03
 7.750	21.000	8.0094e-03
 7.750	21.250	8.0086e-03
 7.750	21.500	8.0081e-03
 7.750	21.750	8.0078e-03
 7.750	22.000	8.0077e-03
 7.750	22.250	8.0077e-03
 7.750	22.500	8.0076e-03
 7.750	22.750	8.0078e-03
 7.750	23.000	8.0078e-03
 7.750	23.250	8.0077e-03
 7.750	23.500	8.0084e-03
 7.750	23.750	8.0084e-03
 7.750	24.000	8.0076e-03
 8.000	17.000	1.0008e+00
 8.000	17.250	9.9669e-01
 8.000	17.500	2.6643e-02
 8.000	17.750	2.2509e-02
 8.000	18.000	1.7838e-02
 8.000	18.250	1.4425e-02
 8.000	18.500	1.2002e-02
 8.000	18.750	1.0313e-02
 8.000	19.000	9.2900e-03
 8.000	19.250	8.6945e-03
 8.000	19.500	8.3415e-03
 8.000	19.750	8.1773e-03
 8.000	20.000	8.0915e-03
 8.000	20.250	8.0436e-03
 8.000	20.500	8.0234e-03
 8.000	20.750	8.0149e-03
 8.000	21.000	8.0111e-03
 8.000	21.250	8.0094e-03
 8.000	21.500	8.0086e-03
 8.000	21.750	8.0081e-03
 8.000	22.000	8.0078e-03
 8.000	22.250	8.0077e-03
 8.000	22.500	8.0076e-03
 8.000	22.750	8.0077e-03
 8.000	23.000	8.0076e-03
 8.000	23.250	8.0081e-03
 8.000	23.500	8.0076e-03
 8.000	23.750	8.0076e-03
 8.000	24.000	8.0076e-03
 8.250	17.000	1.0020e+00
 8.250	17.250	9.9955e-01
 8.250	17.500	9.9557e-01
 8.250	17.750	2.6354e-02
 8.250	18.000	2.2497e-02
 8.250	18.250	1.7824e-02
 8.250	18.500	1.4421e-02
 8.250	18.750	1.2001e-02
 8.250	19.000	1.0311e-02
 8.250	19.250	9.2886e-03
 8.250	19.500	8.6938e-03
 8.250	19.750	8.3412e-03
 8.250	20.000	8.1772e-03
 8.250	20.250	8.0915e-03
 8.250	20.500	8.0436e-03
 8.250	20.750	8.0234e-03
 8.250	21.000	8.0149e-03
 8.250	21.250	8.0111e-03
 8.250	21.500	8.0094e-03
 8.250	21.750	8.0085e-03
 8.250	22.000	8.0081e-03
 8.250	22.250	8.0078e-03
 8.250	22.500	8.0077e-03
 8.250	22.750	8.0078e-03
 8.250	23.000	8.0076e-03
 8.250	23.250	8.0096e-03
 8.250	23.500	8.0075e-03
 8.250	23.750	8.0075e-03
 8.250	24.000	8.0081e-03
 8.500	17.000	1.0027e+00
 8.500	17.250	1.0010e+00
 8.500	17.500	9.9863e-01
 8.500	17.750	9.9454e-01
 8.500	18.000	2.6202e-02
 8.500	18.250	2.2486e-02
 8.500	18.500	1.7813e-02
 8.500	18.750	1.4420e-02
 8.500	19.000	1.2002e-02
 8.500	19.250	1.0309e-02
 8.500	19.500	9.2874e-03
 8.500	19.750	8.6933e-03
 8.500	20.000	8.3411e-03
 8.500	20.250	8.1771e-03
 8.500	20.500	8.0915e-03
 8.500	20.750	8.0436e-03
 8.500	21.000	8.0234e-03
 8.500	21.250	8.0149e-03
 8.500	21.500	8.0111e-03
 8.500	21.750	8.0094e-03
 8.500	22.000	8.0085e-03
 8.500	22.250	8.0081e-03
 8.500	22.500	8.0078e-03
 8.500	22.750	8.0077e-03
 8.500	23.000	8.0076e-03
 8.500	23.250	8.0077e-03
 8.500	23.500	8.0075e-03
 8.500	23.750	8.0075e-03
 8.500	24.000	8.0075e-03
 8.750	17.000	1.0030e+00
 8.750	17.250	1.0019e+00
 8.750	17.500	1.0002e+00
 8.750	17.750	9.9784e-01
 8.750	18.000	9.9338e-01
 8.750	18.250	2.6139e-02
 8.750	18.500	2.2471e-02
 8.750	18.750	1.7803e-02
 8.750	19.000	1.4420e-02
 8.750	19.250	1.2004e-02
 8.750	19.500	1.0307e-02
 8.750	19.750	9.2863e-03
 8.750	20.000	8.6930e-03
 8.750	20.250	8.3410e-03
 8.750	20.500	8.1771e-03
 8.750	20.750	8.0915e-03
 8.750	21.000	8.0436e-03
 8.750	21.250	8.0234e-03
 8.750	21.500	8.0149e-03
 8.750	21.750	8.0111e-03
 8.750	22.000	8.0094e-03
 8.750	22.250	8.0085e-03
 8.750	22.500	8.0081e-03
 8.750	22.750	8.0078e-03
 8.750	23.000	8.0085e-03
 8.750	23.250	8.0076e-03
 8.750	23.500	8.0077e-03
 8.750	23.750	8.0075e-03
 8.750	24.000	8.0075e-03
 9.000	17.000	1.0028e+00
 9.000	17.250	1.0023e+00
 9.000	17.500	1.0012e+00
 9.000	17.750	9.9939e-01
 9.000	18.000	9.9691e-01
 9.000	18.250	9.9007e-01
 9.000	18.500	2.6096e-02
 9.000	18.750	2.2451e-02
 9.000	19.000	1.7791e-02
 9.000	19.250	1.4420e-02
 9.000	19.500	1.2006e-02
 9.000	19.750	1.0306e-02
 9.000	20.000	9.2854e-03
 9.000	20.250	8.6926e-03
 9.000	20.500	8.3408e-03
 9.000	20.750	8.1771e-03
 9.000	21.000	8.0915e-03
 9.000	21.250	8.0436e-03
 9.000	21.500	8.0234e-03
 9.000	21.750	8.0148e-03
 9.000	22.000	8.0111e-03
 9.000	22.250	8.0094e-03
 9.000	22.500	8.0085e-03
 9.000	22.750	8.0081e-03
 9.000	23.000	8.0078e-03
 9.000	23.250	8.0077e-03
 9.000	23.500	8.0076e-03
 9.000	23.750	8.0076e-03
 9.000	24.000	8.0076e-03
 9.250	17.000	1.0023e+00
 9.250	17.250	1.0022e+00
 9.250	17.500	1.0016e+00
 9.250	17.750	1.0004e+00
 9.250	18.000	9.9838e-01
 9.250	18.250	9.9537e-01
 9.250	18.500	9.6836e-01
 9.250	18.750	2.5985e-02
 9.250	19.000	2.2420e-02
 9.250	19.250	1.7776e-02
 9.250	19.500	1.4418e-02
 9.250	19.750	1.2007e-02
 9.250	20.000	1.0305e-02
 9.250	20.250	9.2846e-03
 9.250	20.500	8.6923e-03
 9.250	20.750	8.3407e-03
 9.250	21.000	8.1770e-03
 9.250	21.250	8.0914e-03
 9.250	21.500	8.0432e-03
 9.250	21.750	8.0229e-03
 9.250	22.000	8.0142e-03
 9.250	22.250	8.0106e-03
 9.250	22.500	8.0091e-03
 9.250	22.750	8.0081e-03
 9.250	23.000	8.0078e-03
 9.250	23.250	8.0077e-03
 9.250	23.500	8.0075e-03
 9.250	23.750	8.0074e-03
 9.250	24.000	8.0074e-03
 9.500	17.000	1.0016e+00
 9.500	17.250	1.0017e+00
 9.500	17.500	1.0016e+00
 9.500	17.750	1.0009e+00
 9.500	18.000	9.9937e-01
 9.500	18.250	9.9678e-01
 9.500	18.500	9.9278e-01
 9.500	18.750	8.9048e-02
 9.500	19.000	2.5739e-02
 9.500	19.250	2.2370e-02
 9.500	19.500	1.7757e-02
 9.500	19.750	1.4414e-02
 9.500	20.000	1.2008e-02
 9.500	20.250	1.0303e-02
 9.500	20.500	9.2839e-03
 9.500	20.750	8.6916e-03
 9.500	21.000	8.3402e-03
 9.500	21.250	8.1765e-03
 9.500	21.500	8.0909e-03
 9.500	21.750	8.0429e-03
 9.500	22.000	8.0226e-03
 9.500	22.250	8.0141e-03
 9.500	22.500	8.0104e-03
 9.500	22.750	8.0086e-03
 9.500	23.000	8.0077e-03
 9.500	23.250	8.0072e-03
 9.500	23.500	8.0070e-03
 9.500	23.750	8.0069e-03
 9.500	24.000	8.0068e-03
 9.750	17.000	1.0007e+00
 9.750	17.250	1.0010e+00
 9.750	17.500	1.0011e+00
 9.750	17.750	1.0008e+00
 9.750	18.000	9.9987e-01
 9.750	18.250	9.9787e-01
 9.750	18.500	9.9430e-01
 9.750	18.750	9.8863e-01
 9.750	19.000	4.8164e-02
 9.750	19.250	2.5269e-02
 9.750	19.500	2.2287e-02
 9.750	19.750	1.7732e-02
 9.750	20.000	1.4407e-02
 9.750	20.250	1.2008e-02
 9.750	20.500	1.0302e-02
 9.750	20.750	9.2831e-03
 9.750	21.000	8.6914e-03
 9.750	21.250	8.3401e-03
 9.750	21.500	8.1765e-03
 9.750	21.750	8.0909e-03
 9.750	22.000	8.0429e-03
 9.750	22.250	8.0226e-03
 9.750	22.500	8.0141e-03
 9.750	22.750	8.0104e-03
 9.750	23.000	8.0086e-03
 9.750	23.250	8.0077e-03
 9.750	23.500	8.0072e-03
 9.750	23.750	8.0070e-03
 9.750	24.000	8.0068e-03
10.000	17.000	9.9981e-01
10.000	17.250	1.0000e+00
10.000	17.500	1.0003e+00
10.000	17.750	1.0003e+00
10.000	18.000	9.9991e-01
10.000	18.250	9.9861e-01
10.000	18.500	9.9573e-01
10.000	18.750	9.9081e-01
10.000	19.000	9.8376e-01
10.000	19.250	3.3057e-02
10.000	19.500	2.4370e-02
10.000	19.750	2.2142e-02
10.000	20.000	1.7697e-02
10.000	20.250	1.4397e-02
10.000	20.500	1.2007e-02
10.000	20.750	1.0301e-02
10.000	21.000	9.2827e-03
10.000	21.250	8.6913e-03
10.000	21.500	8.3400e-03
10.000	21.750	8.1765e-03
10.000	22.000	8.0910e-03
10.000	22.250	8.0430e-03
10.000	22.500	8.0226e-03
10.000	22.750	8.0141e-03
10.000	23.000	8.0104e-03
10.000	23.250	8.0086e-03
10.000	23.500	8.0077e-03
10.000	23.750	8.0072e-03
10.000	24.000	8.0070e-03
10.250	17.000	9.9912e-01
10.250	17.250	9.9910e-01
10.250	17.500	9.9931e-01
10.250	17.750	9.9956e-01
10.250	18.000	9.9955e-01
10.250	18.250	9.9887e-01
10.250	18.500	9.9684e-01
10.250	18.750	9.9309e-01
10.250	19.000	9.8729e-01
10.250	19.250	3.4345e-01
10.250	19.500	2.7091e-02
10.250	19.750	2.3008e-02
10.250	20.000	2.2001e-02
10.250	20.250	1.7661e-02
10.250	20.500	1.4383e-02
10.250	20.750	1.2005e-02
10.250	21.000	1.0300e-02
10.250	21.250	9.2823e-03
10.250	21.500	8.6911e-03
10.250	21.750	8.3400e-03
10.250	22.000	8.1765e-03
10.250	22.250	8.0910e-03
10.250	22.500	8.0430e-03
10.250	22.750	8.0226e-03
10.250	23.000	8.0141e-03
10.250	23.250	8.0104e-03
10.250	23.500	8.0086e-03
10.250	23.750	8.0077e-03
10.250	24.000	8.0072e-03
10.500	17.000	9.9868e-01
10.500	17.250	9.9842e-01
10.500	17.500	9.9842e-01
10.500	17.750	9.9871e-01
10.500	18.000	9.9893e-01
10.500	18.250	9.9874e-01
10.500	18.500	9.9760e-01
10.500	18.750	9.9502e-01
10.500	19.000	9.9056e-01
10.500	19.250	9.8430e-01
10.500	19.500	4.4984e-02
10.500	19.750	2.4835e-02
10.500	20.000	2.2249e-02
10.500	20.250	2.1796e-02
10.500	20.500	1.7614e-02
10.500	20.750	1.4366e-02
10.500	21.000	1.2001e-02
10.500	21.250	1.0299e-02
10.500	21.500	9.2821e-03
10.500	21.750	8.6909e-03
10.500	22.000	8.3401e-03
10.500	22.250	8.1766e-03
10.500	22.500	8.0910e-03
10.500	22.750	8.0431e-03
10.500	23.000	8.0227e-03
10.500	23.250	8.0141e-03
10.500	23.500	8.0104e-03
10.500	23.750	8.0086e-03
10.500	24.000	8.0077e-03
10.750	17.000	9.9844e-01
10.750	17.250	9.9801e-01
10.750	17.500	9.9777e-01
10.750	17.750	9.9780e-01
10.750	18.000	9.9808e-01
10.750	18.250	9.9823e-01
10.750	18.500	9.9769e-01
10.750	18.750	9.9602e-01
10.750	19.000	9.9270e-01
10.750	19.250	9.8705e-01
10.750	19.500	9.7914e-01
10.750	19.750	2.8535e-02
10.750	20.000	2.3652e-02
10.750	20.250	2.2070e-02
10.750	20.500	2.1695e-02
10.750	20.750	1.7543e-02
10.750	21.000	1.4347e-02
10.750	21.250	1.1997e-02
10.750	21.500	1.0298e-02
10.750	21.750	9.2818e-03
10.750	22.000	8.6909e-03
10.750	22.250	8.3400e-03
10.750	22.500	8.1768e-03
10.750	22.750	8.0911e-03
10.750	23.000	8.0431e-03
10.750	23.250	8.0228e-03
10.750	23.500	8.0142e-03
10.750	23.750	8.0104e-03
10.750	24.000	8.0086e-03
11.000	17.000	9.9826e-01
11.000	17.250	9.9776e-01
11.000	17.500	9.9723e-01
11.000	17.750	9.9692e-01
11.000	18.000	9.9701e-01
11.000	18.250	9.9720e-01
11.000	18.500	9.9705e-01
11.000	18.750	9.9610e-01
11.000	19.000	9.9380e-01
11.000	19.250	9.8948e-01
11.000	19.500	9.8271e-01
11.000	19.750	9.2081e-01
11.000	20.000	2.7273e-02
11.000	20.250	2.4859e-02
11.000	20.500	2.2144e-02
11.000	20.750	2.1627e-02
11.000	21.000	1.7571e-02
11.000	21.250	1.4323e-02
11.000	21.500	1.1990e-02
11.000	21.750	1.0297e-02
11.000	22.000	9.2816e-03
11.000	22.250	8.6907e-03
11.000	22.500	8.3398e-03
11.000	22.750	8.1769e-03
11.000	23.000	8.0913e-03
11.000	23.250	8.0432e-03
11.000	23.500	8.0229e-03
11.000	23.750	8.0142e-03
11.000	24.000	8.0105e-03
11.250	17.000	9.9810e-01
11.250	17.250	9.9754e-01
11.250	17.500	9.9676e-01
11.250	17.750	9.9612e-01
11.250	18.000	9.9587e-01
11.250	18.250	9.9589e-01
11.250	18.500	9.9588e-01
11.250	18.750	9.9542e-01
11.250	19.000	9.9392e-01
11.250	19.250	9.9080e-01
11.250	19.500	9.8525e-01
11.250	19.750	9.7602e-01
11.250	20.000	5.3644e-01
11.250	20.250	2.5906e-02
11.250	20.500	2.3888e-02
11.250	20.750	2.2723e-02
11.250	21.000	2.2139e-02
11.250	21.250	1.7629e-02
11.250	21.500	1.4318e-02
11.250	21.750	1.1981e-02
11.250	22.000	1.0295e-02
11.250	22.250	9.2813e-03
11.250	22.500	8.6905e-03
11.250	22.750	8.3397e-03
11.250	23.000	8.1769e-03
11.250	23.250	8.0914e-03
11.250	23.500	8.0432e-03
11.250	23.750	8.0229e-03
11.250	24.000	8.0143e-03
11.500	17.000	9.9789e-01
11.500	17.250	9.9724e-01
11.500	17.500	9.9632e-01
11.500	17.750	9.9549e-01
11.500	18.000	9.9493e-01
11.500	18.250	9.9464e-01
11.500	18.500	9.9454e-01
11.500	18.750	9.9430e-01
11.500	19.000	9.9343e-01
11.500	19.250	9.9126e-01
11.500	19.500	9.8697e-01
11.500	19.750	9.7975e-01
11.500	20.000	9.6827e-01
11.500	20.250	2.8849e-02
11.500	20.500	2.6384e-02
11.500	20.750	2.5048e-02
11.500	21.000	2.3889e-02
11.500	21.250	2.2757e-02
11.500	21.500	1.7804e-02
11.500	21.750	1.4330e-02
11.500	22.000	1.1970e-02
11.500	22.250	1.0293e-02
11.500	22.500	9.2807e-03
11.500	22.750	8.6904e-03
11.500	23.000	8.3394e-03
11.500	23.250	8.1768e-03
11.500	23.500	8.0915e-03
11.500	23.750	8.0433e-03
11.500	24.000	8.0230e-03
11.750	17.000	9.9753e-01
11.750	17.250	9.9686e-01
11.750	17.500	9.9595e-01
11.750	17.750	9.9504e-01
11.750	18.000	9.9426e-01
11.750	18.250	9.9369e-01
11.750	18.500	9.9336e-01
11.750	18.750	9.9312e-01
11.750	19.000	9.9260e-01
11.750	19.250	9.9124e-01
11.750	19.500	9.8828e-01
11.750	19.750	9.8294e-01
11.750	20.000	9.7413e-01
11.750	20.250	9.6022e-01
11.750	20.500	2.8952e-02
11.750	20.750	2.7018e-02
11.750	21.000	2.6287e-02
11.750	21.250	2.5669e-02
11.750	21.500	2.3424e-02
11.750	21.750	1.8013e-02
11.750	22.000	1.4383e-02
11.750	22.250	1.1960e-02
11.750	22.500	1.0290e-02
11.750	22.750	9.2795e-03
11.750	23.000	8.6900e-03
11.750	23.250	8.3390e-03
11.750	23.500	8.1767e-03
11.750	23.750	8.0915e-03
11.750	24.000	8.0435e-03
12.000	17.000	9.9700e-01
12.000	17.250	9.9647e-01
12.000	17.500	9.9562e-01
12.000	17.750	9.9467e-01
12.000	18.000	9.9380e-01
12.000	18.250	9.9308e-01
12.000	18.500	9.9253e-01
12.000	18.750	9.9214e-01
12.000	19.000	9.9173e-01
12.000	19.250	9.9092e-01
12.000	19.500	9.8910e-01
12.000	19.750	9.8543e-01
12.000	20.000	9.7912e-01
12.000	20.250	9.6880e-01
12.000	20.500	9.5238e-01
12.000	20.750	2.8519e-02
12.000	21.000	2.8306e-02
12.000	21.250	2.8945e-02
12.000	21.500	2.8409e-02
12.000	21.750	2.3929e-02
12.000	22.000	1.8291e-02
12.000	22.250	1.4475e-02
12.000	22.500	1.1954e-02
12.000	22.750	1.0285e-02
12.000	23.000	9.2783e-03
12.000	23.250	8.6896e-03
12.000	23.500	8.3386e-03
12.000	23.750	8.1765e-03
12.000	24.000	8.0915e-03
12.250	17.000	9.9641e-01
12.250	17.250	9.9606e-01
12.250	17.500	9.9529e-01
12.250	17.750	9.9431e-01
12.250	18.000	9.9340e-01
12.250	18.250	9.9266e-01
12.250	18.500	9.9206e-01
12.250	18.750	9.9155e-01
12.250	19.000	9.9109e-01
12.250	19.250	9.9052e-01
12.250	19.500	9.8946e-01
12.250	19.750	9.8725e-01
12.250	20.000	9.8303e-01
12.250	20.250	9.7593e-01
12.250	20.500	9.6431e-01
12.250	20.750	9.4503e-01
12.250	21.000	2.9720e-02
12.250	21.250	3.1191e-02
12.250	21.500	3.2653e-02
12.250	21.750	3.1611e-02
12.250	22.000	2.4510e-02
12.250	22.250	1.8454e-02
12.250	22.500	1.4505e-02
12.250	22.750	1.1954e-02
12.250	23.000	1.0281e-02
12.250	23.250	9.2766e-03
12.250	23.500	8.6891e-03
12.250	23.750	8.3380e-03
12.250	24.000	8.1764e-03
12.500	17.000	9.9578e-01
12.500	17.250	9.9559e-01
12.500	17.500	9.9489e-01
12.500	17.750	9.9390e-01
12.500	18.000	9.9294e-01
12.500	18.250	9.9221e-01
12.500	18.500	9.9171e-01
12.500	18.750	9.9131e-01
12.500	19.000	9.9087e-01
12.500	19.250	9.9036e-01
12.500	19.500	9.8965e-01
12.500	19.750	9.8838e-01
12.500	20.000	9.8588e-01
12.500	20.250	9.8129e-01
12.500	20.500	9.7364e-01
12.500	20.750	9.6109e-01
12.500	21.000	9.3972e-01
12.500	21.250	3.2989e-02
12.500	21.500	3.5377e-02
12.500	21.750	3.7118e-02
12.500	22.000	3.3695e-02
12.500	22.250	2.4957e-02
12.500	22.500	1.8714e-02
12.500	22.750	1.4613e-02
12.500	23.000	1.1957e-02
12.500	23.250	1.0277e-02
12.500	23.500	9.2750e-03
12.500	23.750	8.6886e-03
12.500	24.000	8.3374e-03
12.750	17.000	9.9496e-01
12.750	17.250	9.9495e-01
12.750	17.500	9.9437e-01
12.750	17.750	9.9340e-01
12.750	18.000	9.9238e-01
12.750	18.250	9.9162e-01
12.750	18.500	9.9119e-01
12.750	18.750	9.9101e-01
12.750	19.000	9.9082e-01
12.750	19.250	9.9048e-01
12.750	19.500	9.8996e-01
12.750	19.750	9.8913e-01
12.750	20.000	9.8768e-01
12.750	20.250	9.8506e-01
12.750	20.500	9.8030e-01
12.750	20.750	9.7238e-01
12.750	21.000	9.5962e-01
12.750	21.250	8.9617e-01
12.750	21.500	3.7510e-02
12.750	21.750	4.1278e-02
12.750	22.000	4.1953e-02
12.750	22.250	3.5112e-02
12.750	22.500	2.5564e-02
12.750	22.750	1.9014e-02
12.750	23.000	1.4708e-02
12.750	23.250	1.1963e-02
12.750	23.500	1.0274e-02
12.750	23.750	9.2733e-03
12.750	24.000	8.6881e-03
13.000	17.000	9.9396e-01
13.000	17.250	9.9412e-01
13.000	17.500	9.9369e-01
13.000	17.750	9.9276e-01
13.000	18.000	9.9170e-01
13.000	18.250	9.9086e-01
13.000	18.500	9.9044e-01
13.000	18.750	9.9041e-01
13.000	19.000	9.9052e-01
13.000	19.250	9.9053e-01
13.000	19.500	9.9030e-01
13.000	19.750	9.8980e-01
13.000	20.000	9.8890e-01
13.000	20.250	9.8735e-01
13.000	20.500	9.8470e-01
13.000	20.750	9.8000e-01
13.000	21.000	9.7204e-01
13.000	21.250	9.5950e-01
13.000	21.500	2.3544e-01
13.000	21.750	4.3567e-02
13.000	22.000	4.6915e-02
13.000	22.250	4.6041e-02
13.000	22.500	3.6339e-02
13.000	22.750	2.6100e-02
13.000	23.000	1.9250e-02
13.000	23.250	1.4789e-02
13.000	23.500	1.1971e-02
13.000	23.750	1.0271e-02
13.000	24.000	9.2718e-03
13.250	17.000	9.9281e-01
13.250	17.250	9.9308e-01
13.250	17.500	9.9278e-01
13.250	17.750	9.9194e-01
13.250	18.000	9.9088e-01
13.250	18.250	9.8997e-01
13.250	18.500	9.8952e-01
13.250	18.750	9.8956e-01
13.250	19.000	9.8989e-01
13.250	19.250	9.9023e-01
13.250	19.500	9.9039e-01
13.250	19.750	9.9024e-01
13.250	20.000	9.8972e-01
13.250	20.250	9.8875e-01
13.250	20.500	9.8721e-01
13.250	20.750	9.8465e-01
13.250	21.000	9.8028e-01
13.250	21.250	9.7280e-01
13.250	21.500	9.5976e-01
13.250	21.750	5.2617e-02
13.250	22.000	4.7718e-02
13.250	22.250	5.1745e-02
13.250	22.500	4.9007e-02
13.250	22.750	3.7602e-02
13.250	23.000	2.6638e-02
13.250	23.250	1.9343e-02
13.250	23.500	1.4813e-02
13.250	23.750	1.1981e-02
13.250	24.000	1.0268e-02
13.500	17.000	9.9150e-01
13.500	17.250	9.9180e-01
13.500	17.500	9.9158e-01
13.500	17.750	9.9084e-01
13.500	18.000	9.8982e-01
13.500	18.250	9.8888e-01
13.500	18.500	9.8837e-01
13.500	18.750	9.8845e-01
13.500	19.000	9.8894e-01
13.500	19.250	9.8956e-01
13.500	19.500	9.9009e-01
13.500	19.750	9.9033e-01
13.500	20.000	9.9021e-01
13.500	20.250	9.8970e-01
13.500	20.500	9.8868e-01
13.500	20.750	9.8709e-01
13.500	21.000	9.8437e-01
13.500	21.250	9.8032e-01
13.500	21.500	9.7219e-01
13.500	21.750	9.5889e-01
13.500	22.000	5.0701e-02
13.500	22.250	5.0714e-02
13.500	22.500	5.4785e-02
13.500	22.750	5.1218e-02
13.500	23.000	3.8836e-02
13.500	23.250	2.7236e-02
13.500	23.500	1.9669e-02
13.500	23.750	1.4918e-02
13.500	24.000	1.1988e-02
13.750	17.000	9.9012e-01
13.750	17.250	9.9036e-01
13.750	17.500	9.9011e-01
13.750	17.750	9.8942e-01
13.750	18.000	9.8846e-01
13.750	18.250	9.8754e-01
13.750	18.500	9.8702e-01
13.750	18.750	9.8712e-01
13.750	19.000	9.8773e-01
13.750	19.250	9.8858e-01
13.750	19.500	9.8943e-01
13.750	19.750	9.9004e-01
13.750	20.000	9.9032e-01
13.750	20.250	9.9023e-01
13.750	20.500	9.8971e-01
13.750	20.750	9.8866e-01
13.750	21.000	9.8693e-01
13.750	21.250	9.8405e-01
13.750	21.500	9.7947e-01
13.750	21.750	9.7150e-01
13.750	22.000	9.5775e-01
13.750	22.250	5.2467e-02
13.750	22.500	5.3745e-02
13.750	22.750	5.8340e-02
13.750	23.000	5.3657e-02
13.750	23.250	4.0007e-02
13.750	23.500	2.7688e-02
13.750	23.750	1.9854e-02
13.750	24.000	1.4968e-02
14.000	17.000	9.8787e-01
14.000	17.250	9.8884e-01
14.000	17.500	9.8845e-01
14.000	17.750	9.8767e-01
14.000	18.000	9.8673e-01
14.000	18.250	9.8588e-01
14.000	18.500	9.8537e-01
14.000	18.750	9.8553e-01
14.000	19.000	9.8628e-01
14.000	19.250	9.8735e-01
14.000	19.500	9.8847e-01
14.000	19.750	9.8941e-01
14.000	20.000	9.9001e-01
14.000	20.250	9.9029e-01
14.000	20.500	9.9022e-01
14.000	20.750	9.8970e-01
14.000	21.000	9.8862e-01
14.000	21.250	9.8684e-01
14.000	21.500	9.8379e-01
14.000	21.750	9.7885e-01
14.000	22.000	9.7041e-01
14.000	22.250	9.5616e-01
14.000	22.500	5.7423e-02
14.000	22.750	5.8761e-02
14.000	23.000	6.2185e-02
14.000	23.250	5.6473e-02
14.000	23.500	4.1087e-02
14.000	23.750	2.8088e-02
14.000	24.000	2.0022e-02
