nFnu 1073.86A  relative to Inci 1215.00A scaled to 1215A.
Hden   Phi(H)  Eq_Width (A)
 7.000	17.000	2.1832e-02
 7.000	17.250	1.8368e-02
 7.000	17.500	1.5259e-02
 7.000	17.750	1.2520e-02
 7.000	18.000	1.0603e-02
 7.000	18.250	9.4509e-03
 7.000	18.500	8.7337e-03
 7.000	18.750	8.3809e-03
 7.000	19.000	8.1944e-03
 7.000	19.250	8.0893e-03
 7.000	19.500	8.0445e-03
 7.000	19.750	8.0256e-03
 7.000	20.000	8.0173e-03
 7.000	20.250	8.0134e-03
 7.000	20.500	8.0115e-03
 7.000	20.750	8.0105e-03
 7.000	21.000	8.0099e-03
 7.000	21.250	8.0096e-03
 7.000	21.500	8.0096e-03
 7.000	21.750	8.0093e-03
 7.000	22.000	8.0093e-03
 7.000	22.250	8.0092e-03
 7.000	22.500	8.0092e-03
 7.000	22.750	8.0095e-03
 7.000	23.000	8.0095e-03
 7.000	23.250	8.0092e-03
 7.000	23.500	8.0092e-03
 7.000	23.750	8.0092e-03
 7.000	24.000	8.0092e-03
 7.250	17.000	2.5329e-02
 7.250	17.250	2.1596e-02
 7.250	17.500	1.8251e-02
 7.250	17.750	1.5204e-02
 7.250	18.000	1.2488e-02
 7.250	18.250	1.0586e-02
 7.250	18.500	9.4426e-03
 7.250	18.750	8.7309e-03
 7.250	19.000	8.3798e-03
 7.250	19.250	8.1941e-03
 7.250	19.500	8.0892e-03
 7.250	19.750	8.0445e-03
 7.250	20.000	8.0256e-03
 7.250	20.250	8.0173e-03
 7.250	20.500	8.0134e-03
 7.250	20.750	8.0114e-03
 7.250	21.000	8.0105e-03
 7.250	21.250	8.0099e-03
 7.250	21.500	8.0096e-03
 7.250	21.750	8.0110e-03
 7.250	22.000	8.0093e-03
 7.250	22.250	8.0093e-03
 7.250	22.500	8.0092e-03
 7.250	22.750	8.0100e-03
 7.250	23.000	8.0100e-03
 7.250	23.250	8.0092e-03
 7.250	23.500	8.0092e-03
 7.250	23.750	8.0092e-03
 7.250	24.000	8.0092e-03
 7.500	17.000	2.7385e-02
 7.500	17.250	2.5089e-02
 7.500	17.500	2.1460e-02
 7.500	17.750	1.8187e-02
 7.500	18.000	1.5177e-02
 7.500	18.250	1.2470e-02
 7.500	18.500	1.0575e-02
 7.500	18.750	9.4374e-03
 7.500	19.000	8.7290e-03
 7.500	19.250	8.3792e-03
 7.500	19.500	8.1938e-03
 7.500	19.750	8.0892e-03
 7.500	20.000	8.0445e-03
 7.500	20.250	8.0256e-03
 7.500	20.500	8.0173e-03
 7.500	20.750	8.0134e-03
 7.500	21.000	8.0114e-03
 7.500	21.250	8.0105e-03
 7.500	21.500	8.0099e-03
 7.500	21.750	8.0095e-03
 7.500	22.000	8.0094e-03
 7.500	22.250	8.0093e-03
 7.500	22.500	8.0093e-03
 7.500	22.750	8.0092e-03
 7.500	23.000	8.0096e-03
 7.500	23.250	8.0100e-03
 7.500	23.500	8.0092e-03
 7.500	23.750	8.0102e-03
 7.500	24.000	8.0092e-03
 7.750	17.000	3.0582e-02
 7.750	17.250	2.5792e-02
 7.750	17.500	2.4958e-02
 7.750	17.750	2.1380e-02
 7.750	18.000	1.8156e-02
 7.750	18.250	1.5169e-02
 7.750	18.500	1.2461e-02
 7.750	18.750	1.0569e-02
 7.750	19.000	9.4341e-03
 7.750	19.250	8.7277e-03
 7.750	19.500	8.3787e-03
 7.750	19.750	8.1937e-03
 7.750	20.000	8.0891e-03
 7.750	20.250	8.0445e-03
 7.750	20.500	8.0256e-03
 7.750	20.750	8.0173e-03
 7.750	21.000	8.0134e-03
 7.750	21.250	8.0114e-03
 7.750	21.500	8.0104e-03
 7.750	21.750	8.0099e-03
 7.750	22.000	8.0095e-03
 7.750	22.250	8.0094e-03
 7.750	22.500	8.0093e-03
 7.750	22.750	8.0095e-03
 7.750	23.000	8.0095e-03
 7.750	23.250	8.0093e-03
 7.750	23.500	8.0100e-03
 7.750	23.750	8.0100e-03
 7.750	24.000	8.0092e-03
 8.000	17.000	2.8653e-02
 8.000	17.250	2.7088e-02
 8.000	17.500	2.4557e-02
 8.000	17.750	2.4871e-02
 8.000	18.000	2.1332e-02
 8.000	18.250	1.8144e-02
 8.000	18.500	1.5173e-02
 8.000	18.750	1.2458e-02
 8.000	19.000	1.0565e-02
 8.000	19.250	9.4321e-03
 8.000	19.500	8.7270e-03
 8.000	19.750	8.3784e-03
 8.000	20.000	8.1936e-03
 8.000	20.250	8.0891e-03
 8.000	20.500	8.0445e-03
 8.000	20.750	8.0256e-03
 8.000	21.000	8.0173e-03
 8.000	21.250	8.0134e-03
 8.000	21.500	8.0114e-03
 8.000	21.750	8.0104e-03
 8.000	22.000	8.0098e-03
 8.000	22.250	8.0095e-03
 8.000	22.500	8.0094e-03
 8.000	22.750	8.0095e-03
 8.000	23.000	8.0092e-03
 8.000	23.250	8.0097e-03
 8.000	23.500	8.0091e-03
 8.000	23.750	8.0091e-03
 8.000	24.000	8.0092e-03
 8.250	17.000	2.6943e-02
 8.250	17.250	2.5734e-02
 8.250	17.500	2.4752e-02
 8.250	17.750	2.3609e-02
 8.250	18.000	2.4818e-02
 8.250	18.250	2.1298e-02
 8.250	18.500	1.8143e-02
 8.250	18.750	1.5184e-02
 8.250	19.000	1.2458e-02
 8.250	19.250	1.0563e-02
 8.250	19.500	9.4309e-03
 8.250	19.750	8.7265e-03
 8.250	20.000	8.3783e-03
 8.250	20.250	8.1935e-03
 8.250	20.500	8.0891e-03
 8.250	20.750	8.0445e-03
 8.250	21.000	8.0256e-03
 8.250	21.250	8.0173e-03
 8.250	21.500	8.0134e-03
 8.250	21.750	8.0114e-03
 8.250	22.000	8.0104e-03
 8.250	22.250	8.0098e-03
 8.250	22.500	8.0095e-03
 8.250	22.750	8.0095e-03
 8.250	23.000	8.0092e-03
 8.250	23.250	8.0113e-03
 8.250	23.500	8.0091e-03
 8.250	23.750	8.0091e-03
 8.250	24.000	8.0097e-03
 8.500	17.000	2.5528e-02
 8.500	17.250	2.4605e-02
 8.500	17.500	2.3794e-02
 8.500	17.750	2.3226e-02
 8.500	18.000	2.3044e-02
 8.500	18.250	2.4767e-02
 8.500	18.500	2.1271e-02
 8.500	18.750	1.8150e-02
 8.500	19.000	1.5201e-02
 8.500	19.250	1.2460e-02
 8.500	19.500	1.0562e-02
 8.500	19.750	9.4300e-03
 8.500	20.000	8.7262e-03
 8.500	20.250	8.3782e-03
 8.500	20.500	8.1935e-03
 8.500	20.750	8.0891e-03
 8.500	21.000	8.0444e-03
 8.500	21.250	8.0256e-03
 8.500	21.500	8.0173e-03
 8.500	21.750	8.0134e-03
 8.500	22.000	8.0114e-03
 8.500	22.250	8.0104e-03
 8.500	22.500	8.0098e-03
 8.500	22.750	8.0095e-03
 8.500	23.000	8.0093e-03
 8.500	23.250	8.0095e-03
 8.500	23.500	8.0091e-03
 8.500	23.750	8.0091e-03
 8.500	24.000	8.0091e-03
 8.750	17.000	2.4552e-02
 8.750	17.250	2.3812e-02
 8.750	17.500	2.3144e-02
 8.750	17.750	2.2600e-02
 8.750	18.000	2.2274e-02
 8.750	18.250	2.2710e-02
 8.750	18.500	2.4712e-02
 8.750	18.750	2.1243e-02
 8.750	19.000	1.8160e-02
 8.750	19.250	1.5221e-02
 8.750	19.500	1.2463e-02
 8.750	19.750	1.0562e-02
 8.750	20.000	9.4295e-03
 8.750	20.250	8.7260e-03
 8.750	20.500	8.3781e-03
 8.750	20.750	8.1934e-03
 8.750	21.000	8.0891e-03
 8.750	21.250	8.0445e-03
 8.750	21.500	8.0256e-03
 8.750	21.750	8.0173e-03
 8.750	22.000	8.0134e-03
 8.750	22.250	8.0114e-03
 8.750	22.500	8.0104e-03
 8.750	22.750	8.0098e-03
 8.750	23.000	8.0103e-03
 8.750	23.250	8.0093e-03
 8.750	23.500	8.0095e-03
 8.750	23.750	8.0091e-03
 8.750	24.000	8.0091e-03
 9.000	17.000	2.3954e-02
 9.000	17.250	2.3345e-02
 9.000	17.500	2.2778e-02
 9.000	17.750	2.2241e-02
 9.000	18.000	2.1816e-02
 9.000	18.250	2.1680e-02
 9.000	18.500	2.2485e-02
 9.000	18.750	2.4650e-02
 9.000	19.000	2.1211e-02
 9.000	19.250	1.8169e-02
 9.000	19.500	1.5243e-02
 9.000	19.750	1.2467e-02
 9.000	20.000	1.0562e-02
 9.000	20.250	9.4291e-03
 9.000	20.500	8.7258e-03
 9.000	20.750	8.3780e-03
 9.000	21.000	8.1934e-03
 9.000	21.250	8.0891e-03
 9.000	21.500	8.0444e-03
 9.000	21.750	8.0256e-03
 9.000	22.000	8.0172e-03
 9.000	22.250	8.0133e-03
 9.000	22.500	8.0114e-03
 9.000	22.750	8.0104e-03
 9.000	23.000	8.0098e-03
 9.000	23.250	8.0095e-03
 9.000	23.500	8.0093e-03
 9.000	23.750	8.0092e-03
 9.000	24.000	8.0092e-03
 9.250	17.000	2.3668e-02
 9.250	17.250	2.3118e-02
 9.250	17.500	2.2661e-02
 9.250	17.750	2.2165e-02
 9.250	18.000	2.1666e-02
 9.250	18.250	2.1309e-02
 9.250	18.500	2.1253e-02
 9.250	18.750	2.2324e-02
 9.250	19.000	2.4578e-02
 9.250	19.250	2.1171e-02
 9.250	19.500	1.8171e-02
 9.250	19.750	1.5262e-02
 9.250	20.000	1.2471e-02
 9.250	20.250	1.0561e-02
 9.250	20.500	9.4288e-03
 9.250	20.750	8.7257e-03
 9.250	21.000	8.3780e-03
 9.250	21.250	8.1934e-03
 9.250	21.500	8.0886e-03
 9.250	21.750	8.0440e-03
 9.250	22.000	8.0249e-03
 9.250	22.250	8.0167e-03
 9.250	22.500	8.0130e-03
 9.250	22.750	8.0110e-03
 9.250	23.000	8.0101e-03
 9.250	23.250	8.0096e-03
 9.250	23.500	8.0093e-03
 9.250	23.750	8.0091e-03
 9.250	24.000	8.0091e-03
 9.500	17.000	2.3669e-02
 9.500	17.250	2.3069e-02
 9.500	17.500	2.2693e-02
 9.500	17.750	2.2317e-02
 9.500	18.000	2.1816e-02
 9.500	18.250	2.1255e-02
 9.500	18.500	2.0844e-02
 9.500	18.750	2.0869e-02
 9.500	19.000	2.2200e-02
 9.500	19.250	2.4497e-02
 9.500	19.500	2.1124e-02
 9.500	19.750	1.8164e-02
 9.500	20.000	1.5277e-02
 9.500	20.250	1.2475e-02
 9.500	20.500	1.0561e-02
 9.500	20.750	9.4281e-03
 9.500	21.000	8.7250e-03
 9.500	21.250	8.3775e-03
 9.500	21.500	8.1928e-03
 9.500	21.750	8.0883e-03
 9.500	22.000	8.0437e-03
 9.500	22.250	8.0249e-03
 9.500	22.500	8.0165e-03
 9.500	22.750	8.0126e-03
 9.500	23.000	8.0106e-03
 9.500	23.250	8.0095e-03
 9.500	23.500	8.0091e-03
 9.500	23.750	8.0087e-03
 9.500	24.000	8.0086e-03
 9.750	17.000	2.4027e-02
 9.750	17.250	2.3207e-02
 9.750	17.500	2.2812e-02
 9.750	17.750	2.2559e-02
 9.750	18.000	2.2185e-02
 9.750	18.250	2.1583e-02
 9.750	18.500	2.0841e-02
 9.750	18.750	2.0209e-02
 9.750	19.000	2.0662e-02
 9.750	19.250	2.2092e-02
 9.750	19.500	2.4412e-02
 9.750	19.750	2.1071e-02
 9.750	20.000	1.8146e-02
 9.750	20.250	1.5285e-02
 9.750	20.500	1.2477e-02
 9.750	20.750	1.0561e-02
 9.750	21.000	9.4281e-03
 9.750	21.250	8.7249e-03
 9.750	21.500	8.3775e-03
 9.750	21.750	8.1929e-03
 9.750	22.000	8.0883e-03
 9.750	22.250	8.0437e-03
 9.750	22.500	8.0248e-03
 9.750	22.750	8.0165e-03
 9.750	23.000	8.0126e-03
 9.750	23.250	8.0106e-03
 9.750	23.500	8.0095e-03
 9.750	23.750	8.0090e-03
 9.750	24.000	8.0087e-03
10.000	17.000	2.4860e-02
10.000	17.250	2.3637e-02
10.000	17.500	2.3038e-02
10.000	17.750	2.2827e-02
10.000	18.000	2.2650e-02
10.000	18.250	2.2177e-02
10.000	18.500	2.1332e-02
10.000	18.750	2.0361e-02
10.000	19.000	1.9749e-02
10.000	19.250	2.0423e-02
10.000	19.500	2.1985e-02
10.000	19.750	2.4326e-02
10.000	20.000	2.1018e-02
10.000	20.250	1.8121e-02
10.000	20.500	1.5290e-02
10.000	20.750	1.2479e-02
10.000	21.000	1.0562e-02
10.000	21.250	9.4281e-03
10.000	21.500	8.7248e-03
10.000	21.750	8.3775e-03
10.000	22.000	8.1929e-03
10.000	22.250	8.0885e-03
10.000	22.500	8.0437e-03
10.000	22.750	8.0248e-03
10.000	23.000	8.0165e-03
10.000	23.250	8.0126e-03
10.000	23.500	8.0106e-03
10.000	23.750	8.0096e-03
10.000	24.000	8.0091e-03
10.250	17.000	2.6363e-02
10.250	17.250	2.4547e-02
10.250	17.500	2.3556e-02
10.250	17.750	2.3209e-02
10.250	18.000	2.3148e-02
10.250	18.250	2.2866e-02
10.250	18.500	2.2144e-02
10.250	18.750	2.1027e-02
10.250	19.000	1.9806e-02
10.250	19.250	1.9172e-02
10.250	19.500	2.0325e-02
10.250	19.750	2.1895e-02
10.250	20.000	2.4289e-02
10.250	20.250	2.0987e-02
10.250	20.500	1.8093e-02
10.250	20.750	1.5289e-02
10.250	21.000	1.2480e-02
10.250	21.250	1.0562e-02
10.250	21.500	9.4281e-03
10.250	21.750	8.7248e-03
10.250	22.000	8.3775e-03
10.250	22.250	8.1930e-03
10.250	22.500	8.0886e-03
10.250	22.750	8.0437e-03
10.250	23.000	8.0249e-03
10.250	23.250	8.0165e-03
10.250	23.500	8.0126e-03
10.250	23.750	8.0106e-03
10.250	24.000	8.0096e-03
10.500	17.000	2.8569e-02
10.500	17.250	2.6148e-02
10.500	17.500	2.4612e-02
10.500	17.750	2.3973e-02
10.500	18.000	2.3839e-02
10.500	18.250	2.3662e-02
10.500	18.500	2.3088e-02
10.500	18.750	2.2081e-02
10.500	19.000	2.0721e-02
10.500	19.250	1.9318e-02
10.500	19.500	1.9676e-02
10.500	19.750	2.0531e-02
10.500	20.000	2.2027e-02
10.500	20.250	2.4318e-02
10.500	20.500	2.0990e-02
10.500	20.750	1.8068e-02
10.500	21.000	1.5283e-02
10.500	21.250	1.2481e-02
10.500	21.500	1.0562e-02
10.500	21.750	9.4281e-03
10.500	22.000	8.7249e-03
10.500	22.250	8.3777e-03
10.500	22.500	8.1930e-03
10.500	22.750	8.0886e-03
10.500	23.000	8.0438e-03
10.500	23.250	8.0248e-03
10.500	23.500	8.0165e-03
10.500	23.750	8.0126e-03
10.500	24.000	8.0106e-03
10.750	17.000	3.1472e-02
10.750	17.250	2.8482e-02
10.750	17.500	2.6461e-02
10.750	17.750	2.5433e-02
10.750	18.000	2.5031e-02
10.750	18.250	2.4708e-02
10.750	18.500	2.4174e-02
10.750	18.750	2.3257e-02
10.750	19.000	2.1975e-02
10.750	19.250	2.0468e-02
10.750	19.500	1.8991e-02
10.750	19.750	1.9927e-02
10.750	20.000	2.1047e-02
10.750	20.250	2.2497e-02
10.750	20.500	2.4578e-02
10.750	20.750	2.1051e-02
10.750	21.000	1.8056e-02
10.750	21.250	1.5273e-02
10.750	21.500	1.2480e-02
10.750	21.750	1.0562e-02
10.750	22.000	9.4283e-03
10.750	22.250	8.7248e-03
10.750	22.500	8.3779e-03
10.750	22.750	8.1931e-03
10.750	23.000	8.0886e-03
10.750	23.250	8.0440e-03
10.750	23.500	8.0249e-03
10.750	23.750	8.0165e-03
10.750	24.000	8.0126e-03
11.000	17.000	3.5076e-02
11.000	17.250	3.1537e-02
11.000	17.500	2.9122e-02
11.000	17.750	2.7790e-02
11.000	18.000	2.6988e-02
11.000	18.250	2.6237e-02
11.000	18.500	2.5442e-02
11.000	18.750	2.4504e-02
11.000	19.000	2.3314e-02
11.000	19.250	2.1879e-02
11.000	19.500	2.0307e-02
11.000	19.750	1.8868e-02
11.000	20.000	2.0744e-02
11.000	20.250	2.2329e-02
11.000	20.500	2.3380e-02
11.000	20.750	2.5136e-02
11.000	21.000	2.1276e-02
11.000	21.250	1.8068e-02
11.000	21.500	1.5260e-02
11.000	21.750	1.2478e-02
11.000	22.000	1.0562e-02
11.000	22.250	9.4285e-03
11.000	22.500	8.7247e-03
11.000	22.750	8.3780e-03
11.000	23.000	8.1933e-03
11.000	23.250	8.0886e-03
11.000	23.500	8.0440e-03
11.000	23.750	8.0249e-03
11.000	24.000	8.0165e-03
11.250	17.000	3.9407e-02
11.250	17.250	3.5279e-02
11.250	17.500	3.2542e-02
11.250	17.750	3.1004e-02
11.250	18.000	2.9838e-02
11.250	18.250	2.8452e-02
11.250	18.500	2.7104e-02
11.250	18.750	2.6006e-02
11.250	19.000	2.4738e-02
11.250	19.250	2.3331e-02
11.250	19.500	2.1854e-02
11.250	19.750	2.0357e-02
11.250	20.000	1.9261e-02
11.250	20.250	2.1772e-02
11.250	20.500	2.3460e-02
11.250	20.750	2.4819e-02
11.250	21.000	2.6285e-02
11.250	21.250	2.1671e-02
11.250	21.500	1.8140e-02
11.250	21.750	1.5245e-02
11.250	22.000	1.2476e-02
11.250	22.250	1.0561e-02
11.250	22.500	9.4288e-03
11.250	22.750	8.7245e-03
11.250	23.000	8.3780e-03
11.250	23.250	8.1936e-03
11.250	23.500	8.0887e-03
11.250	23.750	8.0440e-03
11.250	24.000	8.0250e-03
11.500	17.000	4.4492e-02
11.500	17.250	3.9744e-02
11.500	17.500	3.6683e-02
11.500	17.750	3.4942e-02
11.500	18.000	3.3413e-02
11.500	18.250	3.1510e-02
11.500	18.500	2.9523e-02
11.500	18.750	2.7866e-02
11.500	19.000	2.6338e-02
11.500	19.250	2.4857e-02
11.500	19.500	2.3419e-02
11.500	19.750	2.2042e-02
11.500	20.000	2.0721e-02
11.500	20.250	2.0230e-02
11.500	20.500	2.3396e-02
11.500	20.750	2.5487e-02
11.500	21.000	2.6992e-02
11.500	21.250	2.7771e-02
11.500	21.500	2.2278e-02
11.500	21.750	1.8281e-02
11.500	22.000	1.5234e-02
11.500	22.250	1.2472e-02
11.500	22.500	1.0561e-02
11.500	22.750	9.4293e-03
11.500	23.000	8.7243e-03
11.500	23.250	8.3780e-03
11.500	23.500	8.1937e-03
11.500	23.750	8.0888e-03
11.500	24.000	8.0440e-03
11.750	17.000	5.0080e-02
11.750	17.250	4.4814e-02
11.750	17.500	4.1431e-02
11.750	17.750	3.9391e-02
11.750	18.000	3.7436e-02
11.750	18.250	3.5224e-02
11.750	18.500	3.2743e-02
11.750	18.750	3.0280e-02
11.750	19.000	2.8315e-02
11.750	19.250	2.6557e-02
11.750	19.500	2.5001e-02
11.750	19.750	2.3616e-02
11.750	20.000	2.2466e-02
11.750	20.250	2.1444e-02
11.750	20.500	2.1655e-02
11.750	20.750	2.5420e-02
11.750	21.000	2.8161e-02
11.750	21.250	3.0211e-02
11.750	21.500	2.9294e-02
11.750	21.750	2.3039e-02
11.750	22.000	1.8537e-02
11.750	22.250	1.5233e-02
11.750	22.500	1.2468e-02
11.750	22.750	1.0561e-02
11.750	23.000	9.4299e-03
11.750	23.250	8.7240e-03
11.750	23.500	8.3780e-03
11.750	23.750	8.1937e-03
11.750	24.000	8.0890e-03
12.000	17.000	5.5592e-02
12.000	17.250	5.0008e-02
12.000	17.500	4.6374e-02
12.000	17.750	4.3995e-02
12.000	18.000	4.1748e-02
12.000	18.250	3.9339e-02
12.000	18.500	3.6586e-02
12.000	18.750	3.3655e-02
12.000	19.000	3.0919e-02
12.000	19.250	2.8572e-02
12.000	19.500	2.6724e-02
12.000	19.750	2.5178e-02
12.000	20.000	2.4008e-02
12.000	20.250	2.3177e-02
12.000	20.500	2.2545e-02
12.000	20.750	2.3596e-02
12.000	21.000	2.8232e-02
12.000	21.250	3.2492e-02
12.000	21.500	3.4790e-02
12.000	21.750	3.0777e-02
12.000	22.000	2.3933e-02
12.000	22.250	1.8885e-02
12.000	22.500	1.5250e-02
12.000	22.750	1.2463e-02
12.000	23.000	1.0561e-02
12.000	23.250	9.4305e-03
12.000	23.500	8.7237e-03
12.000	23.750	8.3779e-03
12.000	24.000	8.1937e-03
12.250	17.000	5.9225e-02
12.250	17.250	5.4340e-02
12.250	17.500	5.0722e-02
12.250	17.750	4.8238e-02
12.250	18.000	4.6070e-02
12.250	18.250	4.3664e-02
12.250	18.500	4.0791e-02
12.250	18.750	3.7689e-02
12.250	19.000	3.4352e-02
12.250	19.250	3.1239e-02
12.250	19.500	2.8743e-02
12.250	19.750	2.6887e-02
12.250	20.000	2.5457e-02
12.250	20.250	2.4600e-02
12.250	20.500	2.4237e-02
12.250	20.750	2.4158e-02
12.250	21.000	2.6639e-02
12.250	21.250	3.2779e-02
12.250	21.500	3.8276e-02
12.250	21.750	4.0092e-02
12.250	22.000	3.2351e-02
12.250	22.250	2.4499e-02
12.250	22.500	1.9049e-02
12.250	22.750	1.5287e-02
12.250	23.000	1.2459e-02
12.250	23.250	1.0560e-02
12.250	23.500	9.4313e-03
12.250	23.750	8.7232e-03
12.250	24.000	8.3778e-03
12.500	17.000	5.6822e-02
12.500	17.250	5.6286e-02
12.500	17.500	5.3723e-02
12.500	17.750	5.1709e-02
12.500	18.000	4.9933e-02
12.500	18.250	4.7772e-02
12.500	18.500	4.5138e-02
12.500	18.750	4.1941e-02
12.500	19.000	3.8311e-02
12.500	19.250	3.4675e-02
12.500	19.500	3.1323e-02
12.500	19.750	2.8830e-02
12.500	20.000	2.7037e-02
12.500	20.250	2.5866e-02
12.500	20.500	2.5480e-02
12.500	20.750	2.5862e-02
12.500	21.000	2.6966e-02
12.500	21.250	3.1549e-02
12.500	21.500	3.9089e-02
12.500	21.750	4.5231e-02
12.500	22.000	4.4044e-02
12.500	22.250	3.3625e-02
12.500	22.500	2.5337e-02
12.500	22.750	1.9502e-02
12.500	23.000	1.5342e-02
12.500	23.250	1.2454e-02
12.500	23.500	1.0559e-02
12.500	23.750	9.4320e-03
12.500	24.000	8.7226e-03
12.750	17.000	5.0587e-02
12.750	17.250	5.3801e-02
12.750	17.500	5.5138e-02
12.750	17.750	5.3967e-02
12.750	18.000	5.2656e-02
12.750	18.250	5.1138e-02
12.750	18.500	4.8951e-02
12.750	18.750	4.6073e-02
12.750	19.000	4.2545e-02
12.750	19.250	3.8590e-02
12.750	19.500	3.4643e-02
12.750	19.750	3.1253e-02
12.750	20.000	2.8814e-02
12.750	20.250	2.7257e-02
12.750	20.500	2.6501e-02
12.750	20.750	2.6856e-02
12.750	21.000	2.8625e-02
12.750	21.250	3.1285e-02
12.750	21.500	3.7914e-02
12.750	21.750	4.7673e-02
12.750	22.000	5.2945e-02
12.750	22.250	4.7337e-02
12.750	22.500	3.5313e-02
12.750	22.750	2.6346e-02
12.750	23.000	1.9883e-02
12.750	23.250	1.5407e-02
12.750	23.500	1.2452e-02
12.750	23.750	1.0559e-02
12.750	24.000	9.4326e-03
13.000	17.000	5.1264e-02
13.000	17.250	4.6822e-02
13.000	17.500	4.9046e-02
13.000	17.750	5.1877e-02
13.000	18.000	5.2444e-02
13.000	18.250	5.2183e-02
13.000	18.500	5.1205e-02
13.000	18.750	4.9203e-02
13.000	19.000	4.6235e-02
13.000	19.250	4.2507e-02
13.000	19.500	3.8375e-02
13.000	19.750	3.4391e-02
13.000	20.000	3.1059e-02
13.000	20.250	2.8756e-02
13.000	20.500	2.7600e-02
13.000	20.750	2.7461e-02
13.000	21.000	2.8760e-02
13.000	21.250	3.2257e-02
13.000	21.500	3.6628e-02
13.000	21.750	4.6746e-02
13.000	22.000	5.6029e-02
13.000	22.250	5.9951e-02
13.000	22.500	5.0384e-02
13.000	22.750	3.6829e-02
13.000	23.000	2.7113e-02
13.000	23.250	2.0219e-02
13.000	23.500	1.5483e-02
13.000	23.750	1.2452e-02
13.000	24.000	1.0558e-02
13.250	17.000	4.8847e-02
13.250	17.250	4.3283e-02
13.250	17.500	2.5768e-02
13.250	17.750	3.4389e-02
13.250	18.000	4.4009e-02
13.250	18.250	4.7751e-02
13.250	18.500	4.9543e-02
13.250	18.750	4.9791e-02
13.250	19.000	4.8371e-02
13.250	19.250	4.5560e-02
13.250	19.500	4.1870e-02
13.250	19.750	3.7880e-02
13.250	20.000	3.3996e-02
13.250	20.250	3.0793e-02
13.250	20.500	2.8733e-02
13.250	20.750	2.7934e-02
13.250	21.000	2.8704e-02
13.250	21.250	3.1202e-02
13.250	21.500	3.5317e-02
13.250	21.750	4.0826e-02
13.250	22.000	5.3075e-02
13.250	22.250	6.3852e-02
13.250	22.500	6.5825e-02
13.250	22.750	5.3529e-02
13.250	23.000	3.8413e-02
13.250	23.250	2.7408e-02
13.250	23.500	2.0312e-02
13.250	23.750	1.5563e-02
13.250	24.000	1.2456e-02
13.500	17.000	4.6643e-02
13.500	17.250	4.1154e-02
13.500	17.500	2.2644e-02
13.500	17.750	2.2063e-02
13.500	18.000	2.2378e-02
13.500	18.250	2.7402e-02
13.500	18.500	3.8258e-02
13.500	18.750	4.4242e-02
13.500	19.000	4.6745e-02
13.500	19.250	4.6444e-02
13.500	19.500	4.4194e-02
13.500	19.750	4.0850e-02
13.500	20.000	3.7072e-02
13.500	20.250	3.3511e-02
13.500	20.500	3.0598e-02
13.500	20.750	2.8732e-02
13.500	21.000	2.8047e-02
13.500	21.250	2.9517e-02
13.500	21.500	3.1744e-02
13.500	21.750	3.6313e-02
13.500	22.000	4.3391e-02
13.500	22.250	5.7857e-02
13.500	22.500	6.9866e-02
13.500	22.750	7.1180e-02
13.500	23.000	5.6736e-02
13.500	23.250	4.0207e-02
13.500	23.500	2.8542e-02
13.500	23.750	2.0783e-02
13.500	24.000	1.5635e-02
13.750	17.000	4.3938e-02
13.750	17.250	4.0564e-02
13.750	17.500	2.1892e-02
13.750	17.750	2.0430e-02
13.750	18.000	2.0604e-02
13.750	18.250	2.0976e-02
13.750	18.500	2.1389e-02
13.750	18.750	2.3308e-02
13.750	19.000	3.6044e-02
13.750	19.250	4.2231e-02
13.750	19.500	4.3621e-02
13.750	19.750	4.2234e-02
13.750	20.000	3.9451e-02
13.750	20.250	3.6201e-02
13.750	20.500	3.3105e-02
13.750	20.750	3.0608e-02
13.750	21.000	2.9035e-02
13.750	21.250	2.8596e-02
13.750	21.500	2.9812e-02
13.750	21.750	3.2920e-02
13.750	22.000	3.7986e-02
13.750	22.250	4.7806e-02
13.750	22.500	6.3269e-02
13.750	22.750	7.6907e-02
13.750	23.000	7.6987e-02
13.750	23.250	5.9887e-02
13.750	23.500	4.1610e-02
13.750	23.750	2.9212e-02
13.750	24.000	2.1043e-02
14.000	17.000	4.0039e-02
14.000	17.250	3.9681e-02
14.000	17.500	2.4319e-02
14.000	17.750	1.8962e-02
14.000	18.000	1.9036e-02
14.000	18.250	1.9349e-02
14.000	18.500	1.9719e-02
14.000	18.750	2.0039e-02
14.000	19.000	2.0280e-02
14.000	19.250	2.5311e-02
14.000	19.500	3.6569e-02
14.000	19.750	4.0123e-02
14.000	20.000	3.9909e-02
14.000	20.250	3.7915e-02
14.000	20.500	3.5352e-02
14.000	20.750	3.2907e-02
14.000	21.000	3.0995e-02
14.000	21.250	3.0052e-02
14.000	21.500	3.0007e-02
14.000	21.750	3.1808e-02
14.000	22.000	3.5634e-02
14.000	22.250	4.2960e-02
14.000	22.500	5.5540e-02
14.000	22.750	7.0867e-02
14.000	23.000	8.4610e-02
14.000	23.250	8.3353e-02
14.000	23.500	6.2984e-02
14.000	23.750	4.2910e-02
14.000	24.000	2.9885e-02
