InwC 3704.34A  relative to Inci 1215.00A scaled to 1215A.
Hden   Phi(H)  Eq_Width (A)
 7.000	17.000	5.6803e-03
 7.000	17.250	5.6828e-03
 7.000	17.500	5.6852e-03
 7.000	17.750	5.6877e-03
 7.000	18.000	5.6900e-03
 7.000	18.250	5.6921e-03
 7.000	18.500	5.6935e-03
 7.000	18.750	5.6942e-03
 7.000	19.000	5.6949e-03
 7.000	19.250	5.6954e-03
 7.000	19.500	5.6956e-03
 7.000	19.750	5.6956e-03
 7.000	20.000	5.6957e-03
 7.000	20.250	5.6957e-03
 7.000	20.500	5.6957e-03
 7.000	20.750	5.6957e-03
 7.000	21.000	5.6957e-03
 7.000	21.250	5.6957e-03
 7.000	21.500	5.6959e-03
 7.000	21.750	5.6957e-03
 7.000	22.000	5.6957e-03
 7.000	22.250	5.6957e-03
 7.000	22.500	5.6957e-03
 7.000	22.750	5.6960e-03
 7.000	23.000	5.6960e-03
 7.000	23.250	5.6958e-03
 7.000	23.500	5.6958e-03
 7.000	23.750	5.6958e-03
 7.000	24.000	5.6957e-03
 7.250	17.000	5.6709e-03
 7.250	17.250	5.6803e-03
 7.250	17.500	5.6828e-03
 7.250	17.750	5.6852e-03
 7.250	18.000	5.6877e-03
 7.250	18.250	5.6900e-03
 7.250	18.500	5.6921e-03
 7.250	18.750	5.6935e-03
 7.250	19.000	5.6942e-03
 7.250	19.250	5.6949e-03
 7.250	19.500	5.6954e-03
 7.250	19.750	5.6956e-03
 7.250	20.000	5.6956e-03
 7.250	20.250	5.6957e-03
 7.250	20.500	5.6957e-03
 7.250	20.750	5.6957e-03
 7.250	21.000	5.6957e-03
 7.250	21.250	5.6957e-03
 7.250	21.500	5.6957e-03
 7.250	21.750	5.6969e-03
 7.250	22.000	5.6958e-03
 7.250	22.250	5.6957e-03
 7.250	22.500	5.6958e-03
 7.250	22.750	5.6963e-03
 7.250	23.000	5.6963e-03
 7.250	23.250	5.6958e-03
 7.250	23.500	5.6958e-03
 7.250	23.750	5.6957e-03
 7.250	24.000	5.6958e-03
 7.500	17.000	5.4491e-03
 7.500	17.250	5.6714e-03
 7.500	17.500	5.6803e-03
 7.500	17.750	5.6828e-03
 7.500	18.000	5.6852e-03
 7.500	18.250	5.6877e-03
 7.500	18.500	5.6900e-03
 7.500	18.750	5.6921e-03
 7.500	19.000	5.6935e-03
 7.500	19.250	5.6942e-03
 7.500	19.500	5.6949e-03
 7.500	19.750	5.6954e-03
 7.500	20.000	5.6956e-03
 7.500	20.250	5.6956e-03
 7.500	20.500	5.6956e-03
 7.500	20.750	5.6957e-03
 7.500	21.000	5.6957e-03
 7.500	21.250	5.6957e-03
 7.500	21.500	5.6957e-03
 7.500	21.750	5.6958e-03
 7.500	22.000	5.6958e-03
 7.500	22.250	5.6958e-03
 7.500	22.500	5.6958e-03
 7.500	22.750	5.6958e-03
 7.500	23.000	5.6960e-03
 7.500	23.250	5.6963e-03
 7.500	23.500	5.6957e-03
 7.500	23.750	5.6965e-03
 7.500	24.000	5.6957e-03
 7.750	17.000	5.0379e-03
 7.750	17.250	5.4500e-03
 7.750	17.500	5.6718e-03
 7.750	17.750	5.6803e-03
 7.750	18.000	5.6828e-03
 7.750	18.250	5.6853e-03
 7.750	18.500	5.6877e-03
 7.750	18.750	5.6900e-03
 7.750	19.000	5.6921e-03
 7.750	19.250	5.6935e-03
 7.750	19.500	5.6942e-03
 7.750	19.750	5.6949e-03
 7.750	20.000	5.6954e-03
 7.750	20.250	5.6956e-03
 7.750	20.500	5.6956e-03
 7.750	20.750	5.6956e-03
 7.750	21.000	5.6957e-03
 7.750	21.250	5.6957e-03
 7.750	21.500	5.6957e-03
 7.750	21.750	5.6957e-03
 7.750	22.000	5.6957e-03
 7.750	22.250	5.6957e-03
 7.750	22.500	5.6957e-03
 7.750	22.750	5.6959e-03
 7.750	23.000	5.6960e-03
 7.750	23.250	5.6958e-03
 7.750	23.500	5.6963e-03
 7.750	23.750	5.6963e-03
 7.750	24.000	5.6957e-03
 8.000	17.000	3.5696e-03
 8.000	17.250	5.0074e-03
 8.000	17.500	5.4481e-03
 8.000	17.750	5.6709e-03
 8.000	18.000	5.6803e-03
 8.000	18.250	5.6828e-03
 8.000	18.500	5.6853e-03
 8.000	18.750	5.6877e-03
 8.000	19.000	5.6900e-03
 8.000	19.250	5.6921e-03
 8.000	19.500	5.6935e-03
 8.000	19.750	5.6942e-03
 8.000	20.000	5.6949e-03
 8.000	20.250	5.6954e-03
 8.000	20.500	5.6956e-03
 8.000	20.750	5.6956e-03
 8.000	21.000	5.6956e-03
 8.000	21.250	5.6957e-03
 8.000	21.500	5.6957e-03
 8.000	21.750	5.6957e-03
 8.000	22.000	5.6957e-03
 8.000	22.250	5.6957e-03
 8.000	22.500	5.6957e-03
 8.000	22.750	5.6959e-03
 8.000	23.000	5.6957e-03
 8.000	23.250	5.6961e-03
 8.000	23.500	5.6957e-03
 8.000	23.750	5.6957e-03
 8.000	24.000	5.6957e-03
 8.250	17.000	2.5082e-03
 8.250	17.250	3.5836e-03
 8.250	17.500	5.0127e-03
 8.250	17.750	5.4489e-03
 8.250	18.000	5.6712e-03
 8.250	18.250	5.6804e-03
 8.250	18.500	5.6829e-03
 8.250	18.750	5.6853e-03
 8.250	19.000	5.6877e-03
 8.250	19.250	5.6900e-03
 8.250	19.500	5.6921e-03
 8.250	19.750	5.6935e-03
 8.250	20.000	5.6942e-03
 8.250	20.250	5.6949e-03
 8.250	20.500	5.6954e-03
 8.250	20.750	5.6956e-03
 8.250	21.000	5.6956e-03
 8.250	21.250	5.6956e-03
 8.250	21.500	5.6957e-03
 8.250	21.750	5.6957e-03
 8.250	22.000	5.6957e-03
 8.250	22.250	5.6957e-03
 8.250	22.500	5.6957e-03
 8.250	22.750	5.6959e-03
 8.250	23.000	5.6957e-03
 8.250	23.250	5.6972e-03
 8.250	23.500	5.6957e-03
 8.250	23.750	5.6957e-03
 8.250	24.000	5.6961e-03
 8.500	17.000	1.7601e-03
 8.500	17.250	2.5267e-03
 8.500	17.500	3.5992e-03
 8.500	17.750	5.0197e-03
 8.500	18.000	5.4495e-03
 8.500	18.250	5.6714e-03
 8.500	18.500	5.6804e-03
 8.500	18.750	5.6829e-03
 8.500	19.000	5.6853e-03
 8.500	19.250	5.6877e-03
 8.500	19.500	5.6900e-03
 8.500	19.750	5.6921e-03
 8.500	20.000	5.6935e-03
 8.500	20.250	5.6942e-03
 8.500	20.500	5.6949e-03
 8.500	20.750	5.6954e-03
 8.500	21.000	5.6956e-03
 8.500	21.250	5.6956e-03
 8.500	21.500	5.6956e-03
 8.500	21.750	5.6957e-03
 8.500	22.000	5.6957e-03
 8.500	22.250	5.6957e-03
 8.500	22.500	5.6957e-03
 8.500	22.750	5.6957e-03
 8.500	23.000	5.6957e-03
 8.500	23.250	5.6959e-03
 8.500	23.500	5.6957e-03
 8.500	23.750	5.6957e-03
 8.500	24.000	5.6957e-03
 8.750	17.000	1.2384e-03
 8.750	17.250	1.7806e-03
 8.750	17.500	2.5528e-03
 8.750	17.750	3.6099e-03
 8.750	18.000	5.0320e-03
 8.750	18.250	5.4499e-03
 8.750	18.500	5.6715e-03
 8.750	18.750	5.6804e-03
 8.750	19.000	5.6829e-03
 8.750	19.250	5.6853e-03
 8.750	19.500	5.6877e-03
 8.750	19.750	5.6901e-03
 8.750	20.000	5.6921e-03
 8.750	20.250	5.6935e-03
 8.750	20.500	5.6942e-03
 8.750	20.750	5.6949e-03
 8.750	21.000	5.6954e-03
 8.750	21.250	5.6956e-03
 8.750	21.500	5.6956e-03
 8.750	21.750	5.6956e-03
 8.750	22.000	5.6957e-03
 8.750	22.250	5.6957e-03
 8.750	22.500	5.6957e-03
 8.750	22.750	5.6957e-03
 8.750	23.000	5.6963e-03
 8.750	23.250	5.6957e-03
 8.750	23.500	5.6958e-03
 8.750	23.750	5.6957e-03
 8.750	24.000	5.6957e-03
 9.000	17.000	8.7374e-04
 9.000	17.250	1.2561e-03
 9.000	17.500	1.8106e-03
 9.000	17.750	2.5987e-03
 9.000	18.000	3.6617e-03
 9.000	18.250	5.0733e-03
 9.000	18.500	5.4499e-03
 9.000	18.750	5.6714e-03
 9.000	19.000	5.6803e-03
 9.000	19.250	5.6829e-03
 9.000	19.500	5.6853e-03
 9.000	19.750	5.6877e-03
 9.000	20.000	5.6901e-03
 9.000	20.250	5.6921e-03
 9.000	20.500	5.6935e-03
 9.000	20.750	5.6942e-03
 9.000	21.000	5.6949e-03
 9.000	21.250	5.6954e-03
 9.000	21.500	5.6956e-03
 9.000	21.750	5.6956e-03
 9.000	22.000	5.6956e-03
 9.000	22.250	5.6956e-03
 9.000	22.500	5.6956e-03
 9.000	22.750	5.6957e-03
 9.000	23.000	5.6957e-03
 9.000	23.250	5.6957e-03
 9.000	23.500	5.6957e-03
 9.000	23.750	5.6957e-03
 9.000	24.000	5.6957e-03
 9.250	17.000	6.1967e-04
 9.250	17.250	8.8889e-04
 9.250	17.500	1.2865e-03
 9.250	17.750	1.8686e-03
 9.250	18.000	2.6829e-03
 9.250	18.250	3.7706e-03
 9.250	18.500	5.1703e-03
 9.250	18.750	5.4493e-03
 9.250	19.000	5.6711e-03
 9.250	19.250	5.6803e-03
 9.250	19.500	5.6829e-03
 9.250	19.750	5.6853e-03
 9.250	20.000	5.6878e-03
 9.250	20.250	5.6901e-03
 9.250	20.500	5.6921e-03
 9.250	20.750	5.6935e-03
 9.250	21.000	5.6942e-03
 9.250	21.250	5.6949e-03
 9.250	21.500	5.6951e-03
 9.250	21.750	5.6951e-03
 9.250	22.000	5.6951e-03
 9.250	22.250	5.6953e-03
 9.250	22.500	5.6954e-03
 9.250	22.750	5.6955e-03
 9.250	23.000	5.6955e-03
 9.250	23.250	5.6956e-03
 9.250	23.500	5.6956e-03
 9.250	23.750	5.6956e-03
 9.250	24.000	5.6956e-03
 9.500	17.000	4.4370e-04
 9.500	17.250	6.3251e-04
 9.500	17.500	9.1720e-04
 9.500	17.750	1.3467e-03
 9.500	18.000	1.9733e-03
 9.500	18.250	2.8510e-03
 9.500	18.500	4.0056e-03
 9.500	18.750	5.3229e-03
 9.500	19.000	5.4480e-03
 9.500	19.250	5.6703e-03
 9.500	19.500	5.6803e-03
 9.500	19.750	5.6829e-03
 9.500	20.000	5.6853e-03
 9.500	20.250	5.6878e-03
 9.500	20.500	5.6901e-03
 9.500	20.750	5.6919e-03
 9.500	21.000	5.6932e-03
 9.500	21.250	5.6938e-03
 9.500	21.500	5.6945e-03
 9.500	21.750	5.6948e-03
 9.500	22.000	5.6950e-03
 9.500	22.250	5.6951e-03
 9.500	22.500	5.6951e-03
 9.500	22.750	5.6951e-03
 9.500	23.000	5.6951e-03
 9.500	23.250	5.6951e-03
 9.500	23.500	5.6951e-03
 9.500	23.750	5.6951e-03
 9.500	24.000	5.6951e-03
 9.750	17.000	3.1975e-04
 9.750	17.250	4.5333e-04
 9.750	17.500	6.5597e-04
 9.750	17.750	9.7243e-04
 9.750	18.000	1.4631e-03
 9.750	18.250	2.1724e-03
 9.750	18.500	3.1517e-03
 9.750	18.750	4.4364e-03
 9.750	19.000	5.3225e-03
 9.750	19.250	5.4456e-03
 9.750	19.500	5.6686e-03
 9.750	19.750	5.6802e-03
 9.750	20.000	5.6829e-03
 9.750	20.250	5.6853e-03
 9.750	20.500	5.6878e-03
 9.750	20.750	5.6901e-03
 9.750	21.000	5.6919e-03
 9.750	21.250	5.6932e-03
 9.750	21.500	5.6939e-03
 9.750	21.750	5.6945e-03
 9.750	22.000	5.6948e-03
 9.750	22.250	5.6950e-03
 9.750	22.500	5.6951e-03
 9.750	22.750	5.6951e-03
 9.750	23.000	5.6951e-03
 9.750	23.250	5.6951e-03
 9.750	23.500	5.6951e-03
 9.750	23.750	5.6951e-03
 9.750	24.000	5.6951e-03
10.000	17.000	2.3284e-04
10.000	17.250	3.2700e-04
10.000	17.500	4.7202e-04
10.000	17.750	7.0551e-04
10.000	18.000	1.0866e-03
10.000	18.250	1.6596e-03
10.000	18.500	2.4645e-03
10.000	18.750	3.5243e-03
10.000	19.000	4.7905e-03
10.000	19.250	5.3203e-03
10.000	19.500	5.4420e-03
10.000	19.750	5.6653e-03
10.000	20.000	5.6801e-03
10.000	20.250	5.6828e-03
10.000	20.500	5.6854e-03
10.000	20.750	5.6879e-03
10.000	21.000	5.6902e-03
10.000	21.250	5.6920e-03
10.000	21.500	5.6932e-03
10.000	21.750	5.6939e-03
10.000	22.000	5.6946e-03
10.000	22.250	5.6949e-03
10.000	22.500	5.6950e-03
10.000	22.750	5.6951e-03
10.000	23.000	5.6951e-03
10.000	23.250	5.6951e-03
10.000	23.500	5.6951e-03
10.000	23.750	5.6951e-03
10.000	24.000	5.6951e-03
10.250	17.000	1.7202e-04
10.250	17.250	2.3868e-04
10.250	17.500	3.4296e-04
10.250	17.750	5.1679e-04
10.250	18.000	8.0856e-04
10.250	18.250	1.2542e-03
10.250	18.500	1.9002e-03
10.250	18.750	2.7840e-03
10.250	19.000	3.9539e-03
10.250	19.250	5.2371e-03
10.250	19.500	5.3172e-03
10.250	19.750	5.4369e-03
10.250	20.000	5.6608e-03
10.250	20.250	5.6799e-03
10.250	20.500	5.6827e-03
10.250	20.750	5.6854e-03
10.250	21.000	5.6879e-03
10.250	21.250	5.6902e-03
10.250	21.500	5.6921e-03
10.250	21.750	5.6933e-03
10.250	22.000	5.6939e-03
10.250	22.250	5.6946e-03
10.250	22.500	5.6950e-03
10.250	22.750	5.6950e-03
10.250	23.000	5.6951e-03
10.250	23.250	5.6951e-03
10.250	23.500	5.6951e-03
10.250	23.750	5.6951e-03
10.250	24.000	5.6951e-03
10.500	17.000	1.2922e-04
10.500	17.250	1.7679e-04
10.500	17.500	2.5259e-04
10.500	17.750	3.8280e-04
10.500	18.000	6.0477e-04
10.500	18.250	9.4963e-04
10.500	18.500	1.4421e-03
10.500	18.750	2.1509e-03
10.500	19.000	3.1001e-03
10.500	19.250	4.3506e-03
10.500	19.500	5.2503e-03
10.500	19.750	5.3141e-03
10.500	20.000	5.4324e-03
10.500	20.250	5.6546e-03
10.500	20.500	5.6795e-03
10.500	20.750	5.6826e-03
10.500	21.000	5.6853e-03
10.500	21.250	5.6879e-03
10.500	21.500	5.6902e-03
10.500	21.750	5.6921e-03
10.500	22.000	5.6934e-03
10.500	22.250	5.6940e-03
10.500	22.500	5.6946e-03
10.500	22.750	5.6951e-03
10.500	23.000	5.6951e-03
10.500	23.250	5.6951e-03
10.500	23.500	5.6951e-03
10.500	23.750	5.6951e-03
10.500	24.000	5.6951e-03
10.750	17.000	9.9095e-05
10.750	17.250	1.3317e-04
10.750	17.500	1.8897e-04
10.750	17.750	2.8683e-04
10.750	18.000	4.5374e-04
10.750	18.250	7.1177e-04
10.750	18.500	1.0887e-03
10.750	18.750	1.6218e-03
10.750	19.000	2.3620e-03
10.750	19.250	3.3757e-03
10.750	19.500	4.6613e-03
10.750	19.750	5.2482e-03
10.750	20.000	5.3113e-03
10.750	20.250	5.4290e-03
10.750	20.500	5.6497e-03
10.750	20.750	5.6786e-03
10.750	21.000	5.6824e-03
10.750	21.250	5.6853e-03
10.750	21.500	5.6879e-03
10.750	21.750	5.6902e-03
10.750	22.000	5.6921e-03
10.750	22.250	5.6935e-03
10.750	22.500	5.6941e-03
10.750	22.750	5.6947e-03
10.750	23.000	5.6951e-03
10.750	23.250	5.6951e-03
10.750	23.500	5.6951e-03
10.750	23.750	5.6951e-03
10.750	24.000	5.6951e-03
11.000	17.000	7.7695e-05
11.000	17.250	1.0214e-04
11.000	17.500	1.4321e-04
11.000	17.750	2.1663e-04
11.000	18.000	3.4000e-04
11.000	18.250	5.2979e-04
11.000	18.500	8.0757e-04
11.000	18.750	1.2052e-03
11.000	19.000	1.7683e-03
11.000	19.250	2.5560e-03
11.000	19.500	3.6314e-03
11.000	19.750	5.0312e-03
11.000	20.000	5.2462e-03
11.000	20.250	5.3103e-03
11.000	20.500	5.4290e-03
11.000	20.750	5.6480e-03
11.000	21.000	5.6780e-03
11.000	21.250	5.6818e-03
11.000	21.500	5.6852e-03
11.000	21.750	5.6878e-03
11.000	22.000	5.6902e-03
11.000	22.250	5.6921e-03
11.000	22.500	5.6935e-03
11.000	22.750	5.6942e-03
11.000	23.000	5.6947e-03
11.000	23.250	5.6951e-03
11.000	23.500	5.6952e-03
11.000	23.750	5.6952e-03
11.000	24.000	5.6951e-03
11.250	17.000	6.2634e-05
11.250	17.250	8.0082e-05
11.250	17.500	1.1012e-04
11.250	17.750	1.6420e-04
11.250	18.000	2.5449e-04
11.250	18.250	3.9103e-04
11.250	18.500	5.9226e-04
11.250	18.750	8.9012e-04
11.250	19.000	1.3052e-03
11.250	19.250	1.8919e-03
11.250	19.500	2.7184e-03
11.250	19.750	3.8696e-03
11.250	20.000	5.1326e-03
11.250	20.250	5.2450e-03
11.250	20.500	5.3102e-03
11.250	20.750	5.4337e-03
11.250	21.000	5.6551e-03
11.250	21.250	5.6771e-03
11.250	21.500	5.6814e-03
11.250	21.750	5.6850e-03
11.250	22.000	5.6877e-03
11.250	22.250	5.6901e-03
11.250	22.500	5.6920e-03
11.250	22.750	5.6935e-03
11.250	23.000	5.6942e-03
11.250	23.250	5.6948e-03
11.250	23.500	5.6951e-03
11.250	23.750	5.6952e-03
11.250	24.000	5.6952e-03
11.500	17.000	5.2181e-05
11.500	17.250	6.4527e-05
11.500	17.500	8.6255e-05
11.500	17.750	1.2543e-04
11.500	18.000	1.8988e-04
11.500	18.250	2.8790e-04
11.500	18.500	4.3317e-04
11.500	18.750	6.4823e-04
11.500	19.000	9.5218e-04
11.500	19.250	1.3836e-03
11.500	19.500	1.9974e-03
11.500	19.750	2.8703e-03
11.500	20.000	4.0928e-03
11.500	20.250	5.1789e-03
11.500	20.500	5.2449e-03
11.500	20.750	5.3140e-03
11.500	21.000	5.4483e-03
11.500	21.250	5.6662e-03
11.500	21.500	5.6767e-03
11.500	21.750	5.6808e-03
11.500	22.000	5.6846e-03
11.500	22.250	5.6876e-03
11.500	22.500	5.6900e-03
11.500	22.750	5.6919e-03
11.500	23.000	5.6934e-03
11.500	23.250	5.6942e-03
11.500	23.500	5.6949e-03
11.500	23.750	5.6951e-03
11.500	24.000	5.6952e-03
11.750	17.000	4.4856e-05
11.750	17.250	5.3663e-05
11.750	17.500	6.9218e-05
11.750	17.750	9.6872e-05
11.750	18.000	1.4173e-04
11.750	18.250	2.1128e-04
11.750	18.500	3.1547e-04
11.750	18.750	4.6741e-04
11.750	19.000	6.9103e-04
11.750	19.250	1.0045e-03
11.750	19.500	1.4523e-03
11.750	19.750	2.0874e-03
11.750	20.000	3.0053e-03
11.750	20.250	4.2917e-03
11.750	20.500	5.2013e-03
11.750	20.750	5.2460e-03
11.750	21.000	5.3249e-03
11.750	21.250	5.4843e-03
11.750	21.500	5.6694e-03
11.750	21.750	5.6760e-03
11.750	22.000	5.6803e-03
11.750	22.250	5.6841e-03
11.750	22.500	5.6873e-03
11.750	22.750	5.6898e-03
11.750	23.000	5.6919e-03
11.750	23.250	5.6934e-03
11.750	23.500	5.6942e-03
11.750	23.750	5.6949e-03
11.750	24.000	5.6953e-03
12.000	17.000	3.9918e-05
12.000	17.250	4.6008e-05
12.000	17.500	5.6872e-05
12.000	17.750	7.5885e-05
12.000	18.000	1.0675e-04
12.000	18.250	1.5556e-04
12.000	18.500	2.2979e-04
12.000	18.750	3.3975e-04
12.000	19.000	4.9967e-04
12.000	19.250	7.2700e-04
12.000	19.500	1.0500e-03
12.000	19.750	1.5095e-03
12.000	20.000	2.1712e-03
12.000	20.250	3.1224e-03
12.000	20.500	4.4639e-03
12.000	20.750	5.1989e-03
12.000	21.000	5.2528e-03
12.000	21.250	5.3558e-03
12.000	21.500	5.5483e-03
12.000	21.750	5.6692e-03
12.000	22.000	5.6751e-03
12.000	22.250	5.6796e-03
12.000	22.500	5.6835e-03
12.000	22.750	5.6869e-03
12.000	23.000	5.6895e-03
12.000	23.250	5.6917e-03
12.000	23.500	5.6933e-03
12.000	23.750	5.6942e-03
12.000	24.000	5.6949e-03
12.250	17.000	3.6379e-05
12.250	17.250	4.0576e-05
12.250	17.500	4.7984e-05
12.250	17.750	6.0741e-05
12.250	18.000	8.1975e-05
12.250	18.250	1.1621e-04
12.250	18.500	1.6889e-04
12.250	18.750	2.4831e-04
12.250	19.000	3.6313e-04
12.250	19.250	5.2650e-04
12.250	19.500	7.5835e-04
12.250	19.750	1.0901e-03
12.250	20.000	1.5587e-03
12.250	20.250	2.2389e-03
12.250	20.500	3.2282e-03
12.250	20.750	4.6271e-03
12.250	21.000	5.1985e-03
12.250	21.250	5.2693e-03
12.250	21.500	5.4031e-03
12.250	21.750	5.6235e-03
12.250	22.000	5.6681e-03
12.250	22.250	5.6738e-03
12.250	22.500	5.6785e-03
12.250	22.750	5.6827e-03
12.250	23.000	5.6863e-03
12.250	23.250	5.6891e-03
12.250	23.500	5.6914e-03
12.250	23.750	5.6933e-03
12.250	24.000	5.6941e-03
12.500	17.000	3.3827e-05
12.500	17.250	3.6708e-05
12.500	17.500	4.1564e-05
12.500	17.750	5.0123e-05
12.500	18.000	6.4774e-05
12.500	18.250	8.8642e-05
12.500	18.500	1.2626e-04
12.500	18.750	1.8280e-04
12.500	19.000	2.6502e-04
12.500	19.250	3.8296e-04
12.500	19.500	5.4798e-04
12.500	19.750	7.8395e-04
12.500	20.000	1.1205e-03
12.500	20.250	1.6006e-03
12.500	20.500	2.3053e-03
12.500	20.750	3.3252e-03
12.500	21.000	4.7530e-03
12.500	21.250	5.2028e-03
12.500	21.500	5.2972e-03
12.500	21.750	5.4601e-03
12.500	22.000	5.6573e-03
12.500	22.250	5.6660e-03
12.500	22.500	5.6720e-03
12.500	22.750	5.6770e-03
12.500	23.000	5.6816e-03
12.500	23.250	5.6854e-03
12.500	23.500	5.6884e-03
12.500	23.750	5.6910e-03
12.500	24.000	5.6932e-03
12.750	17.000	2.5021e-05
12.750	17.250	3.3416e-05
12.750	17.500	3.7037e-05
12.750	17.750	4.2963e-05
12.750	18.000	5.3004e-05
12.750	18.250	6.9794e-05
12.750	18.500	9.6214e-05
12.750	18.750	1.3654e-04
12.750	19.000	1.9556e-04
12.750	19.250	2.7984e-04
12.750	19.500	3.9827e-04
12.750	19.750	5.6576e-04
12.750	20.000	8.0519e-04
12.750	20.250	1.1464e-03
12.750	20.500	1.6430e-03
12.750	20.750	2.3655e-03
12.750	21.000	3.4372e-03
12.750	21.250	4.9310e-03
12.750	21.500	5.2099e-03
12.750	21.750	5.3346e-03
12.750	22.000	5.5194e-03
12.750	22.250	5.6544e-03
12.750	22.500	5.6628e-03
12.750	22.750	5.6694e-03
12.750	23.000	5.6750e-03
12.750	23.250	5.6798e-03
12.750	23.500	5.6841e-03
12.750	23.750	5.6873e-03
12.750	24.000	5.6905e-03
13.000	17.000	1.2510e-05
13.000	17.250	2.3292e-05
13.000	17.500	3.2263e-05
13.000	17.750	3.8189e-05
13.000	18.000	4.5103e-05
13.000	18.250	5.6708e-05
13.000	18.500	7.5309e-05
13.000	18.750	1.0379e-04
13.000	19.000	1.4584e-04
13.000	19.250	2.0593e-04
13.000	19.500	2.9078e-04
13.000	19.750	4.1037e-04
13.000	20.000	5.7967e-04
13.000	20.250	8.2263e-04
13.000	20.500	1.1723e-03
13.000	20.750	1.6840e-03
13.000	21.000	2.4371e-03
13.000	21.250	3.5608e-03
13.000	21.500	5.0338e-03
13.000	21.750	5.2215e-03
13.000	22.000	5.3636e-03
13.000	22.250	5.5598e-03
13.000	22.500	5.6486e-03
13.000	22.750	5.6577e-03
13.000	23.000	5.6653e-03
13.000	23.250	5.6718e-03
13.000	23.500	5.6774e-03
13.000	23.750	5.6820e-03
13.000	24.000	5.6858e-03
13.250	17.000	7.5720e-06
13.250	17.250	1.4403e-05
13.250	17.500	2.8066e-05
13.250	17.750	3.4979e-05
13.250	18.000	3.9753e-05
13.250	18.250	4.7737e-05
13.250	18.500	6.0658e-05
13.250	18.750	8.0658e-05
13.250	19.000	1.1037e-04
13.250	19.250	1.5309e-04
13.250	19.500	2.1391e-04
13.250	19.750	2.9959e-04
13.250	20.000	4.2049e-04
13.250	20.250	5.9276e-04
13.250	20.500	8.4198e-04
13.250	20.750	1.2011e-03
13.250	21.000	1.7354e-03
13.250	21.250	2.5225e-03
13.250	21.500	3.6344e-03
13.250	21.750	5.0345e-03
13.250	22.000	5.2089e-03
13.250	22.250	5.3773e-03
13.250	22.500	5.5635e-03
13.250	22.750	5.6391e-03
13.250	23.000	5.6499e-03
13.250	23.250	5.6588e-03
13.250	23.500	5.6667e-03
13.250	23.750	5.6735e-03
13.250	24.000	5.6788e-03
13.500	17.000	4.5267e-06
13.500	17.250	8.8889e-06
13.500	17.500	1.8519e-05
13.500	17.750	2.9383e-05
13.500	18.000	3.5885e-05
13.500	18.250	4.1481e-05
13.500	18.500	5.0370e-05
13.500	18.750	6.4280e-05
13.500	19.000	8.5185e-05
13.500	19.250	1.1547e-04
13.500	19.500	1.5909e-04
13.500	19.750	2.2049e-04
13.500	20.000	3.0683e-04
13.500	20.250	4.2963e-04
13.500	20.500	6.0634e-04
13.500	20.750	8.6115e-04
13.500	21.000	1.2300e-03
13.500	21.250	1.7854e-03
13.500	21.500	2.5622e-03
13.500	21.750	3.7144e-03
13.500	22.000	4.9987e-03
13.500	22.250	5.1753e-03
13.500	22.500	5.3485e-03
13.500	22.750	5.5379e-03
13.500	23.000	5.6241e-03
13.500	23.250	5.6377e-03
13.500	23.500	5.6495e-03
13.500	23.750	5.6595e-03
13.500	24.000	5.6675e-03
13.750	17.000	2.7160e-06
13.750	17.250	5.3498e-06
13.750	17.500	1.1770e-05
13.750	17.750	2.1152e-05
13.750	18.000	3.2757e-05
13.750	18.250	3.6955e-05
13.750	18.500	4.3045e-05
13.750	18.750	5.2675e-05
13.750	19.000	6.7325e-05
13.750	19.250	8.8724e-05
13.750	19.500	1.1967e-04
13.750	19.750	1.6362e-04
13.750	20.000	2.2568e-04
13.750	20.250	3.1374e-04
13.750	20.500	4.3967e-04
13.750	20.750	6.2173e-04
13.750	21.000	8.8527e-04
13.750	21.250	1.2697e-03
13.750	21.500	1.8180e-03
13.750	21.750	2.6495e-03
13.750	22.000	3.8128e-03
13.750	22.250	4.9477e-03
13.750	22.500	5.1144e-03
13.750	22.750	5.3094e-03
13.750	23.000	5.5085e-03
13.750	23.250	5.6010e-03
13.750	23.500	5.6188e-03
13.750	23.750	5.6348e-03
13.750	24.000	5.6482e-03
14.000	17.000	1.5638e-06
14.000	17.250	3.2099e-06
14.000	17.500	7.1605e-06
14.000	17.750	1.4321e-05
14.000	18.000	2.4774e-05
14.000	18.250	3.3909e-05
14.000	18.500	3.8025e-05
14.000	18.750	4.4527e-05
14.000	19.000	5.4568e-05
14.000	19.250	6.9547e-05
14.000	19.500	9.1358e-05
14.000	19.750	1.2280e-04
14.000	20.000	1.6733e-04
14.000	20.250	2.3037e-04
14.000	20.500	3.2099e-04
14.000	20.750	4.5160e-04
14.000	21.000	6.3975e-04
14.000	21.250	9.1778e-04
14.000	21.500	1.3061e-03
14.000	21.750	1.9002e-03
14.000	22.000	2.7787e-03
14.000	22.250	3.9551e-03
14.000	22.500	4.8746e-03
14.000	22.750	5.0455e-03
14.000	23.000	5.2555e-03
14.000	23.250	5.4780e-03
14.000	23.500	5.5663e-03
14.000	23.750	5.5902e-03
14.000	24.000	5.6130e-03
