InwT 4400.00A  relative to Inci 1215.00A scaled to 1215A.
Hden   Phi(H)  Eq_Width (A)
 7.000	17.000	1.2169e-02
 7.000	17.250	8.7793e-03
 7.000	17.500	6.9354e-03
 7.000	17.750	5.9788e-03
 7.000	18.000	5.5047e-03
 7.000	18.250	5.2441e-03
 7.000	18.500	5.0982e-03
 7.000	18.750	5.0344e-03
 7.000	19.000	5.0017e-03
 7.000	19.250	4.9838e-03
 7.000	19.500	4.9766e-03
 7.000	19.750	4.9737e-03
 7.000	20.000	4.9725e-03
 7.000	20.250	4.9719e-03
 7.000	20.500	4.9717e-03
 7.000	20.750	4.9715e-03
 7.000	21.000	4.9714e-03
 7.000	21.250	4.9714e-03
 7.000	21.500	4.9714e-03
 7.000	21.750	4.9714e-03
 7.000	22.000	4.9714e-03
 7.000	22.250	4.9714e-03
 7.000	22.500	4.9714e-03
 7.000	22.750	4.9714e-03
 7.000	23.000	4.9714e-03
 7.000	23.250	4.9714e-03
 7.000	23.500	4.9713e-03
 7.000	23.750	4.9713e-03
 7.000	24.000	4.9714e-03
 7.250	17.000	1.8181e-02
 7.250	17.250	1.2160e-02
 7.250	17.500	8.7743e-03
 7.250	17.750	6.9323e-03
 7.250	18.000	5.9778e-03
 7.250	18.250	5.5043e-03
 7.250	18.500	5.2440e-03
 7.250	18.750	5.0981e-03
 7.250	19.000	5.0344e-03
 7.250	19.250	5.0017e-03
 7.250	19.500	4.9838e-03
 7.250	19.750	4.9766e-03
 7.250	20.000	4.9737e-03
 7.250	20.250	4.9725e-03
 7.250	20.500	4.9719e-03
 7.250	20.750	4.9716e-03
 7.250	21.000	4.9715e-03
 7.250	21.250	4.9714e-03
 7.250	21.500	4.9714e-03
 7.250	21.750	4.9723e-03
 7.250	22.000	4.9714e-03
 7.250	22.250	4.9714e-03
 7.250	22.500	4.9714e-03
 7.250	22.750	4.9719e-03
 7.250	23.000	4.9719e-03
 7.250	23.250	4.9714e-03
 7.250	23.500	4.9714e-03
 7.250	23.750	4.9713e-03
 7.250	24.000	4.9714e-03
 7.500	17.000	2.4975e-02
 7.500	17.250	1.8173e-02
 7.500	17.500	1.2155e-02
 7.500	17.750	8.7705e-03
 7.500	18.000	6.9292e-03
 7.500	18.250	5.9766e-03
 7.500	18.500	5.5040e-03
 7.500	18.750	5.2439e-03
 7.500	19.000	5.0981e-03
 7.500	19.250	5.0344e-03
 7.500	19.500	5.0017e-03
 7.500	19.750	4.9838e-03
 7.500	20.000	4.9766e-03
 7.500	20.250	4.9737e-03
 7.500	20.500	4.9724e-03
 7.500	20.750	4.9719e-03
 7.500	21.000	4.9716e-03
 7.500	21.250	4.9714e-03
 7.500	21.500	4.9714e-03
 7.500	21.750	4.9714e-03
 7.500	22.000	4.9714e-03
 7.500	22.250	4.9714e-03
 7.500	22.500	4.9714e-03
 7.500	22.750	4.9714e-03
 7.500	23.000	4.9716e-03
 7.500	23.250	4.9719e-03
 7.500	23.500	4.9714e-03
 7.500	23.750	4.9719e-03
 7.500	24.000	4.9713e-03
 7.750	17.000	3.4548e-02
 7.750	17.250	2.4967e-02
 7.750	17.500	1.8168e-02
 7.750	17.750	1.2151e-02
 7.750	18.000	8.7675e-03
 7.750	18.250	6.9260e-03
 7.750	18.500	5.9754e-03
 7.750	18.750	5.5035e-03
 7.750	19.000	5.2438e-03
 7.750	19.250	5.0980e-03
 7.750	19.500	5.0343e-03
 7.750	19.750	5.0017e-03
 7.750	20.000	4.9838e-03
 7.750	20.250	4.9766e-03
 7.750	20.500	4.9737e-03
 7.750	20.750	4.9724e-03
 7.750	21.000	4.9719e-03
 7.750	21.250	4.9716e-03
 7.750	21.500	4.9714e-03
 7.750	21.750	4.9714e-03
 7.750	22.000	4.9714e-03
 7.750	22.250	4.9714e-03
 7.750	22.500	4.9714e-03
 7.750	22.750	4.9714e-03
 7.750	23.000	4.9714e-03
 7.750	23.250	4.9714e-03
 7.750	23.500	4.9719e-03
 7.750	23.750	4.9719e-03
 7.750	24.000	4.9713e-03
 8.000	17.000	3.4440e-02
 8.000	17.250	3.4180e-02
 8.000	17.500	2.4914e-02
 8.000	17.750	1.8154e-02
 8.000	18.000	1.2150e-02
 8.000	18.250	8.7651e-03
 8.000	18.500	6.9227e-03
 8.000	18.750	5.9741e-03
 8.000	19.000	5.5031e-03
 8.000	19.250	5.2437e-03
 8.000	19.500	5.0980e-03
 8.000	19.750	5.0343e-03
 8.000	20.000	5.0017e-03
 8.000	20.250	4.9838e-03
 8.000	20.500	4.9766e-03
 8.000	20.750	4.9737e-03
 8.000	21.000	4.9724e-03
 8.000	21.250	4.9719e-03
 8.000	21.500	4.9716e-03
 8.000	21.750	4.9714e-03
 8.000	22.000	4.9714e-03
 8.000	22.250	4.9714e-03
 8.000	22.500	4.9713e-03
 8.000	22.750	4.9714e-03
 8.000	23.000	4.9713e-03
 8.000	23.250	4.9716e-03
 8.000	23.500	4.9713e-03
 8.000	23.750	4.9713e-03
 8.000	24.000	4.9713e-03
 8.250	17.000	3.4391e-02
 8.250	17.250	3.4531e-02
 8.250	17.500	3.4199e-02
 8.250	17.750	2.4914e-02
 8.250	18.000	1.8155e-02
 8.250	18.250	1.2149e-02
 8.250	18.500	8.7630e-03
 8.250	18.750	6.9192e-03
 8.250	19.000	5.9725e-03
 8.250	19.250	5.5027e-03
 8.250	19.500	5.2436e-03
 8.250	19.750	5.0980e-03
 8.250	20.000	5.0343e-03
 8.250	20.250	5.0017e-03
 8.250	20.500	4.9838e-03
 8.250	20.750	4.9766e-03
 8.250	21.000	4.9737e-03
 8.250	21.250	4.9724e-03
 8.250	21.500	4.9719e-03
 8.250	21.750	4.9716e-03
 8.250	22.000	4.9714e-03
 8.250	22.250	4.9714e-03
 8.250	22.500	4.9714e-03
 8.250	22.750	4.9714e-03
 8.250	23.000	4.9713e-03
 8.250	23.250	4.9726e-03
 8.250	23.500	4.9713e-03
 8.250	23.750	4.9713e-03
 8.250	24.000	4.9716e-03
 8.500	17.000	3.4287e-02
 8.500	17.250	3.4565e-02
 8.500	17.500	3.4642e-02
 8.500	17.750	3.4237e-02
 8.500	18.000	2.4919e-02
 8.500	18.250	1.8158e-02
 8.500	18.500	1.2149e-02
 8.500	18.750	8.7609e-03
 8.500	19.000	6.9152e-03
 8.500	19.250	5.9709e-03
 8.500	19.500	5.5022e-03
 8.500	19.750	5.2435e-03
 8.500	20.000	5.0980e-03
 8.500	20.250	5.0343e-03
 8.500	20.500	5.0017e-03
 8.500	20.750	4.9838e-03
 8.500	21.000	4.9766e-03
 8.500	21.250	4.9737e-03
 8.500	21.500	4.9724e-03
 8.500	21.750	4.9719e-03
 8.500	22.000	4.9716e-03
 8.500	22.250	4.9714e-03
 8.500	22.500	4.9714e-03
 8.500	22.750	4.9714e-03
 8.500	23.000	4.9713e-03
 8.500	23.250	4.9714e-03
 8.500	23.500	4.9713e-03
 8.500	23.750	4.9713e-03
 8.500	24.000	4.9713e-03
 8.750	17.000	3.4109e-02
 8.750	17.250	3.4567e-02
 8.750	17.500	3.4845e-02
 8.750	17.750	3.4767e-02
 8.750	18.000	3.4328e-02
 8.750	18.250	2.4925e-02
 8.750	18.500	1.8161e-02
 8.750	18.750	1.2151e-02
 8.750	19.000	8.7590e-03
 8.750	19.250	6.9110e-03
 8.750	19.500	5.9691e-03
 8.750	19.750	5.5017e-03
 8.750	20.000	5.2434e-03
 8.750	20.250	5.0979e-03
 8.750	20.500	5.0343e-03
 8.750	20.750	5.0017e-03
 8.750	21.000	4.9838e-03
 8.750	21.250	4.9766e-03
 8.750	21.500	4.9737e-03
 8.750	21.750	4.9724e-03
 8.750	22.000	4.9719e-03
 8.750	22.250	4.9716e-03
 8.750	22.500	4.9714e-03
 8.750	22.750	4.9714e-03
 8.750	23.000	4.9719e-03
 8.750	23.250	4.9713e-03
 8.750	23.500	4.9714e-03
 8.750	23.750	4.9713e-03
 8.750	24.000	4.9713e-03
 9.000	17.000	3.3771e-02
 9.000	17.250	3.4501e-02
 9.000	17.500	3.5057e-02
 9.000	17.750	3.5402e-02
 9.000	18.000	3.5274e-02
 9.000	18.250	3.4667e-02
 9.000	18.500	2.4927e-02
 9.000	18.750	1.8164e-02
 9.000	19.000	1.2153e-02
 9.000	19.250	8.7575e-03
 9.000	19.500	6.9068e-03
 9.000	19.750	5.9672e-03
 9.000	20.000	5.5012e-03
 9.000	20.250	5.2433e-03
 9.000	20.500	5.0979e-03
 9.000	20.750	5.0343e-03
 9.000	21.000	5.0017e-03
 9.000	21.250	4.9838e-03
 9.000	21.500	4.9766e-03
 9.000	21.750	4.9737e-03
 9.000	22.000	4.9724e-03
 9.000	22.250	4.9719e-03
 9.000	22.500	4.9716e-03
 9.000	22.750	4.9714e-03
 9.000	23.000	4.9714e-03
 9.000	23.250	4.9714e-03
 9.000	23.500	4.9713e-03
 9.000	23.750	4.9713e-03
 9.000	24.000	4.9714e-03
 9.250	17.000	3.3219e-02
 9.250	17.250	3.4298e-02
 9.250	17.500	3.5282e-02
 9.250	17.750	3.6142e-02
 9.250	18.000	3.6616e-02
 9.250	18.250	3.6533e-02
 9.250	18.500	3.5501e-02
 9.250	18.750	2.4921e-02
 9.250	19.000	1.8165e-02
 9.250	19.250	1.2155e-02
 9.250	19.500	8.7570e-03
 9.250	19.750	6.9030e-03
 9.250	20.000	5.9654e-03
 9.250	20.250	5.5007e-03
 9.250	20.500	5.2432e-03
 9.250	20.750	5.0979e-03
 9.250	21.000	5.0343e-03
 9.250	21.250	5.0017e-03
 9.250	21.500	4.9835e-03
 9.250	21.750	4.9763e-03
 9.250	22.000	4.9733e-03
 9.250	22.250	4.9721e-03
 9.250	22.500	4.9717e-03
 9.250	22.750	4.9714e-03
 9.250	23.000	4.9713e-03
 9.250	23.250	4.9713e-03
 9.250	23.500	4.9712e-03
 9.250	23.750	4.9712e-03
 9.250	24.000	4.9712e-03
 9.500	17.000	3.2495e-02
 9.500	17.250	3.3953e-02
 9.500	17.500	3.5465e-02
 9.500	17.750	3.7035e-02
 9.500	18.000	3.8378e-02
 9.500	18.250	3.9377e-02
 9.500	18.500	3.9552e-02
 9.500	18.750	3.6846e-02
 9.500	19.000	2.4904e-02
 9.500	19.250	1.8161e-02
 9.500	19.500	1.2159e-02
 9.500	19.750	8.7578e-03
 9.500	20.000	6.9001e-03
 9.500	20.250	5.9640e-03
 9.500	20.500	5.5004e-03
 9.500	20.750	5.2429e-03
 9.500	21.000	5.0976e-03
 9.500	21.250	5.0340e-03
 9.500	21.500	5.0013e-03
 9.500	21.750	4.9833e-03
 9.500	22.000	4.9761e-03
 9.500	22.250	4.9733e-03
 9.500	22.500	4.9719e-03
 9.500	22.750	4.9714e-03
 9.500	23.000	4.9711e-03
 9.500	23.250	4.9709e-03
 9.500	23.500	4.9709e-03
 9.500	23.750	4.9709e-03
 9.500	24.000	4.9708e-03
 9.750	17.000	3.1447e-02
 9.750	17.250	3.3378e-02
 9.750	17.500	3.5506e-02
 9.750	17.750	3.8015e-02
 9.750	18.000	4.0798e-02
 9.750	18.250	4.3199e-02
 9.750	18.500	4.4836e-02
 9.750	18.750	4.5211e-02
 9.750	19.000	3.6786e-02
 9.750	19.250	2.4871e-02
 9.750	19.500	1.8149e-02
 9.750	19.750	1.2163e-02
 9.750	20.000	8.7595e-03
 9.750	20.250	6.8984e-03
 9.750	20.500	5.9628e-03
 9.750	20.750	5.5001e-03
 9.750	21.000	5.2429e-03
 9.750	21.250	5.0975e-03
 9.750	21.500	5.0341e-03
 9.750	21.750	5.0014e-03
 9.750	22.000	4.9833e-03
 9.750	22.250	4.9761e-03
 9.750	22.500	4.9733e-03
 9.750	22.750	4.9720e-03
 9.750	23.000	4.9714e-03
 9.750	23.250	4.9711e-03
 9.750	23.500	4.9709e-03
 9.750	23.750	4.9709e-03
 9.750	24.000	4.9708e-03
10.000	17.000	3.0027e-02
10.000	17.250	3.2562e-02
10.000	17.500	3.5478e-02
10.000	17.750	3.9137e-02
10.000	18.000	4.3677e-02
10.000	18.250	4.7918e-02
10.000	18.500	5.0959e-02
10.000	18.750	5.2346e-02
10.000	19.000	5.0462e-02
10.000	19.250	3.6670e-02
10.000	19.500	2.4816e-02
10.000	19.750	1.8120e-02
10.000	20.000	1.2166e-02
10.000	20.250	8.7622e-03
10.000	20.500	6.8975e-03
10.000	20.750	5.9619e-03
10.000	21.000	5.5000e-03
10.000	21.250	5.2429e-03
10.000	21.500	5.0975e-03
10.000	21.750	5.0341e-03
10.000	22.000	5.0014e-03
10.000	22.250	4.9834e-03
10.000	22.500	4.9761e-03
10.000	22.750	4.9733e-03
10.000	23.000	4.9720e-03
10.000	23.250	4.9714e-03
10.000	23.500	4.9711e-03
10.000	23.750	4.9709e-03
10.000	24.000	4.9709e-03
10.250	17.000	2.8848e-02
10.250	17.250	3.1542e-02
10.250	17.500	3.5484e-02
10.250	17.750	4.0624e-02
10.250	18.000	4.6914e-02
10.250	18.250	5.2867e-02
10.250	18.500	5.7434e-02
10.250	18.750	6.0264e-02
10.250	19.000	6.1245e-02
10.250	19.250	5.6837e-02
10.250	19.500	3.6547e-02
10.250	19.750	2.4731e-02
10.250	20.000	1.8073e-02
10.250	20.250	1.2168e-02
10.250	20.500	8.7651e-03
10.250	20.750	6.8975e-03
10.250	21.000	5.9614e-03
10.250	21.250	5.5001e-03
10.250	21.500	5.2430e-03
10.250	21.750	5.0976e-03
10.250	22.000	5.0341e-03
10.250	22.250	5.0014e-03
10.250	22.500	4.9835e-03
10.250	22.750	4.9761e-03
10.250	23.000	4.9733e-03
10.250	23.250	4.9720e-03
10.250	23.500	4.9714e-03
10.250	23.750	4.9711e-03
10.250	24.000	4.9709e-03
10.500	17.000	2.8104e-02
10.500	17.250	3.0964e-02
10.500	17.500	3.5669e-02
10.500	17.750	4.2606e-02
10.500	18.000	5.0523e-02
10.500	18.250	5.7928e-02
10.500	18.500	6.3635e-02
10.500	18.750	6.7743e-02
10.500	19.000	6.9739e-02
10.500	19.250	6.9939e-02
10.500	19.500	5.7253e-02
10.500	19.750	3.6477e-02
10.500	20.000	2.4661e-02
10.500	20.250	1.8005e-02
10.500	20.500	1.2166e-02
10.500	20.750	8.7675e-03
10.500	21.000	6.8986e-03
10.500	21.250	5.9614e-03
10.500	21.500	5.5003e-03
10.500	21.750	5.2430e-03
10.500	22.000	5.0977e-03
10.500	22.250	5.0342e-03
10.500	22.500	5.0015e-03
10.500	22.750	4.9835e-03
10.500	23.000	4.9762e-03
10.500	23.250	4.9732e-03
10.500	23.500	4.9720e-03
10.500	23.750	4.9714e-03
10.500	24.000	4.9711e-03
10.750	17.000	2.7960e-02
10.750	17.250	3.0964e-02
10.750	17.500	3.6669e-02
10.750	17.750	4.5021e-02
10.750	18.000	5.4282e-02
10.750	18.250	6.2594e-02
10.750	18.500	6.9312e-02
10.750	18.750	7.4270e-02
10.750	19.000	7.7277e-02
10.750	19.250	7.8404e-02
10.750	19.500	7.7072e-02
10.750	19.750	5.7086e-02
10.750	20.000	3.6434e-02
10.750	20.250	2.4616e-02
10.750	20.500	1.7934e-02
10.750	20.750	1.2158e-02
10.750	21.000	8.7682e-03
10.750	21.250	6.9004e-03
10.750	21.500	5.9617e-03
10.750	21.750	5.5007e-03
10.750	22.000	5.2430e-03
10.750	22.250	5.0977e-03
10.750	22.500	5.0342e-03
10.750	22.750	5.0015e-03
10.750	23.000	4.9835e-03
10.750	23.250	4.9762e-03
10.750	23.500	4.9733e-03
10.750	23.750	4.9719e-03
10.750	24.000	4.9714e-03
11.000	17.000	2.8380e-02
11.000	17.250	3.1580e-02
11.000	17.500	3.8175e-02
11.000	17.750	4.7673e-02
11.000	18.000	5.7615e-02
11.000	18.250	6.6505e-02
11.000	18.500	7.3919e-02
11.000	18.750	7.9690e-02
11.000	19.000	8.3715e-02
11.000	19.250	8.5928e-02
11.000	19.500	8.6260e-02
11.000	19.750	8.3873e-02
11.000	20.000	5.7069e-02
11.000	20.250	3.6573e-02
11.000	20.500	2.4605e-02
11.000	20.750	1.7879e-02
11.000	21.000	1.2136e-02
11.000	21.250	8.7654e-03
11.000	21.500	6.9028e-03
11.000	21.750	5.9626e-03
11.000	22.000	5.5012e-03
11.000	22.250	5.2431e-03
11.000	22.500	5.0976e-03
11.000	22.750	5.0343e-03
11.000	23.000	5.0016e-03
11.000	23.250	4.9835e-03
11.000	23.500	4.9763e-03
11.000	23.750	4.9733e-03
11.000	24.000	4.9720e-03
11.250	17.000	2.9298e-02
11.250	17.250	3.2659e-02
11.250	17.500	3.9908e-02
11.250	17.750	5.0028e-02
11.250	18.000	6.0375e-02
11.250	18.250	6.9528e-02
11.250	18.500	7.7436e-02
11.250	18.750	8.4110e-02
11.250	19.000	8.8844e-02
11.250	19.250	9.1972e-02
11.250	19.500	9.3244e-02
11.250	19.750	9.2766e-02
11.250	20.000	8.6191e-02
11.250	20.250	5.6987e-02
11.250	20.500	3.6534e-02
11.250	20.750	2.4654e-02
11.250	21.000	1.7873e-02
11.250	21.250	1.2099e-02
11.250	21.500	8.7558e-03
11.250	21.750	6.9051e-03
11.250	22.000	5.9637e-03
11.250	22.250	5.5018e-03
11.250	22.500	5.2432e-03
11.250	22.750	5.0976e-03
11.250	23.000	5.0343e-03
11.250	23.250	5.0017e-03
11.250	23.500	4.9835e-03
11.250	23.750	4.9763e-03
11.250	24.000	4.9733e-03
11.500	17.000	3.0740e-02
11.500	17.250	3.4142e-02
11.500	17.500	4.1671e-02
11.500	17.750	5.1993e-02
11.500	18.000	6.2463e-02
11.500	18.250	7.1854e-02
11.500	18.500	8.0157e-02
11.500	18.750	8.7354e-02
11.500	19.000	9.2933e-02
11.500	19.250	9.6751e-02
11.500	19.500	9.8757e-02
11.500	19.750	9.9358e-02
11.500	20.000	9.8366e-02
11.500	20.250	8.6215e-02
11.500	20.500	5.7116e-02
11.500	20.750	3.6703e-02
11.500	21.000	2.4841e-02
11.500	21.250	1.7886e-02
11.500	21.500	1.2044e-02
11.500	21.750	8.7376e-03
11.500	22.000	6.9066e-03
11.500	22.250	5.9650e-03
11.500	22.500	5.5026e-03
11.500	22.750	5.2434e-03
11.500	23.000	5.0975e-03
11.500	23.250	5.0343e-03
11.500	23.500	5.0017e-03
11.500	23.750	4.9835e-03
11.500	24.000	4.9763e-03
11.750	17.000	3.2714e-02
11.750	17.250	3.5974e-02
11.750	17.500	4.3384e-02
11.750	17.750	5.3568e-02
11.750	18.000	6.3976e-02
11.750	18.250	7.3619e-02
11.750	18.500	8.2365e-02
11.750	18.750	9.0015e-02
11.750	19.000	9.6423e-02
11.750	19.250	1.0093e-01
11.750	19.500	1.0364e-01
11.750	19.750	1.0472e-01
11.750	20.000	1.0486e-01
11.750	20.250	1.0364e-01
11.750	20.500	8.6990e-02
11.750	20.750	5.7281e-02
11.750	21.000	3.7022e-02
11.750	21.250	2.5352e-02
11.750	21.500	1.7804e-02
11.750	21.750	1.1971e-02
11.750	22.000	8.7070e-03
11.750	22.250	6.9058e-03
11.750	22.500	5.9665e-03
11.750	22.750	5.5032e-03
11.750	23.000	5.2435e-03
11.750	23.250	5.0974e-03
11.750	23.500	5.0342e-03
11.750	23.750	5.0017e-03
11.750	24.000	4.9837e-03
12.000	17.000	3.5264e-02
12.000	17.250	3.8106e-02
12.000	17.500	4.4906e-02
12.000	17.750	5.4580e-02
12.000	18.000	6.5022e-02
12.000	18.250	7.5088e-02
12.000	18.500	8.4425e-02
12.000	18.750	9.2767e-02
12.000	19.000	9.9671e-02
12.000	19.250	1.0497e-01
12.000	19.500	1.0829e-01
12.000	19.750	1.0983e-01
12.000	20.000	1.1045e-01
12.000	20.250	1.1019e-01
12.000	20.500	1.0874e-01
12.000	20.750	8.6760e-02
12.000	21.000	5.7590e-02
12.000	21.250	3.7933e-02
12.000	21.500	2.6299e-02
12.000	21.750	1.7688e-02
12.000	22.000	1.1882e-02
12.000	22.250	8.6664e-03
12.000	22.500	6.9016e-03
12.000	22.750	5.9678e-03
12.000	23.000	5.5039e-03
12.000	23.250	5.2437e-03
12.000	23.500	5.0972e-03
12.000	23.750	5.0342e-03
12.000	24.000	5.0017e-03
12.250	17.000	3.8163e-02
12.250	17.250	4.0332e-02
12.250	17.500	4.6012e-02
12.250	17.750	5.4863e-02
12.250	18.000	6.5494e-02
12.250	18.250	7.6428e-02
12.250	18.500	8.6696e-02
12.250	18.750	9.5805e-02
12.250	19.000	1.0319e-01
12.250	19.250	1.0895e-01
12.250	19.500	1.1292e-01
12.250	19.750	1.1524e-01
12.250	20.000	1.1584e-01
12.250	20.250	1.1609e-01
12.250	20.500	1.1594e-01
12.250	20.750	1.1467e-01
12.250	21.000	8.7357e-02
12.250	21.250	5.8617e-02
12.250	21.500	3.9283e-02
12.250	21.750	2.7396e-02
12.250	22.000	1.7551e-02
12.250	22.250	1.1817e-02
12.250	22.500	8.6444e-03
12.250	22.750	6.8928e-03
12.250	23.000	5.9687e-03
12.250	23.250	5.5044e-03
12.250	23.500	5.2438e-03
12.250	23.750	5.0970e-03
12.250	24.000	5.0342e-03
12.500	17.000	4.0412e-02
12.500	17.250	4.1701e-02
12.500	17.500	4.6360e-02
12.500	17.750	5.4549e-02
12.500	18.000	6.5509e-02
12.500	18.250	7.7388e-02
12.500	18.500	8.8945e-02
12.500	18.750	9.9095e-02
12.500	19.000	1.0715e-01
12.500	19.250	1.1322e-01
12.500	19.500	1.1745e-01
12.500	19.750	1.2030e-01
12.500	20.000	1.2166e-01
12.500	20.250	1.2194e-01
12.500	20.500	1.2237e-01
12.500	20.750	1.2265e-01
12.500	21.000	1.2193e-01
12.500	21.250	8.9499e-02
12.500	21.500	6.0235e-02
12.500	21.750	4.0871e-02
12.500	22.000	2.7775e-02
12.500	22.250	1.7426e-02
12.500	22.500	1.1722e-02
12.500	22.750	8.5877e-03
12.500	23.000	6.8796e-03
12.500	23.250	5.9690e-03
12.500	23.500	5.5044e-03
12.500	23.750	5.2437e-03
12.500	24.000	5.0966e-03
12.750	17.000	3.6291e-02
12.750	17.250	4.0162e-02
12.750	17.500	4.5688e-02
12.750	17.750	5.4432e-02
12.750	18.000	6.5606e-02
12.750	18.250	7.8157e-02
12.750	18.500	9.0688e-02
12.750	18.750	1.0210e-01
12.750	19.000	1.1128e-01
12.750	19.250	1.1794e-01
12.750	19.500	1.2242e-01
12.750	19.750	1.2545e-01
12.750	20.000	1.2736e-01
12.750	20.250	1.2828e-01
12.750	20.500	1.2885e-01
12.750	20.750	1.2979e-01
12.750	21.000	1.3192e-01
12.750	21.250	1.3194e-01
12.750	21.500	9.2295e-02
12.750	21.750	6.2639e-02
12.750	22.000	4.2494e-02
12.750	22.250	2.7500e-02
12.750	22.500	1.7254e-02
12.750	22.750	1.1603e-02
12.750	23.000	8.5342e-03
12.750	23.250	6.8625e-03
12.750	23.500	5.9677e-03
12.750	23.750	5.5040e-03
12.750	24.000	5.2434e-03
13.000	17.000	3.2387e-02
13.000	17.250	3.8832e-02
13.000	17.500	4.6027e-02
13.000	17.750	5.5133e-02
13.000	18.000	6.6239e-02
13.000	18.250	7.9083e-02
13.000	18.500	9.2254e-02
13.000	18.750	1.0446e-01
13.000	19.000	1.1458e-01
13.000	19.250	1.2230e-01
13.000	19.500	1.2705e-01
13.000	19.750	1.3054e-01
13.000	20.000	1.3278e-01
13.000	20.250	1.3442e-01
13.000	20.500	1.3591e-01
13.000	20.750	1.3707e-01
13.000	21.000	1.3924e-01
13.000	21.250	1.4330e-01
13.000	21.500	1.4100e-01
13.000	21.750	9.5993e-02
13.000	22.000	6.4729e-02
13.000	22.250	4.3528e-02
13.000	22.500	2.7209e-02
13.000	22.750	1.7081e-02
13.000	23.000	1.1508e-02
13.000	23.250	8.4802e-03
13.000	23.500	6.8402e-03
13.000	23.750	5.9645e-03
13.000	24.000	5.5026e-03
13.250	17.000	3.1995e-02
13.250	17.250	3.8131e-02
13.250	17.500	4.7808e-02
13.250	17.750	5.6939e-02
13.250	18.000	6.7760e-02
13.250	18.250	8.0563e-02
13.250	18.500	9.4035e-02
13.250	18.750	1.0666e-01
13.250	19.000	1.1745e-01
13.250	19.250	1.2567e-01
13.250	19.500	1.3125e-01
13.250	19.750	1.3549e-01
13.250	20.000	1.3826e-01
13.250	20.250	1.4025e-01
13.250	20.500	1.4229e-01
13.250	20.750	1.4431e-01
13.250	21.000	1.4709e-01
13.250	21.250	1.5090e-01
13.250	21.500	1.5204e-01
13.250	21.750	1.4664e-01
13.250	22.000	9.7877e-02
13.250	22.250	6.6000e-02
13.250	22.500	4.3498e-02
13.250	22.750	2.6872e-02
13.250	23.000	1.6883e-02
13.250	23.250	1.1449e-02
13.250	23.500	8.4478e-03
13.250	23.750	6.8158e-03
13.250	24.000	5.9582e-03
13.500	17.000	3.1829e-02
13.500	17.250	3.7753e-02
13.500	17.500	4.7511e-02
13.500	17.750	5.8489e-02
13.500	18.000	7.0207e-02
13.500	18.250	8.2843e-02
13.500	18.500	9.6322e-02
13.500	18.750	1.0918e-01
13.500	19.000	1.2035e-01
13.500	19.250	1.2915e-01
13.500	19.500	1.3547e-01
13.500	19.750	1.3988e-01
13.500	20.000	1.4330e-01
13.500	20.250	1.4641e-01
13.500	20.500	1.4858e-01
13.500	20.750	1.5059e-01
13.500	21.000	1.5250e-01
13.500	21.250	1.5679e-01
13.500	21.500	1.5713e-01
13.500	21.750	1.6007e-01
13.500	22.000	1.4941e-01
13.500	22.250	9.8473e-02
13.500	22.500	6.5097e-02
13.500	22.750	4.2635e-02
13.500	23.000	2.6482e-02
13.500	23.250	1.6646e-02
13.500	23.500	1.1298e-02
13.500	23.750	8.3621e-03
13.500	24.000	6.7891e-03
13.750	17.000	3.2168e-02
13.750	17.250	3.7554e-02
13.750	17.500	4.7416e-02
13.750	17.750	5.9467e-02
13.750	18.000	7.3450e-02
13.750	18.250	8.6018e-02
13.750	18.500	9.9302e-02
13.750	18.750	1.1221e-01
13.750	19.000	1.2381e-01
13.750	19.250	1.3328e-01
13.750	19.500	1.4041e-01
13.750	19.750	1.4539e-01
13.750	20.000	1.4902e-01
13.750	20.250	1.5231e-01
13.750	20.500	1.5534e-01
13.750	20.750	1.5781e-01
13.750	21.000	1.5991e-01
13.750	21.250	1.6205e-01
13.750	21.500	1.6294e-01
13.750	21.750	1.6699e-01
13.750	22.000	1.6921e-01
13.750	22.250	1.5155e-01
13.750	22.500	9.7019e-02
13.750	22.750	6.4051e-02
13.750	23.000	4.1824e-02
13.750	23.250	2.6036e-02
13.750	23.500	1.6425e-02
13.750	23.750	1.1172e-02
13.750	24.000	8.2893e-03
14.000	17.000	3.2758e-02
14.000	17.250	3.7853e-02
14.000	17.500	4.7190e-02
14.000	17.750	6.0062e-02
14.000	18.000	7.5612e-02
14.000	18.250	9.0380e-02
14.000	18.500	1.0333e-01
14.000	18.750	1.1599e-01
14.000	19.000	1.2778e-01
14.000	19.250	1.3797e-01
14.000	19.500	1.4610e-01
14.000	19.750	1.5214e-01
14.000	20.000	1.5619e-01
14.000	20.250	1.5935e-01
14.000	20.500	1.6260e-01
14.000	20.750	1.6559e-01
14.000	21.000	1.6823e-01
14.000	21.250	1.7108e-01
14.000	21.500	1.7104e-01
14.000	21.750	1.7512e-01
14.000	22.000	1.8053e-01
14.000	22.250	1.8247e-01
14.000	22.500	1.5238e-01
14.000	22.750	9.6078e-02
14.000	23.000	6.2737e-02
14.000	23.250	4.1264e-02
14.000	23.500	2.5517e-02
14.000	23.750	1.6176e-02
14.000	24.000	1.1019e-02
