nFnu 1650.00A  relative to Inci 1215.00A scaled to 1215A.
Hden   Phi(H)  Eq_Width (A)
 7.000	17.000	3.5769e-02
 7.000	17.250	2.3242e-02
 7.000	17.500	1.6016e-02
 7.000	17.750	1.2077e-02
 7.000	18.000	1.0077e-02
 7.000	18.250	8.9722e-03
 7.000	18.500	8.3560e-03
 7.000	18.750	8.0863e-03
 7.000	19.000	7.9471e-03
 7.000	19.250	7.8699e-03
 7.000	19.500	7.8379e-03
 7.000	19.750	7.8245e-03
 7.000	20.000	7.8188e-03
 7.000	20.250	7.8160e-03
 7.000	20.500	7.8147e-03
 7.000	20.750	7.8140e-03
 7.000	21.000	7.8136e-03
 7.000	21.250	7.8134e-03
 7.000	21.500	7.8134e-03
 7.000	21.750	7.8132e-03
 7.000	22.000	7.8132e-03
 7.000	22.250	7.8132e-03
 7.000	22.500	7.8132e-03
 7.000	22.750	7.8133e-03
 7.000	23.000	7.8133e-03
 7.000	23.250	7.8132e-03
 7.000	23.500	7.8132e-03
 7.000	23.750	7.8131e-03
 7.000	24.000	7.8131e-03
 7.250	17.000	5.6679e-02
 7.250	17.250	3.5663e-02
 7.250	17.500	2.3184e-02
 7.250	17.750	1.5984e-02
 7.250	18.000	1.2062e-02
 7.250	18.250	1.0070e-02
 7.250	18.500	8.9691e-03
 7.250	18.750	8.3550e-03
 7.250	19.000	8.0859e-03
 7.250	19.250	7.9470e-03
 7.250	19.500	7.8699e-03
 7.250	19.750	7.8379e-03
 7.250	20.000	7.8245e-03
 7.250	20.250	7.8187e-03
 7.250	20.500	7.8160e-03
 7.250	20.750	7.8147e-03
 7.250	21.000	7.8140e-03
 7.250	21.250	7.8136e-03
 7.250	21.500	7.8134e-03
 7.250	21.750	7.8148e-03
 7.250	22.000	7.8133e-03
 7.250	22.250	7.8132e-03
 7.250	22.500	7.8132e-03
 7.250	22.750	7.8139e-03
 7.250	23.000	7.8139e-03
 7.250	23.250	7.8132e-03
 7.250	23.500	7.8131e-03
 7.250	23.750	7.8131e-03
 7.250	24.000	7.8132e-03
 7.500	17.000	6.6557e-02
 7.500	17.250	5.6593e-02
 7.500	17.500	3.5599e-02
 7.500	17.750	2.3147e-02
 7.500	18.000	1.5961e-02
 7.500	18.250	1.2051e-02
 7.500	18.500	1.0065e-02
 7.500	18.750	8.9670e-03
 7.500	19.000	8.3542e-03
 7.500	19.250	8.0857e-03
 7.500	19.500	7.9468e-03
 7.500	19.750	7.8698e-03
 7.500	20.000	7.8379e-03
 7.500	20.250	7.8245e-03
 7.500	20.500	7.8187e-03
 7.500	20.750	7.8160e-03
 7.500	21.000	7.8147e-03
 7.500	21.250	7.8139e-03
 7.500	21.500	7.8136e-03
 7.500	21.750	7.8134e-03
 7.500	22.000	7.8133e-03
 7.500	22.250	7.8133e-03
 7.500	22.500	7.8132e-03
 7.500	22.750	7.8132e-03
 7.500	23.000	7.8135e-03
 7.500	23.250	7.8139e-03
 7.500	23.500	7.8131e-03
 7.500	23.750	7.8141e-03
 7.500	24.000	7.8131e-03
 7.750	17.000	7.9970e-02
 7.750	17.250	6.6140e-02
 7.750	17.500	5.6548e-02
 7.750	17.750	3.5561e-02
 7.750	18.000	2.3124e-02
 7.750	18.250	1.5943e-02
 7.750	18.500	1.2042e-02
 7.750	18.750	1.0062e-02
 7.750	19.000	8.9657e-03
 7.750	19.250	8.3537e-03
 7.750	19.500	8.0855e-03
 7.750	19.750	7.9468e-03
 7.750	20.000	7.8698e-03
 7.750	20.250	7.8379e-03
 7.750	20.500	7.8245e-03
 7.750	20.750	7.8187e-03
 7.750	21.000	7.8160e-03
 7.750	21.250	7.8147e-03
 7.750	21.500	7.8139e-03
 7.750	21.750	7.8136e-03
 7.750	22.000	7.8133e-03
 7.750	22.250	7.8133e-03
 7.750	22.500	7.8132e-03
 7.750	22.750	7.8133e-03
 7.750	23.000	7.8134e-03
 7.750	23.250	7.8132e-03
 7.750	23.500	7.8139e-03
 7.750	23.750	7.8139e-03
 7.750	24.000	7.8131e-03
 8.000	17.000	7.5287e-02
 8.000	17.250	7.8087e-02
 8.000	17.500	6.5513e-02
 8.000	17.750	5.6459e-02
 8.000	18.000	3.5539e-02
 8.000	18.250	2.3110e-02
 8.000	18.500	1.5928e-02
 8.000	18.750	1.2035e-02
 8.000	19.000	1.0059e-02
 8.000	19.250	8.9647e-03
 8.000	19.500	8.3534e-03
 8.000	19.750	8.0854e-03
 8.000	20.000	7.9467e-03
 8.000	20.250	7.8698e-03
 8.000	20.500	7.8378e-03
 8.000	20.750	7.8245e-03
 8.000	21.000	7.8187e-03
 8.000	21.250	7.8160e-03
 8.000	21.500	7.8147e-03
 8.000	21.750	7.8139e-03
 8.000	22.000	7.8135e-03
 8.000	22.250	7.8133e-03
 8.000	22.500	7.8133e-03
 8.000	22.750	7.8133e-03
 8.000	23.000	7.8131e-03
 8.000	23.250	7.8136e-03
 8.000	23.500	7.8131e-03
 8.000	23.750	7.8131e-03
 8.000	24.000	7.8131e-03
 8.250	17.000	7.1453e-02
 8.250	17.250	7.4502e-02
 8.250	17.500	7.7451e-02
 8.250	17.750	6.5286e-02
 8.250	18.000	5.6453e-02
 8.250	18.250	3.5526e-02
 8.250	18.500	2.3099e-02
 8.250	18.750	1.5913e-02
 8.250	19.000	1.2027e-02
 8.250	19.250	1.0056e-02
 8.250	19.500	8.9640e-03
 8.250	19.750	8.3532e-03
 8.250	20.000	8.0853e-03
 8.250	20.250	7.9467e-03
 8.250	20.500	7.8698e-03
 8.250	20.750	7.8378e-03
 8.250	21.000	7.8245e-03
 8.250	21.250	7.8187e-03
 8.250	21.500	7.8160e-03
 8.250	21.750	7.8147e-03
 8.250	22.000	7.8139e-03
 8.250	22.250	7.8135e-03
 8.250	22.500	7.8133e-03
 8.250	22.750	7.8134e-03
 8.250	23.000	7.8132e-03
 8.250	23.250	7.8151e-03
 8.250	23.500	7.8131e-03
 8.250	23.750	7.8131e-03
 8.250	24.000	7.8137e-03
 8.500	17.000	6.7927e-02
 8.500	17.250	7.0891e-02
 8.500	17.500	7.4030e-02
 8.500	17.750	7.7079e-02
 8.500	18.000	6.5183e-02
 8.500	18.250	5.6451e-02
 8.500	18.500	3.5519e-02
 8.500	18.750	2.3092e-02
 8.500	19.000	1.5899e-02
 8.500	19.250	1.2020e-02
 8.500	19.500	1.0054e-02
 8.500	19.750	8.9633e-03
 8.500	20.000	8.3530e-03
 8.500	20.250	8.0853e-03
 8.500	20.500	7.9467e-03
 8.500	20.750	7.8698e-03
 8.500	21.000	7.8378e-03
 8.500	21.250	7.8245e-03
 8.500	21.500	7.8187e-03
 8.500	21.750	7.8160e-03
 8.500	22.000	7.8147e-03
 8.500	22.250	7.8139e-03
 8.500	22.500	7.8135e-03
 8.500	22.750	7.8133e-03
 8.500	23.000	7.8132e-03
 8.500	23.250	7.8133e-03
 8.500	23.500	7.8131e-03
 8.500	23.750	7.8131e-03
 8.500	24.000	7.8131e-03
 8.750	17.000	6.4653e-02
 8.750	17.250	6.7644e-02
 8.750	17.500	7.0697e-02
 8.750	17.750	7.3798e-02
 8.750	18.000	7.6936e-02
 8.750	18.250	6.5143e-02
 8.750	18.500	5.6444e-02
 8.750	18.750	3.5514e-02
 8.750	19.000	2.3086e-02
 8.750	19.250	1.5884e-02
 8.750	19.500	1.2012e-02
 8.750	19.750	1.0052e-02
 8.750	20.000	8.9628e-03
 8.750	20.250	8.3529e-03
 8.750	20.500	8.0853e-03
 8.750	20.750	7.9467e-03
 8.750	21.000	7.8698e-03
 8.750	21.250	7.8378e-03
 8.750	21.500	7.8245e-03
 8.750	21.750	7.8187e-03
 8.750	22.000	7.8160e-03
 8.750	22.250	7.8147e-03
 8.750	22.500	7.8139e-03
 8.750	22.750	7.8135e-03
 8.750	23.000	7.8141e-03
 8.750	23.250	7.8132e-03
 8.750	23.500	7.8133e-03
 8.750	23.750	7.8131e-03
 8.750	24.000	7.8131e-03
 9.000	17.000	6.1338e-02
 9.000	17.250	6.4634e-02
 9.000	17.500	6.7744e-02
 9.000	17.750	7.0892e-02
 9.000	18.000	7.4043e-02
 9.000	18.250	7.7170e-02
 9.000	18.500	6.5108e-02
 9.000	18.750	5.6430e-02
 9.000	19.000	3.5512e-02
 9.000	19.250	2.3082e-02
 9.000	19.500	1.5870e-02
 9.000	19.750	1.2004e-02
 9.000	20.000	1.0050e-02
 9.000	20.250	8.9622e-03
 9.000	20.500	8.3528e-03
 9.000	20.750	8.0853e-03
 9.000	21.000	7.9467e-03
 9.000	21.250	7.8698e-03
 9.000	21.500	7.8378e-03
 9.000	21.750	7.8244e-03
 9.000	22.000	7.8187e-03
 9.000	22.250	7.8160e-03
 9.000	22.500	7.8146e-03
 9.000	22.750	7.8139e-03
 9.000	23.000	7.8135e-03
 9.000	23.250	7.8133e-03
 9.000	23.500	7.8132e-03
 9.000	23.750	7.8131e-03
 9.000	24.000	7.8132e-03
 9.250	17.000	5.7635e-02
 9.250	17.250	6.1505e-02
 9.250	17.500	6.5057e-02
 9.250	17.750	6.8423e-02
 9.250	18.000	7.1726e-02
 9.250	18.250	7.5115e-02
 9.250	18.500	7.8013e-02
 9.250	18.750	6.5040e-02
 9.250	19.000	5.6399e-02
 9.250	19.250	3.5511e-02
 9.250	19.500	2.3080e-02
 9.250	19.750	1.5857e-02
 9.250	20.000	1.1997e-02
 9.250	20.250	1.0048e-02
 9.250	20.500	8.9617e-03
 9.250	20.750	8.3526e-03
 9.250	21.000	8.0853e-03
 9.250	21.250	7.9467e-03
 9.250	21.500	7.8694e-03
 9.250	21.750	7.8373e-03
 9.250	22.000	7.8239e-03
 9.250	22.250	7.8182e-03
 9.250	22.500	7.8156e-03
 9.250	22.750	7.8142e-03
 9.250	23.000	7.8137e-03
 9.250	23.250	7.8133e-03
 9.250	23.500	7.8132e-03
 9.250	23.750	7.8130e-03
 9.250	24.000	7.8130e-03
 9.500	17.000	5.3240e-02
 9.500	17.250	5.7889e-02
 9.500	17.500	6.2228e-02
 9.500	17.750	6.6287e-02
 9.500	18.000	7.0023e-02
 9.500	18.250	7.3898e-02
 9.500	18.500	7.8046e-02
 9.500	18.750	7.9283e-02
 9.500	19.000	6.4923e-02
 9.500	19.250	5.6340e-02
 9.500	19.500	3.5509e-02
 9.500	19.750	2.3081e-02
 9.500	20.000	1.5847e-02
 9.500	20.250	1.1991e-02
 9.500	20.500	1.0046e-02
 9.500	20.750	8.9612e-03
 9.500	21.000	8.3520e-03
 9.500	21.250	8.0848e-03
 9.500	21.500	7.9462e-03
 9.500	21.750	7.8691e-03
 9.500	22.000	7.8370e-03
 9.500	22.250	7.8238e-03
 9.500	22.500	7.8179e-03
 9.500	22.750	7.8152e-03
 9.500	23.000	7.8138e-03
 9.500	23.250	7.8132e-03
 9.500	23.500	7.8128e-03
 9.500	23.750	7.8126e-03
 9.500	24.000	7.8124e-03
 9.750	17.000	4.7819e-02
 9.750	17.250	5.3382e-02
 9.750	17.500	5.8759e-02
 9.750	17.750	6.3917e-02
 9.750	18.000	6.8808e-02
 9.750	18.250	7.3521e-02
 9.750	18.500	7.8411e-02
 9.750	18.750	8.3507e-02
 9.750	19.000	7.8609e-02
 9.750	19.250	6.4724e-02
 9.750	19.500	5.6235e-02
 9.750	19.750	3.5508e-02
 9.750	20.000	2.3084e-02
 9.750	20.250	1.5841e-02
 9.750	20.500	1.1986e-02
 9.750	20.750	1.0045e-02
 9.750	21.000	8.9609e-03
 9.750	21.250	8.3519e-03
 9.750	21.500	8.0848e-03
 9.750	21.750	7.9463e-03
 9.750	22.000	7.8691e-03
 9.750	22.250	7.8371e-03
 9.750	22.500	7.8237e-03
 9.750	22.750	7.8179e-03
 9.750	23.000	7.8152e-03
 9.750	23.250	7.8138e-03
 9.750	23.500	7.8131e-03
 9.750	23.750	7.8128e-03
 9.750	24.000	7.8125e-03
10.000	17.000	4.1237e-02
10.000	17.250	4.7715e-02
10.000	17.500	5.4210e-02
10.000	17.750	6.0818e-02
10.000	18.000	6.7342e-02
10.000	18.250	7.3514e-02
10.000	18.500	7.9059e-02
10.000	18.750	8.4511e-02
10.000	19.000	8.8895e-02
10.000	19.250	7.7529e-02
10.000	19.500	6.4392e-02
10.000	19.750	5.6048e-02
10.000	20.000	3.5505e-02
10.000	20.250	2.3088e-02
10.000	20.500	1.5838e-02
10.000	20.750	1.1982e-02
10.000	21.000	1.0044e-02
10.000	21.250	8.9608e-03
10.000	21.500	8.3518e-03
10.000	21.750	8.0848e-03
10.000	22.000	7.9463e-03
10.000	22.250	7.8691e-03
10.000	22.500	7.8370e-03
10.000	22.750	7.8237e-03
10.000	23.000	7.8179e-03
10.000	23.250	7.8152e-03
10.000	23.500	7.8139e-03
10.000	23.750	7.8132e-03
10.000	24.000	7.8128e-03
10.250	17.000	3.4921e-02
10.250	17.250	4.0951e-02
10.250	17.500	4.8545e-02
10.250	17.750	5.6586e-02
10.250	18.000	6.4922e-02
10.250	18.250	7.2682e-02
10.250	18.500	7.9309e-02
10.250	18.750	8.5307e-02
10.250	19.000	9.1385e-02
10.250	19.250	9.4930e-02
10.250	19.500	7.6693e-02
10.250	19.750	6.3886e-02
10.250	20.000	5.5787e-02
10.250	20.250	3.5500e-02
10.250	20.500	2.3093e-02
10.250	20.750	1.5838e-02
10.250	21.000	1.1980e-02
10.250	21.250	1.0045e-02
10.250	21.500	8.9607e-03
10.250	21.750	8.3518e-03
10.250	22.000	8.0849e-03
10.250	22.250	7.9463e-03
10.250	22.500	7.8692e-03
10.250	22.750	7.8370e-03
10.250	23.000	7.8238e-03
10.250	23.250	7.8179e-03
10.250	23.500	7.8152e-03
10.250	23.750	7.8138e-03
10.250	24.000	7.8132e-03
10.500	17.000	2.9554e-02
10.500	17.250	3.4582e-02
10.500	17.500	4.1878e-02
10.500	17.750	5.1265e-02
10.500	18.000	6.0957e-02
10.500	18.250	7.0007e-02
10.500	18.500	7.7805e-02
10.500	18.750	8.4377e-02
10.500	19.000	9.0507e-02
10.500	19.250	9.7354e-02
10.500	19.500	9.7389e-02
10.500	19.750	7.6707e-02
10.500	20.000	6.3745e-02
10.500	20.250	5.5470e-02
10.500	20.500	3.5493e-02
10.500	20.750	2.3096e-02
10.500	21.000	1.5841e-02
10.500	21.250	1.1980e-02
10.500	21.500	1.0045e-02
10.500	21.750	8.9608e-03
10.500	22.000	8.3519e-03
10.500	22.250	8.0849e-03
10.500	22.500	7.9463e-03
10.500	22.750	7.8693e-03
10.500	23.000	7.8372e-03
10.500	23.250	7.8237e-03
10.500	23.500	7.8179e-03
10.500	23.750	7.8152e-03
10.500	24.000	7.8139e-03
10.750	17.000	2.5552e-02
10.750	17.250	2.9326e-02
10.750	17.500	3.5713e-02
10.750	17.750	4.4920e-02
10.750	18.000	5.5158e-02
10.750	18.250	6.4835e-02
10.750	18.500	7.3361e-02
10.750	18.750	8.0915e-02
10.750	19.000	8.7732e-02
10.750	19.250	9.4401e-02
10.750	19.500	1.0158e-01
10.750	19.750	9.6764e-02
10.750	20.000	7.7311e-02
10.750	20.250	6.4151e-02
10.750	20.500	5.5270e-02
10.750	20.750	3.5485e-02
10.750	21.000	2.3096e-02
10.750	21.250	1.5847e-02
10.750	21.500	1.1981e-02
10.750	21.750	1.0047e-02
10.750	22.000	8.9612e-03
10.750	22.250	8.3519e-03
10.750	22.500	8.0851e-03
10.750	22.750	7.9464e-03
10.750	23.000	7.8694e-03
10.750	23.250	7.8373e-03
10.750	23.500	7.8238e-03
10.750	23.750	7.8179e-03
10.750	24.000	7.8152e-03
11.000	17.000	2.2781e-02
11.000	17.250	2.5575e-02
11.000	17.500	3.0576e-02
11.000	17.750	3.8217e-02
11.000	18.000	4.7526e-02
11.000	18.250	5.7037e-02
11.000	18.500	6.6247e-02
11.000	18.750	7.4867e-02
11.000	19.000	8.2669e-02
11.000	19.250	8.9851e-02
11.000	19.500	9.6924e-02
11.000	19.750	1.0434e-01
11.000	20.000	9.8017e-02
11.000	20.250	8.0261e-02
11.000	20.500	6.5077e-02
11.000	20.750	5.5306e-02
11.000	21.000	3.5471e-02
11.000	21.250	2.3091e-02
11.000	21.500	1.5855e-02
11.000	21.750	1.1985e-02
11.000	22.000	1.0049e-02
11.000	22.250	8.9616e-03
11.000	22.500	8.3517e-03
11.000	22.750	8.0853e-03
11.000	23.000	7.9466e-03
11.000	23.250	7.8694e-03
11.000	23.500	7.8374e-03
11.000	23.750	7.8239e-03
11.000	24.000	7.8180e-03
11.250	17.000	2.0933e-02
11.250	17.250	2.3132e-02
11.250	17.500	2.6628e-02
11.250	17.750	3.1939e-02
11.250	18.000	3.9184e-02
11.250	18.250	4.7729e-02
11.250	18.500	5.7160e-02
11.250	18.750	6.6709e-02
11.250	19.000	7.5523e-02
11.250	19.250	8.3452e-02
11.250	19.500	9.0696e-02
11.250	19.750	9.7876e-02
11.250	20.000	1.0506e-01
11.250	20.250	9.8979e-02
11.250	20.500	8.1260e-02
11.250	20.750	6.6768e-02
11.250	21.000	5.5863e-02
11.250	21.250	3.5450e-02
11.250	21.500	2.3072e-02
11.250	21.750	1.5863e-02
11.250	22.000	1.1989e-02
11.250	22.250	1.0052e-02
11.250	22.500	8.9623e-03
11.250	22.750	8.3515e-03
11.250	23.000	8.0853e-03
11.250	23.250	7.9468e-03
11.250	23.500	7.8694e-03
11.250	23.750	7.8374e-03
11.250	24.000	7.8240e-03
11.500	17.000	1.9796e-02
11.500	17.250	2.1481e-02
11.500	17.500	2.3707e-02
11.500	17.750	2.6872e-02
11.500	18.000	3.1620e-02
11.500	18.250	3.8462e-02
11.500	18.500	4.7197e-02
11.500	18.750	5.7110e-02
11.500	19.000	6.6999e-02
11.500	19.250	7.5681e-02
11.500	19.500	8.3414e-02
11.500	19.750	9.0954e-02
11.500	20.000	9.8661e-02
11.500	20.250	1.0469e-01
11.500	20.500	1.0198e-01
11.500	20.750	8.4698e-02
11.500	21.000	6.9638e-02
11.500	21.250	5.6596e-02
11.500	21.500	3.5405e-02
11.500	21.750	2.3035e-02
11.500	22.000	1.5869e-02
11.500	22.250	1.1995e-02
11.500	22.500	1.0055e-02
11.500	22.750	8.9633e-03
11.500	23.000	8.3514e-03
11.500	23.250	8.0853e-03
11.500	23.500	7.9469e-03
11.500	23.750	7.8695e-03
11.500	24.000	7.8374e-03
11.750	17.000	1.9143e-02
11.750	17.250	2.0186e-02
11.750	17.500	2.1417e-02
11.750	17.750	2.3096e-02
11.750	18.000	2.5906e-02
11.750	18.250	3.0738e-02
11.750	18.500	3.7981e-02
11.750	18.750	4.7302e-02
11.750	19.000	5.7593e-02
11.750	19.250	6.7379e-02
11.750	19.500	7.5843e-02
11.750	19.750	8.3735e-02
11.750	20.000	9.1857e-02
11.750	20.250	1.0054e-01
11.750	20.500	1.0800e-01
11.750	20.750	1.0547e-01
11.750	21.000	8.9143e-02
11.750	21.250	7.4611e-02
11.750	21.500	5.6807e-02
11.750	21.750	3.5330e-02
11.750	22.000	2.2970e-02
11.750	22.250	1.5868e-02
11.750	22.500	1.2003e-02
11.750	22.750	1.0059e-02
11.750	23.000	8.9645e-03
11.750	23.250	8.3510e-03
11.750	23.500	8.0852e-03
11.750	23.750	7.9470e-03
11.750	24.000	7.8697e-03
12.000	17.000	1.8606e-02
12.000	17.250	1.8986e-02
12.000	17.500	1.9383e-02
12.000	17.750	2.0207e-02
12.000	18.000	2.2000e-02
12.000	18.250	2.5321e-02
12.000	18.500	3.0874e-02
12.000	18.750	3.8662e-02
12.000	19.000	4.8292e-02
12.000	19.250	5.8735e-02
12.000	19.500	6.8414e-02
12.000	19.750	7.6869e-02
12.000	20.000	8.5347e-02
12.000	20.250	9.4241e-02
12.000	20.500	1.0381e-01
12.000	20.750	1.1073e-01
12.000	21.000	1.1028e-01
12.000	21.250	9.7965e-02
12.000	21.500	8.2307e-02
12.000	21.750	5.6819e-02
12.000	22.000	3.5220e-02
12.000	22.250	2.2878e-02
12.000	22.500	1.5856e-02
12.000	22.750	1.2010e-02
12.000	23.000	1.0063e-02
12.000	23.250	8.9660e-03
12.000	23.500	8.3507e-03
12.000	23.750	8.0851e-03
12.000	24.000	7.9470e-03
12.250	17.000	1.7948e-02
12.250	17.250	1.7654e-02
12.250	17.500	1.7382e-02
12.250	17.750	1.7752e-02
12.250	18.000	1.9127e-02
12.250	18.250	2.1952e-02
12.250	18.500	2.6435e-02
12.250	18.750	3.2591e-02
12.250	19.000	4.0573e-02
12.250	19.250	5.0455e-02
12.250	19.500	6.0977e-02
12.250	19.750	7.0775e-02
12.250	20.000	7.9547e-02
12.250	20.250	8.8792e-02
12.250	20.500	9.8851e-02
12.250	20.750	1.0995e-01
12.250	21.000	1.1787e-01
12.250	21.250	1.2061e-01
12.250	21.500	1.0981e-01
12.250	21.750	9.0767e-02
12.250	22.000	5.6750e-02
12.250	22.250	3.5098e-02
12.250	22.500	2.2812e-02
12.250	22.750	1.5831e-02
12.250	23.000	1.2017e-02
12.250	23.250	1.0067e-02
12.250	23.500	8.9677e-03
12.250	23.750	8.3501e-03
12.250	24.000	8.0850e-03
12.500	17.000	1.6719e-02
12.500	17.250	1.5926e-02
12.500	17.500	1.5326e-02
12.500	17.750	1.5439e-02
12.500	18.000	1.6868e-02
12.500	18.250	1.9670e-02
12.500	18.500	2.3836e-02
12.500	18.750	2.9232e-02
12.500	19.000	3.5775e-02
12.500	19.250	4.4046e-02
12.500	19.500	5.4047e-02
12.500	19.750	6.4853e-02
12.500	20.000	7.4836e-02
12.500	20.250	8.4279e-02
12.500	20.500	9.4723e-02
12.500	20.750	1.0719e-01
12.500	21.000	1.2278e-01
12.500	21.250	1.3297e-01
12.500	21.500	1.3529e-01
12.500	21.750	1.2334e-01
12.500	22.000	9.4491e-02
12.500	22.250	5.6613e-02
12.500	22.500	3.4935e-02
12.500	22.750	2.2671e-02
12.500	23.000	1.5790e-02
12.500	23.250	1.2022e-02
12.500	23.500	1.0071e-02
12.500	23.750	8.9693e-03
12.500	24.000	8.3495e-03
12.750	17.000	1.3168e-02
12.750	17.250	1.3570e-02
12.750	17.500	1.3064e-02
12.750	17.750	1.3405e-02
12.750	18.000	1.4968e-02
12.750	18.250	1.7819e-02
12.750	18.500	2.1966e-02
12.750	18.750	2.7340e-02
12.750	19.000	3.3533e-02
12.750	19.250	4.0605e-02
12.750	19.500	4.9209e-02
12.750	19.750	5.9469e-02
12.750	20.000	7.0441e-02
12.750	20.250	8.1311e-02
12.750	20.500	9.1995e-02
12.750	20.750	1.0494e-01
12.750	21.000	1.2316e-01
12.750	21.250	1.4387e-01
12.750	21.500	1.5253e-01
12.750	21.750	1.5632e-01
12.750	22.000	1.3712e-01
12.750	22.250	9.4590e-02
12.750	22.500	5.6418e-02
12.750	22.750	3.4722e-02
12.750	23.000	2.2529e-02
12.750	23.250	1.5739e-02
12.750	23.500	1.2024e-02
12.750	23.750	1.0074e-02
12.750	24.000	8.9706e-03
13.000	17.000	8.1635e-03
13.000	17.250	9.7706e-03
13.000	17.500	1.0738e-02
13.000	17.750	1.1638e-02
13.000	18.000	1.3298e-02
13.000	18.250	1.6183e-02
13.000	18.500	2.0345e-02
13.000	18.750	2.5752e-02
13.000	19.000	3.2114e-02
13.000	19.250	3.9195e-02
13.000	19.500	4.6694e-02
13.000	19.750	5.5912e-02
13.000	20.000	6.6527e-02
13.000	20.250	7.8165e-02
13.000	20.500	9.1169e-02
13.000	20.750	1.0416e-01
13.000	21.000	1.2084e-01
13.000	21.250	1.4612e-01
13.000	21.500	1.6984e-01
13.000	21.750	1.8032e-01
13.000	22.000	1.7585e-01
13.000	22.250	1.4679e-01
13.000	22.500	9.4464e-02
13.000	22.750	5.6177e-02
13.000	23.000	3.4520e-02
13.000	23.250	2.2381e-02
13.000	23.500	1.5675e-02
13.000	23.750	1.2022e-02
13.000	24.000	1.0076e-02
13.250	17.000	5.4622e-03
13.250	17.250	6.7314e-03
13.250	17.500	8.8210e-03
13.250	17.750	1.0138e-02
13.250	18.000	1.1842e-02
13.250	18.250	1.4697e-02
13.250	18.500	1.8810e-02
13.250	18.750	2.4202e-02
13.250	19.000	3.0720e-02
13.250	19.250	3.8009e-02
13.250	19.500	4.5682e-02
13.250	19.750	5.4517e-02
13.250	20.000	6.4416e-02
13.250	20.250	7.5561e-02
13.250	20.500	8.8760e-02
13.250	20.750	1.0381e-01
13.250	21.000	1.2140e-01
13.250	21.250	1.4367e-01
13.250	21.500	1.6715e-01
13.250	21.750	1.9266e-01
13.250	22.000	1.9773e-01
13.250	22.250	1.9034e-01
13.250	22.500	1.5012e-01
13.250	22.750	9.4225e-02
13.250	23.000	5.5881e-02
13.250	23.250	3.4354e-02
13.250	23.500	2.2289e-02
13.250	23.750	1.5607e-02
13.250	24.000	1.2013e-02
13.500	17.000	3.7091e-03
13.500	17.250	4.7081e-03
13.500	17.500	6.4840e-03
13.500	17.750	8.5539e-03
13.500	18.000	1.0606e-02
13.500	18.250	1.3358e-02
13.500	18.500	1.7373e-02
13.500	18.750	2.2690e-02
13.500	19.000	2.9244e-02
13.500	19.250	3.6759e-02
13.500	19.500	4.4895e-02
13.500	19.750	5.3749e-02
13.500	20.000	6.3654e-02
13.500	20.250	7.5255e-02
13.500	20.500	8.7728e-02
13.500	20.750	1.0186e-01
13.500	21.000	1.1703e-01
13.500	21.250	1.3898e-01
13.500	21.500	1.5602e-01
13.500	21.750	1.8241e-01
13.500	22.000	2.0857e-01
13.500	22.250	2.0898e-01
13.500	22.500	1.9209e-01
13.500	22.750	1.4906e-01
13.500	23.000	9.3843e-02
13.500	23.250	5.5521e-02
13.500	23.500	3.4053e-02
13.500	23.750	2.2073e-02
13.500	24.000	1.5540e-02
13.750	17.000	2.5994e-03
13.750	17.250	3.3446e-03
13.750	17.500	4.7869e-03
13.750	17.750	6.7842e-03
13.750	18.000	9.5143e-03
13.750	18.250	1.2200e-02
13.750	18.500	1.6054e-02
13.750	18.750	2.1236e-02
13.750	19.000	2.7766e-02
13.750	19.250	3.5497e-02
13.750	19.500	4.4086e-02
13.750	19.750	5.3389e-02
13.750	20.000	6.3709e-02
13.750	20.250	7.5486e-02
13.750	20.500	8.8745e-02
13.750	20.750	1.0301e-01
13.750	21.000	1.1814e-01
13.750	21.250	1.3405e-01
13.750	21.500	1.5172e-01
13.750	21.750	1.7503e-01
13.750	22.000	2.0383e-01
13.750	22.250	2.3285e-01
13.750	22.500	2.1411e-01
13.750	22.750	1.9502e-01
13.750	23.000	1.4883e-01
13.750	23.250	9.3329e-02
13.750	23.500	5.5152e-02
13.750	23.750	3.3781e-02
13.750	24.000	2.1897e-02
14.000	17.000	1.8715e-03
14.000	17.250	2.4545e-03
14.000	17.500	3.5308e-03
14.000	17.750	5.3165e-03
14.000	18.000	7.9511e-03
14.000	18.250	1.1180e-02
14.000	18.500	1.4876e-02
14.000	18.750	1.9898e-02
14.000	19.000	2.6343e-02
14.000	19.250	3.4198e-02
14.000	19.500	4.3276e-02
14.000	19.750	5.3250e-02
14.000	20.000	6.4062e-02
14.000	20.250	7.6184e-02
14.000	20.500	9.0073e-02
14.000	20.750	1.0532e-01
14.000	21.000	1.2174e-01
14.000	21.250	1.3927e-01
14.000	21.500	1.5472e-01
14.000	21.750	1.7604e-01
14.000	22.000	2.0323e-01
14.000	22.250	2.4178e-01
14.000	22.500	2.6566e-01
14.000	22.750	2.2827e-01
14.000	23.000	1.9770e-01
14.000	23.250	1.5043e-01
14.000	23.500	9.2695e-02
14.000	23.750	5.4737e-02
14.000	24.000	3.3463e-02
