InwT 1262.79A  relative to Inci 1215.00A scaled to 1215A.
Hden   Phi(H)  Eq_Width (A)
 7.000	17.000	1.7549e-02
 7.000	17.250	1.4244e-02
 7.000	17.500	1.1874e-02
 7.000	17.750	1.0233e-02
 7.000	18.000	9.2414e-03
 7.000	18.250	8.6665e-03
 7.000	18.500	8.3248e-03
 7.000	18.750	8.1649e-03
 7.000	19.000	8.0813e-03
 7.000	19.250	8.0347e-03
 7.000	19.500	8.0149e-03
 7.000	19.750	8.0067e-03
 7.000	20.000	8.0030e-03
 7.000	20.250	8.0014e-03
 7.000	20.500	8.0006e-03
 7.000	20.750	8.0001e-03
 7.000	21.000	7.9998e-03
 7.000	21.250	7.9998e-03
 7.000	21.500	7.9998e-03
 7.000	21.750	7.9996e-03
 7.000	22.000	7.9996e-03
 7.000	22.250	7.9996e-03
 7.000	22.500	7.9996e-03
 7.000	22.750	7.9998e-03
 7.000	23.000	7.9998e-03
 7.000	23.250	7.9996e-03
 7.000	23.500	7.9996e-03
 7.000	23.750	7.9996e-03
 7.000	24.000	7.9996e-03
 7.250	17.000	2.1816e-02
 7.250	17.250	1.7469e-02
 7.250	17.500	1.4203e-02
 7.250	17.750	1.1853e-02
 7.250	18.000	1.0222e-02
 7.250	18.250	9.2353e-03
 7.250	18.500	8.6636e-03
 7.250	18.750	8.3238e-03
 7.250	19.000	8.1644e-03
 7.250	19.250	8.0812e-03
 7.250	19.500	8.0346e-03
 7.250	19.750	8.0149e-03
 7.250	20.000	8.0067e-03
 7.250	20.250	8.0030e-03
 7.250	20.500	8.0014e-03
 7.250	20.750	8.0005e-03
 7.250	21.000	8.0001e-03
 7.250	21.250	7.9998e-03
 7.250	21.500	7.9998e-03
 7.250	21.750	8.0012e-03
 7.250	22.000	7.9996e-03
 7.250	22.250	7.9996e-03
 7.250	22.500	7.9996e-03
 7.250	22.750	8.0003e-03
 7.250	23.000	8.0003e-03
 7.250	23.250	7.9996e-03
 7.250	23.500	7.9996e-03
 7.250	23.750	7.9996e-03
 7.250	24.000	7.9996e-03
 7.500	17.000	2.2710e-02
 7.500	17.250	2.1751e-02
 7.500	17.500	1.7423e-02
 7.500	17.750	1.4180e-02
 7.500	18.000	1.1842e-02
 7.500	18.250	1.0214e-02
 7.500	18.500	9.2314e-03
 7.500	18.750	8.6617e-03
 7.500	19.000	8.3231e-03
 7.500	19.250	8.1642e-03
 7.500	19.500	8.0811e-03
 7.500	19.750	8.0346e-03
 7.500	20.000	8.0149e-03
 7.500	20.250	8.0067e-03
 7.500	20.500	8.0030e-03
 7.500	20.750	8.0013e-03
 7.500	21.000	8.0005e-03
 7.500	21.250	8.0001e-03
 7.500	21.500	7.9998e-03
 7.500	21.750	7.9998e-03
 7.500	22.000	7.9997e-03
 7.500	22.250	7.9996e-03
 7.500	22.500	7.9996e-03
 7.500	22.750	7.9996e-03
 7.500	23.000	8.0000e-03
 7.500	23.250	8.0003e-03
 7.500	23.500	7.9996e-03
 7.500	23.750	8.0005e-03
 7.500	24.000	7.9996e-03
 7.750	17.000	3.5762e-02
 7.750	17.250	2.2190e-02
 7.750	17.500	2.1718e-02
 7.750	17.750	1.7397e-02
 7.750	18.000	1.4168e-02
 7.750	18.250	1.1836e-02
 7.750	18.500	1.0210e-02
 7.750	18.750	9.2290e-03
 7.750	19.000	8.6606e-03
 7.750	19.250	8.3227e-03
 7.750	19.500	8.1640e-03
 7.750	19.750	8.0811e-03
 7.750	20.000	8.0346e-03
 7.750	20.250	8.0149e-03
 7.750	20.500	8.0067e-03
 7.750	20.750	8.0030e-03
 7.750	21.000	8.0013e-03
 7.750	21.250	8.0005e-03
 7.750	21.500	8.0000e-03
 7.750	21.750	7.9998e-03
 7.750	22.000	7.9997e-03
 7.750	22.250	7.9996e-03
 7.750	22.500	7.9996e-03
 7.750	22.750	7.9998e-03
 7.750	23.000	7.9998e-03
 7.750	23.250	7.9996e-03
 7.750	23.500	8.0003e-03
 7.750	23.750	8.0003e-03
 7.750	24.000	7.9996e-03
 8.000	17.000	8.7686e-02
 8.000	17.250	3.5542e-02
 8.000	17.500	2.1731e-02
 8.000	17.750	2.1685e-02
 8.000	18.000	1.7380e-02
 8.000	18.250	1.4163e-02
 8.000	18.500	1.1835e-02
 8.000	18.750	1.0208e-02
 8.000	19.000	9.2274e-03
 8.000	19.250	8.6598e-03
 8.000	19.500	8.3224e-03
 8.000	19.750	8.1640e-03
 8.000	20.000	8.0810e-03
 8.000	20.250	8.0346e-03
 8.000	20.500	8.0149e-03
 8.000	20.750	8.0067e-03
 8.000	21.000	8.0030e-03
 8.000	21.250	8.0013e-03
 8.000	21.500	8.0005e-03
 8.000	21.750	8.0000e-03
 8.000	22.000	7.9998e-03
 8.000	22.250	7.9997e-03
 8.000	22.500	7.9996e-03
 8.000	22.750	7.9998e-03
 8.000	23.000	7.9995e-03
 8.000	23.250	8.0000e-03
 8.000	23.500	7.9995e-03
 8.000	23.750	7.9995e-03
 8.000	24.000	7.9995e-03
 8.250	17.000	1.2535e-01
 8.250	17.250	8.6078e-02
 8.250	17.500	3.4545e-02
 8.250	17.750	2.1420e-02
 8.250	18.000	2.1671e-02
 8.250	18.250	1.7369e-02
 8.250	18.500	1.4163e-02
 8.250	18.750	1.1836e-02
 8.250	19.000	1.0206e-02
 8.250	19.250	9.2263e-03
 8.250	19.500	8.6593e-03
 8.250	19.750	8.3222e-03
 8.250	20.000	8.1639e-03
 8.250	20.250	8.0810e-03
 8.250	20.500	8.0346e-03
 8.250	20.750	8.0149e-03
 8.250	21.000	8.0067e-03
 8.250	21.250	8.0030e-03
 8.250	21.500	8.0013e-03
 8.250	21.750	8.0005e-03
 8.250	22.000	8.0000e-03
 8.250	22.250	7.9998e-03
 8.250	22.500	7.9997e-03
 8.250	22.750	7.9998e-03
 8.250	23.000	7.9995e-03
 8.250	23.250	8.0016e-03
 8.250	23.500	7.9995e-03
 8.250	23.750	7.9995e-03
 8.250	24.000	8.0001e-03
 8.500	17.000	1.5156e-01
 8.500	17.250	1.2365e-01
 8.500	17.500	8.4687e-02
 8.500	17.750	3.3751e-02
 8.500	18.000	2.1238e-02
 8.500	18.250	2.1655e-02
 8.500	18.500	1.7359e-02
 8.500	18.750	1.4164e-02
 8.500	19.000	1.1839e-02
 8.500	19.250	1.0205e-02
 8.500	19.500	9.2254e-03
 8.500	19.750	8.6589e-03
 8.500	20.000	8.3221e-03
 8.500	20.250	8.1639e-03
 8.500	20.500	8.0810e-03
 8.500	20.750	8.0346e-03
 8.500	21.000	8.0149e-03
 8.500	21.250	8.0067e-03
 8.500	21.500	8.0030e-03
 8.500	21.750	8.0013e-03
 8.500	22.000	8.0005e-03
 8.500	22.250	8.0000e-03
 8.500	22.500	7.9998e-03
 8.500	22.750	7.9997e-03
 8.500	23.000	7.9996e-03
 8.500	23.250	7.9998e-03
 8.500	23.500	7.9995e-03
 8.500	23.750	7.9995e-03
 8.500	24.000	7.9995e-03
 8.750	17.000	1.6966e-01
 8.750	17.250	1.5007e-01
 8.750	17.500	1.2198e-01
 8.750	17.750	8.3789e-02
 8.750	18.000	3.2929e-02
 8.750	18.250	2.1130e-02
 8.750	18.500	2.1632e-02
 8.750	18.750	1.7348e-02
 8.750	19.000	1.4167e-02
 8.750	19.250	1.1843e-02
 8.750	19.500	1.0205e-02
 8.750	19.750	9.2249e-03
 8.750	20.000	8.6587e-03
 8.750	20.250	8.3220e-03
 8.750	20.500	8.1639e-03
 8.750	20.750	8.0810e-03
 8.750	21.000	8.0346e-03
 8.750	21.250	8.0149e-03
 8.750	21.500	8.0067e-03
 8.750	21.750	8.0030e-03
 8.750	22.000	8.0013e-03
 8.750	22.250	8.0005e-03
 8.750	22.500	8.0000e-03
 8.750	22.750	7.9998e-03
 8.750	23.000	8.0004e-03
 8.750	23.250	7.9996e-03
 8.750	23.500	7.9998e-03
 8.750	23.750	7.9995e-03
 8.750	24.000	7.9995e-03
 9.000	17.000	1.8203e-01
 9.000	17.250	1.6838e-01
 9.000	17.500	1.4832e-01
 9.000	17.750	1.1968e-01
 9.000	18.000	8.1248e-02
 9.000	18.250	3.1122e-02
 9.000	18.500	2.1053e-02
 9.000	18.750	2.1604e-02
 9.000	19.000	1.7336e-02
 9.000	19.250	1.4170e-02
 9.000	19.500	1.1846e-02
 9.000	19.750	1.0204e-02
 9.000	20.000	9.2243e-03
 9.000	20.250	8.6584e-03
 9.000	20.500	8.3220e-03
 9.000	20.750	8.1638e-03
 9.000	21.000	8.0810e-03
 9.000	21.250	8.0346e-03
 9.000	21.500	8.0149e-03
 9.000	21.750	8.0066e-03
 9.000	22.000	8.0030e-03
 9.000	22.250	8.0013e-03
 9.000	22.500	8.0004e-03
 9.000	22.750	8.0000e-03
 9.000	23.000	7.9998e-03
 9.000	23.250	7.9997e-03
 9.000	23.500	7.9996e-03
 9.000	23.750	7.9995e-03
 9.000	24.000	7.9996e-03
 9.250	17.000	1.9035e-01
 9.250	17.250	1.8094e-01
 9.250	17.500	1.6667e-01
 9.250	17.750	1.4554e-01
 9.250	18.000	1.1586e-01
 9.250	18.250	7.6651e-02
 9.250	18.500	2.7283e-02
 9.250	18.750	2.0987e-02
 9.250	19.000	2.1567e-02
 9.250	19.250	1.7321e-02
 9.250	19.500	1.4170e-02
 9.250	19.750	1.1850e-02
 9.250	20.000	1.0204e-02
 9.250	20.250	9.2239e-03
 9.250	20.500	8.6583e-03
 9.250	20.750	8.3219e-03
 9.250	21.000	8.1638e-03
 9.250	21.250	8.0810e-03
 9.250	21.500	8.0341e-03
 9.250	21.750	8.0144e-03
 9.250	22.000	8.0059e-03
 9.250	22.250	8.0025e-03
 9.250	22.500	8.0009e-03
 9.250	22.750	8.0001e-03
 9.250	23.000	7.9998e-03
 9.250	23.250	7.9996e-03
 9.250	23.500	7.9995e-03
 9.250	23.750	7.9993e-03
 9.250	24.000	7.9994e-03
 9.500	17.000	1.9580e-01
 9.500	17.250	1.8936e-01
 9.500	17.500	1.7936e-01
 9.500	17.750	1.6392e-01
 9.500	18.000	1.4095e-01
 9.500	18.250	1.0881e-01
 9.500	18.500	6.7458e-02
 9.500	18.750	2.1288e-02
 9.500	19.000	2.0923e-02
 9.500	19.250	2.1521e-02
 9.500	19.500	1.7302e-02
 9.500	19.750	1.4168e-02
 9.500	20.000	1.1853e-02
 9.500	20.250	1.0204e-02
 9.500	20.500	9.2235e-03
 9.500	20.750	8.6578e-03
 9.500	21.000	8.3213e-03
 9.500	21.250	8.1633e-03
 9.500	21.500	8.0803e-03
 9.500	21.750	8.0337e-03
 9.500	22.000	8.0141e-03
 9.500	22.250	8.0058e-03
 9.500	22.500	8.0022e-03
 9.500	22.750	8.0005e-03
 9.500	23.000	7.9997e-03
 9.500	23.250	7.9992e-03
 9.500	23.500	7.9990e-03
 9.500	23.750	7.9988e-03
 9.500	24.000	7.9988e-03
 9.750	17.000	1.9924e-01
 9.750	17.250	1.9489e-01
 9.750	17.500	1.8798e-01
 9.750	17.750	1.7678e-01
 9.750	18.000	1.5882e-01
 9.750	18.250	1.3269e-01
 9.750	18.500	9.6878e-02
 9.750	18.750	5.1056e-02
 9.750	19.000	2.1026e-02
 9.750	19.250	2.0850e-02
 9.750	19.500	2.1466e-02
 9.750	19.750	1.7280e-02
 9.750	20.000	1.4162e-02
 9.750	20.250	1.1854e-02
 9.750	20.500	1.0203e-02
 9.750	20.750	9.2232e-03
 9.750	21.000	8.6577e-03
 9.750	21.250	8.3213e-03
 9.750	21.500	8.1634e-03
 9.750	21.750	8.0805e-03
 9.750	22.000	8.0338e-03
 9.750	22.250	8.0142e-03
 9.750	22.500	8.0058e-03
 9.750	22.750	8.0022e-03
 9.750	23.000	8.0005e-03
 9.750	23.250	7.9997e-03
 9.750	23.500	7.9992e-03
 9.750	23.750	7.9989e-03
 9.750	24.000	7.9988e-03
10.000	17.000	2.0136e-01
10.000	17.250	1.9833e-01
10.000	17.500	1.9352e-01
10.000	17.750	1.8544e-01
10.000	18.000	1.7171e-01
10.000	18.250	1.5063e-01
10.000	18.500	1.2094e-01
10.000	18.750	8.2595e-02
10.000	19.000	3.8135e-02
10.000	19.250	2.0747e-02
10.000	19.500	2.0757e-02
10.000	19.750	2.1398e-02
10.000	20.000	1.7259e-02
10.000	20.250	1.4154e-02
10.000	20.500	1.1855e-02
10.000	20.750	1.0203e-02
10.000	21.000	9.2232e-03
10.000	21.250	8.6578e-03
10.000	21.500	8.3212e-03
10.000	21.750	8.1634e-03
10.000	22.000	8.0805e-03
10.000	22.250	8.0339e-03
10.000	22.500	8.0142e-03
10.000	22.750	8.0058e-03
10.000	23.000	8.0022e-03
10.000	23.250	8.0006e-03
10.000	23.500	7.9997e-03
10.000	23.750	7.9993e-03
10.000	24.000	7.9990e-03
10.250	17.000	2.0273e-01
10.250	17.250	2.0044e-01
10.250	17.500	1.9698e-01
10.250	17.750	1.9103e-01
10.250	18.000	1.8068e-01
10.250	18.250	1.6445e-01
10.250	18.500	1.4063e-01
10.250	18.750	1.0828e-01
10.250	19.000	6.6362e-02
10.250	19.250	2.1517e-02
10.250	19.500	2.0591e-02
10.250	19.750	2.0648e-02
10.250	20.000	2.1342e-02
10.250	20.250	1.7245e-02
10.250	20.500	1.4145e-02
10.250	20.750	1.1855e-02
10.250	21.000	1.0203e-02
10.250	21.250	9.2233e-03
10.250	21.500	8.6579e-03
10.250	21.750	8.3212e-03
10.250	22.000	8.1634e-03
10.250	22.250	8.0806e-03
10.250	22.500	8.0340e-03
10.250	22.750	8.0142e-03
10.250	23.000	8.0058e-03
10.250	23.250	8.0022e-03
10.250	23.500	8.0005e-03
10.250	23.750	7.9997e-03
10.250	24.000	7.9993e-03
10.500	17.000	2.0369e-01
10.500	17.250	2.0181e-01
10.500	17.500	1.9907e-01
10.500	17.750	1.9454e-01
10.500	18.000	1.8663e-01
10.500	18.250	1.7407e-01
10.500	18.500	1.5605e-01
10.500	18.750	1.3026e-01
10.500	19.000	9.6087e-02
10.500	19.250	5.1430e-02
10.500	19.500	2.1486e-02
10.500	19.750	2.0708e-02
10.500	20.000	2.0700e-02
10.500	20.250	2.1309e-02
10.500	20.500	1.7245e-02
10.500	20.750	1.4137e-02
10.500	21.000	1.1853e-02
10.500	21.250	1.0203e-02
10.500	21.500	9.2235e-03
10.500	21.750	8.6579e-03
10.500	22.000	8.3214e-03
10.500	22.250	8.1635e-03
10.500	22.500	8.0806e-03
10.500	22.750	8.0341e-03
10.500	23.000	8.0142e-03
10.500	23.250	8.0058e-03
10.500	23.500	8.0022e-03
10.500	23.750	8.0006e-03
10.500	24.000	7.9997e-03
10.750	17.000	2.0438e-01
10.750	17.250	2.0278e-01
10.750	17.500	2.0043e-01
10.750	17.750	1.9664e-01
10.750	18.000	1.9039e-01
10.750	18.250	1.8094e-01
10.750	18.500	1.6741e-01
10.750	18.750	1.4843e-01
10.750	19.000	1.2188e-01
10.750	19.250	8.5465e-02
10.750	19.500	3.9742e-02
10.750	19.750	2.1547e-02
10.750	20.000	2.1063e-02
10.750	20.250	2.0993e-02
10.750	20.500	2.1398e-02
10.750	20.750	1.7267e-02
10.750	21.000	1.4132e-02
10.750	21.250	1.1851e-02
10.750	21.500	1.0203e-02
10.750	21.750	9.2238e-03
10.750	22.000	8.6580e-03
10.750	22.250	8.3214e-03
10.750	22.500	8.1637e-03
10.750	22.750	8.0807e-03
10.750	23.000	8.0341e-03
10.750	23.250	8.0143e-03
10.750	23.500	8.0059e-03
10.750	23.750	8.0022e-03
10.750	24.000	8.0006e-03
11.000	17.000	2.0485e-01
11.000	17.250	2.0348e-01
11.000	17.500	2.0133e-01
11.000	17.750	1.9786e-01
11.000	18.000	1.9266e-01
11.000	18.250	1.8544e-01
11.000	18.500	1.7576e-01
11.000	18.750	1.6204e-01
11.000	19.000	1.4229e-01
11.000	19.250	1.1419e-01
11.000	19.500	7.5598e-02
11.000	19.750	2.5041e-02
11.000	20.000	2.2155e-02
11.000	20.250	2.2109e-02
11.000	20.500	2.1555e-02
11.000	20.750	2.1652e-02
11.000	21.000	1.7353e-02
11.000	21.250	1.4135e-02
11.000	21.500	1.1848e-02
11.000	21.750	1.0203e-02
11.000	22.000	9.2243e-03
11.000	22.250	8.6582e-03
11.000	22.500	8.3214e-03
11.000	22.750	8.1638e-03
11.000	23.000	8.0808e-03
11.000	23.250	8.0342e-03
11.000	23.500	8.0144e-03
11.000	23.750	8.0060e-03
11.000	24.000	8.0023e-03
11.250	17.000	2.0512e-01
11.250	17.250	2.0393e-01
11.250	17.500	2.0180e-01
11.250	17.750	1.9845e-01
11.250	18.000	1.9385e-01
11.250	18.250	1.8826e-01
11.250	18.500	1.8124e-01
11.250	18.750	1.7140e-01
11.250	19.000	1.5738e-01
11.250	19.250	1.3702e-01
11.250	19.500	1.0769e-01
11.250	19.750	6.6251e-02
11.250	20.000	2.2030e-02
11.250	20.250	2.2847e-02
11.250	20.500	2.2821e-02
11.250	20.750	2.2481e-02
11.250	21.000	2.2241e-02
11.250	21.250	1.7503e-02
11.250	21.500	1.4157e-02
11.250	21.750	1.1845e-02
11.250	22.000	1.0204e-02
11.250	22.250	9.2249e-03
11.250	22.500	8.6584e-03
11.250	22.750	8.3213e-03
11.250	23.000	8.1638e-03
11.250	23.250	8.0810e-03
11.250	23.500	8.0342e-03
11.250	23.750	8.0144e-03
11.250	24.000	8.0061e-03
11.500	17.000	2.0521e-01
11.500	17.250	2.0401e-01
11.500	17.500	2.0179e-01
11.500	17.750	1.9842e-01
11.500	18.000	1.9423e-01
11.500	18.250	1.8969e-01
11.500	18.500	1.8443e-01
11.500	18.750	1.7754e-01
11.500	19.000	1.6791e-01
11.500	19.250	1.5358e-01
11.500	19.500	1.3241e-01
11.500	19.750	1.0159e-01
11.500	20.000	5.7664e-02
11.500	20.250	2.1546e-02
11.500	20.500	2.4073e-02
11.500	20.750	2.4287e-02
11.500	21.000	2.3898e-02
11.500	21.250	2.2992e-02
11.500	21.500	1.7729e-02
11.500	21.750	1.4198e-02
11.500	22.000	1.1843e-02
11.500	22.250	1.0204e-02
11.500	22.500	9.2255e-03
11.500	22.750	8.6588e-03
11.500	23.000	8.3212e-03
11.500	23.250	8.1638e-03
11.500	23.500	8.0811e-03
11.500	23.750	8.0342e-03
11.500	24.000	8.0145e-03
11.750	17.000	2.0505e-01
11.750	17.250	2.0365e-01
11.750	17.500	2.0117e-01
11.750	17.750	1.9760e-01
11.750	18.000	1.9381e-01
11.750	18.250	1.9005e-01
11.750	18.500	1.8604e-01
11.750	18.750	1.8120e-01
11.750	19.000	1.7448e-01
11.750	19.250	1.6484e-01
11.750	19.500	1.5020e-01
11.750	19.750	1.2853e-01
11.750	20.000	9.6338e-02
11.750	20.250	5.0299e-02
11.750	20.500	2.2765e-02
11.750	20.750	2.5550e-02
11.750	21.000	2.6172e-02
11.750	21.250	2.6058e-02
11.750	21.500	2.3665e-02
11.750	21.750	1.8002e-02
11.750	22.000	1.4274e-02
11.750	22.250	1.1842e-02
11.750	22.500	1.0204e-02
11.750	22.750	9.2263e-03
11.750	23.000	8.6592e-03
11.750	23.250	8.3211e-03
11.750	23.500	8.1638e-03
11.750	23.750	8.0811e-03
11.750	24.000	8.0344e-03
12.000	17.000	2.0443e-01
12.000	17.250	2.0263e-01
12.000	17.500	1.9962e-01
12.000	17.750	1.9588e-01
12.000	18.000	1.9253e-01
12.000	18.250	1.8956e-01
12.000	18.500	1.8652e-01
12.000	18.750	1.8292e-01
12.000	19.000	1.7825e-01
12.000	19.250	1.7185e-01
12.000	19.500	1.6223e-01
12.000	19.750	1.4746e-01
12.000	20.000	1.2521e-01
12.000	20.250	9.2104e-02
12.000	20.500	4.4376e-02
12.000	20.750	2.4200e-02
12.000	21.000	2.7583e-02
12.000	21.250	2.9389e-02
12.000	21.500	2.9177e-02
12.000	21.750	2.4270e-02
12.000	22.000	1.8313e-02
12.000	22.250	1.4375e-02
12.000	22.500	1.1845e-02
12.000	22.750	1.0204e-02
12.000	23.000	9.2270e-03
12.000	23.250	8.6597e-03
12.000	23.500	8.3208e-03
12.000	23.750	8.1638e-03
12.000	24.000	8.0812e-03
12.250	17.000	2.0248e-01
12.250	17.250	2.0012e-01
12.250	17.500	1.9663e-01
12.250	17.750	1.9316e-01
12.250	18.000	1.9055e-01
12.250	18.250	1.8834e-01
12.250	18.500	1.8616e-01
12.250	18.750	1.8351e-01
12.250	19.000	1.8021e-01
12.250	19.250	1.7589e-01
12.250	19.500	1.6977e-01
12.250	19.750	1.6013e-01
12.250	20.000	1.4535e-01
12.250	20.250	1.2275e-01
12.250	20.500	8.8634e-02
12.250	20.750	3.9140e-02
12.250	21.000	2.6631e-02
12.250	21.250	3.1108e-02
12.250	21.500	3.3646e-02
12.250	21.750	3.2677e-02
12.250	22.000	2.4882e-02
12.250	22.250	1.8488e-02
12.250	22.500	1.4413e-02
12.250	22.750	1.1851e-02
12.250	23.000	1.0204e-02
12.250	23.250	9.2277e-03
12.250	23.500	8.6602e-03
12.250	23.750	8.3206e-03
12.250	24.000	8.1637e-03
12.500	17.000	1.9742e-01
12.500	17.250	1.9468e-01
12.500	17.500	1.9170e-01
12.500	17.750	1.8958e-01
12.500	18.000	1.8796e-01
12.500	18.250	1.8653e-01
12.500	18.500	1.8504e-01
12.500	18.750	1.8332e-01
12.500	19.000	1.8113e-01
12.500	19.250	1.7818e-01
12.500	19.500	1.7418e-01
12.500	19.750	1.6822e-01
12.500	20.000	1.5868e-01
12.500	20.250	1.4381e-01
12.500	20.500	1.2074e-01
12.500	20.750	8.6172e-02
12.500	21.000	3.7065e-02
12.500	21.250	3.0774e-02
12.500	21.500	3.5994e-02
12.500	21.750	3.8620e-02
12.500	22.000	3.4889e-02
12.500	22.250	2.5339e-02
12.500	22.500	1.8755e-02
12.500	22.750	1.4537e-02
12.500	23.000	1.1859e-02
12.500	23.250	1.0204e-02
12.500	23.500	9.2282e-03
12.500	23.750	8.6608e-03
12.500	24.000	8.3202e-03
12.750	17.000	1.4912e-01
12.750	17.250	1.8485e-01
12.750	17.500	1.8636e-01
12.750	17.750	1.8566e-01
12.750	18.000	1.8484e-01
12.750	18.250	1.8403e-01
12.750	18.500	1.8325e-01
12.750	18.750	1.8233e-01
12.750	19.000	1.8110e-01
12.750	19.250	1.7934e-01
12.750	19.500	1.7675e-01
12.750	19.750	1.7294e-01
12.750	20.000	1.6708e-01
12.750	20.250	1.5766e-01
12.750	20.500	1.4261e-01
12.750	20.750	1.1954e-01
12.750	21.000	8.4271e-02
12.750	21.250	3.4319e-02
12.750	21.500	3.6104e-02
12.750	21.750	4.2693e-02
12.750	22.000	4.3913e-02
12.750	22.250	3.6286e-02
12.750	22.500	2.5940e-02
12.750	22.750	1.9069e-02
12.750	23.000	1.4632e-02
12.750	23.250	1.1868e-02
12.750	23.500	1.0203e-02
12.750	23.750	9.2286e-03
12.750	24.000	8.6612e-03
13.000	17.000	7.8226e-02
13.000	17.250	1.3536e-01
13.000	17.500	1.7180e-01
13.000	17.750	1.8157e-01
13.000	18.000	1.8121e-01
13.000	18.250	1.8090e-01
13.000	18.500	1.8070e-01
13.000	18.750	1.8052e-01
13.000	19.000	1.8018e-01
13.000	19.250	1.7947e-01
13.000	19.500	1.7806e-01
13.000	19.750	1.7570e-01
13.000	20.000	1.7203e-01
13.000	20.250	1.6624e-01
13.000	20.500	1.5695e-01
13.000	20.750	1.4189e-01
13.000	21.000	1.1848e-01
13.000	21.250	8.2892e-02
13.000	21.500	3.5495e-02
13.000	21.750	4.3564e-02
13.000	22.000	4.8989e-02
13.000	22.250	4.8276e-02
13.000	22.500	3.7489e-02
13.000	22.750	2.6450e-02
13.000	23.000	1.9289e-02
13.000	23.250	1.4709e-02
13.000	23.500	1.1878e-02
13.000	23.750	1.0202e-02
13.000	24.000	9.2286e-03
13.250	17.000	4.9005e-02
13.250	17.250	8.7987e-02
13.250	17.500	1.5581e-01
13.250	17.750	1.7705e-01
13.250	18.000	1.7700e-01
13.250	18.250	1.7702e-01
13.250	18.500	1.7734e-01
13.250	18.750	1.7786e-01
13.250	19.000	1.7834e-01
13.250	19.250	1.7857e-01
13.250	19.500	1.7826e-01
13.250	19.750	1.7717e-01
13.250	20.000	1.7498e-01
13.250	20.250	1.7129e-01
13.250	20.500	1.6546e-01
13.250	20.750	1.5611e-01
13.250	21.000	1.4109e-01
13.250	21.250	1.1761e-01
13.250	21.500	8.2609e-02
13.250	21.750	3.9385e-02
13.250	22.000	4.8515e-02
13.250	22.250	5.4363e-02
13.250	22.500	5.1261e-02
13.250	22.750	3.8683e-02
13.250	23.000	2.6964e-02
13.250	23.250	1.9337e-02
13.250	23.500	1.4713e-02
13.250	23.750	1.1887e-02
13.250	24.000	1.0201e-02
13.500	17.000	3.0327e-02
13.500	17.250	5.6433e-02
13.500	17.500	1.0842e-01
13.500	17.750	1.5671e-01
13.500	18.000	1.7213e-01
13.500	18.250	1.7241e-01
13.500	18.500	1.7315e-01
13.500	18.750	1.7430e-01
13.500	19.000	1.7554e-01
13.500	19.250	1.7664e-01
13.500	19.500	1.7730e-01
13.500	19.750	1.7733e-01
13.500	20.000	1.7647e-01
13.500	20.250	1.7444e-01
13.500	20.500	1.7073e-01
13.500	20.750	1.6473e-01
13.500	21.000	1.5492e-01
13.500	21.250	1.3971e-01
13.500	21.500	1.1581e-01
13.500	21.750	7.9390e-02
13.500	22.000	4.1980e-02
13.500	22.250	5.1954e-02
13.500	22.500	5.7408e-02
13.500	22.750	5.3366e-02
13.500	23.000	3.9837e-02
13.500	23.250	2.7538e-02
13.500	23.500	1.9664e-02
13.500	23.750	1.4820e-02
13.500	24.000	1.1894e-02
13.750	17.000	1.8944e-02
13.750	17.250	3.5384e-02
13.750	17.500	7.2681e-02
13.750	17.750	1.1823e-01
13.750	18.000	1.6396e-01
13.750	18.250	1.6671e-01
13.750	18.500	1.6802e-01
13.750	18.750	1.6981e-01
13.750	19.000	1.7174e-01
13.750	19.250	1.7368e-01
13.750	19.500	1.7527e-01
13.750	19.750	1.7631e-01
13.750	20.000	1.7663e-01
13.750	20.250	1.7600e-01
13.750	20.500	1.7409e-01
13.750	20.750	1.7035e-01
13.750	21.000	1.6400e-01
13.750	21.250	1.5349e-01
13.750	21.500	1.3777e-01
13.750	21.750	1.1225e-01
13.750	22.000	7.5367e-02
13.750	22.250	4.6629e-02
13.750	22.500	5.5178e-02
13.750	22.750	6.1006e-02
13.750	23.000	5.5697e-02
13.750	23.250	4.0912e-02
13.750	23.500	2.7944e-02
13.750	23.750	1.9822e-02
13.750	24.000	1.4862e-02
14.000	17.000	1.1715e-02
14.000	17.250	2.2302e-02
14.000	17.500	4.6250e-02
14.000	17.750	8.4049e-02
14.000	18.000	1.2982e-01
14.000	18.250	1.5984e-01
14.000	18.500	1.6155e-01
14.000	18.750	1.6405e-01
14.000	19.000	1.6689e-01
14.000	19.250	1.6968e-01
14.000	19.500	1.7219e-01
14.000	19.750	1.7420e-01
14.000	20.000	1.7556e-01
14.000	20.250	1.7615e-01
14.000	20.500	1.7572e-01
14.000	20.750	1.7389e-01
14.000	21.000	1.7013e-01
14.000	21.250	1.6339e-01
14.000	21.500	1.5261e-01
14.000	21.750	1.3488e-01
14.000	22.000	1.0738e-01
14.000	22.250	7.1921e-02
14.000	22.500	5.4300e-02
14.000	22.750	6.0623e-02
14.000	23.000	6.4834e-02
14.000	23.250	5.8437e-02
14.000	23.500	4.1910e-02
14.000	23.750	2.8292e-02
14.000	24.000	1.9966e-02
