nFnu 3648.00A  relative to Inci 1215.00A scaled to 1215A.
Hden   Phi(H)  Eq_Width (A)
 7.000	17.000	2.0213e-02
 7.000	17.250	1.3752e-02
 7.000	17.500	1.0043e-02
 7.000	17.750	8.0095e-03
 7.000	18.000	6.9620e-03
 7.000	18.250	6.3798e-03
 7.000	18.500	6.0497e-03
 7.000	18.750	5.9032e-03
 7.000	19.000	5.8275e-03
 7.000	19.250	5.7858e-03
 7.000	19.500	5.7689e-03
 7.000	19.750	5.7621e-03
 7.000	20.000	5.7591e-03
 7.000	20.250	5.7578e-03
 7.000	20.500	5.7571e-03
 7.000	20.750	5.7567e-03
 7.000	21.000	5.7565e-03
 7.000	21.250	5.7565e-03
 7.000	21.500	5.7565e-03
 7.000	21.750	5.7564e-03
 7.000	22.000	5.7563e-03
 7.000	22.250	5.7563e-03
 7.000	22.500	5.7563e-03
 7.000	22.750	5.7565e-03
 7.000	23.000	5.7565e-03
 7.000	23.250	5.7563e-03
 7.000	23.500	5.7563e-03
 7.000	23.750	5.7563e-03
 7.000	24.000	5.7563e-03
 7.250	17.000	3.1106e-02
 7.250	17.250	2.0199e-02
 7.250	17.500	1.3743e-02
 7.250	17.750	1.0037e-02
 7.250	18.000	8.0067e-03
 7.250	18.250	6.9608e-03
 7.250	18.500	6.3794e-03
 7.250	18.750	6.0495e-03
 7.250	19.000	5.9031e-03
 7.250	19.250	5.8275e-03
 7.250	19.500	5.7858e-03
 7.250	19.750	5.7689e-03
 7.250	20.000	5.7621e-03
 7.250	20.250	5.7591e-03
 7.250	20.500	5.7578e-03
 7.250	20.750	5.7571e-03
 7.250	21.000	5.7567e-03
 7.250	21.250	5.7565e-03
 7.250	21.500	5.7565e-03
 7.250	21.750	5.7575e-03
 7.250	22.000	5.7564e-03
 7.250	22.250	5.7563e-03
 7.250	22.500	5.7563e-03
 7.250	22.750	5.7569e-03
 7.250	23.000	5.7569e-03
 7.250	23.250	5.7563e-03
 7.250	23.500	5.7563e-03
 7.250	23.750	5.7563e-03
 7.250	24.000	5.7563e-03
 7.500	17.000	4.2601e-02
 7.500	17.250	3.1104e-02
 7.500	17.500	2.0190e-02
 7.500	17.750	1.3736e-02
 7.500	18.000	1.0031e-02
 7.500	18.250	8.0042e-03
 7.500	18.500	6.9599e-03
 7.500	18.750	6.3790e-03
 7.500	19.000	6.0495e-03
 7.500	19.250	5.9031e-03
 7.500	19.500	5.8275e-03
 7.500	19.750	5.7858e-03
 7.500	20.000	5.7689e-03
 7.500	20.250	5.7621e-03
 7.500	20.500	5.7591e-03
 7.500	20.750	5.7577e-03
 7.500	21.000	5.7570e-03
 7.500	21.250	5.7567e-03
 7.500	21.500	5.7565e-03
 7.500	21.750	5.7565e-03
 7.500	22.000	5.7564e-03
 7.500	22.250	5.7564e-03
 7.500	22.500	5.7563e-03
 7.500	22.750	5.7563e-03
 7.500	23.000	5.7566e-03
 7.500	23.250	5.7569e-03
 7.500	23.500	5.7563e-03
 7.500	23.750	5.7570e-03
 7.500	24.000	5.7563e-03
 7.750	17.000	5.8995e-02
 7.750	17.250	4.2592e-02
 7.750	17.500	3.1105e-02
 7.750	17.750	2.0185e-02
 7.750	18.000	1.3731e-02
 7.750	18.250	1.0025e-02
 7.750	18.500	8.0017e-03
 7.750	18.750	6.9590e-03
 7.750	19.000	6.3788e-03
 7.750	19.250	6.0494e-03
 7.750	19.500	5.9030e-03
 7.750	19.750	5.8275e-03
 7.750	20.000	5.7858e-03
 7.750	20.250	5.7689e-03
 7.750	20.500	5.7621e-03
 7.750	20.750	5.7591e-03
 7.750	21.000	5.7577e-03
 7.750	21.250	5.7570e-03
 7.750	21.500	5.7567e-03
 7.750	21.750	5.7565e-03
 7.750	22.000	5.7564e-03
 7.750	22.250	5.7564e-03
 7.750	22.500	5.7563e-03
 7.750	22.750	5.7565e-03
 7.750	23.000	5.7565e-03
 7.750	23.250	5.7564e-03
 7.750	23.500	5.7569e-03
 7.750	23.750	5.7569e-03
 7.750	24.000	5.7563e-03
 8.000	17.000	5.7971e-02
 8.000	17.250	5.8306e-02
 8.000	17.500	4.2497e-02
 8.000	17.750	3.1088e-02
 8.000	18.000	2.0182e-02
 8.000	18.250	1.3728e-02
 8.000	18.500	1.0020e-02
 8.000	18.750	7.9991e-03
 8.000	19.000	6.9581e-03
 8.000	19.250	6.3786e-03
 8.000	19.500	6.0493e-03
 8.000	19.750	5.9030e-03
 8.000	20.000	5.8275e-03
 8.000	20.250	5.7858e-03
 8.000	20.500	5.7689e-03
 8.000	20.750	5.7621e-03
 8.000	21.000	5.7591e-03
 8.000	21.250	5.7577e-03
 8.000	21.500	5.7570e-03
 8.000	21.750	5.7567e-03
 8.000	22.000	5.7565e-03
 8.000	22.250	5.7564e-03
 8.000	22.500	5.7563e-03
 8.000	22.750	5.7565e-03
 8.000	23.000	5.7563e-03
 8.000	23.250	5.7566e-03
 8.000	23.500	5.7563e-03
 8.000	23.750	5.7563e-03
 8.000	24.000	5.7563e-03
 8.250	17.000	5.7220e-02
 8.250	17.250	5.8062e-02
 8.250	17.500	5.8316e-02
 8.250	17.750	4.2494e-02
 8.250	18.000	3.1091e-02
 8.250	18.250	2.0180e-02
 8.250	18.500	1.3725e-02
 8.250	18.750	1.0014e-02
 8.250	19.000	7.9963e-03
 8.250	19.250	6.9571e-03
 8.250	19.500	6.3784e-03
 8.250	19.750	6.0492e-03
 8.250	20.000	5.9030e-03
 8.250	20.250	5.8275e-03
 8.250	20.500	5.7858e-03
 8.250	20.750	5.7689e-03
 8.250	21.000	5.7621e-03
 8.250	21.250	5.7591e-03
 8.250	21.500	5.7577e-03
 8.250	21.750	5.7570e-03
 8.250	22.000	5.7567e-03
 8.250	22.250	5.7565e-03
 8.250	22.500	5.7564e-03
 8.250	22.750	5.7565e-03
 8.250	23.000	5.7563e-03
 8.250	23.250	5.7578e-03
 8.250	23.500	5.7563e-03
 8.250	23.750	5.7563e-03
 8.250	24.000	5.7567e-03
 8.500	17.000	5.6453e-02
 8.500	17.250	5.7411e-02
 8.500	17.500	5.8185e-02
 8.500	17.750	5.8363e-02
 8.500	18.000	4.2501e-02
 8.500	18.250	3.1093e-02
 8.500	18.500	2.0179e-02
 8.500	18.750	1.3723e-02
 8.500	19.000	1.0008e-02
 8.500	19.250	7.9933e-03
 8.500	19.500	6.9561e-03
 8.500	19.750	6.3781e-03
 8.500	20.000	6.0491e-03
 8.500	20.250	5.9030e-03
 8.500	20.500	5.8275e-03
 8.500	20.750	5.7858e-03
 8.500	21.000	5.7689e-03
 8.500	21.250	5.7621e-03
 8.500	21.500	5.7591e-03
 8.500	21.750	5.7577e-03
 8.500	22.000	5.7570e-03
 8.500	22.250	5.7567e-03
 8.500	22.500	5.7565e-03
 8.500	22.750	5.7564e-03
 8.500	23.000	5.7563e-03
 8.500	23.250	5.7565e-03
 8.500	23.500	5.7563e-03
 8.500	23.750	5.7562e-03
 8.500	24.000	5.7563e-03
 8.750	17.000	5.5637e-02
 8.750	17.250	5.6790e-02
 8.750	17.500	5.7766e-02
 8.750	17.750	5.8362e-02
 8.750	18.000	5.8504e-02
 8.750	18.250	4.2510e-02
 8.750	18.500	3.1092e-02
 8.750	18.750	2.0179e-02
 8.750	19.000	1.3721e-02
 8.750	19.250	1.0002e-02
 8.750	19.500	7.9899e-03
 8.750	19.750	6.9551e-03
 8.750	20.000	6.3779e-03
 8.750	20.250	6.0491e-03
 8.750	20.500	5.9030e-03
 8.750	20.750	5.8275e-03
 8.750	21.000	5.7858e-03
 8.750	21.250	5.7689e-03
 8.750	21.500	5.7621e-03
 8.750	21.750	5.7591e-03
 8.750	22.000	5.7577e-03
 8.750	22.250	5.7570e-03
 8.750	22.500	5.7567e-03
 8.750	22.750	5.7565e-03
 8.750	23.000	5.7570e-03
 8.750	23.250	5.7563e-03
 8.750	23.500	5.7565e-03
 8.750	23.750	5.7563e-03
 8.750	24.000	5.7563e-03
 9.000	17.000	5.4617e-02
 9.000	17.250	5.6145e-02
 9.000	17.500	5.7440e-02
 9.000	17.750	5.8531e-02
 9.000	18.000	5.9104e-02
 9.000	18.250	5.9071e-02
 9.000	18.500	4.2512e-02
 9.000	18.750	3.1087e-02
 9.000	19.000	2.0178e-02
 9.000	19.250	1.3719e-02
 9.000	19.500	9.9952e-03
 9.000	19.750	7.9865e-03
 9.000	20.000	6.9542e-03
 9.000	20.250	6.3777e-03
 9.000	20.500	6.0491e-03
 9.000	20.750	5.9030e-03
 9.000	21.000	5.8275e-03
 9.000	21.250	5.7858e-03
 9.000	21.500	5.7689e-03
 9.000	21.750	5.7620e-03
 9.000	22.000	5.7591e-03
 9.000	22.250	5.7577e-03
 9.000	22.500	5.7570e-03
 9.000	22.750	5.7567e-03
 9.000	23.000	5.7565e-03
 9.000	23.250	5.7564e-03
 9.000	23.500	5.7563e-03
 9.000	23.750	5.7563e-03
 9.000	24.000	5.7563e-03
 9.250	17.000	5.3264e-02
 9.250	17.250	5.5336e-02
 9.250	17.500	5.7227e-02
 9.250	17.750	5.8962e-02
 9.250	18.000	6.0297e-02
 9.250	18.250	6.1095e-02
 9.250	18.500	6.0493e-02
 9.250	18.750	4.2499e-02
 9.250	19.000	3.1077e-02
 9.250	19.250	2.0178e-02
 9.250	19.500	1.3718e-02
 9.250	19.750	9.9894e-03
 9.250	20.000	7.9832e-03
 9.250	20.250	6.9533e-03
 9.250	20.500	6.3774e-03
 9.250	20.750	6.0490e-03
 9.250	21.000	5.9030e-03
 9.250	21.250	5.8275e-03
 9.250	21.500	5.7854e-03
 9.250	21.750	5.7685e-03
 9.250	22.000	5.7616e-03
 9.250	22.250	5.7587e-03
 9.250	22.500	5.7574e-03
 9.250	22.750	5.7568e-03
 9.250	23.000	5.7565e-03
 9.250	23.250	5.7564e-03
 9.250	23.500	5.7562e-03
 9.250	23.750	5.7562e-03
 9.250	24.000	5.7562e-03
 9.500	17.000	5.1591e-02
 9.500	17.250	5.4283e-02
 9.500	17.500	5.6994e-02
 9.500	17.750	5.9738e-02
 9.500	18.000	6.2205e-02
 9.500	18.250	6.4475e-02
 9.500	18.500	6.6043e-02
 9.500	18.750	6.2778e-02
 9.500	19.000	4.2471e-02
 9.500	19.250	3.1059e-02
 9.500	19.500	2.0178e-02
 9.500	19.750	1.3719e-02
 9.500	20.000	9.9847e-03
 9.500	20.250	7.9803e-03
 9.500	20.500	6.9525e-03
 9.500	20.750	6.3770e-03
 9.500	21.000	6.0486e-03
 9.500	21.250	5.9026e-03
 9.500	21.500	5.8270e-03
 9.500	21.750	5.7852e-03
 9.500	22.000	5.7683e-03
 9.500	22.250	5.7615e-03
 9.500	22.500	5.7585e-03
 9.500	22.750	5.7571e-03
 9.500	23.000	5.7565e-03
 9.500	23.250	5.7561e-03
 9.500	23.500	5.7560e-03
 9.500	23.750	5.7558e-03
 9.500	24.000	5.7558e-03
 9.750	17.000	4.9365e-02
 9.750	17.250	5.2803e-02
 9.750	17.500	5.6511e-02
 9.750	17.750	6.0664e-02
 9.750	18.000	6.5120e-02
 9.750	18.250	6.9293e-02
 9.750	18.500	7.2934e-02
 9.750	18.750	7.5408e-02
 9.750	19.000	6.2612e-02
 9.750	19.250	4.2419e-02
 9.750	19.500	3.1027e-02
 9.750	19.750	2.0178e-02
 9.750	20.000	1.3721e-02
 9.750	20.250	9.9821e-03
 9.750	20.500	7.9783e-03
 9.750	20.750	6.9519e-03
 9.750	21.000	6.3770e-03
 9.750	21.250	6.0485e-03
 9.750	21.500	5.9027e-03
 9.750	21.750	5.8271e-03
 9.750	22.000	5.7852e-03
 9.750	22.250	5.7683e-03
 9.750	22.500	5.7615e-03
 9.750	22.750	5.7585e-03
 9.750	23.000	5.7571e-03
 9.750	23.250	5.7565e-03
 9.750	23.500	5.7561e-03
 9.750	23.750	5.7559e-03
 9.750	24.000	5.7558e-03
10.000	17.000	4.6542e-02
10.000	17.250	5.0870e-02
10.000	17.500	5.5786e-02
10.000	17.750	6.1674e-02
10.000	18.000	6.8637e-02
10.000	18.250	7.5366e-02
10.000	18.500	8.0870e-02
10.000	18.750	8.4904e-02
10.000	19.000	8.4520e-02
10.000	19.250	6.2295e-02
10.000	19.500	4.2329e-02
10.000	19.750	3.0972e-02
10.000	20.000	2.0177e-02
10.000	20.250	1.3723e-02
10.000	20.500	9.9807e-03
10.000	20.750	7.9766e-03
10.000	21.000	6.9518e-03
10.000	21.250	6.3770e-03
10.000	21.500	6.0485e-03
10.000	21.750	5.9027e-03
10.000	22.000	5.8272e-03
10.000	22.250	5.7853e-03
10.000	22.500	5.7683e-03
10.000	22.750	5.7615e-03
10.000	23.000	5.7585e-03
10.000	23.250	5.7572e-03
10.000	23.500	5.7565e-03
10.000	23.750	5.7561e-03
10.000	24.000	5.7560e-03
10.250	17.000	4.4178e-02
10.250	17.250	4.8557e-02
10.250	17.500	5.4940e-02
10.250	17.750	6.2928e-02
10.250	18.000	7.2398e-02
10.250	18.250	8.1595e-02
10.250	18.500	8.9174e-02
10.250	18.750	9.5029e-02
10.250	19.000	9.9201e-02
10.250	19.250	9.5417e-02
10.250	19.500	6.2038e-02
10.250	19.750	4.2182e-02
10.250	20.000	3.0900e-02
10.250	20.250	2.0177e-02
10.250	20.500	1.3726e-02
10.250	20.750	9.9808e-03
10.250	21.000	7.9758e-03
10.250	21.250	6.9519e-03
10.250	21.500	6.3770e-03
10.250	21.750	6.0485e-03
10.250	22.000	5.9027e-03
10.250	22.250	5.8272e-03
10.250	22.500	5.7853e-03
10.250	22.750	5.7683e-03
10.250	23.000	5.7615e-03
10.250	23.250	5.7585e-03
10.250	23.500	5.7571e-03
10.250	23.750	5.7565e-03
10.250	24.000	5.7561e-03
10.500	17.000	4.2545e-02
10.500	17.250	4.6959e-02
10.500	17.500	5.4139e-02
10.500	17.750	6.4516e-02
10.500	18.000	7.6179e-02
10.500	18.250	8.7350e-02
10.500	18.500	9.6583e-02
10.500	18.750	1.0391e-01
10.500	19.000	1.0916e-01
10.500	19.250	1.1307e-01
10.500	19.500	9.6626e-02
10.500	19.750	6.2045e-02
10.500	20.000	4.2144e-02
10.500	20.250	3.0812e-02
10.500	20.500	2.0176e-02
10.500	20.750	1.3728e-02
10.500	21.000	9.9826e-03
10.500	21.250	7.9757e-03
10.500	21.500	6.9523e-03
10.500	21.750	6.3770e-03
10.500	22.000	6.0486e-03
10.500	22.250	5.9028e-03
10.500	22.500	5.8272e-03
10.500	22.750	5.7853e-03
10.500	23.000	5.7684e-03
10.500	23.250	5.7615e-03
10.500	23.500	5.7585e-03
10.500	23.750	5.7572e-03
10.500	24.000	5.7565e-03
10.750	17.000	4.1769e-02
10.750	17.250	4.6228e-02
10.750	17.500	5.4385e-02
10.750	17.750	6.6246e-02
10.750	18.000	7.9565e-02
10.750	18.250	9.1832e-02
10.750	18.500	1.0222e-01
10.750	18.750	1.1073e-01
10.750	19.000	1.1720e-01
10.750	19.250	1.2189e-01
10.750	19.500	1.2473e-01
10.750	19.750	9.6396e-02
10.750	20.000	6.2220e-02
10.750	20.250	4.2259e-02
10.750	20.500	3.0761e-02
10.750	20.750	2.0173e-02
10.750	21.000	1.3729e-02
10.750	21.250	9.9855e-03
10.750	21.500	7.9765e-03
10.750	21.750	6.9531e-03
10.750	22.000	6.3772e-03
10.750	22.250	6.0486e-03
10.750	22.500	5.9029e-03
10.750	22.750	5.8272e-03
10.750	23.000	5.7854e-03
10.750	23.250	5.7685e-03
10.750	23.500	5.7615e-03
10.750	23.750	5.7585e-03
10.750	24.000	5.7572e-03
11.000	17.000	4.1665e-02
11.000	17.250	4.6280e-02
11.000	17.500	5.5171e-02
11.000	17.750	6.7945e-02
11.000	18.000	8.1697e-02
11.000	18.250	9.4388e-02
11.000	18.500	1.0563e-01
11.000	18.750	1.1523e-01
11.000	19.000	1.2302e-01
11.000	19.250	1.2898e-01
11.000	19.500	1.3327e-01
11.000	19.750	1.3482e-01
11.000	20.000	9.6769e-02
11.000	20.250	6.3125e-02
11.000	20.500	4.2516e-02
11.000	20.750	3.0780e-02
11.000	21.000	2.0169e-02
11.000	21.250	1.3727e-02
11.000	21.500	9.9893e-03
11.000	21.750	7.9780e-03
11.000	22.000	6.9542e-03
11.000	22.250	6.3774e-03
11.000	22.500	6.0485e-03
11.000	22.750	5.9030e-03
11.000	23.000	5.8273e-03
11.000	23.250	5.7854e-03
11.000	23.500	5.7686e-03
11.000	23.750	5.7616e-03
11.000	24.000	5.7586e-03
11.250	17.000	4.2041e-02
11.250	17.250	4.6767e-02
11.250	17.500	5.6055e-02
11.250	17.750	6.8956e-02
11.250	18.000	8.2605e-02
11.250	18.250	9.5302e-02
11.250	18.500	1.0708e-01
11.250	18.750	1.1783e-01
11.250	19.000	1.2665e-01
11.250	19.250	1.3385e-01
11.250	19.500	1.3911e-01
11.250	19.750	1.4278e-01
11.250	20.000	1.3974e-01
11.250	20.250	9.6970e-02
11.250	20.500	6.3353e-02
11.250	20.750	4.2975e-02
11.250	21.000	3.0963e-02
11.250	21.250	2.0161e-02
11.250	21.500	1.3718e-02
11.250	21.750	9.9933e-03
11.250	22.000	7.9803e-03
11.250	22.250	6.9556e-03
11.250	22.500	6.3778e-03
11.250	22.750	6.0484e-03
11.250	23.000	5.9030e-03
11.250	23.250	5.8275e-03
11.250	23.500	5.7854e-03
11.250	23.750	5.7686e-03
11.250	24.000	5.7616e-03
11.500	17.000	4.2861e-02
11.500	17.250	4.7543e-02
11.500	17.500	5.6776e-02
11.500	17.750	6.9286e-02
11.500	18.000	8.2541e-02
11.500	18.250	9.5234e-02
11.500	18.500	1.0737e-01
11.500	18.750	1.1885e-01
11.500	19.000	1.2890e-01
11.500	19.250	1.3702e-01
11.500	19.500	1.4310e-01
11.500	19.750	1.4784e-01
11.500	20.000	1.5126e-01
11.500	20.250	1.4069e-01
11.500	20.500	9.7847e-02
11.500	20.750	6.4315e-02
11.500	21.000	4.3756e-02
11.500	21.250	3.1209e-02
11.500	21.500	2.0143e-02
11.500	21.750	1.3699e-02
11.500	22.000	9.9961e-03
11.500	22.250	7.9831e-03
11.500	22.500	6.9572e-03
11.500	22.750	6.3782e-03
11.500	23.000	6.0482e-03
11.500	23.250	5.9030e-03
11.500	23.500	5.8276e-03
11.500	23.750	5.7855e-03
11.500	24.000	5.7686e-03
11.750	17.000	4.4089e-02
11.750	17.250	4.8529e-02
11.750	17.500	5.7290e-02
11.750	17.750	6.9115e-02
11.750	18.000	8.1850e-02
11.750	18.250	9.4655e-02
11.750	18.500	1.0729e-01
11.750	18.750	1.1944e-01
11.750	19.000	1.3062e-01
11.750	19.250	1.3977e-01
11.750	19.500	1.4672e-01
11.750	19.750	1.5184e-01
11.750	20.000	1.5621e-01
11.750	20.250	1.5978e-01
11.750	20.500	1.4400e-01
11.750	20.750	9.8783e-02
11.750	21.000	6.5503e-02
11.750	21.250	4.5145e-02
11.750	21.500	3.1297e-02
11.750	21.750	2.0109e-02
11.750	22.000	1.3668e-02
11.750	22.250	9.9957e-03
11.750	22.500	7.9863e-03
11.750	22.750	6.9589e-03
11.750	23.000	6.3788e-03
11.750	23.250	6.0481e-03
11.750	23.500	5.9030e-03
11.750	23.750	5.8276e-03
11.750	24.000	5.7856e-03
12.000	17.000	4.5685e-02
12.000	17.250	4.9648e-02
12.000	17.500	5.7489e-02
12.000	17.750	6.8384e-02
12.000	18.000	8.0781e-02
12.000	18.250	9.3936e-02
12.000	18.500	1.0744e-01
12.000	18.750	1.2056e-01
12.000	19.000	1.3252e-01
12.000	19.250	1.4291e-01
12.000	19.500	1.5080e-01
12.000	19.750	1.5627e-01
12.000	20.000	1.6085e-01
12.000	20.250	1.6486e-01
12.000	20.500	1.6834e-01
12.000	20.750	1.4432e-01
12.000	21.000	9.9936e-02
12.000	21.250	6.7915e-02
12.000	21.500	4.7360e-02
12.000	21.750	3.1308e-02
12.000	22.000	2.0054e-02
12.000	22.250	1.3626e-02
12.000	22.500	9.9899e-03
12.000	22.750	7.9894e-03
12.000	23.000	6.9607e-03
12.000	23.250	6.3794e-03
12.000	23.500	6.0478e-03
12.000	23.750	5.9029e-03
12.000	24.000	5.8276e-03
12.250	17.000	4.7242e-02
12.250	17.250	5.0564e-02
12.250	17.500	5.7095e-02
12.250	17.750	6.6925e-02
12.250	18.000	7.9291e-02
12.250	18.250	9.3285e-02
12.250	18.500	1.0814e-01
12.250	18.750	1.2256e-01
12.250	19.000	1.3535e-01
12.250	19.250	1.4653e-01
12.250	19.500	1.5549e-01
12.250	19.750	1.6208e-01
12.250	20.000	1.6630e-01
12.250	20.250	1.7037e-01
12.250	20.500	1.7459e-01
12.250	20.750	1.7837e-01
12.250	21.000	1.4628e-01
12.250	21.250	1.0272e-01
12.250	21.500	7.1186e-02
12.250	21.750	4.9846e-02
12.250	22.000	3.1282e-02
12.250	22.250	1.9995e-02
12.250	22.500	1.3599e-02
12.250	22.750	9.9774e-03
12.250	23.000	7.9921e-03
12.250	23.250	6.9624e-03
12.250	23.500	6.3801e-03
12.250	23.750	6.0474e-03
12.250	24.000	5.9028e-03
12.500	17.000	4.7482e-02
12.500	17.250	5.0043e-02
12.500	17.500	5.5629e-02
12.500	17.750	6.4868e-02
12.500	18.000	7.7576e-02
12.500	18.250	9.2481e-02
12.500	18.500	1.0882e-01
12.500	18.750	1.2506e-01
12.500	19.000	1.3921e-01
12.500	19.250	1.5099e-01
12.500	19.500	1.6054e-01
12.500	19.750	1.6804e-01
12.500	20.000	1.7328e-01
12.500	20.250	1.7698e-01
12.500	20.500	1.8130e-01
12.500	20.750	1.8643e-01
12.500	21.000	1.9206e-01
12.500	21.250	1.5129e-01
12.500	21.500	1.0674e-01
12.500	21.750	7.4943e-02
12.500	22.000	5.0979e-02
12.500	22.250	3.1216e-02
12.500	22.500	1.9912e-02
12.500	22.750	1.3536e-02
12.500	23.000	9.9578e-03
12.500	23.250	7.9938e-03
12.500	23.500	6.9638e-03
12.500	23.750	6.3806e-03
12.500	24.000	6.0469e-03
12.750	17.000	4.1201e-02
12.750	17.250	4.6200e-02
12.750	17.500	5.3052e-02
12.750	17.750	6.3186e-02
12.750	18.000	7.6252e-02
12.750	18.250	9.1779e-02
12.750	18.500	1.0900e-01
12.750	18.750	1.2688e-01
12.750	19.000	1.4307e-01
12.750	19.250	1.5608e-01
12.750	19.500	1.6612e-01
12.750	19.750	1.7418e-01
12.750	20.000	1.8039e-01
12.750	20.250	1.8514e-01
12.750	20.500	1.8925e-01
12.750	20.750	1.9458e-01
12.750	21.000	2.0307e-01
12.750	21.250	2.1079e-01
12.750	21.500	1.5775e-01
12.750	21.750	1.1270e-01
12.750	22.000	7.8795e-02
12.750	22.250	5.1008e-02
12.750	22.500	3.1117e-02
12.750	22.750	1.9803e-02
12.750	23.000	1.3471e-02
12.750	23.250	9.9322e-03
12.750	23.500	7.9937e-03
12.750	23.750	6.9645e-03
12.750	24.000	6.3808e-03
13.000	17.000	3.6699e-02
13.000	17.250	4.3648e-02
13.000	17.500	5.1916e-02
13.000	17.750	6.2567e-02
13.000	18.000	7.5760e-02
13.000	18.250	9.1613e-02
13.000	18.500	1.0928e-01
13.000	18.750	1.2779e-01
13.000	19.000	1.4528e-01
13.000	19.250	1.6021e-01
13.000	19.500	1.7090e-01
13.000	19.750	1.7986e-01
13.000	20.000	1.8696e-01
13.000	20.250	1.9298e-01
13.000	20.500	1.9866e-01
13.000	20.750	2.0399e-01
13.000	21.000	2.1146e-01
13.000	21.250	2.2392e-01
13.000	21.500	2.2937e-01
13.000	21.750	1.6661e-01
13.000	22.000	1.1815e-01
13.000	22.250	8.1509e-02
13.000	22.500	5.0928e-02
13.000	22.750	3.0983e-02
13.000	23.000	1.9706e-02
13.000	23.250	1.3401e-02
13.000	23.500	9.8989e-03
13.000	23.750	7.9909e-03
13.000	24.000	6.9642e-03
13.250	17.000	3.5671e-02
13.250	17.250	4.2214e-02
13.250	17.500	5.2400e-02
13.250	17.750	6.3146e-02
13.250	18.000	7.6333e-02
13.250	18.250	9.2309e-02
13.250	18.500	1.1016e-01
13.250	18.750	1.2875e-01
13.250	19.000	1.4678e-01
13.250	19.250	1.6245e-01
13.250	19.500	1.7468e-01
13.250	19.750	1.8498e-01
13.250	20.000	1.9305e-01
13.250	20.250	1.9995e-01
13.250	20.500	2.0686e-01
13.250	20.750	2.1375e-01
13.250	21.000	2.2201e-01
13.250	21.250	2.3296e-01
13.250	21.500	2.4155e-01
13.250	21.750	2.4441e-01
13.250	22.000	1.7249e-01
13.250	22.250	1.2200e-01
13.250	22.500	8.2382e-02
13.250	22.750	5.0772e-02
13.250	23.000	3.0811e-02
13.250	23.250	1.9625e-02
13.250	23.500	1.3353e-02
13.250	23.750	9.8639e-03
13.250	24.000	7.9841e-03
13.500	17.000	3.5102e-02
13.500	17.250	4.1354e-02
13.500	17.500	5.1494e-02
13.500	17.750	6.3753e-02
13.500	18.000	7.7919e-02
13.500	18.250	9.4021e-02
13.500	18.500	1.1197e-01
13.500	18.750	1.3056e-01
13.500	19.000	1.4866e-01
13.500	19.250	1.6488e-01
13.500	19.500	1.7826e-01
13.500	19.750	1.8903e-01
13.500	20.000	1.9837e-01
13.500	20.250	2.0730e-01
13.500	20.500	2.1470e-01
13.500	20.750	2.2186e-01
13.500	21.000	2.2890e-01
13.500	21.250	2.4017e-01
13.500	21.500	2.4613e-01
13.500	21.750	2.5873e-01
13.500	22.000	2.5531e-01
13.500	22.250	1.7643e-01
13.500	22.500	1.2221e-01
13.500	22.750	8.1858e-02
13.500	23.000	5.0520e-02
13.500	23.250	3.0601e-02
13.500	23.500	1.9473e-02
13.500	23.750	1.3242e-02
13.500	24.000	9.8277e-03
13.750	17.000	3.5194e-02
13.750	17.250	4.0898e-02
13.750	17.500	5.1031e-02
13.750	17.750	6.4187e-02
13.750	18.000	8.0351e-02
13.750	18.250	9.6702e-02
13.750	18.500	1.1478e-01
13.750	18.750	1.3342e-01
13.750	19.000	1.5169e-01
13.750	19.250	1.6852e-01
13.750	19.500	1.8298e-01
13.750	19.750	1.9474e-01
13.750	20.000	2.0468e-01
13.750	20.250	2.1418e-01
13.750	20.500	2.2333e-01
13.750	20.750	2.3155e-01
13.750	21.000	2.3918e-01
13.750	21.250	2.4699e-01
13.750	21.500	2.5332e-01
13.750	21.750	2.6602e-01
13.750	22.000	2.7929e-01
13.750	22.250	2.6702e-01
13.750	22.500	1.7784e-01
13.750	22.750	1.2238e-01
13.750	23.000	8.1439e-02
13.750	23.250	5.0166e-02
13.750	23.500	3.0382e-02
13.750	23.750	1.9323e-02
13.750	24.000	1.3143e-02
14.000	17.000	3.5701e-02
14.000	17.250	4.1098e-02
14.000	17.500	5.0700e-02
14.000	17.750	6.4528e-02
14.000	18.000	8.2049e-02
14.000	18.250	1.0051e-01
14.000	18.500	1.1861e-01
14.000	18.750	1.3725e-01
14.000	19.000	1.5576e-01
14.000	19.250	1.7326e-01
14.000	19.500	1.8896e-01
14.000	19.750	2.0232e-01
14.000	20.000	2.1306e-01
14.000	20.250	2.2266e-01
14.000	20.500	2.3248e-01
14.000	20.750	2.4193e-01
14.000	21.000	2.5089e-01
14.000	21.250	2.6014e-01
14.000	21.500	2.6500e-01
14.000	21.750	2.7691e-01
14.000	22.000	2.9298e-01
14.000	22.250	3.0921e-01
14.000	22.500	2.7808e-01
14.000	22.750	1.8093e-01
14.000	23.000	1.2223e-01
14.000	23.250	8.1484e-02
14.000	23.500	4.9703e-02
14.000	23.750	3.0126e-02
14.000	24.000	1.9137e-02
