nFnu 1143.64A  relative to Inci 1215.00A scaled to 1215A.
Hden   Phi(H)  Eq_Width (A)
 7.000	17.000	2.3818e-02
 7.000	17.250	1.9275e-02
 7.000	17.500	1.5526e-02
 7.000	17.750	1.2540e-02
 7.000	18.000	1.0579e-02
 7.000	18.250	9.4186e-03
 7.000	18.500	8.7108e-03
 7.000	18.750	8.3700e-03
 7.000	19.000	8.1907e-03
 7.000	19.250	8.0900e-03
 7.000	19.500	8.0472e-03
 7.000	19.750	8.0291e-03
 7.000	20.000	8.0213e-03
 7.000	20.250	8.0176e-03
 7.000	20.500	8.0157e-03
 7.000	20.750	8.0147e-03
 7.000	21.000	8.0142e-03
 7.000	21.250	8.0139e-03
 7.000	21.500	8.0139e-03
 7.000	21.750	8.0137e-03
 7.000	22.000	8.0137e-03
 7.000	22.250	8.0136e-03
 7.000	22.500	8.0136e-03
 7.000	22.750	8.0138e-03
 7.000	23.000	8.0138e-03
 7.000	23.250	8.0136e-03
 7.000	23.500	8.0136e-03
 7.000	23.750	8.0136e-03
 7.000	24.000	8.0136e-03
 7.250	17.000	2.8891e-02
 7.250	17.250	2.3615e-02
 7.250	17.500	1.9173e-02
 7.250	17.750	1.5477e-02
 7.250	18.000	1.2512e-02
 7.250	18.250	1.0564e-02
 7.250	18.500	9.4114e-03
 7.250	18.750	8.7082e-03
 7.250	19.000	8.3691e-03
 7.250	19.250	8.1904e-03
 7.250	19.500	8.0899e-03
 7.250	19.750	8.0472e-03
 7.250	20.000	8.0291e-03
 7.250	20.250	8.0212e-03
 7.250	20.500	8.0175e-03
 7.250	20.750	8.0157e-03
 7.250	21.000	8.0147e-03
 7.250	21.250	8.0142e-03
 7.250	21.500	8.0139e-03
 7.250	21.750	8.0154e-03
 7.250	22.000	8.0137e-03
 7.250	22.250	8.0137e-03
 7.250	22.500	8.0136e-03
 7.250	22.750	8.0144e-03
 7.250	23.000	8.0144e-03
 7.250	23.250	8.0136e-03
 7.250	23.500	8.0136e-03
 7.250	23.750	8.0136e-03
 7.250	24.000	8.0136e-03
 7.500	17.000	3.0629e-02
 7.500	17.250	2.8700e-02
 7.500	17.500	2.3499e-02
 7.500	17.750	1.9118e-02
 7.500	18.000	1.5452e-02
 7.500	18.250	1.2496e-02
 7.500	18.500	1.0555e-02
 7.500	18.750	9.4067e-03
 7.500	19.000	8.7066e-03
 7.500	19.250	8.3685e-03
 7.500	19.500	8.1902e-03
 7.500	19.750	8.0899e-03
 7.500	20.000	8.0472e-03
 7.500	20.250	8.0291e-03
 7.500	20.500	8.0212e-03
 7.500	20.750	8.0175e-03
 7.500	21.000	8.0157e-03
 7.500	21.250	8.0147e-03
 7.500	21.500	8.0142e-03
 7.500	21.750	8.0139e-03
 7.500	22.000	8.0137e-03
 7.500	22.250	8.0137e-03
 7.500	22.500	8.0137e-03
 7.500	22.750	8.0136e-03
 7.500	23.000	8.0140e-03
 7.500	23.250	8.0144e-03
 7.500	23.500	8.0136e-03
 7.500	23.750	8.0146e-03
 7.500	24.000	8.0136e-03
 7.750	17.000	3.6220e-02
 7.750	17.250	2.9256e-02
 7.750	17.500	2.8598e-02
 7.750	17.750	2.3432e-02
 7.750	18.000	1.9090e-02
 7.750	18.250	1.5443e-02
 7.750	18.500	1.2487e-02
 7.750	18.750	1.0549e-02
 7.750	19.000	9.4039e-03
 7.750	19.250	8.7055e-03
 7.750	19.500	8.3681e-03
 7.750	19.750	8.1900e-03
 7.750	20.000	8.0898e-03
 7.750	20.250	8.0472e-03
 7.750	20.500	8.0291e-03
 7.750	20.750	8.0212e-03
 7.750	21.000	8.0175e-03
 7.750	21.250	8.0156e-03
 7.750	21.500	8.0147e-03
 7.750	21.750	8.0142e-03
 7.750	22.000	8.0139e-03
 7.750	22.250	8.0137e-03
 7.750	22.500	8.0137e-03
 7.750	22.750	8.0138e-03
 7.750	23.000	8.0138e-03
 7.750	23.250	8.0137e-03
 7.750	23.500	8.0144e-03
 7.750	23.750	8.0144e-03
 7.750	24.000	8.0136e-03
 8.000	17.000	4.6668e-02
 8.000	17.250	3.3353e-02
 8.000	17.500	2.8153e-02
 8.000	17.750	2.8524e-02
 8.000	18.000	2.3391e-02
 8.000	18.250	1.9079e-02
 8.000	18.500	1.5444e-02
 8.000	18.750	1.2482e-02
 8.000	19.000	1.0546e-02
 8.000	19.250	9.4021e-03
 8.000	19.500	8.7049e-03
 8.000	19.750	8.3679e-03
 8.000	20.000	8.1900e-03
 8.000	20.250	8.0898e-03
 8.000	20.500	8.0472e-03
 8.000	20.750	8.0291e-03
 8.000	21.000	8.0212e-03
 8.000	21.250	8.0175e-03
 8.000	21.500	8.0156e-03
 8.000	21.750	8.0147e-03
 8.000	22.000	8.0142e-03
 8.000	22.250	8.0138e-03
 8.000	22.500	8.0137e-03
 8.000	22.750	8.0138e-03
 8.000	23.000	8.0136e-03
 8.000	23.250	8.0141e-03
 8.000	23.500	8.0135e-03
 8.000	23.750	8.0135e-03
 8.000	24.000	8.0136e-03
 8.250	17.000	5.4277e-02
 8.250	17.250	4.3975e-02
 8.250	17.500	3.1265e-02
 8.250	17.750	2.7333e-02
 8.250	18.000	2.8481e-02
 8.250	18.250	2.3361e-02
 8.250	18.500	1.9079e-02
 8.250	18.750	1.5451e-02
 8.250	19.000	1.2481e-02
 8.250	19.250	1.0544e-02
 8.250	19.500	9.4010e-03
 8.250	19.750	8.7044e-03
 8.250	20.000	8.3677e-03
 8.250	20.250	8.1900e-03
 8.250	20.500	8.0898e-03
 8.250	20.750	8.0472e-03
 8.250	21.000	8.0291e-03
 8.250	21.250	8.0212e-03
 8.250	21.500	8.0175e-03
 8.250	21.750	8.0156e-03
 8.250	22.000	8.0147e-03
 8.250	22.250	8.0142e-03
 8.250	22.500	8.0138e-03
 8.250	22.750	8.0139e-03
 8.250	23.000	8.0136e-03
 8.250	23.250	8.0156e-03
 8.250	23.500	8.0135e-03
 8.250	23.750	8.0135e-03
 8.250	24.000	8.0141e-03
 8.500	17.000	5.9431e-02
 8.500	17.250	5.2013e-02
 8.500	17.500	4.2106e-02
 8.500	17.750	2.9869e-02
 8.500	18.000	2.6845e-02
 8.500	18.250	2.8437e-02
 8.500	18.500	2.3337e-02
 8.500	18.750	1.9084e-02
 8.500	19.000	1.5464e-02
 8.500	19.250	1.2481e-02
 8.500	19.500	1.0542e-02
 8.500	19.750	9.4002e-03
 8.500	20.000	8.7041e-03
 8.500	20.250	8.3677e-03
 8.500	20.500	8.1899e-03
 8.500	20.750	8.0898e-03
 8.500	21.000	8.0472e-03
 8.500	21.250	8.0291e-03
 8.500	21.500	8.0212e-03
 8.500	21.750	8.0175e-03
 8.500	22.000	8.0156e-03
 8.500	22.250	8.0147e-03
 8.500	22.500	8.0142e-03
 8.500	22.750	8.0138e-03
 8.500	23.000	8.0137e-03
 8.500	23.250	8.0138e-03
 8.500	23.500	8.0135e-03
 8.500	23.750	8.0135e-03
 8.500	24.000	8.0135e-03
 8.750	17.000	6.2900e-02
 8.750	17.250	5.7706e-02
 8.750	17.500	5.0447e-02
 8.750	17.750	4.0954e-02
 8.750	18.000	2.8923e-02
 8.750	18.250	2.6557e-02
 8.750	18.500	2.8385e-02
 8.750	18.750	2.3311e-02
 8.750	19.000	1.9093e-02
 8.750	19.250	1.5478e-02
 8.750	19.500	1.2483e-02
 8.750	19.750	1.0541e-02
 8.750	20.000	9.3996e-03
 8.750	20.250	8.7039e-03
 8.750	20.500	8.3676e-03
 8.750	20.750	8.1899e-03
 8.750	21.000	8.0898e-03
 8.750	21.250	8.0472e-03
 8.750	21.500	8.0291e-03
 8.750	21.750	8.0212e-03
 8.750	22.000	8.0175e-03
 8.750	22.250	8.0156e-03
 8.750	22.500	8.0147e-03
 8.750	22.750	8.0142e-03
 8.750	23.000	8.0147e-03
 8.750	23.250	8.0137e-03
 8.750	23.500	8.0138e-03
 8.750	23.750	8.0135e-03
 8.750	24.000	8.0135e-03
 9.000	17.000	6.5120e-02
 9.000	17.250	6.1628e-02
 9.000	17.500	5.6451e-02
 9.000	17.750	4.9157e-02
 9.000	18.000	3.9718e-02
 9.000	18.250	2.8036e-02
 9.000	18.500	2.6358e-02
 9.000	18.750	2.8323e-02
 9.000	19.000	2.3281e-02
 9.000	19.250	1.9101e-02
 9.000	19.500	1.5494e-02
 9.000	19.750	1.2484e-02
 9.000	20.000	1.0541e-02
 9.000	20.250	9.3992e-03
 9.000	20.500	8.7037e-03
 9.000	20.750	8.3676e-03
 9.000	21.000	8.1899e-03
 9.000	21.250	8.0898e-03
 9.000	21.500	8.0472e-03
 9.000	21.750	8.0291e-03
 9.000	22.000	8.0212e-03
 9.000	22.250	8.0175e-03
 9.000	22.500	8.0156e-03
 9.000	22.750	8.0147e-03
 9.000	23.000	8.0142e-03
 9.000	23.250	8.0138e-03
 9.000	23.500	8.0137e-03
 9.000	23.750	8.0136e-03
 9.000	24.000	8.0136e-03
 9.250	17.000	6.6410e-02
 9.250	17.250	6.4195e-02
 9.250	17.500	6.0658e-02
 9.250	17.750	5.5256e-02
 9.250	18.000	4.7748e-02
 9.250	18.250	3.8218e-02
 9.250	18.500	2.6817e-02
 9.250	18.750	2.6208e-02
 9.250	19.000	2.8249e-02
 9.250	19.250	2.3244e-02
 9.250	19.500	1.9102e-02
 9.250	19.750	1.5508e-02
 9.250	20.000	1.2486e-02
 9.250	20.250	1.0540e-02
 9.250	20.500	9.3988e-03
 9.250	20.750	8.7035e-03
 9.250	21.000	8.3676e-03
 9.250	21.250	8.1899e-03
 9.250	21.500	8.0893e-03
 9.250	21.750	8.0466e-03
 9.250	22.000	8.0285e-03
 9.250	22.250	8.0207e-03
 9.250	22.500	8.0171e-03
 9.250	22.750	8.0153e-03
 9.250	23.000	8.0144e-03
 9.250	23.250	8.0140e-03
 9.250	23.500	8.0137e-03
 9.250	23.750	8.0135e-03
 9.250	24.000	8.0135e-03
 9.500	17.000	6.7003e-02
 9.500	17.250	6.5699e-02
 9.500	17.500	6.3457e-02
 9.500	17.750	5.9666e-02
 9.500	18.000	5.3806e-02
 9.500	18.250	4.5687e-02
 9.500	18.500	3.5675e-02
 9.500	18.750	2.5155e-02
 9.500	19.000	2.6084e-02
 9.500	19.250	2.8164e-02
 9.500	19.500	2.3199e-02
 9.500	19.750	1.9096e-02
 9.500	20.000	1.5519e-02
 9.500	20.250	1.2488e-02
 9.500	20.500	1.0540e-02
 9.500	20.750	9.3982e-03
 9.500	21.000	8.7030e-03
 9.500	21.250	8.3670e-03
 9.500	21.500	8.1892e-03
 9.500	21.750	8.0890e-03
 9.500	22.000	8.0463e-03
 9.500	22.250	8.0284e-03
 9.500	22.500	8.0204e-03
 9.500	22.750	8.0167e-03
 9.500	23.000	8.0149e-03
 9.500	23.250	8.0139e-03
 9.500	23.500	8.0133e-03
 9.500	23.750	8.0131e-03
 9.500	24.000	8.0129e-03
 9.750	17.000	6.7173e-02
 9.750	17.250	6.6420e-02
 9.750	17.500	6.5140e-02
 9.750	17.750	6.2666e-02
 9.750	18.000	5.8232e-02
 9.750	18.250	5.1529e-02
 9.750	18.500	4.2435e-02
 9.750	18.750	3.1298e-02
 9.750	19.000	2.4907e-02
 9.750	19.250	2.5966e-02
 9.750	19.500	2.8069e-02
 9.750	19.750	2.3148e-02
 9.750	20.000	1.9081e-02
 9.750	20.250	1.5525e-02
 9.750	20.500	1.2489e-02
 9.750	20.750	1.0540e-02
 9.750	21.000	9.3980e-03
 9.750	21.250	8.7028e-03
 9.750	21.500	8.3670e-03
 9.750	21.750	8.1893e-03
 9.750	22.000	8.0890e-03
 9.750	22.250	8.0464e-03
 9.750	22.500	8.0284e-03
 9.750	22.750	8.0205e-03
 9.750	23.000	8.0167e-03
 9.750	23.250	8.0148e-03
 9.750	23.500	8.0138e-03
 9.750	23.750	8.0133e-03
 9.750	24.000	8.0130e-03
10.000	17.000	6.7168e-02
10.000	17.250	6.6644e-02
10.000	17.500	6.5933e-02
10.000	17.750	6.4451e-02
10.000	18.000	6.1348e-02
10.000	18.250	5.6064e-02
10.000	18.500	4.8351e-02
10.000	18.750	3.8603e-02
10.000	19.000	2.7974e-02
10.000	19.250	2.4587e-02
10.000	19.500	2.5836e-02
10.000	19.750	2.7966e-02
10.000	20.000	2.3099e-02
10.000	20.250	1.9059e-02
10.000	20.500	1.5528e-02
10.000	20.750	1.2490e-02
10.000	21.000	1.0540e-02
10.000	21.250	9.3981e-03
10.000	21.500	8.7027e-03
10.000	21.750	8.3671e-03
10.000	22.000	8.1894e-03
10.000	22.250	8.0891e-03
10.000	22.500	8.0463e-03
10.000	22.750	8.0284e-03
10.000	23.000	8.0205e-03
10.000	23.250	8.0168e-03
10.000	23.500	8.0149e-03
10.000	23.750	8.0139e-03
10.000	24.000	8.0133e-03
10.250	17.000	6.7309e-02
10.250	17.250	6.6682e-02
10.250	17.500	6.6186e-02
10.250	17.750	6.5288e-02
10.250	18.000	6.3258e-02
10.250	18.250	5.9475e-02
10.250	18.500	5.3386e-02
10.250	18.750	4.4928e-02
10.250	19.000	3.4266e-02
10.250	19.250	2.3736e-02
10.250	19.500	2.4433e-02
10.250	19.750	2.5711e-02
10.250	20.000	2.7908e-02
10.250	20.250	2.3069e-02
10.250	20.500	1.9034e-02
10.250	20.750	1.5528e-02
10.250	21.000	1.2491e-02
10.250	21.250	1.0540e-02
10.250	21.500	9.3980e-03
10.250	21.750	8.7027e-03
10.250	22.000	8.3671e-03
10.250	22.250	8.1895e-03
10.250	22.500	8.0892e-03
10.250	22.750	8.0464e-03
10.250	23.000	8.0284e-03
10.250	23.250	8.0205e-03
10.250	23.500	8.0167e-03
10.250	23.750	8.0149e-03
10.250	24.000	8.0139e-03
10.500	17.000	6.7666e-02
10.500	17.250	6.6868e-02
10.500	17.500	6.6250e-02
10.500	17.750	6.5579e-02
10.500	18.000	6.4207e-02
10.500	18.250	6.1568e-02
10.500	18.500	5.7256e-02
10.500	18.750	5.0576e-02
10.500	19.000	4.1631e-02
10.500	19.250	3.0361e-02
10.500	19.500	2.4325e-02
10.500	19.750	2.4663e-02
10.500	20.000	2.5845e-02
10.500	20.250	2.7914e-02
10.500	20.500	2.3071e-02
10.500	20.750	1.9013e-02
10.500	21.000	1.5524e-02
10.500	21.250	1.2491e-02
10.500	21.500	1.0540e-02
10.500	21.750	9.3981e-03
10.500	22.000	8.7028e-03
10.500	22.250	8.3672e-03
10.500	22.500	8.1895e-03
10.500	22.750	8.0893e-03
10.500	23.000	8.0465e-03
10.500	23.250	8.0283e-03
10.500	23.500	8.0205e-03
10.500	23.750	8.0168e-03
10.500	24.000	8.0149e-03
10.750	17.000	6.8207e-02
10.750	17.250	6.7277e-02
10.750	17.500	6.6482e-02
10.750	17.750	6.5709e-02
10.750	18.000	6.4624e-02
10.750	18.250	6.2827e-02
10.750	18.500	5.9867e-02
10.750	18.750	5.5203e-02
10.750	19.000	4.8279e-02
10.750	19.250	3.8786e-02
10.750	19.500	2.7411e-02
10.750	19.750	2.4569e-02
10.750	20.000	2.5265e-02
10.750	20.250	2.6374e-02
10.750	20.500	2.8160e-02
10.750	20.750	2.3127e-02
10.750	21.000	1.9002e-02
10.750	21.250	1.5516e-02
10.750	21.500	1.2491e-02
10.750	21.750	1.0540e-02
10.750	22.000	9.3983e-03
10.750	22.250	8.7027e-03
10.750	22.500	8.3674e-03
10.750	22.750	8.1895e-03
10.750	23.000	8.0893e-03
10.750	23.250	8.0466e-03
10.750	23.500	8.0284e-03
10.750	23.750	8.0204e-03
10.750	24.000	8.0168e-03
11.000	17.000	6.8893e-02
11.000	17.250	6.7874e-02
11.000	17.500	6.6942e-02
11.000	17.750	6.6004e-02
11.000	18.000	6.4920e-02
11.000	18.250	6.3518e-02
11.000	18.500	6.1566e-02
11.000	18.750	5.8450e-02
11.000	19.000	5.3481e-02
11.000	19.250	4.6142e-02
11.000	19.500	3.6206e-02
11.000	19.750	2.3853e-02
11.000	20.000	2.5546e-02
11.000	20.250	2.6843e-02
11.000	20.500	2.7367e-02
11.000	20.750	2.8720e-02
11.000	21.000	2.3340e-02
11.000	21.250	1.9012e-02
11.000	21.500	1.5506e-02
11.000	21.750	1.2490e-02
11.000	22.000	1.0541e-02
11.000	22.250	9.3985e-03
11.000	22.500	8.7026e-03
11.000	22.750	8.3675e-03
11.000	23.000	8.1898e-03
11.000	23.250	8.0894e-03
11.000	23.500	8.0467e-03
11.000	23.750	8.0286e-03
11.000	24.000	8.0206e-03
11.250	17.000	6.9722e-02
11.250	17.250	6.8602e-02
11.250	17.500	6.7581e-02
11.250	17.750	6.6540e-02
11.250	18.000	6.5363e-02
11.250	18.250	6.4057e-02
11.250	18.500	6.2564e-02
11.250	18.750	6.0468e-02
11.250	19.000	5.7157e-02
11.250	19.250	5.1979e-02
11.250	19.500	4.4409e-02
11.250	19.750	3.3954e-02
11.250	20.000	2.3677e-02
11.250	20.250	2.6731e-02
11.250	20.500	2.8112e-02
11.250	20.750	2.8984e-02
11.250	21.000	2.9910e-02
11.250	21.250	2.3709e-02
11.250	21.500	1.9074e-02
11.250	21.750	1.5495e-02
11.250	22.000	1.2489e-02
11.250	22.250	1.0541e-02
11.250	22.500	9.3990e-03
11.250	22.750	8.7025e-03
11.250	23.000	8.3676e-03
11.250	23.250	8.1900e-03
11.250	23.500	8.0894e-03
11.250	23.750	8.0467e-03
11.250	24.000	8.0286e-03
11.500	17.000	7.0754e-02
11.500	17.250	6.9457e-02
11.500	17.500	6.8345e-02
11.500	17.750	6.7243e-02
11.500	18.000	6.6011e-02
11.500	18.250	6.4673e-02
11.500	18.500	6.3269e-02
11.500	18.750	6.1693e-02
11.500	19.000	5.9538e-02
11.500	19.250	5.6083e-02
11.500	19.500	5.0750e-02
11.500	19.750	4.2987e-02
11.500	20.000	3.2200e-02
11.500	20.250	2.4585e-02
11.500	20.500	2.8669e-02
11.500	20.750	3.0488e-02
11.500	21.000	3.1428e-02
11.500	21.250	3.1437e-02
11.500	21.500	2.4274e-02
11.500	21.750	1.9194e-02
11.500	22.000	1.5487e-02
11.500	22.250	1.2487e-02
11.500	22.500	1.0542e-02
11.500	22.750	9.3996e-03
11.500	23.000	8.7022e-03
11.500	23.250	8.3675e-03
11.500	23.500	8.1900e-03
11.500	23.750	8.0895e-03
11.500	24.000	8.0467e-03
11.750	17.000	7.2072e-02
11.750	17.250	7.0477e-02
11.750	17.500	6.9204e-02
11.750	17.750	6.8000e-02
11.750	18.000	6.6738e-02
11.750	18.250	6.5415e-02
11.750	18.500	6.4010e-02
11.750	18.750	6.2541e-02
11.750	19.000	6.0918e-02
11.750	19.250	5.8721e-02
11.750	19.500	5.5204e-02
11.750	19.750	4.9886e-02
11.750	20.000	4.2059e-02
11.750	20.250	3.1144e-02
11.750	20.500	2.6483e-02
11.750	20.750	3.1051e-02
11.750	21.000	3.3586e-02
11.750	21.250	3.5072e-02
11.750	21.500	3.2940e-02
11.750	21.750	2.4973e-02
11.750	22.000	1.9413e-02
11.750	22.250	1.5486e-02
11.750	22.500	1.2485e-02
11.750	22.750	1.0542e-02
11.750	23.000	9.4003e-03
11.750	23.250	8.7020e-03
11.750	23.500	8.3675e-03
11.750	23.750	8.1901e-03
11.750	24.000	8.0896e-03
12.000	17.000	7.3868e-02
12.000	17.250	7.1709e-02
12.000	17.500	7.0113e-02
12.000	17.750	6.8727e-02
12.000	18.000	6.7449e-02
12.000	18.250	6.6202e-02
12.000	18.500	6.4854e-02
12.000	18.750	6.3380e-02
12.000	19.000	6.1858e-02
12.000	19.250	6.0258e-02
12.000	19.500	5.8092e-02
12.000	19.750	5.4637e-02
12.000	20.000	4.9419e-02
12.000	20.250	4.1730e-02
12.000	20.500	3.0845e-02
12.000	20.750	2.8804e-02
12.000	21.000	3.4343e-02
12.000	21.250	3.8686e-02
12.000	21.500	4.0266e-02
12.000	21.750	3.4367e-02
12.000	22.000	2.5785e-02
12.000	22.250	1.9708e-02
12.000	22.500	1.5498e-02
12.000	22.750	1.2483e-02
12.000	23.000	1.0543e-02
12.000	23.250	9.4012e-03
12.000	23.500	8.7016e-03
12.000	23.750	8.3674e-03
12.000	24.000	8.1902e-03
12.250	17.000	7.6358e-02
12.250	17.250	7.3190e-02
12.250	17.500	7.1007e-02
12.250	17.750	6.9393e-02
12.250	18.000	6.8148e-02
12.250	18.250	6.6992e-02
12.250	18.500	6.5751e-02
12.250	18.750	6.4356e-02
12.250	19.000	6.2826e-02
12.250	19.250	6.1318e-02
12.250	19.500	5.9805e-02
12.250	19.750	5.7719e-02
12.250	20.000	5.4443e-02
12.250	20.250	4.9471e-02
12.250	20.500	4.2002e-02
12.250	20.750	3.1292e-02
12.250	21.000	3.2503e-02
12.250	21.250	3.9788e-02
12.250	21.500	4.5462e-02
12.250	21.750	4.6200e-02
12.250	22.000	3.5856e-02
12.250	22.250	2.6280e-02
12.250	22.500	1.9839e-02
12.250	22.750	1.5526e-02
12.250	23.000	1.2480e-02
12.250	23.250	1.0543e-02
12.250	23.500	9.4022e-03
12.250	23.750	8.7012e-03
12.250	24.000	8.3672e-03
12.500	17.000	7.9666e-02
12.500	17.250	7.4896e-02
12.500	17.500	7.1881e-02
12.500	17.750	7.0093e-02
12.500	18.000	6.8880e-02
12.500	18.250	6.7798e-02
12.500	18.500	6.6678e-02
12.500	18.750	6.5403e-02
12.500	19.000	6.3953e-02
12.500	19.250	6.2429e-02
12.500	19.500	6.0985e-02
12.500	19.750	5.9596e-02
12.500	20.000	5.7660e-02
12.500	20.250	5.4628e-02
12.500	20.500	4.9988e-02
12.500	20.750	4.3170e-02
12.500	21.000	3.3879e-02
12.500	21.250	3.8560e-02
12.500	21.500	4.7329e-02
12.500	21.750	5.3513e-02
12.500	22.000	5.0376e-02
12.500	22.250	3.7028e-02
12.500	22.500	2.7020e-02
12.500	22.750	2.0216e-02
12.500	23.000	1.5565e-02
12.500	23.250	1.2478e-02
12.500	23.500	1.0544e-02
12.500	23.750	9.4031e-03
12.500	24.000	8.7004e-03
12.750	17.000	6.7549e-02
12.750	17.250	7.6143e-02
12.750	17.500	7.3281e-02
12.750	17.750	7.1175e-02
12.750	18.000	6.9784e-02
12.750	18.250	6.8694e-02
12.750	18.500	6.7624e-02
12.750	18.750	6.6466e-02
12.750	19.000	6.5152e-02
12.750	19.250	6.3690e-02
12.750	19.500	6.2192e-02
12.750	19.750	6.0833e-02
12.750	20.000	5.9563e-02
12.750	20.250	5.7900e-02
12.750	20.500	5.5196e-02
12.750	20.750	5.1296e-02
12.750	21.000	4.5734e-02
12.750	21.250	3.7913e-02
12.750	21.500	4.6373e-02
12.750	21.750	5.7607e-02
12.750	22.000	6.2299e-02
12.750	22.250	5.3586e-02
12.750	22.500	3.8578e-02
12.750	22.750	2.7904e-02
12.750	23.000	2.0526e-02
12.750	23.250	1.5611e-02
12.750	23.500	1.2477e-02
12.750	23.750	1.0544e-02
12.750	24.000	9.4040e-03
13.000	17.000	4.3887e-02
13.000	17.250	6.2644e-02
13.000	17.500	7.2376e-02
13.000	17.750	7.3072e-02
13.000	18.000	7.1097e-02
13.000	18.250	6.9740e-02
13.000	18.500	6.8625e-02
13.000	18.750	6.7508e-02
13.000	19.000	6.6304e-02
13.000	19.250	6.4971e-02
13.000	19.500	6.3521e-02
13.000	19.750	6.2085e-02
13.000	20.000	6.0815e-02
13.000	20.250	5.9683e-02
13.000	20.500	5.8452e-02
13.000	20.750	5.6307e-02
13.000	21.000	5.3248e-02
13.000	21.250	4.9411e-02
13.000	21.500	4.4031e-02
13.000	21.750	5.7242e-02
13.000	22.000	6.7463e-02
13.000	22.250	6.9996e-02
13.000	22.500	5.6481e-02
13.000	22.750	3.9942e-02
13.000	23.000	2.8557e-02
13.000	23.250	2.0792e-02
13.000	23.500	1.5663e-02
13.000	23.750	1.2476e-02
13.000	24.000	1.0544e-02
13.250	17.000	3.5728e-02
13.250	17.250	4.9180e-02
13.250	17.500	7.2215e-02
13.250	17.750	7.6143e-02
13.250	18.000	7.3110e-02
13.250	18.250	7.1104e-02
13.250	18.500	6.9727e-02
13.250	18.750	6.8555e-02
13.250	19.000	6.7382e-02
13.250	19.250	6.6145e-02
13.250	19.500	6.4836e-02
13.250	19.750	6.3483e-02
13.250	20.000	6.2131e-02
13.250	20.250	6.0907e-02
13.250	20.500	5.9933e-02
13.250	20.750	5.8993e-02
13.250	21.000	5.7746e-02
13.250	21.250	5.5883e-02
13.250	21.500	5.2778e-02
13.250	21.750	4.9605e-02
13.250	22.000	6.4783e-02
13.250	22.250	7.6373e-02
13.250	22.500	7.6032e-02
13.250	22.750	5.9429e-02
13.250	23.000	4.1350e-02
13.250	23.250	2.8776e-02
13.250	23.500	2.0850e-02
13.250	23.750	1.5718e-02
13.250	24.000	1.2478e-02
13.500	17.000	3.0490e-02
13.500	17.250	4.0543e-02
13.500	17.500	5.9365e-02
13.500	17.750	7.3445e-02
13.500	18.000	7.5683e-02
13.500	18.250	7.3025e-02
13.500	18.500	7.1008e-02
13.500	18.750	6.9578e-02
13.500	19.000	6.8380e-02
13.500	19.250	6.7182e-02
13.500	19.500	6.6002e-02
13.500	19.750	6.4787e-02
13.500	20.000	6.3557e-02
13.500	20.250	6.2381e-02
13.500	20.500	6.1286e-02
13.500	20.750	6.0357e-02
13.500	21.000	5.9304e-02
13.500	21.250	5.8658e-02
13.500	21.500	5.6294e-02
13.500	21.750	5.3236e-02
13.500	22.000	5.3064e-02
13.500	22.250	7.0287e-02
13.500	22.500	8.2587e-02
13.500	22.750	8.1143e-02
13.500	23.000	6.2382e-02
13.500	23.250	4.2940e-02
13.500	23.500	2.9744e-02
13.500	23.750	2.1223e-02
13.500	24.000	1.5766e-02
13.750	17.000	2.7425e-02
13.750	17.250	3.4703e-02
13.750	17.500	5.0082e-02
13.750	17.750	6.4142e-02
13.750	18.000	7.6190e-02
13.750	18.250	7.4250e-02
13.750	18.500	7.2171e-02
13.750	18.750	7.0590e-02
13.750	19.000	6.9247e-02
13.750	19.250	6.8076e-02
13.750	19.500	6.6964e-02
13.750	19.750	6.5875e-02
13.750	20.000	6.4842e-02
13.750	20.250	6.3877e-02
13.750	20.500	6.2971e-02
13.750	20.750	6.2100e-02
13.750	21.000	6.1226e-02
13.750	21.250	6.0092e-02
13.750	21.500	5.8953e-02
13.750	21.750	5.6971e-02
13.750	22.000	5.4308e-02
13.750	22.250	5.9092e-02
13.750	22.500	7.6165e-02
13.750	22.750	8.9872e-02
13.750	23.000	8.6694e-02
13.750	23.250	6.5235e-02
13.750	23.500	4.4145e-02
13.750	23.750	3.0285e-02
13.750	24.000	2.1414e-02
14.000	17.000	2.5251e-02
14.000	17.250	3.1149e-02
14.000	17.500	4.2987e-02
14.000	17.750	5.6137e-02
14.000	18.000	6.8477e-02
14.000	18.250	7.4533e-02
14.000	18.500	7.2448e-02
14.000	18.750	7.0831e-02
14.000	19.000	6.9689e-02
14.000	19.250	6.8671e-02
14.000	19.500	6.7643e-02
14.000	19.750	6.6717e-02
14.000	20.000	6.5843e-02
14.000	20.250	6.5103e-02
14.000	20.500	6.4511e-02
14.000	20.750	6.4008e-02
14.000	21.000	6.3538e-02
14.000	21.250	6.3011e-02
14.000	21.500	6.2086e-02
14.000	21.750	6.0867e-02
14.000	22.000	5.9056e-02
14.000	22.250	5.9216e-02
14.000	22.500	6.9399e-02
14.000	22.750	8.4994e-02
14.000	23.000	9.7775e-02
14.000	23.250	9.2876e-02
14.000	23.500	6.7994e-02
14.000	23.750	4.5239e-02
14.000	24.000	3.0816e-02
