nFnu 3704.34A  relative to Inci 1215.00A scaled to 1215A.
Hden   Phi(H)  Eq_Width (A)
 7.000	17.000	2.0164e-02
 7.000	17.250	1.3667e-02
 7.000	17.500	9.9547e-03
 7.000	17.750	7.9295e-03
 7.000	18.000	6.8900e-03
 7.000	18.250	6.3128e-03
 7.000	18.500	5.9858e-03
 7.000	18.750	5.8410e-03
 7.000	19.000	5.7661e-03
 7.000	19.250	5.7249e-03
 7.000	19.500	5.7081e-03
 7.000	19.750	5.7014e-03
 7.000	20.000	5.6985e-03
 7.000	20.250	5.6972e-03
 7.000	20.500	5.6965e-03
 7.000	20.750	5.6962e-03
 7.000	21.000	5.6960e-03
 7.000	21.250	5.6959e-03
 7.000	21.500	5.6960e-03
 7.000	21.750	5.6958e-03
 7.000	22.000	5.6958e-03
 7.000	22.250	5.6958e-03
 7.000	22.500	5.6958e-03
 7.000	22.750	5.6960e-03
 7.000	23.000	5.6960e-03
 7.000	23.250	5.6958e-03
 7.000	23.500	5.6958e-03
 7.000	23.750	5.6958e-03
 7.000	24.000	5.6957e-03
 7.250	17.000	3.1160e-02
 7.250	17.250	2.0149e-02
 7.250	17.500	1.3657e-02
 7.250	17.750	9.9483e-03
 7.250	18.000	7.9268e-03
 7.250	18.250	6.8889e-03
 7.250	18.500	6.3124e-03
 7.250	18.750	5.9858e-03
 7.250	19.000	5.8409e-03
 7.250	19.250	5.7661e-03
 7.250	19.500	5.7249e-03
 7.250	19.750	5.7081e-03
 7.250	20.000	5.7014e-03
 7.250	20.250	5.6985e-03
 7.250	20.500	5.6972e-03
 7.250	20.750	5.6965e-03
 7.250	21.000	5.6962e-03
 7.250	21.250	5.6960e-03
 7.250	21.500	5.6959e-03
 7.250	21.750	5.6970e-03
 7.250	22.000	5.6958e-03
 7.250	22.250	5.6958e-03
 7.250	22.500	5.6958e-03
 7.250	22.750	5.6963e-03
 7.250	23.000	5.6963e-03
 7.250	23.250	5.6958e-03
 7.250	23.500	5.6958e-03
 7.250	23.750	5.6957e-03
 7.250	24.000	5.6958e-03
 7.500	17.000	4.1962e-02
 7.500	17.250	3.1158e-02
 7.500	17.500	2.0141e-02
 7.500	17.750	1.3650e-02
 7.500	18.000	9.9425e-03
 7.500	18.250	7.9244e-03
 7.500	18.500	6.8880e-03
 7.500	18.750	6.3121e-03
 7.500	19.000	5.9856e-03
 7.500	19.250	5.8408e-03
 7.500	19.500	5.7661e-03
 7.500	19.750	5.7249e-03
 7.500	20.000	5.7081e-03
 7.500	20.250	5.7014e-03
 7.500	20.500	5.6985e-03
 7.500	20.750	5.6972e-03
 7.500	21.000	5.6965e-03
 7.500	21.250	5.6961e-03
 7.500	21.500	5.6960e-03
 7.500	21.750	5.6959e-03
 7.500	22.000	5.6958e-03
 7.500	22.250	5.6958e-03
 7.500	22.500	5.6958e-03
 7.500	22.750	5.6958e-03
 7.500	23.000	5.6960e-03
 7.500	23.250	5.6963e-03
 7.500	23.500	5.6957e-03
 7.500	23.750	5.6965e-03
 7.500	24.000	5.6957e-03
 7.750	17.000	5.7307e-02
 7.750	17.250	4.1969e-02
 7.750	17.500	3.1159e-02
 7.750	17.750	2.0135e-02
 7.750	18.000	1.3646e-02
 7.750	18.250	9.9370e-03
 7.750	18.500	7.9219e-03
 7.750	18.750	6.8871e-03
 7.750	19.000	6.3119e-03
 7.750	19.250	5.9855e-03
 7.750	19.500	5.8408e-03
 7.750	19.750	5.7661e-03
 7.750	20.000	5.7249e-03
 7.750	20.250	5.7081e-03
 7.750	20.500	5.7014e-03
 7.750	20.750	5.6985e-03
 7.750	21.000	5.6971e-03
 7.750	21.250	5.6965e-03
 7.750	21.500	5.6961e-03
 7.750	21.750	5.6960e-03
 7.750	22.000	5.6959e-03
 7.750	22.250	5.6958e-03
 7.750	22.500	5.6958e-03
 7.750	22.750	5.6959e-03
 7.750	23.000	5.6960e-03
 7.750	23.250	5.6958e-03
 7.750	23.500	5.6963e-03
 7.750	23.750	5.6963e-03
 7.750	24.000	5.6957e-03
 8.000	17.000	5.6340e-02
 8.000	17.250	5.6669e-02
 8.000	17.500	4.1874e-02
 8.000	17.750	3.1139e-02
 8.000	18.000	2.0132e-02
 8.000	18.250	1.3642e-02
 8.000	18.500	9.9315e-03
 8.000	18.750	7.9193e-03
 8.000	19.000	6.8863e-03
 8.000	19.250	6.3116e-03
 8.000	19.500	5.9854e-03
 8.000	19.750	5.8408e-03
 8.000	20.000	5.7661e-03
 8.000	20.250	5.7249e-03
 8.000	20.500	5.7081e-03
 8.000	20.750	5.7014e-03
 8.000	21.000	5.6985e-03
 8.000	21.250	5.6971e-03
 8.000	21.500	5.6965e-03
 8.000	21.750	5.6961e-03
 8.000	22.000	5.6960e-03
 8.000	22.250	5.6958e-03
 8.000	22.500	5.6958e-03
 8.000	22.750	5.6959e-03
 8.000	23.000	5.6957e-03
 8.000	23.250	5.6961e-03
 8.000	23.500	5.6957e-03
 8.000	23.750	5.6957e-03
 8.000	24.000	5.6957e-03
 8.250	17.000	5.5527e-02
 8.250	17.250	5.6456e-02
 8.250	17.500	5.6698e-02
 8.250	17.750	4.1882e-02
 8.250	18.000	3.1143e-02
 8.250	18.250	2.0131e-02
 8.250	18.500	1.3639e-02
 8.250	18.750	9.9257e-03
 8.250	19.000	7.9164e-03
 8.250	19.250	6.8853e-03
 8.250	19.500	6.3114e-03
 8.250	19.750	5.9854e-03
 8.250	20.000	5.8408e-03
 8.250	20.250	5.7661e-03
 8.250	20.500	5.7249e-03
 8.250	20.750	5.7081e-03
 8.250	21.000	5.7014e-03
 8.250	21.250	5.6985e-03
 8.250	21.500	5.6971e-03
 8.250	21.750	5.6965e-03
 8.250	22.000	5.6961e-03
 8.250	22.250	5.6960e-03
 8.250	22.500	5.6958e-03
 8.250	22.750	5.6959e-03
 8.250	23.000	5.6957e-03
 8.250	23.250	5.6972e-03
 8.250	23.500	5.6957e-03
 8.250	23.750	5.6957e-03
 8.250	24.000	5.6961e-03
 8.500	17.000	5.4620e-02
 8.500	17.250	5.5749e-02
 8.500	17.500	5.6602e-02
 8.500	17.750	5.6758e-02
 8.500	18.000	4.1897e-02
 8.500	18.250	3.1145e-02
 8.500	18.500	2.0130e-02
 8.500	18.750	1.3637e-02
 8.500	19.000	9.9193e-03
 8.500	19.250	7.9133e-03
 8.500	19.500	6.8843e-03
 8.500	19.750	6.3112e-03
 8.500	20.000	5.9853e-03
 8.500	20.250	5.8408e-03
 8.500	20.500	5.7661e-03
 8.500	20.750	5.7248e-03
 8.500	21.000	5.7081e-03
 8.500	21.250	5.7014e-03
 8.500	21.500	5.6985e-03
 8.500	21.750	5.6971e-03
 8.500	22.000	5.6965e-03
 8.500	22.250	5.6961e-03
 8.500	22.500	5.6960e-03
 8.500	22.750	5.6958e-03
 8.500	23.000	5.6958e-03
 8.500	23.250	5.6959e-03
 8.500	23.500	5.6957e-03
 8.500	23.750	5.6957e-03
 8.500	24.000	5.6957e-03
 8.750	17.000	5.3607e-02
 8.750	17.250	5.4998e-02
 8.750	17.500	5.6131e-02
 8.750	17.750	5.6786e-02
 8.750	18.000	5.6902e-02
 8.750	18.250	4.1912e-02
 8.750	18.500	3.1145e-02
 8.750	18.750	2.0130e-02
 8.750	19.000	1.3634e-02
 8.750	19.250	9.9127e-03
 8.750	19.500	7.9100e-03
 8.750	19.750	6.8832e-03
 8.750	20.000	6.3109e-03
 8.750	20.250	5.9853e-03
 8.750	20.500	5.8408e-03
 8.750	20.750	5.7661e-03
 8.750	21.000	5.7249e-03
 8.750	21.250	5.7081e-03
 8.750	21.500	5.7014e-03
 8.750	21.750	5.6985e-03
 8.750	22.000	5.6971e-03
 8.750	22.250	5.6965e-03
 8.750	22.500	5.6961e-03
 8.750	22.750	5.6960e-03
 8.750	23.000	5.6964e-03
 8.750	23.250	5.6958e-03
 8.750	23.500	5.6959e-03
 8.750	23.750	5.6957e-03
 8.750	24.000	5.6957e-03
 9.000	17.000	5.2338e-02
 9.000	17.250	5.4166e-02
 9.000	17.500	5.5688e-02
 9.000	17.750	5.6917e-02
 9.000	18.000	5.7525e-02
 9.000	18.250	5.7434e-02
 9.000	18.500	4.1919e-02
 9.000	18.750	3.1141e-02
 9.000	19.000	2.0130e-02
 9.000	19.250	1.3633e-02
 9.000	19.500	9.9059e-03
 9.000	19.750	7.9066e-03
 9.000	20.000	6.8822e-03
 9.000	20.250	6.3107e-03
 9.000	20.500	5.9852e-03
 9.000	20.750	5.8408e-03
 9.000	21.000	5.7661e-03
 9.000	21.250	5.7249e-03
 9.000	21.500	5.7081e-03
 9.000	21.750	5.7014e-03
 9.000	22.000	5.6984e-03
 9.000	22.250	5.6971e-03
 9.000	22.500	5.6965e-03
 9.000	22.750	5.6961e-03
 9.000	23.000	5.6960e-03
 9.000	23.250	5.6958e-03
 9.000	23.500	5.6958e-03
 9.000	23.750	5.6957e-03
 9.000	24.000	5.6958e-03
 9.250	17.000	5.0691e-02
 9.250	17.250	5.3109e-02
 9.250	17.500	5.5289e-02
 9.250	17.750	5.7232e-02
 9.250	18.000	5.8660e-02
 9.250	18.250	5.9408e-02
 9.250	18.500	5.8745e-02
 9.250	18.750	4.1908e-02
 9.250	19.000	3.1132e-02
 9.250	19.250	2.0130e-02
 9.250	19.500	1.3632e-02
 9.250	19.750	9.8998e-03
 9.250	20.000	7.9032e-03
 9.250	20.250	6.8813e-03
 9.250	20.500	6.3105e-03
 9.250	20.750	5.9852e-03
 9.250	21.000	5.8408e-03
 9.250	21.250	5.7661e-03
 9.250	21.500	5.7245e-03
 9.250	21.750	5.7078e-03
 9.250	22.000	5.7009e-03
 9.250	22.250	5.6981e-03
 9.250	22.500	5.6969e-03
 9.250	22.750	5.6962e-03
 9.250	23.000	5.6960e-03
 9.250	23.250	5.6958e-03
 9.250	23.500	5.6957e-03
 9.250	23.750	5.6956e-03
 9.250	24.000	5.6956e-03
 9.500	17.000	4.8677e-02
 9.500	17.250	5.1752e-02
 9.500	17.500	5.4793e-02
 9.500	17.750	5.7794e-02
 9.500	18.000	6.0409e-02
 9.500	18.250	6.2652e-02
 9.500	18.500	6.3976e-02
 9.500	18.750	6.0848e-02
 9.500	19.000	4.1880e-02
 9.500	19.250	3.1113e-02
 9.500	19.500	2.0131e-02
 9.500	19.750	1.3633e-02
 9.500	20.000	9.8951e-03
 9.500	20.250	7.9003e-03
 9.500	20.500	6.8806e-03
 9.500	20.750	6.3101e-03
 9.500	21.000	5.9848e-03
 9.500	21.250	5.8404e-03
 9.500	21.500	5.7656e-03
 9.500	21.750	5.7243e-03
 9.500	22.000	5.7076e-03
 9.500	22.250	5.7008e-03
 9.500	22.500	5.6979e-03
 9.500	22.750	5.6965e-03
 9.500	23.000	5.6959e-03
 9.500	23.250	5.6956e-03
 9.500	23.500	5.6954e-03
 9.500	23.750	5.6953e-03
 9.500	24.000	5.6952e-03
 9.750	17.000	4.6086e-02
 9.750	17.250	4.9923e-02
 9.750	17.500	5.3974e-02
 9.750	17.750	5.8401e-02
 9.750	18.000	6.3032e-02
 9.750	18.250	6.7178e-02
 9.750	18.500	7.0524e-02
 9.750	18.750	7.2457e-02
 9.750	19.000	6.0656e-02
 9.750	19.250	4.1826e-02
 9.750	19.500	3.1080e-02
 9.750	19.750	2.0131e-02
 9.750	20.000	1.3635e-02
 9.750	20.250	9.8923e-03
 9.750	20.500	7.8982e-03
 9.750	20.750	6.8801e-03
 9.750	21.000	6.3100e-03
 9.750	21.250	5.9847e-03
 9.750	21.500	5.8404e-03
 9.750	21.750	5.7657e-03
 9.750	22.000	5.7243e-03
 9.750	22.250	5.7077e-03
 9.750	22.500	5.7008e-03
 9.750	22.750	5.6979e-03
 9.750	23.000	5.6966e-03
 9.750	23.250	5.6959e-03
 9.750	23.500	5.6956e-03
 9.750	23.750	5.6954e-03
 9.750	24.000	5.6952e-03
10.000	17.000	4.2878e-02
10.000	17.250	4.7589e-02
10.000	17.500	5.2833e-02
10.000	17.750	5.8980e-02
10.000	18.000	6.6088e-02
10.000	18.250	7.2756e-02
10.000	18.500	7.7931e-02
10.000	18.750	8.1306e-02
10.000	19.000	8.0571e-02
10.000	19.250	6.0274e-02
10.000	19.500	4.1728e-02
10.000	19.750	3.1021e-02
10.000	20.000	2.0132e-02
10.000	20.250	1.3638e-02
10.000	20.500	9.8909e-03
10.000	20.750	7.8965e-03
10.000	21.000	6.8799e-03
10.000	21.250	6.3100e-03
10.000	21.500	5.9846e-03
10.000	21.750	5.8405e-03
10.000	22.000	5.7658e-03
10.000	22.250	5.7244e-03
10.000	22.500	5.7077e-03
10.000	22.750	5.7008e-03
10.000	23.000	5.6979e-03
10.000	23.250	5.6966e-03
10.000	23.500	5.6960e-03
10.000	23.750	5.6956e-03
10.000	24.000	5.6954e-03
10.250	17.000	4.0103e-02
10.250	17.250	4.4833e-02
10.250	17.500	5.1489e-02
10.250	17.750	5.9677e-02
10.250	18.000	6.9224e-02
10.250	18.250	7.8260e-02
10.250	18.500	8.5454e-02
10.250	18.750	9.0640e-02
10.250	19.000	9.3939e-02
10.250	19.250	9.0199e-02
10.250	19.500	5.9965e-02
10.250	19.750	4.1560e-02
10.250	20.000	3.0942e-02
10.250	20.250	2.0131e-02
10.250	20.500	1.3641e-02
10.250	20.750	9.8910e-03
10.250	21.000	7.8957e-03
10.250	21.250	6.8800e-03
10.250	21.500	6.3100e-03
10.250	21.750	5.9846e-03
10.250	22.000	5.8405e-03
10.250	22.250	5.7658e-03
10.250	22.500	5.7244e-03
10.250	22.750	5.7077e-03
10.250	23.000	5.7009e-03
10.250	23.250	5.6979e-03
10.250	23.500	5.6966e-03
10.250	23.750	5.6959e-03
10.250	24.000	5.6956e-03
10.500	17.000	3.8112e-02
10.500	17.250	4.2753e-02
10.500	17.500	5.0130e-02
10.500	17.750	6.0610e-02
10.500	18.000	7.2252e-02
10.500	18.250	8.3186e-02
10.500	18.500	9.2013e-02
10.500	18.750	9.8809e-02
10.500	19.000	1.0329e-01
10.500	19.250	1.0615e-01
10.500	19.500	9.1597e-02
10.500	19.750	5.9976e-02
10.500	20.000	4.1519e-02
10.500	20.250	3.0843e-02
10.500	20.500	2.0130e-02
10.500	20.750	1.3643e-02
10.500	21.000	9.8928e-03
10.500	21.250	7.8956e-03
10.500	21.500	6.8804e-03
10.500	21.750	6.3100e-03
10.500	22.000	5.9847e-03
10.500	22.250	5.8405e-03
10.500	22.500	5.7658e-03
10.500	22.750	5.7244e-03
10.500	23.000	5.7077e-03
10.500	23.250	5.7008e-03
10.500	23.500	5.6979e-03
10.500	23.750	5.6966e-03
10.500	24.000	5.6960e-03
10.750	17.000	3.7124e-02
10.750	17.250	4.1615e-02
10.750	17.500	4.9810e-02
10.750	17.750	6.1674e-02
10.750	18.000	7.4858e-02
10.750	18.250	8.6928e-02
10.750	18.500	9.7043e-02
10.750	18.750	1.0509e-01
10.750	19.000	1.1083e-01
10.750	19.250	1.1450e-01
10.750	19.500	1.1603e-01
10.750	19.750	9.1296e-02
10.750	20.000	6.0184e-02
10.750	20.250	4.1654e-02
10.750	20.500	3.0781e-02
10.750	20.750	2.0126e-02
10.750	21.000	1.3644e-02
10.750	21.250	9.8959e-03
10.750	21.500	7.8965e-03
10.750	21.750	6.8812e-03
10.750	22.000	6.3102e-03
10.750	22.250	5.9847e-03
10.750	22.500	5.8407e-03
10.750	22.750	5.7658e-03
10.750	23.000	5.7245e-03
10.750	23.250	5.7077e-03
10.750	23.500	5.7009e-03
10.750	23.750	5.6979e-03
10.750	24.000	5.6966e-03
11.000	17.000	3.7011e-02
11.000	17.250	4.1482e-02
11.000	17.500	5.0230e-02
11.000	17.750	6.2820e-02
11.000	18.000	7.6405e-02
11.000	18.250	8.8997e-02
11.000	18.500	1.0001e-01
11.000	18.750	1.0916e-01
11.000	19.000	1.1619e-01
11.000	19.250	1.2110e-01
11.000	19.500	1.2397e-01
11.000	19.750	1.2437e-01
11.000	20.000	9.1740e-02
11.000	20.250	6.1278e-02
11.000	20.500	4.1942e-02
11.000	20.750	3.0789e-02
11.000	21.000	2.0119e-02
11.000	21.250	1.3641e-02
11.000	21.500	9.8998e-03
11.000	21.750	7.8980e-03
11.000	22.000	6.8823e-03
11.000	22.250	6.3105e-03
11.000	22.500	5.9846e-03
11.000	22.750	5.8407e-03
11.000	23.000	5.7660e-03
11.000	23.250	5.7245e-03
11.000	23.500	5.7078e-03
11.000	23.750	5.7010e-03
11.000	24.000	5.6980e-03
11.250	17.000	3.7587e-02
11.250	17.250	4.2081e-02
11.250	17.500	5.1107e-02
11.250	17.750	6.3644e-02
11.250	18.000	7.7004e-02
11.250	18.250	8.9563e-02
11.250	18.500	1.0109e-01
11.250	18.750	1.1130e-01
11.250	19.000	1.1926e-01
11.250	19.250	1.2529e-01
11.250	19.500	1.2907e-01
11.250	19.750	1.3094e-01
11.250	20.000	1.2737e-01
11.250	20.250	9.1948e-02
11.250	20.500	6.1516e-02
11.250	20.750	4.2449e-02
11.250	21.000	3.0967e-02
11.250	21.250	2.0105e-02
11.250	21.500	1.3631e-02
11.250	21.750	9.9039e-03
11.250	22.000	7.9002e-03
11.250	22.250	6.8837e-03
11.250	22.500	6.3108e-03
11.250	22.750	5.9845e-03
11.250	23.000	5.8408e-03
11.250	23.250	5.7661e-03
11.250	23.500	5.7245e-03
11.250	23.750	5.7078e-03
11.250	24.000	5.7011e-03
11.500	17.000	3.8785e-02
11.500	17.250	4.3224e-02
11.500	17.500	5.2190e-02
11.500	17.750	6.4280e-02
11.500	18.000	7.6994e-02
11.500	18.250	8.9247e-02
11.500	18.500	1.0091e-01
11.500	18.750	1.1168e-01
11.500	19.000	1.2072e-01
11.500	19.250	1.2755e-01
11.500	19.500	1.3214e-01
11.500	19.750	1.3516e-01
11.500	20.000	1.3653e-01
11.500	20.250	1.2653e-01
11.500	20.500	9.2994e-02
11.500	20.750	6.2630e-02
11.500	21.000	4.3304e-02
11.500	21.250	3.1209e-02
11.500	21.500	2.0079e-02
11.500	21.750	1.3611e-02
11.500	22.000	9.9067e-03
11.500	22.250	7.9031e-03
11.500	22.500	6.8853e-03
11.500	22.750	6.3113e-03
11.500	23.000	5.9844e-03
11.500	23.250	5.8407e-03
11.500	23.500	5.7662e-03
11.500	23.750	5.7246e-03
11.500	24.000	5.7079e-03
11.750	17.000	4.0522e-02
11.750	17.250	4.4745e-02
11.750	17.500	5.3321e-02
11.750	17.750	6.4804e-02
11.750	18.000	7.6833e-02
11.750	18.250	8.8682e-02
11.750	18.500	1.0032e-01
11.750	18.750	1.1142e-01
11.750	19.000	1.2136e-01
11.750	19.250	1.2913e-01
11.750	19.500	1.3459e-01
11.750	19.750	1.3815e-01
11.750	20.000	1.4080e-01
11.750	20.250	1.4221e-01
11.750	20.500	1.2830e-01
11.750	20.750	9.4081e-02
11.750	21.000	6.3959e-02
11.750	21.250	4.4804e-02
11.750	21.500	3.1278e-02
11.750	21.750	2.0035e-02
11.750	22.000	1.3577e-02
11.750	22.250	9.9063e-03
11.750	22.500	7.9063e-03
11.750	22.750	6.8871e-03
11.750	23.000	6.3119e-03
11.750	23.250	5.9842e-03
11.750	23.500	5.8407e-03
11.750	23.750	5.7662e-03
11.750	24.000	5.7247e-03
12.000	17.000	4.2706e-02
12.000	17.250	4.6488e-02
12.000	17.500	5.4238e-02
12.000	17.750	6.4928e-02
12.000	18.000	7.6671e-02
12.000	18.250	8.8509e-02
12.000	18.500	1.0022e-01
12.000	18.750	1.1159e-01
12.000	19.000	1.2193e-01
12.000	19.250	1.3076e-01
12.000	19.500	1.3716e-01
12.000	19.750	1.4132e-01
12.000	20.000	1.4455e-01
12.000	20.250	1.4702e-01
12.000	20.500	1.4844e-01
12.000	20.750	1.2849e-01
12.000	21.000	9.5340e-02
12.000	21.250	6.6631e-02
12.000	21.500	4.7182e-02
12.000	21.750	3.1269e-02
12.000	22.000	1.9969e-02
12.000	22.250	1.3532e-02
12.000	22.500	9.9004e-03
12.000	22.750	7.9095e-03
12.000	23.000	6.8889e-03
12.000	23.250	6.3124e-03
12.000	23.500	5.9840e-03
12.000	23.750	5.8407e-03
12.000	24.000	5.7662e-03
12.250	17.000	4.4897e-02
12.250	17.250	4.8051e-02
12.250	17.500	5.4541e-02
12.250	17.750	6.4301e-02
12.250	18.000	7.6221e-02
12.250	18.250	8.8918e-02
12.250	18.500	1.0137e-01
12.250	18.750	1.1303e-01
12.250	19.000	1.2348e-01
12.250	19.250	1.3275e-01
12.250	19.500	1.4016e-01
12.250	19.750	1.4554e-01
12.250	20.000	1.4881e-01
12.250	20.250	1.5192e-01
12.250	20.500	1.5489e-01
12.250	20.750	1.5696e-01
12.250	21.000	1.3085e-01
12.250	21.250	9.8478e-02
12.250	21.500	7.0220e-02
12.250	21.750	4.9833e-02
12.250	22.000	3.1221e-02
12.250	22.250	1.9904e-02
12.250	22.500	1.3504e-02
12.250	22.750	9.8875e-03
12.250	23.000	7.9122e-03
12.250	23.250	6.8905e-03
12.250	23.500	6.3131e-03
12.250	23.750	5.9836e-03
12.250	24.000	5.8406e-03
12.500	17.000	4.5746e-02
12.500	17.250	4.8117e-02
12.500	17.500	5.3669e-02
12.500	17.750	6.2957e-02
12.500	18.000	7.5478e-02
12.500	18.250	8.9402e-02
12.500	18.500	1.0333e-01
12.500	18.750	1.1599e-01
12.500	19.000	1.2676e-01
12.500	19.250	1.3598e-01
12.500	19.500	1.4370e-01
12.500	19.750	1.4999e-01
12.500	20.000	1.5443e-01
12.500	20.250	1.5762e-01
12.500	20.500	1.6137e-01
12.500	20.750	1.6551e-01
12.500	21.000	1.6952e-01
12.500	21.250	1.3719e-01
12.500	21.500	1.0296e-01
12.500	21.750	7.4310e-02
12.500	22.000	5.1009e-02
12.500	22.250	3.1140e-02
12.500	22.500	1.9811e-02
12.500	22.750	1.3436e-02
12.500	23.000	9.8674e-03
12.500	23.250	7.9139e-03
12.500	23.500	6.8919e-03
12.500	23.750	6.3136e-03
12.500	24.000	5.9831e-03
12.750	17.000	3.9647e-02
12.750	17.250	4.4648e-02
12.750	17.500	5.1573e-02
12.750	17.750	6.1873e-02
12.750	18.000	7.4977e-02
12.750	18.250	8.9914e-02
12.750	18.500	1.0517e-01
12.750	18.750	1.1942e-01
12.750	19.000	1.3138e-01
12.750	19.250	1.4097e-01
12.750	19.500	1.4875e-01
12.750	19.750	1.5533e-01
12.750	20.000	1.6071e-01
12.750	20.250	1.6491e-01
12.750	20.500	1.6889e-01
12.750	20.750	1.7393e-01
12.750	21.000	1.8165e-01
12.750	21.250	1.8781e-01
12.750	21.500	1.4527e-01
12.750	21.750	1.0970e-01
12.750	22.000	7.8476e-02
12.750	22.250	5.0991e-02
12.750	22.500	3.1020e-02
12.750	22.750	1.9691e-02
12.750	23.000	1.3367e-02
12.750	23.250	9.8412e-03
12.750	23.500	7.9137e-03
12.750	23.750	6.8927e-03
12.750	24.000	6.3138e-03
13.000	17.000	3.5327e-02
13.000	17.250	4.2455e-02
13.000	17.500	5.0928e-02
13.000	17.750	6.1819e-02
13.000	18.000	7.5162e-02
13.000	18.250	9.0741e-02
13.000	18.500	1.0700e-01
13.000	18.750	1.2243e-01
13.000	19.000	1.3569e-01
13.000	19.250	1.4651e-01
13.000	19.500	1.5436e-01
13.000	19.750	1.6140e-01
13.000	20.000	1.6733e-01
13.000	20.250	1.7270e-01
13.000	20.500	1.7821e-01
13.000	20.750	1.8353e-01
13.000	21.000	1.9113e-01
13.000	21.250	2.0298e-01
13.000	21.500	2.0693e-01
13.000	21.750	1.5608e-01
13.000	22.000	1.1592e-01
13.000	22.250	8.1371e-02
13.000	22.500	5.0870e-02
13.000	22.750	3.0868e-02
13.000	23.000	1.9585e-02
13.000	23.250	1.3294e-02
13.000	23.500	9.8072e-03
13.000	23.750	7.9109e-03
13.000	24.000	6.8923e-03
13.250	17.000	3.4688e-02
13.250	17.250	4.1394e-02
13.250	17.500	5.1954e-02
13.250	17.750	6.2964e-02
13.250	18.000	7.6325e-02
13.250	18.250	9.2198e-02
13.250	18.500	1.0911e-01
13.250	18.750	1.2530e-01
13.250	19.000	1.3961e-01
13.250	19.250	1.5125e-01
13.250	19.500	1.6016e-01
13.250	19.750	1.6803e-01
13.250	20.000	1.7470e-01
13.250	20.250	1.8072e-01
13.250	20.500	1.8713e-01
13.250	20.750	1.9394e-01
13.250	21.000	2.0239e-01
13.250	21.250	2.1348e-01
13.250	21.500	2.2170e-01
13.250	21.750	2.2313e-01
13.250	22.000	1.6356e-01
13.250	22.250	1.2026e-01
13.250	22.500	8.2252e-02
13.250	22.750	5.0673e-02
13.250	23.000	3.0678e-02
13.250	23.250	1.9502e-02
13.250	23.500	1.3245e-02
13.250	23.750	9.7714e-03
13.250	24.000	7.9040e-03
13.500	17.000	3.4492e-02
13.500	17.250	4.0895e-02
13.500	17.500	5.1418e-02
13.500	17.750	6.4064e-02
13.500	18.000	7.8473e-02
13.500	18.250	9.4488e-02
13.500	18.500	1.1177e-01
13.500	18.750	1.2856e-01
13.500	19.000	1.4359e-01
13.500	19.250	1.5613e-01
13.500	19.500	1.6611e-01
13.500	19.750	1.7427e-01
13.500	20.000	1.8182e-01
13.500	20.250	1.8962e-01
13.500	20.500	1.9649e-01
13.500	20.750	2.0345e-01
13.500	21.000	2.1057e-01
13.500	21.250	2.2212e-01
13.500	21.500	2.2823e-01
13.500	21.750	2.4045e-01
13.500	22.000	2.3577e-01
13.500	22.250	1.6880e-01
13.500	22.500	1.2051e-01
13.500	22.750	8.1629e-02
13.500	23.000	5.0380e-02
13.500	23.250	3.0447e-02
13.500	23.500	1.9338e-02
13.500	23.750	1.3130e-02
13.500	24.000	9.7343e-03
13.750	17.000	3.4959e-02
13.750	17.250	4.0782e-02
13.750	17.500	5.1301e-02
13.750	17.750	6.4912e-02
13.750	18.000	8.1455e-02
13.750	18.250	9.7711e-02
13.750	18.500	1.1516e-01
13.750	18.750	1.3235e-01
13.750	19.000	1.4821e-01
13.750	19.250	1.6181e-01
13.750	19.500	1.7298e-01
13.750	19.750	1.8200e-01
13.750	20.000	1.8993e-01
13.750	20.250	1.9808e-01
13.750	20.500	2.0653e-01
13.750	20.750	2.1457e-01
13.750	21.000	2.2233e-01
13.750	21.250	2.3046e-01
13.750	21.500	2.3724e-01
13.750	21.750	2.5017e-01
13.750	22.000	2.6304e-01
13.750	22.250	2.4966e-01
13.750	22.500	1.7111e-01
13.750	22.750	1.2077e-01
13.750	23.000	8.1140e-02
13.750	23.250	4.9986e-02
13.750	23.500	3.0213e-02
13.750	23.750	1.9182e-02
13.750	24.000	1.3028e-02
14.000	17.000	3.5828e-02
14.000	17.250	4.1330e-02
14.000	17.500	5.1284e-02
14.000	17.750	6.5604e-02
14.000	18.000	8.3590e-02
14.000	18.250	1.0209e-01
14.000	18.500	1.1956e-01
14.000	18.750	1.3690e-01
14.000	19.000	1.5338e-01
14.000	19.250	1.6820e-01
14.000	19.500	1.8086e-01
14.000	19.750	1.9140e-01
14.000	20.000	1.9995e-01
14.000	20.250	2.0803e-01
14.000	20.500	2.1694e-01
14.000	20.750	2.2607e-01
14.000	21.000	2.3517e-01
14.000	21.250	2.4486e-01
14.000	21.500	2.5036e-01
14.000	21.750	2.6294e-01
14.000	22.000	2.7943e-01
14.000	22.250	2.9516e-01
14.000	22.500	2.6328e-01
14.000	22.750	1.7525e-01
14.000	23.000	1.2068e-01
14.000	23.250	8.1158e-02
14.000	23.500	4.9485e-02
14.000	23.750	2.9942e-02
14.000	24.000	1.8989e-02
