InwC 3587.67A  relative to Inci 1215.00A scaled to 1215A.
Hden   Phi(H)  Eq_Width (A)
 7.000	17.000	5.8194e-03
 7.000	17.250	5.8220e-03
 7.000	17.500	5.8244e-03
 7.000	17.750	5.8270e-03
 7.000	18.000	5.8295e-03
 7.000	18.250	5.8315e-03
 7.000	18.500	5.8330e-03
 7.000	18.750	5.8337e-03
 7.000	19.000	5.8345e-03
 7.000	19.250	5.8350e-03
 7.000	19.500	5.8351e-03
 7.000	19.750	5.8352e-03
 7.000	20.000	5.8353e-03
 7.000	20.250	5.8353e-03
 7.000	20.500	5.8353e-03
 7.000	20.750	5.8353e-03
 7.000	21.000	5.8353e-03
 7.000	21.250	5.8353e-03
 7.000	21.500	5.8355e-03
 7.000	21.750	5.8354e-03
 7.000	22.000	5.8353e-03
 7.000	22.250	5.8353e-03
 7.000	22.500	5.8353e-03
 7.000	22.750	5.8356e-03
 7.000	23.000	5.8356e-03
 7.000	23.250	5.8353e-03
 7.000	23.500	5.8353e-03
 7.000	23.750	5.8354e-03
 7.000	24.000	5.8353e-03
 7.250	17.000	5.8097e-03
 7.250	17.250	5.8194e-03
 7.250	17.500	5.8220e-03
 7.250	17.750	5.8244e-03
 7.250	18.000	5.8270e-03
 7.250	18.250	5.8295e-03
 7.250	18.500	5.8315e-03
 7.250	18.750	5.8330e-03
 7.250	19.000	5.8337e-03
 7.250	19.250	5.8345e-03
 7.250	19.500	5.8350e-03
 7.250	19.750	5.8351e-03
 7.250	20.000	5.8352e-03
 7.250	20.250	5.8352e-03
 7.250	20.500	5.8353e-03
 7.250	20.750	5.8353e-03
 7.250	21.000	5.8353e-03
 7.250	21.250	5.8353e-03
 7.250	21.500	5.8353e-03
 7.250	21.750	5.8365e-03
 7.250	22.000	5.8353e-03
 7.250	22.250	5.8354e-03
 7.250	22.500	5.8353e-03
 7.250	22.750	5.8360e-03
 7.250	23.000	5.8360e-03
 7.250	23.250	5.8353e-03
 7.250	23.500	5.8354e-03
 7.250	23.750	5.8353e-03
 7.250	24.000	5.8354e-03
 7.500	17.000	5.5819e-03
 7.500	17.250	5.8101e-03
 7.500	17.500	5.8194e-03
 7.500	17.750	5.8220e-03
 7.500	18.000	5.8245e-03
 7.500	18.250	5.8270e-03
 7.500	18.500	5.8295e-03
 7.500	18.750	5.8315e-03
 7.500	19.000	5.8330e-03
 7.500	19.250	5.8337e-03
 7.500	19.500	5.8345e-03
 7.500	19.750	5.8350e-03
 7.500	20.000	5.8351e-03
 7.500	20.250	5.8352e-03
 7.500	20.500	5.8352e-03
 7.500	20.750	5.8353e-03
 7.500	21.000	5.8353e-03
 7.500	21.250	5.8353e-03
 7.500	21.500	5.8353e-03
 7.500	21.750	5.8353e-03
 7.500	22.000	5.8353e-03
 7.500	22.250	5.8354e-03
 7.500	22.500	5.8354e-03
 7.500	22.750	5.8354e-03
 7.500	23.000	5.8356e-03
 7.500	23.250	5.8360e-03
 7.500	23.500	5.8353e-03
 7.500	23.750	5.8360e-03
 7.500	24.000	5.8353e-03
 7.750	17.000	5.1568e-03
 7.750	17.250	5.5826e-03
 7.750	17.500	5.8103e-03
 7.750	17.750	5.8193e-03
 7.750	18.000	5.8220e-03
 7.750	18.250	5.8245e-03
 7.750	18.500	5.8270e-03
 7.750	18.750	5.8295e-03
 7.750	19.000	5.8315e-03
 7.750	19.250	5.8330e-03
 7.750	19.500	5.8337e-03
 7.750	19.750	5.8345e-03
 7.750	20.000	5.8350e-03
 7.750	20.250	5.8351e-03
 7.750	20.500	5.8352e-03
 7.750	20.750	5.8352e-03
 7.750	21.000	5.8353e-03
 7.750	21.250	5.8353e-03
 7.750	21.500	5.8353e-03
 7.750	21.750	5.8353e-03
 7.750	22.000	5.8353e-03
 7.750	22.250	5.8353e-03
 7.750	22.500	5.8353e-03
 7.750	22.750	5.8355e-03
 7.750	23.000	5.8356e-03
 7.750	23.250	5.8354e-03
 7.750	23.500	5.8360e-03
 7.750	23.750	5.8359e-03
 7.750	24.000	5.8353e-03
 8.000	17.000	3.6466e-03
 8.000	17.250	5.1222e-03
 8.000	17.500	5.5798e-03
 8.000	17.750	5.8092e-03
 8.000	18.000	5.8193e-03
 8.000	18.250	5.8220e-03
 8.000	18.500	5.8245e-03
 8.000	18.750	5.8270e-03
 8.000	19.000	5.8295e-03
 8.000	19.250	5.8315e-03
 8.000	19.500	5.8330e-03
 8.000	19.750	5.8337e-03
 8.000	20.000	5.8345e-03
 8.000	20.250	5.8350e-03
 8.000	20.500	5.8351e-03
 8.000	20.750	5.8352e-03
 8.000	21.000	5.8352e-03
 8.000	21.250	5.8353e-03
 8.000	21.500	5.8353e-03
 8.000	21.750	5.8353e-03
 8.000	22.000	5.8353e-03
 8.000	22.250	5.8353e-03
 8.000	22.500	5.8353e-03
 8.000	22.750	5.8355e-03
 8.000	23.000	5.8353e-03
 8.000	23.250	5.8357e-03
 8.000	23.500	5.8353e-03
 8.000	23.750	5.8353e-03
 8.000	24.000	5.8353e-03
 8.250	17.000	2.5553e-03
 8.250	17.250	3.6527e-03
 8.250	17.500	5.1221e-03
 8.250	17.750	5.5793e-03
 8.250	18.000	5.8091e-03
 8.250	18.250	5.8191e-03
 8.250	18.500	5.8220e-03
 8.250	18.750	5.8245e-03
 8.250	19.000	5.8270e-03
 8.250	19.250	5.8295e-03
 8.250	19.500	5.8315e-03
 8.250	19.750	5.8330e-03
 8.250	20.000	5.8337e-03
 8.250	20.250	5.8345e-03
 8.250	20.500	5.8350e-03
 8.250	20.750	5.8351e-03
 8.250	21.000	5.8352e-03
 8.250	21.250	5.8352e-03
 8.250	21.500	5.8353e-03
 8.250	21.750	5.8353e-03
 8.250	22.000	5.8353e-03
 8.250	22.250	5.8353e-03
 8.250	22.500	5.8353e-03
 8.250	22.750	5.8355e-03
 8.250	23.000	5.8353e-03
 8.250	23.250	5.8368e-03
 8.250	23.500	5.8353e-03
 8.250	23.750	5.8353e-03
 8.250	24.000	5.8357e-03
 8.500	17.000	1.7869e-03
 8.500	17.250	2.5625e-03
 8.500	17.500	3.6551e-03
 8.500	17.750	5.1202e-03
 8.500	18.000	5.5779e-03
 8.500	18.250	5.8086e-03
 8.500	18.500	5.8188e-03
 8.500	18.750	5.8219e-03
 8.500	19.000	5.8245e-03
 8.500	19.250	5.8271e-03
 8.500	19.500	5.8295e-03
 8.500	19.750	5.8315e-03
 8.500	20.000	5.8330e-03
 8.500	20.250	5.8337e-03
 8.500	20.500	5.8345e-03
 8.500	20.750	5.8350e-03
 8.500	21.000	5.8351e-03
 8.500	21.250	5.8352e-03
 8.500	21.500	5.8352e-03
 8.500	21.750	5.8353e-03
 8.500	22.000	5.8353e-03
 8.500	22.250	5.8353e-03
 8.500	22.500	5.8353e-03
 8.500	22.750	5.8353e-03
 8.500	23.000	5.8353e-03
 8.500	23.250	5.8355e-03
 8.500	23.500	5.8353e-03
 8.500	23.750	5.8353e-03
 8.500	24.000	5.8353e-03
 8.750	17.000	1.2524e-03
 8.750	17.250	1.7947e-03
 8.750	17.500	2.5700e-03
 8.750	17.750	3.6448e-03
 8.750	18.000	5.1181e-03
 8.750	18.250	5.5747e-03
 8.750	18.500	5.8074e-03
 8.750	18.750	5.8184e-03
 8.750	19.000	5.8217e-03
 8.750	19.250	5.8245e-03
 8.750	19.500	5.8271e-03
 8.750	19.750	5.8295e-03
 8.750	20.000	5.8315e-03
 8.750	20.250	5.8330e-03
 8.750	20.500	5.8337e-03
 8.750	20.750	5.8345e-03
 8.750	21.000	5.8350e-03
 8.750	21.250	5.8351e-03
 8.750	21.500	5.8352e-03
 8.750	21.750	5.8352e-03
 8.750	22.000	5.8352e-03
 8.750	22.250	5.8353e-03
 8.750	22.500	5.8353e-03
 8.750	22.750	5.8353e-03
 8.750	23.000	5.8359e-03
 8.750	23.250	5.8353e-03
 8.750	23.500	5.8355e-03
 8.750	23.750	5.8353e-03
 8.750	24.000	5.8353e-03
 9.000	17.000	8.8016e-04
 9.000	17.250	1.2573e-03
 9.000	17.500	1.8037e-03
 9.000	17.750	2.5858e-03
 9.000	18.000	3.6635e-03
 9.000	18.250	5.1377e-03
 9.000	18.500	5.5689e-03
 9.000	18.750	5.8053e-03
 9.000	19.000	5.8176e-03
 9.000	19.250	5.8216e-03
 9.000	19.500	5.8245e-03
 9.000	19.750	5.8271e-03
 9.000	20.000	5.8295e-03
 9.000	20.250	5.8316e-03
 9.000	20.500	5.8330e-03
 9.000	20.750	5.8337e-03
 9.000	21.000	5.8345e-03
 9.000	21.250	5.8350e-03
 9.000	21.500	5.8351e-03
 9.000	21.750	5.8352e-03
 9.000	22.000	5.8352e-03
 9.000	22.250	5.8352e-03
 9.000	22.500	5.8352e-03
 9.000	22.750	5.8353e-03
 9.000	23.000	5.8353e-03
 9.000	23.250	5.8353e-03
 9.000	23.500	5.8353e-03
 9.000	23.750	5.8353e-03
 9.000	24.000	5.8353e-03
 9.250	17.000	6.2198e-04
 9.250	17.250	8.8337e-04
 9.250	17.500	1.2668e-03
 9.250	17.750	1.8280e-03
 9.250	18.000	2.6238e-03
 9.250	18.250	3.7280e-03
 9.250	18.500	5.2050e-03
 9.250	18.750	5.5584e-03
 9.250	19.000	5.8014e-03
 9.250	19.250	5.8162e-03
 9.250	19.500	5.8212e-03
 9.250	19.750	5.8244e-03
 9.250	20.000	5.8271e-03
 9.250	20.250	5.8295e-03
 9.250	20.500	5.8316e-03
 9.250	20.750	5.8330e-03
 9.250	21.000	5.8337e-03
 9.250	21.250	5.8345e-03
 9.250	21.500	5.8347e-03
 9.250	21.750	5.8347e-03
 9.250	22.000	5.8347e-03
 9.250	22.250	5.8349e-03
 9.250	22.500	5.8350e-03
 9.250	22.750	5.8350e-03
 9.250	23.000	5.8351e-03
 9.250	23.250	5.8351e-03
 9.250	23.500	5.8351e-03
 9.250	23.750	5.8351e-03
 9.250	24.000	5.8352e-03
 9.500	17.000	4.4428e-04
 9.500	17.250	6.2453e-04
 9.500	17.500	8.9284e-04
 9.500	17.750	1.2945e-03
 9.500	18.000	1.8830e-03
 9.500	18.250	2.7343e-03
 9.500	18.500	3.9202e-03
 9.500	18.750	5.3272e-03
 9.500	19.000	5.5426e-03
 9.500	19.250	5.7947e-03
 9.500	19.500	5.8139e-03
 9.500	19.750	5.8206e-03
 9.500	20.000	5.8244e-03
 9.500	20.250	5.8271e-03
 9.500	20.500	5.8295e-03
 9.500	20.750	5.8313e-03
 9.500	21.000	5.8327e-03
 9.500	21.250	5.8334e-03
 9.500	21.500	5.8340e-03
 9.500	21.750	5.8344e-03
 9.500	22.000	5.8346e-03
 9.500	22.250	5.8347e-03
 9.500	22.500	5.8347e-03
 9.500	22.750	5.8347e-03
 9.500	23.000	5.8347e-03
 9.500	23.250	5.8347e-03
 9.500	23.500	5.8347e-03
 9.500	23.750	5.8347e-03
 9.500	24.000	5.8347e-03
 9.750	17.000	3.2000e-04
 9.750	17.250	4.4543e-04
 9.750	17.500	6.3218e-04
 9.750	17.750	9.1992e-04
 9.750	18.000	1.3644e-03
 9.750	18.250	2.0206e-03
 9.750	18.500	2.9753e-03
 9.750	18.750	4.3163e-03
 9.750	19.000	5.3151e-03
 9.750	19.250	5.5205e-03
 9.750	19.500	5.7840e-03
 9.750	19.750	5.8100e-03
 9.750	20.000	5.8195e-03
 9.750	20.250	5.8241e-03
 9.750	20.500	5.8270e-03
 9.750	20.750	5.8295e-03
 9.750	21.000	5.8314e-03
 9.750	21.250	5.8327e-03
 9.750	21.500	5.8334e-03
 9.750	21.750	5.8341e-03
 9.750	22.000	5.8344e-03
 9.750	22.250	5.8346e-03
 9.750	22.500	5.8347e-03
 9.750	22.750	5.8347e-03
 9.750	23.000	5.8347e-03
 9.750	23.250	5.8347e-03
 9.750	23.500	5.8347e-03
 9.750	23.750	5.8347e-03
 9.750	24.000	5.8347e-03
10.000	17.000	2.3350e-04
10.000	17.250	3.2074e-04
10.000	17.500	4.5193e-04
10.000	17.750	6.5877e-04
10.000	18.000	9.9383e-04
10.000	18.250	1.5000e-03
10.000	18.500	2.2388e-03
10.000	18.750	3.2971e-03
10.000	19.000	4.6333e-03
10.000	19.250	5.2961e-03
10.000	19.500	5.4966e-03
10.000	19.750	5.7678e-03
10.000	20.000	5.8040e-03
10.000	20.250	5.8177e-03
10.000	20.500	5.8237e-03
10.000	20.750	5.8269e-03
10.000	21.000	5.8295e-03
10.000	21.250	5.8314e-03
10.000	21.500	5.8327e-03
10.000	21.750	5.8334e-03
10.000	22.000	5.8341e-03
10.000	22.250	5.8345e-03
10.000	22.500	5.8346e-03
10.000	22.750	5.8347e-03
10.000	23.000	5.8347e-03
10.000	23.250	5.8347e-03
10.000	23.500	5.8347e-03
10.000	23.750	5.8347e-03
10.000	24.000	5.8347e-03
10.250	17.000	1.7333e-04
10.250	17.250	2.3440e-04
10.250	17.500	3.2749e-04
10.250	17.750	4.7901e-04
10.250	18.000	7.2823e-04
10.250	18.250	1.1068e-03
10.250	18.500	1.6651e-03
10.250	18.750	2.4813e-03
10.250	19.000	3.6825e-03
10.250	19.250	5.0438e-03
10.250	19.500	5.2737e-03
10.250	19.750	5.4726e-03
10.250	20.000	5.7466e-03
10.250	20.250	5.7951e-03
10.250	20.500	5.8150e-03
10.250	20.750	5.8230e-03
10.250	21.000	5.8267e-03
10.250	21.250	5.8294e-03
10.250	21.500	5.8314e-03
10.250	21.750	5.8328e-03
10.250	22.000	5.8334e-03
10.250	22.250	5.8342e-03
10.250	22.500	5.8346e-03
10.250	22.750	5.8346e-03
10.250	23.000	5.8347e-03
10.250	23.250	5.8347e-03
10.250	23.500	5.8347e-03
10.250	23.750	5.8347e-03
10.250	24.000	5.8347e-03
10.500	17.000	1.3128e-04
10.500	17.250	1.7449e-04
10.500	17.500	2.4148e-04
10.500	17.750	3.5374e-04
10.500	18.000	5.3992e-04
10.500	18.250	8.2403e-04
10.500	18.500	1.2370e-03
10.500	18.750	1.8636e-03
10.500	19.000	2.7756e-03
10.500	19.250	4.0676e-03
10.500	19.500	5.0778e-03
10.500	19.750	5.2531e-03
10.500	20.000	5.4500e-03
10.500	20.250	5.7235e-03
10.500	20.500	5.7835e-03
10.500	20.750	5.8103e-03
10.500	21.000	5.8220e-03
10.500	21.250	5.8264e-03
10.500	21.500	5.8292e-03
10.500	21.750	5.8314e-03
10.500	22.000	5.8329e-03
10.500	22.250	5.8335e-03
10.500	22.500	5.8342e-03
10.500	22.750	5.8346e-03
10.500	23.000	5.8347e-03
10.500	23.250	5.8347e-03
10.500	23.500	5.8347e-03
10.500	23.750	5.8347e-03
10.500	24.000	5.8347e-03
10.750	17.000	1.0173e-04
10.750	17.250	1.3251e-04
10.750	17.500	1.8148e-04
10.750	17.750	2.6535e-04
10.750	18.000	4.0543e-04
10.750	18.250	6.1959e-04
10.750	18.500	9.3621e-04
10.750	18.750	1.3961e-03
10.750	19.000	2.0626e-03
10.750	19.250	3.0310e-03
10.750	19.500	4.3140e-03
10.750	19.750	5.0578e-03
10.750	20.000	5.2308e-03
10.750	20.250	5.4281e-03
10.750	20.500	5.7019e-03
10.750	20.750	5.7723e-03
10.750	21.000	5.8043e-03
10.750	21.250	5.8202e-03
10.750	21.500	5.8259e-03
10.750	21.750	5.8290e-03
10.750	22.000	5.8314e-03
10.750	22.250	5.8329e-03
10.750	22.500	5.8336e-03
10.750	22.750	5.8342e-03
10.750	23.000	5.8347e-03
10.750	23.250	5.8347e-03
10.750	23.500	5.8347e-03
10.750	23.750	5.8347e-03
10.750	24.000	5.8347e-03
11.000	17.000	8.0741e-05
11.000	17.250	1.0263e-04
11.000	17.500	1.3844e-04
11.000	17.750	2.0181e-04
11.000	18.000	3.0724e-04
11.000	18.250	4.6840e-04
11.000	18.500	7.0436e-04
11.000	18.750	1.0424e-03
11.000	19.000	1.5277e-03
11.000	19.250	2.2291e-03
11.000	19.500	3.2377e-03
11.000	19.750	4.5951e-03
11.000	20.000	5.0233e-03
11.000	20.250	5.2013e-03
11.000	20.500	5.4119e-03
11.000	20.750	5.6910e-03
11.000	21.000	5.7588e-03
11.000	21.250	5.7975e-03
11.000	21.500	5.8179e-03
11.000	21.750	5.8251e-03
11.000	22.000	5.8286e-03
11.000	22.250	5.8312e-03
11.000	22.500	5.8329e-03
11.000	22.750	5.8337e-03
11.000	23.000	5.8342e-03
11.000	23.250	5.8347e-03
11.000	23.500	5.8347e-03
11.000	23.750	5.8347e-03
11.000	24.000	5.8347e-03
11.250	17.000	6.6008e-05
11.250	17.250	8.1317e-05
11.250	17.500	1.0757e-04
11.250	17.750	1.5498e-04
11.250	18.000	2.3407e-04
11.250	18.250	3.5300e-04
11.250	18.500	5.2617e-04
11.250	18.750	7.7877e-04
11.250	19.000	1.1287e-03
11.250	19.250	1.6279e-03
11.250	19.500	2.3480e-03
11.250	19.750	3.3894e-03
11.250	20.000	4.5981e-03
11.250	20.250	4.9970e-03
11.250	20.500	5.2002e-03
11.250	20.750	5.4048e-03
11.250	21.000	5.6851e-03
11.250	21.250	5.7503e-03
11.250	21.500	5.7908e-03
11.250	21.750	5.8146e-03
11.250	22.000	5.8238e-03
11.250	22.250	5.8279e-03
11.250	22.500	5.8309e-03
11.250	22.750	5.8328e-03
11.250	23.000	5.8337e-03
11.250	23.250	5.8344e-03
11.250	23.500	5.8347e-03
11.250	23.750	5.8348e-03
11.250	24.000	5.8348e-03
11.500	17.000	5.5638e-05
11.500	17.250	6.6337e-05
11.500	17.500	8.5432e-05
11.500	17.750	1.2041e-04
11.500	18.000	1.7835e-04
11.500	18.250	2.6568e-04
11.500	18.500	3.9284e-04
11.500	18.750	5.7712e-04
11.500	19.000	8.3259e-04
11.500	19.250	1.1909e-03
11.500	19.500	1.7004e-03
11.500	19.750	2.4354e-03
11.500	20.000	3.5002e-03
11.500	20.250	4.5999e-03
11.500	20.500	4.9746e-03
11.500	20.750	5.1820e-03
11.500	21.000	5.4079e-03
11.500	21.250	5.6864e-03
11.500	21.500	5.7402e-03
11.500	21.750	5.7843e-03
11.500	22.000	5.8110e-03
11.500	22.250	5.8221e-03
11.500	22.500	5.8271e-03
11.500	22.750	5.8305e-03
11.500	23.000	5.8327e-03
11.500	23.250	5.8336e-03
11.500	23.500	5.8344e-03
11.500	23.750	5.8347e-03
11.500	24.000	5.8348e-03
11.750	17.000	4.8477e-05
11.750	17.250	5.5885e-05
11.750	17.500	6.9630e-05
11.750	17.750	9.4815e-05
11.750	18.000	1.3605e-04
11.750	18.250	1.9942e-04
11.750	18.500	2.9251e-04
11.750	18.750	4.2486e-04
11.750	19.000	6.1473e-04
11.750	19.250	8.7465e-04
11.750	19.500	1.2388e-03
11.750	19.750	1.7514e-03
11.750	20.000	2.4963e-03
11.750	20.250	3.5777e-03
11.750	20.500	4.5994e-03
11.750	20.750	4.9667e-03
11.750	21.000	5.1877e-03
11.750	21.250	5.4347e-03
11.750	21.500	5.6830e-03
11.750	21.750	5.7324e-03
11.750	22.000	5.7770e-03
11.750	22.250	5.8073e-03
11.750	22.500	5.8202e-03
11.750	22.750	5.8260e-03
11.750	23.000	5.8300e-03
11.750	23.250	5.8326e-03
11.750	23.500	5.8335e-03
11.750	23.750	5.8344e-03
11.750	24.000	5.8348e-03
12.000	17.000	4.3539e-05
12.000	17.250	4.8642e-05
12.000	17.500	5.8354e-05
12.000	17.750	7.5967e-05
12.000	18.000	1.0494e-04
12.000	18.250	1.5029e-04
12.000	18.500	2.1786e-04
12.000	18.750	3.1564e-04
12.000	19.000	4.5391e-04
12.000	19.250	6.4486e-04
12.000	19.500	9.0840e-04
12.000	19.750	1.2743e-03
12.000	20.000	1.7932e-03
12.000	20.250	2.5407e-03
12.000	20.500	3.6330e-03
12.000	20.750	4.5592e-03
12.000	21.000	4.9689e-03
12.000	21.250	5.2237e-03
12.000	21.500	5.4947e-03
12.000	21.750	5.6756e-03
12.000	22.000	5.7324e-03
12.000	22.250	5.7756e-03
12.000	22.500	5.8040e-03
12.000	22.750	5.8184e-03
12.000	23.000	5.8249e-03
12.000	23.250	5.8293e-03
12.000	23.500	5.8323e-03
12.000	23.750	5.8334e-03
12.000	24.000	5.8343e-03
12.250	17.000	4.0082e-05
12.250	17.250	4.3621e-05
12.250	17.500	5.0288e-05
12.250	17.750	6.2222e-05
12.250	18.000	8.2469e-05
12.250	18.250	1.1481e-04
12.250	18.500	1.6370e-04
12.250	18.750	2.3580e-04
12.250	19.000	3.3720e-04
12.250	19.250	4.7720e-04
12.250	19.500	6.6979e-04
12.250	19.750	9.3654e-04
12.250	20.000	1.3026e-03
12.250	20.250	1.8240e-03
12.250	20.500	2.5804e-03
12.250	20.750	3.6843e-03
12.250	21.000	4.5354e-03
12.250	21.250	4.9910e-03
12.250	21.500	5.2761e-03
12.250	21.750	5.5661e-03
12.250	22.000	5.6691e-03
12.250	22.250	5.7258e-03
12.250	22.500	5.7713e-03
12.250	22.750	5.8007e-03
12.250	23.000	5.8165e-03
12.250	23.250	5.8236e-03
12.250	23.500	5.8286e-03
12.250	23.750	5.8322e-03
12.250	24.000	5.8333e-03
12.500	17.000	3.7695e-05
12.500	17.250	4.0082e-05
12.500	17.500	4.4444e-05
12.500	17.750	5.2593e-05
12.500	18.000	6.6667e-05
12.500	18.250	8.9547e-05
12.500	18.500	1.2502e-04
12.500	18.750	1.7737e-04
12.500	19.000	2.5144e-04
12.500	19.250	3.5481e-04
12.500	19.500	4.9506e-04
12.500	19.750	6.8914e-04
12.500	20.000	9.5621e-04
12.500	20.250	1.3255e-03
12.500	20.500	1.8553e-03
12.500	20.750	2.6221e-03
12.500	21.000	3.7432e-03
12.500	21.250	4.5533e-03
12.500	21.500	5.0358e-03
12.500	21.750	5.3389e-03
12.500	22.000	5.5989e-03
12.500	22.250	5.6640e-03
12.500	22.500	5.7206e-03
12.500	22.750	5.7655e-03
12.500	23.000	5.7975e-03
12.500	23.250	5.8144e-03
12.500	23.500	5.8222e-03
12.500	23.750	5.8278e-03
12.500	24.000	5.8319e-03
12.750	17.000	2.8230e-05
12.750	17.250	3.7119e-05
12.750	17.500	4.0494e-05
12.750	17.750	4.6091e-05
12.750	18.000	5.5885e-05
12.750	18.250	7.2099e-05
12.750	18.500	9.7366e-05
12.750	18.750	1.3523e-04
12.750	19.000	1.8947e-04
12.750	19.250	2.6486e-04
12.750	19.500	3.6790e-04
12.750	19.750	5.0889e-04
12.750	20.000	7.0354e-04
12.750	20.250	9.7128e-04
12.750	20.500	1.3480e-03
12.750	20.750	1.8849e-03
12.750	21.000	2.6842e-03
12.750	21.250	3.8519e-03
12.750	21.500	4.5823e-03
12.750	21.750	5.1007e-03
12.750	22.000	5.4043e-03
12.750	22.250	5.6003e-03
12.750	22.500	5.6617e-03
12.750	22.750	5.7157e-03
12.750	23.000	5.7618e-03
12.750	23.250	5.7941e-03
12.750	23.500	5.8120e-03
12.750	23.750	5.8205e-03
12.750	24.000	5.8269e-03
13.000	17.000	1.4321e-05
13.000	17.250	2.6337e-05
13.000	17.500	3.5885e-05
13.000	17.750	4.1811e-05
13.000	18.000	4.8560e-05
13.000	18.250	5.9835e-05
13.000	18.500	7.7778e-05
13.000	18.750	1.0486e-04
13.000	19.000	1.4412e-04
13.000	19.250	1.9901e-04
13.000	19.500	2.7432e-04
13.000	19.750	3.7728e-04
13.000	20.000	5.1827e-04
13.000	20.250	7.1333e-04
13.000	20.500	9.8379e-04
13.000	20.750	1.3672e-03
13.000	21.000	1.9219e-03
13.000	21.250	2.7627e-03
13.000	21.500	3.9302e-03
13.000	21.750	4.6494e-03
13.000	22.000	5.1519e-03
13.000	22.250	5.4503e-03
13.000	22.500	5.5996e-03
13.000	22.750	5.6592e-03
13.000	23.000	5.7128e-03
13.000	23.250	5.7580e-03
13.000	23.500	5.7905e-03
13.000	23.750	5.8089e-03
13.000	24.000	5.8184e-03
13.250	17.000	8.6420e-06
13.250	17.250	1.6461e-05
13.250	17.500	3.1687e-05
13.250	17.750	3.9012e-05
13.250	18.000	4.3621e-05
13.250	18.250	5.1358e-05
13.250	18.500	6.3951e-05
13.250	18.750	8.3210e-05
13.250	19.000	1.1128e-04
13.250	19.250	1.5086e-04
13.250	19.500	2.0576e-04
13.250	19.750	2.8107e-04
13.250	20.000	3.8370e-04
13.250	20.250	5.2486e-04
13.250	20.500	7.2123e-04
13.250	20.750	9.9366e-04
13.250	21.000	1.3872e-03
13.250	21.250	1.9636e-03
13.250	21.500	2.8030e-03
13.250	21.750	3.9689e-03
13.250	22.000	4.6771e-03
13.250	22.250	5.1770e-03
13.250	22.500	5.4619e-03
13.250	22.750	5.5963e-03
13.250	23.000	5.6554e-03
13.250	23.250	5.7082e-03
13.250	23.500	5.7538e-03
13.250	23.750	5.7861e-03
13.250	24.000	5.8050e-03
13.500	17.000	5.1852e-06
13.500	17.250	1.0206e-05
13.500	17.500	2.1152e-05
13.500	17.750	3.3251e-05
13.500	18.000	4.0082e-05
13.500	18.250	4.5514e-05
13.500	18.500	5.4239e-05
13.500	18.750	6.7654e-05
13.500	19.000	8.7572e-05
13.500	19.250	1.1597e-04
13.500	19.500	1.5588e-04
13.500	19.750	2.1062e-04
13.500	20.000	2.8519e-04
13.500	20.250	3.8733e-04
13.500	20.500	5.2848e-04
13.500	20.750	7.2337e-04
13.500	21.000	9.9449e-04
13.500	21.250	1.3930e-03
13.500	21.500	1.9565e-03
13.500	21.750	2.8312e-03
13.500	22.000	3.9663e-03
13.500	22.250	4.6658e-03
13.500	22.500	5.1562e-03
13.500	22.750	5.4463e-03
13.500	23.000	5.5875e-03
13.500	23.250	5.6474e-03
13.500	23.500	5.7019e-03
13.500	23.750	5.7481e-03
13.500	24.000	5.7802e-03
13.750	17.000	3.1276e-06
13.750	17.250	6.1728e-06
13.750	17.500	1.3580e-05
13.750	17.750	2.4198e-05
13.750	18.000	3.7037e-05
13.750	18.250	4.1235e-05
13.750	18.500	4.7243e-05
13.750	18.750	5.6543e-05
13.750	19.000	7.0617e-05
13.750	19.250	9.0864e-05
13.750	19.500	1.1951e-04
13.750	19.750	1.5909e-04
13.750	20.000	2.1325e-04
13.750	20.250	2.8724e-04
13.750	20.500	3.8856e-04
13.750	20.750	5.2798e-04
13.750	21.000	7.2008e-04
13.750	21.250	9.8798e-04
13.750	21.500	1.3681e-03
13.750	21.750	1.9514e-03
13.750	22.000	2.8505e-03
13.750	22.250	3.9606e-03
13.750	22.500	4.6190e-03
13.750	22.750	5.1230e-03
13.750	23.000	5.4243e-03
13.750	23.250	5.5693e-03
13.750	23.500	5.6324e-03
13.750	23.750	5.6910e-03
13.750	24.000	5.7388e-03
14.000	17.000	1.8930e-06
14.000	17.250	3.7860e-06
14.000	17.500	8.3128e-06
14.000	17.750	1.6461e-05
14.000	18.000	2.8395e-05
14.000	18.250	3.8354e-05
14.000	18.500	4.2469e-05
14.000	18.750	4.8724e-05
14.000	19.000	5.8436e-05
14.000	19.250	7.2675e-05
14.000	19.500	9.3004e-05
14.000	19.750	1.2165e-04
14.000	20.000	1.6074e-04
14.000	20.250	2.1407e-04
14.000	20.500	2.8700e-04
14.000	20.750	3.8642e-04
14.000	21.000	5.2123e-04
14.000	21.250	7.0823e-04
14.000	21.500	9.6140e-04
14.000	21.750	1.3388e-03
14.000	22.000	1.9242e-03
14.000	22.250	2.8737e-03
14.000	22.500	3.9370e-03
14.000	22.750	4.5612e-03
14.000	23.000	5.0680e-03
14.000	23.250	5.3960e-03
14.000	23.500	5.5375e-03
14.000	23.750	5.6075e-03
14.000	24.000	5.6732e-03
