nFnu 1218.08A  relative to Inci 1215.00A scaled to 1215A.
Hden   Phi(H)  Eq_Width (A)
 7.000	17.000	2.7066e-02
 7.000	17.250	2.0631e-02
 7.000	17.500	1.5930e-02
 7.000	17.750	1.2606e-02
 7.000	18.000	1.0572e-02
 7.000	18.250	9.3851e-03
 7.000	18.500	8.6791e-03
 7.000	18.750	8.3492e-03
 7.000	19.000	8.1767e-03
 7.000	19.250	8.0802e-03
 7.000	19.500	8.0394e-03
 7.000	19.750	8.0223e-03
 7.000	20.000	8.0149e-03
 7.000	20.250	8.0114e-03
 7.000	20.500	8.0096e-03
 7.000	20.750	8.0087e-03
 7.000	21.000	8.0082e-03
 7.000	21.250	8.0079e-03
 7.000	21.500	8.0080e-03
 7.000	21.750	8.0077e-03
 7.000	22.000	8.0077e-03
 7.000	22.250	8.0076e-03
 7.000	22.500	8.0076e-03
 7.000	22.750	8.0078e-03
 7.000	23.000	8.0078e-03
 7.000	23.250	8.0076e-03
 7.000	23.500	8.0076e-03
 7.000	23.750	8.0076e-03
 7.000	24.000	8.0076e-03
 7.250	17.000	3.5267e-02
 7.250	17.250	2.6888e-02
 7.250	17.500	2.0539e-02
 7.250	17.750	1.5884e-02
 7.250	18.000	1.2581e-02
 7.250	18.250	1.0558e-02
 7.250	18.500	9.3788e-03
 7.250	18.750	8.6770e-03
 7.250	19.000	8.3484e-03
 7.250	19.250	8.1764e-03
 7.250	19.500	8.0801e-03
 7.250	19.750	8.0394e-03
 7.250	20.000	8.0223e-03
 7.250	20.250	8.0149e-03
 7.250	20.500	8.0114e-03
 7.250	20.750	8.0096e-03
 7.250	21.000	8.0087e-03
 7.250	21.250	8.0082e-03
 7.250	21.500	8.0079e-03
 7.250	21.750	8.0094e-03
 7.250	22.000	8.0077e-03
 7.250	22.250	8.0077e-03
 7.250	22.500	8.0076e-03
 7.250	22.750	8.0084e-03
 7.250	23.000	8.0084e-03
 7.250	23.250	8.0076e-03
 7.250	23.500	8.0076e-03
 7.250	23.750	8.0076e-03
 7.250	24.000	8.0076e-03
 7.500	17.000	4.1243e-02
 7.500	17.250	3.5112e-02
 7.500	17.500	2.6785e-02
 7.500	17.750	2.0487e-02
 7.500	18.000	1.5858e-02
 7.500	18.250	1.2566e-02
 7.500	18.500	1.0550e-02
 7.500	18.750	9.3748e-03
 7.500	19.000	8.6755e-03
 7.500	19.250	8.3479e-03
 7.500	19.500	8.1762e-03
 7.500	19.750	8.0801e-03
 7.500	20.000	8.0394e-03
 7.500	20.250	8.0223e-03
 7.500	20.500	8.0148e-03
 7.500	20.750	8.0114e-03
 7.500	21.000	8.0095e-03
 7.500	21.250	8.0086e-03
 7.500	21.500	8.0081e-03
 7.500	21.750	8.0079e-03
 7.500	22.000	8.0077e-03
 7.500	22.250	8.0077e-03
 7.500	22.500	8.0077e-03
 7.500	22.750	8.0077e-03
 7.500	23.000	8.0080e-03
 7.500	23.250	8.0084e-03
 7.500	23.500	8.0076e-03
 7.500	23.750	8.0086e-03
 7.500	24.000	8.0076e-03
 7.750	17.000	9.9733e-01
 7.750	17.250	4.0056e-02
 7.750	17.500	3.5032e-02
 7.750	17.750	2.6725e-02
 7.750	18.000	2.0459e-02
 7.750	18.250	1.5846e-02
 7.750	18.500	1.2556e-02
 7.750	18.750	1.0545e-02
 7.750	19.000	9.3723e-03
 7.750	19.250	8.6746e-03
 7.750	19.500	8.3476e-03
 7.750	19.750	8.1761e-03
 7.750	20.000	8.0801e-03
 7.750	20.250	8.0394e-03
 7.750	20.500	8.0223e-03
 7.750	20.750	8.0148e-03
 7.750	21.000	8.0114e-03
 7.750	21.250	8.0095e-03
 7.750	21.500	8.0086e-03
 7.750	21.750	8.0081e-03
 7.750	22.000	8.0079e-03
 7.750	22.250	8.0077e-03
 7.750	22.500	8.0077e-03
 7.750	22.750	8.0078e-03
 7.750	23.000	8.0078e-03
 7.750	23.250	8.0077e-03
 7.750	23.500	8.0084e-03
 7.750	23.750	8.0084e-03
 7.750	24.000	8.0076e-03
 8.000	17.000	1.0008e+00
 8.000	17.250	9.9670e-01
 8.000	17.500	3.9172e-02
 8.000	17.750	3.4966e-02
 8.000	18.000	2.6688e-02
 8.000	18.250	2.0446e-02
 8.000	18.500	1.5842e-02
 8.000	18.750	1.2550e-02
 8.000	19.000	1.0541e-02
 8.000	19.250	9.3706e-03
 8.000	19.500	8.6740e-03
 8.000	19.750	8.3473e-03
 8.000	20.000	8.1760e-03
 8.000	20.250	8.0800e-03
 8.000	20.500	8.0394e-03
 8.000	20.750	8.0223e-03
 8.000	21.000	8.0148e-03
 8.000	21.250	8.0114e-03
 8.000	21.500	8.0095e-03
 8.000	21.750	8.0086e-03
 8.000	22.000	8.0081e-03
 8.000	22.250	8.0078e-03
 8.000	22.500	8.0077e-03
 8.000	22.750	8.0078e-03
 8.000	23.000	8.0076e-03
 8.000	23.250	8.0081e-03
 8.000	23.500	8.0076e-03
 8.000	23.750	8.0076e-03
 8.000	24.000	8.0076e-03
 8.250	17.000	1.0020e+00
 8.250	17.250	9.9955e-01
 8.250	17.500	9.9558e-01
 8.250	17.750	3.8538e-02
 8.250	18.000	3.4938e-02
 8.250	18.250	2.6661e-02
 8.250	18.500	2.0442e-02
 8.250	18.750	1.5843e-02
 8.250	19.000	1.2547e-02
 8.250	19.250	1.0538e-02
 8.250	19.500	9.3695e-03
 8.250	19.750	8.6736e-03
 8.250	20.000	8.3472e-03
 8.250	20.250	8.1760e-03
 8.250	20.500	8.0800e-03
 8.250	20.750	8.0394e-03
 8.250	21.000	8.0223e-03
 8.250	21.250	8.0148e-03
 8.250	21.500	8.0114e-03
 8.250	21.750	8.0095e-03
 8.250	22.000	8.0086e-03
 8.250	22.250	8.0081e-03
 8.250	22.500	8.0078e-03
 8.250	22.750	8.0079e-03
 8.250	23.000	8.0076e-03
 8.250	23.250	8.0096e-03
 8.250	23.500	8.0076e-03
 8.250	23.750	8.0075e-03
 8.250	24.000	8.0081e-03
 8.500	17.000	1.0027e+00
 8.500	17.250	1.0010e+00
 8.500	17.500	9.9863e-01
 8.500	17.750	9.9455e-01
 8.500	18.000	3.8182e-02
 8.500	18.250	3.4907e-02
 8.500	18.500	2.6640e-02
 8.500	18.750	2.0442e-02
 8.500	19.000	1.5847e-02
 8.500	19.250	1.2544e-02
 8.500	19.500	1.0536e-02
 8.500	19.750	9.3686e-03
 8.500	20.000	8.6733e-03
 8.500	20.250	8.3472e-03
 8.500	20.500	8.1760e-03
 8.500	20.750	8.0800e-03
 8.500	21.000	8.0394e-03
 8.500	21.250	8.0223e-03
 8.500	21.500	8.0148e-03
 8.500	21.750	8.0114e-03
 8.500	22.000	8.0095e-03
 8.500	22.250	8.0086e-03
 8.500	22.500	8.0081e-03
 8.500	22.750	8.0078e-03
 8.500	23.000	8.0077e-03
 8.500	23.250	8.0078e-03
 8.500	23.500	8.0076e-03
 8.500	23.750	8.0075e-03
 8.500	24.000	8.0075e-03
 8.750	17.000	1.0030e+00
 8.750	17.250	1.0019e+00
 8.750	17.500	1.0002e+00
 8.750	17.750	9.9784e-01
 8.750	18.000	9.9340e-01
 8.750	18.250	3.7997e-02
 8.750	18.500	3.4869e-02
 8.750	18.750	2.6618e-02
 8.750	19.000	2.0446e-02
 8.750	19.250	1.5853e-02
 8.750	19.500	1.2542e-02
 8.750	19.750	1.0535e-02
 8.750	20.000	9.3679e-03
 8.750	20.250	8.6731e-03
 8.750	20.500	8.3471e-03
 8.750	20.750	8.1760e-03
 8.750	21.000	8.0800e-03
 8.750	21.250	8.0394e-03
 8.750	21.500	8.0223e-03
 8.750	21.750	8.0148e-03
 8.750	22.000	8.0114e-03
 8.750	22.250	8.0095e-03
 8.750	22.500	8.0086e-03
 8.750	22.750	8.0081e-03
 8.750	23.000	8.0086e-03
 8.750	23.250	8.0077e-03
 8.750	23.500	8.0078e-03
 8.750	23.750	8.0076e-03
 8.750	24.000	8.0075e-03
 9.000	17.000	1.0028e+00
 9.000	17.250	1.0023e+00
 9.000	17.500	1.0012e+00
 9.000	17.750	9.9939e-01
 9.000	18.000	9.9691e-01
 9.000	18.250	9.9011e-01
 9.000	18.500	3.7869e-02
 9.000	18.750	3.4820e-02
 9.000	19.000	2.6593e-02
 9.000	19.250	2.0449e-02
 9.000	19.500	1.5860e-02
 9.000	19.750	1.2541e-02
 9.000	20.000	1.0533e-02
 9.000	20.250	9.3673e-03
 9.000	20.500	8.6728e-03
 9.000	20.750	8.3471e-03
 9.000	21.000	8.1760e-03
 9.000	21.250	8.0800e-03
 9.000	21.500	8.0394e-03
 9.000	21.750	8.0223e-03
 9.000	22.000	8.0148e-03
 9.000	22.250	8.0113e-03
 9.000	22.500	8.0095e-03
 9.000	22.750	8.0086e-03
 9.000	23.000	8.0081e-03
 9.000	23.250	8.0078e-03
 9.000	23.500	8.0077e-03
 9.000	23.750	8.0076e-03
 9.000	24.000	8.0077e-03
 9.250	17.000	1.0023e+00
 9.250	17.250	1.0022e+00
 9.250	17.500	1.0016e+00
 9.250	17.750	1.0004e+00
 9.250	18.000	9.9838e-01
 9.250	18.250	9.9537e-01
 9.250	18.500	9.6864e-01
 9.250	18.750	3.7691e-02
 9.250	19.000	3.4752e-02
 9.250	19.250	2.6562e-02
 9.250	19.500	2.0447e-02
 9.250	19.750	1.5866e-02
 9.250	20.000	1.2539e-02
 9.250	20.250	1.0532e-02
 9.250	20.500	9.3667e-03
 9.250	20.750	8.6727e-03
 9.250	21.000	8.3470e-03
 9.250	21.250	8.1760e-03
 9.250	21.500	8.0796e-03
 9.250	21.750	8.0388e-03
 9.250	22.000	8.0216e-03
 9.250	22.250	8.0143e-03
 9.250	22.500	8.0109e-03
 9.250	22.750	8.0092e-03
 9.250	23.000	8.0084e-03
 9.250	23.250	8.0080e-03
 9.250	23.500	8.0077e-03
 9.250	23.750	8.0075e-03
 9.250	24.000	8.0075e-03
 9.500	17.000	1.0016e+00
 9.500	17.250	1.0017e+00
 9.500	17.500	1.0016e+00
 9.500	17.750	1.0009e+00
 9.500	18.000	9.9937e-01
 9.500	18.250	9.9678e-01
 9.500	18.500	9.9278e-01
 9.500	18.750	9.9992e-02
 9.500	19.000	3.7387e-02
 9.500	19.250	3.4659e-02
 9.500	19.500	2.6523e-02
 9.500	19.750	2.0441e-02
 9.500	20.000	1.5870e-02
 9.500	20.250	1.2538e-02
 9.500	20.500	1.0531e-02
 9.500	20.750	9.3660e-03
 9.500	21.000	8.6720e-03
 9.500	21.250	8.3465e-03
 9.500	21.500	8.1753e-03
 9.500	21.750	8.0793e-03
 9.500	22.000	8.0386e-03
 9.500	22.250	8.0216e-03
 9.500	22.500	8.0140e-03
 9.500	22.750	8.0105e-03
 9.500	23.000	8.0087e-03
 9.500	23.250	8.0078e-03
 9.500	23.500	8.0073e-03
 9.500	23.750	8.0071e-03
 9.500	24.000	8.0069e-03
 9.750	17.000	1.0007e+00
 9.750	17.250	1.0010e+00
 9.750	17.500	1.0011e+00
 9.750	17.750	1.0008e+00
 9.750	18.000	9.9987e-01
 9.750	18.250	9.9787e-01
 9.750	18.500	9.9430e-01
 9.750	18.750	9.8863e-01
 9.750	19.000	5.9461e-02
 9.750	19.250	3.6859e-02
 9.750	19.500	3.4526e-02
 9.750	19.750	2.6475e-02
 9.750	20.000	2.0428e-02
 9.750	20.250	1.5872e-02
 9.750	20.500	1.2537e-02
 9.750	20.750	1.0530e-02
 9.750	21.000	9.3656e-03
 9.750	21.250	8.6719e-03
 9.750	21.500	8.3465e-03
 9.750	21.750	8.1754e-03
 9.750	22.000	8.0793e-03
 9.750	22.250	8.0387e-03
 9.750	22.500	8.0216e-03
 9.750	22.750	8.0141e-03
 9.750	23.000	8.0105e-03
 9.750	23.250	8.0087e-03
 9.750	23.500	8.0078e-03
 9.750	23.750	8.0073e-03
 9.750	24.000	8.0070e-03
10.000	17.000	9.9981e-01
10.000	17.250	1.0000e+00
10.000	17.500	1.0003e+00
10.000	17.750	1.0003e+00
10.000	18.000	9.9991e-01
10.000	18.250	9.9861e-01
10.000	18.500	9.9573e-01
10.000	18.750	9.9081e-01
10.000	19.000	9.8376e-01
10.000	19.250	4.4318e-02
10.000	19.500	3.5893e-02
10.000	19.750	3.4325e-02
10.000	20.000	2.6419e-02
10.000	20.250	2.0409e-02
10.000	20.500	1.5872e-02
10.000	20.750	1.2535e-02
10.000	21.000	1.0529e-02
10.000	21.250	9.3654e-03
10.000	21.500	8.6717e-03
10.000	21.750	8.3465e-03
10.000	22.000	8.1755e-03
10.000	22.250	8.0793e-03
10.000	22.500	8.0386e-03
10.000	22.750	8.0216e-03
10.000	23.000	8.0141e-03
10.000	23.250	8.0105e-03
10.000	23.500	8.0088e-03
10.000	23.750	8.0078e-03
10.000	24.000	8.0073e-03
10.250	17.000	9.9912e-01
10.250	17.250	9.9910e-01
10.250	17.500	9.9931e-01
10.250	17.750	9.9956e-01
10.250	18.000	9.9955e-01
10.250	18.250	9.9887e-01
10.250	18.500	9.9684e-01
10.250	18.750	9.9309e-01
10.250	19.000	9.8729e-01
10.250	19.250	3.5098e-01
10.250	19.500	3.8302e-02
10.250	19.750	3.4460e-02
10.250	20.000	3.4146e-02
10.250	20.250	2.6370e-02
10.250	20.500	2.0386e-02
10.250	20.750	1.5869e-02
10.250	21.000	1.2534e-02
10.250	21.250	1.0529e-02
10.250	21.500	9.3653e-03
10.250	21.750	8.6716e-03
10.250	22.000	8.3465e-03
10.250	22.250	8.1755e-03
10.250	22.500	8.0794e-03
10.250	22.750	8.0387e-03
10.250	23.000	8.0216e-03
10.250	23.250	8.0141e-03
10.250	23.500	8.0105e-03
10.250	23.750	8.0088e-03
10.250	24.000	8.0078e-03
10.500	17.000	9.9868e-01
10.500	17.250	9.9842e-01
10.500	17.500	9.9842e-01
10.500	17.750	9.9871e-01
10.500	18.000	9.9893e-01
10.500	18.250	9.9874e-01
10.500	18.500	9.9760e-01
10.500	18.750	9.9502e-01
10.500	19.000	9.9056e-01
10.500	19.250	9.8430e-01
10.500	19.500	5.6533e-02
10.500	19.750	3.6194e-02
10.500	20.000	3.3776e-02
10.500	20.250	3.3933e-02
10.500	20.500	2.6324e-02
10.500	20.750	2.0360e-02
10.500	21.000	1.5864e-02
10.500	21.250	1.2533e-02
10.500	21.500	1.0529e-02
10.500	21.750	9.3651e-03
10.500	22.000	8.6716e-03
10.500	22.250	8.3466e-03
10.500	22.500	8.1756e-03
10.500	22.750	8.0795e-03
10.500	23.000	8.0388e-03
10.500	23.250	8.0216e-03
10.500	23.500	8.0141e-03
10.500	23.750	8.0105e-03
10.500	24.000	8.0088e-03
10.750	17.000	9.9844e-01
10.750	17.250	9.9801e-01
10.750	17.500	9.9777e-01
10.750	17.750	9.9780e-01
10.750	18.000	9.9808e-01
10.750	18.250	9.9823e-01
10.750	18.500	9.9769e-01
10.750	18.750	9.9602e-01
10.750	19.000	9.9270e-01
10.750	19.250	9.8705e-01
10.750	19.500	9.7914e-01
10.750	19.750	4.0378e-02
10.750	20.000	3.5367e-02
10.750	20.250	3.3891e-02
10.750	20.500	3.3943e-02
10.750	20.750	2.6279e-02
10.750	21.000	2.0337e-02
10.750	21.250	1.5857e-02
10.750	21.500	1.2533e-02
10.750	21.750	1.0529e-02
10.750	22.000	9.3650e-03
10.750	22.250	8.6715e-03
10.750	22.500	8.3467e-03
10.750	22.750	8.1756e-03
10.750	23.000	8.0795e-03
10.750	23.250	8.0388e-03
10.750	23.500	8.0216e-03
10.750	23.750	8.0141e-03
10.750	24.000	8.0105e-03
11.000	17.000	9.9826e-01
11.000	17.250	9.9776e-01
11.000	17.500	9.9723e-01
11.000	17.750	9.9692e-01
11.000	18.000	9.9701e-01
11.000	18.250	9.9720e-01
11.000	18.500	9.9705e-01
11.000	18.750	9.9610e-01
11.000	19.000	9.9380e-01
11.000	19.250	9.8948e-01
11.000	19.500	9.8271e-01
11.000	19.750	9.2136e-01
11.000	20.000	3.9701e-02
11.000	20.250	3.7524e-02
11.000	20.500	3.4514e-02
11.000	20.750	3.4147e-02
11.000	21.000	2.6402e-02
11.000	21.250	2.0317e-02
11.000	21.500	1.5848e-02
11.000	21.750	1.2532e-02
11.000	22.000	1.0529e-02
11.000	22.250	9.3651e-03
11.000	22.500	8.6713e-03
11.000	22.750	8.3468e-03
11.000	23.000	8.1758e-03
11.000	23.250	8.0796e-03
11.000	23.500	8.0389e-03
11.000	23.750	8.0217e-03
11.000	24.000	8.0142e-03
11.250	17.000	9.9810e-01
11.250	17.250	9.9754e-01
11.250	17.500	9.9676e-01
11.250	17.750	9.9612e-01
11.250	18.000	9.9587e-01
11.250	18.250	9.9589e-01
11.250	18.500	9.9588e-01
11.250	18.750	9.9542e-01
11.250	19.000	9.9392e-01
11.250	19.250	9.9080e-01
11.250	19.500	9.8525e-01
11.250	19.750	9.7602e-01
11.250	20.000	5.4154e-01
11.250	20.250	3.9011e-02
11.250	20.500	3.7257e-02
11.250	20.750	3.5981e-02
11.250	21.000	3.5249e-02
11.250	21.250	2.6625e-02
11.250	21.500	2.0338e-02
11.250	21.750	1.5835e-02
11.250	22.000	1.2530e-02
11.250	22.250	1.0530e-02
11.250	22.500	9.3652e-03
11.250	22.750	8.6710e-03
11.250	23.000	8.3468e-03
11.250	23.250	8.1760e-03
11.250	23.500	8.0796e-03
11.250	23.750	8.0389e-03
11.250	24.000	8.0218e-03
11.500	17.000	9.9789e-01
11.500	17.250	9.9724e-01
11.500	17.500	9.9632e-01
11.500	17.750	9.9549e-01
11.500	18.000	9.9493e-01
11.500	18.250	9.9464e-01
11.500	18.500	9.9454e-01
11.500	18.750	9.9430e-01
11.500	19.000	9.9343e-01
11.500	19.250	9.9126e-01
11.500	19.500	9.8697e-01
11.500	19.750	9.7975e-01
11.500	20.000	9.6828e-01
11.500	20.250	4.0693e-02
11.500	20.500	4.0626e-02
11.500	20.750	3.9783e-02
11.500	21.000	3.8487e-02
11.500	21.250	3.6621e-02
11.500	21.500	2.7048e-02
11.500	21.750	2.0397e-02
11.500	22.000	1.5822e-02
11.500	22.250	1.2528e-02
11.500	22.500	1.0530e-02
11.500	22.750	9.3653e-03
11.500	23.000	8.6707e-03
11.500	23.250	8.3467e-03
11.500	23.500	8.1760e-03
11.500	23.750	8.0797e-03
11.500	24.000	8.0390e-03
11.750	17.000	9.9753e-01
11.750	17.250	9.9686e-01
11.750	17.500	9.9595e-01
11.750	17.750	9.9504e-01
11.750	18.000	9.9426e-01
11.750	18.250	9.9369e-01
11.750	18.500	9.9336e-01
11.750	18.750	9.9312e-01
11.750	19.000	9.9260e-01
11.750	19.250	9.9124e-01
11.750	19.500	9.8828e-01
11.750	19.750	9.8294e-01
11.750	20.000	9.7413e-01
11.750	20.250	9.6022e-01
11.750	20.500	4.1904e-02
11.750	20.750	4.2639e-02
11.750	21.000	4.2785e-02
11.750	21.250	4.2280e-02
11.750	21.500	3.7995e-02
11.750	21.750	2.7559e-02
11.750	22.000	2.0537e-02
11.750	22.250	1.5812e-02
11.750	22.500	1.2525e-02
11.750	22.750	1.0529e-02
11.750	23.000	9.3656e-03
11.750	23.250	8.6702e-03
11.750	23.500	8.3467e-03
11.750	23.750	8.1761e-03
11.750	24.000	8.0798e-03
12.000	17.000	9.9700e-01
12.000	17.250	9.9647e-01
12.000	17.500	9.9562e-01
12.000	17.750	9.9467e-01
12.000	18.000	9.9380e-01
12.000	18.250	9.9308e-01
12.000	18.500	9.9253e-01
12.000	18.750	9.9214e-01
12.000	19.000	9.9173e-01
12.000	19.250	9.9092e-01
12.000	19.500	9.8910e-01
12.000	19.750	9.8543e-01
12.000	20.000	9.7912e-01
12.000	20.250	9.6880e-01
12.000	20.500	9.5238e-01
12.000	20.750	4.2816e-02
12.000	21.000	4.5813e-02
12.000	21.250	4.8392e-02
12.000	21.500	4.7898e-02
12.000	21.750	3.9154e-02
12.000	22.000	2.8183e-02
12.000	22.250	2.0743e-02
12.000	22.500	1.5810e-02
12.000	22.750	1.2521e-02
12.000	23.000	1.0529e-02
12.000	23.250	9.3658e-03
12.000	23.500	8.6695e-03
12.000	23.750	8.3464e-03
12.000	24.000	8.1761e-03
12.250	17.000	9.9641e-01
12.250	17.250	9.9606e-01
12.250	17.500	9.9529e-01
12.250	17.750	9.9431e-01
12.250	18.000	9.9340e-01
12.250	18.250	9.9266e-01
12.250	18.500	9.9206e-01
12.250	18.750	9.9155e-01
12.250	19.000	9.9109e-01
12.250	19.250	9.9052e-01
12.250	19.500	9.8946e-01
12.250	19.750	9.8725e-01
12.250	20.000	9.8303e-01
12.250	20.250	9.7593e-01
12.250	20.500	9.6431e-01
12.250	20.750	9.4503e-01
12.250	21.000	4.6214e-02
12.250	21.250	5.1905e-02
12.250	21.500	5.6004e-02
12.250	21.750	5.4345e-02
12.250	22.000	4.0404e-02
12.250	22.250	2.8548e-02
12.250	22.500	2.0821e-02
12.250	22.750	1.5818e-02
12.250	23.000	1.2516e-02
12.250	23.250	1.0528e-02
12.250	23.500	9.3658e-03
12.250	23.750	8.6687e-03
12.250	24.000	8.3462e-03
12.500	17.000	9.9578e-01
12.500	17.250	9.9559e-01
12.500	17.500	9.9489e-01
12.500	17.750	9.9390e-01
12.500	18.000	9.9294e-01
12.500	18.250	9.9221e-01
12.500	18.500	9.9171e-01
12.500	18.750	9.9131e-01
12.500	19.000	9.9087e-01
12.500	19.250	9.9036e-01
12.500	19.500	9.8965e-01
12.500	19.750	9.8838e-01
12.500	20.000	9.8588e-01
12.500	20.250	9.8129e-01
12.500	20.500	9.7364e-01
12.500	20.750	9.6109e-01
12.500	21.000	9.3974e-01
12.500	21.250	5.3166e-02
12.500	21.500	6.0531e-02
12.500	21.750	6.5057e-02
12.500	22.000	5.8577e-02
12.500	22.250	4.1361e-02
12.500	22.500	2.9114e-02
12.500	22.750	2.1073e-02
12.500	23.000	1.5833e-02
12.500	23.250	1.2512e-02
12.500	23.500	1.0527e-02
12.500	23.750	9.3660e-03
12.500	24.000	8.6677e-03
12.750	17.000	9.9496e-01
12.750	17.250	9.9495e-01
12.750	17.500	9.9437e-01
12.750	17.750	9.9340e-01
12.750	18.000	9.9238e-01
12.750	18.250	9.9162e-01
12.750	18.500	9.9119e-01
12.750	18.750	9.9101e-01
12.750	19.000	9.9082e-01
12.750	19.250	9.9048e-01
12.750	19.500	9.8996e-01
12.750	19.750	9.8913e-01
12.750	20.000	9.8768e-01
12.750	20.250	9.8506e-01
12.750	20.500	9.8030e-01
12.750	20.750	9.7238e-01
12.750	21.000	9.5962e-01
12.750	21.250	8.9706e-01
12.750	21.500	6.2427e-02
12.750	21.750	7.2518e-02
12.750	22.000	7.4823e-02
12.750	22.250	6.1488e-02
12.750	22.500	4.2640e-02
12.750	22.750	2.9775e-02
12.750	23.000	2.1281e-02
12.750	23.250	1.5852e-02
12.750	23.500	1.2509e-02
12.750	23.750	1.0526e-02
12.750	24.000	9.3660e-03
13.000	17.000	9.9396e-01
13.000	17.250	9.9412e-01
13.000	17.500	9.9369e-01
13.000	17.750	9.9276e-01
13.000	18.000	9.9170e-01
13.000	18.250	9.9086e-01
13.000	18.500	9.9044e-01
13.000	18.750	9.9041e-01
13.000	19.000	9.9052e-01
13.000	19.250	9.9053e-01
13.000	19.500	9.9030e-01
13.000	19.750	9.8980e-01
13.000	20.000	9.8890e-01
13.000	20.250	9.8735e-01
13.000	20.500	9.8470e-01
13.000	20.750	9.8000e-01
13.000	21.000	9.7204e-01
13.000	21.250	9.5950e-01
13.000	21.500	2.5404e-01
13.000	21.750	7.5122e-02
13.000	22.000	8.3929e-02
13.000	22.250	8.3069e-02
13.000	22.500	6.4024e-02
13.000	22.750	4.3753e-02
13.000	23.000	3.0268e-02
13.000	23.250	2.1457e-02
13.000	23.500	1.5875e-02
13.000	23.750	1.2506e-02
13.000	24.000	1.0525e-02
13.250	17.000	9.9281e-01
13.250	17.250	9.9308e-01
13.250	17.500	9.9278e-01
13.250	17.750	9.9194e-01
13.250	18.000	9.9088e-01
13.250	18.250	9.8997e-01
13.250	18.500	9.8952e-01
13.250	18.750	9.8956e-01
13.250	19.000	9.8989e-01
13.250	19.250	9.9023e-01
13.250	19.500	9.9039e-01
13.250	19.750	9.9024e-01
13.250	20.000	9.8972e-01
13.250	20.250	9.8875e-01
13.250	20.500	9.8721e-01
13.250	20.750	9.8465e-01
13.250	21.000	9.8028e-01
13.250	21.250	9.7280e-01
13.250	21.500	9.5976e-01
13.250	21.750	7.9714e-02
13.250	22.000	8.3770e-02
13.250	22.250	9.3798e-02
13.250	22.500	8.9048e-02
13.250	22.750	6.6598e-02
13.250	23.000	4.4879e-02
13.250	23.250	3.0430e-02
13.250	23.500	2.1493e-02
13.250	23.750	1.5899e-02
13.250	24.000	1.2503e-02
13.500	17.000	9.9151e-01
13.500	17.250	9.9180e-01
13.500	17.500	9.9159e-01
13.500	17.750	9.9084e-01
13.500	18.000	9.8982e-01
13.500	18.250	9.8888e-01
13.500	18.500	9.8837e-01
13.500	18.750	9.8845e-01
13.500	19.000	9.8894e-01
13.500	19.250	9.8956e-01
13.500	19.500	9.9009e-01
13.500	19.750	9.9033e-01
13.500	20.000	9.9021e-01
13.500	20.250	9.8970e-01
13.500	20.500	9.8868e-01
13.500	20.750	9.8709e-01
13.500	21.000	9.8437e-01
13.500	21.250	9.8032e-01
13.500	21.500	9.7219e-01
13.500	21.750	9.5890e-01
13.500	22.000	8.0169e-02
13.500	22.250	8.9971e-02
13.500	22.500	9.9948e-02
13.500	22.750	9.3572e-02
13.500	23.000	6.9121e-02
13.500	23.250	4.6138e-02
13.500	23.500	3.1139e-02
13.500	23.750	2.1729e-02
13.500	24.000	1.5919e-02
13.750	17.000	9.9012e-01
13.750	17.250	9.9036e-01
13.750	17.500	9.9011e-01
13.750	17.750	9.8942e-01
13.750	18.000	9.8846e-01
13.750	18.250	9.8754e-01
13.750	18.500	9.8702e-01
13.750	18.750	9.8712e-01
13.750	19.000	9.8773e-01
13.750	19.250	9.8858e-01
13.750	19.500	9.8943e-01
13.750	19.750	9.9004e-01
13.750	20.000	9.9032e-01
13.750	20.250	9.9023e-01
13.750	20.500	9.8971e-01
13.750	20.750	9.8866e-01
13.750	21.000	9.8693e-01
13.750	21.250	9.8405e-01
13.750	21.500	9.7947e-01
13.750	21.750	9.7150e-01
13.750	22.000	9.5775e-01
13.750	22.250	8.6041e-02
13.750	22.500	9.6183e-02
13.750	22.750	1.0718e-01
13.750	23.000	9.8546e-02
13.750	23.250	7.1514e-02
13.750	23.500	4.7074e-02
13.750	23.750	3.1521e-02
13.750	24.000	2.1838e-02
14.000	17.000	9.8787e-01
14.000	17.250	9.8884e-01
14.000	17.500	9.8845e-01
14.000	17.750	9.8767e-01
14.000	18.000	9.8673e-01
14.000	18.250	9.8588e-01
14.000	18.500	9.8537e-01
14.000	18.750	9.8553e-01
14.000	19.000	9.8628e-01
14.000	19.250	9.8735e-01
14.000	19.500	9.8847e-01
14.000	19.750	9.8941e-01
14.000	20.000	9.9001e-01
14.000	20.250	9.9029e-01
14.000	20.500	9.9022e-01
14.000	20.750	9.8970e-01
14.000	21.000	9.8862e-01
14.000	21.250	9.8684e-01
14.000	21.500	9.8379e-01
14.000	21.750	9.7885e-01
14.000	22.000	9.7041e-01
14.000	22.250	9.5617e-01
14.000	22.500	9.7847e-02
14.000	22.750	1.0636e-01
14.000	23.000	1.1497e-01
14.000	23.250	1.0427e-01
14.000	23.500	7.3758e-02
14.000	23.750	4.7901e-02
14.000	24.000	3.1879e-02
