InwT 2430.05A  relative to Inci 1215.00A scaled to 1215A.
Hden   Phi(H)  Eq_Width (A)
 7.000	17.000	2.0542e-02
 7.000	17.250	1.4001e-02
 7.000	17.500	1.0523e-02
 7.000	17.750	8.8019e-03
 7.000	18.000	7.9901e-03
 7.000	18.250	7.5515e-03
 7.000	18.500	7.3129e-03
 7.000	18.750	7.2112e-03
 7.000	19.000	7.1592e-03
 7.000	19.250	7.1306e-03
 7.000	19.500	7.1188e-03
 7.000	19.750	7.1141e-03
 7.000	20.000	7.1120e-03
 7.000	20.250	7.1111e-03
 7.000	20.500	7.1106e-03
 7.000	20.750	7.1104e-03
 7.000	21.000	7.1102e-03
 7.000	21.250	7.1102e-03
 7.000	21.500	7.1103e-03
 7.000	21.750	7.1101e-03
 7.000	22.000	7.1101e-03
 7.000	22.250	7.1100e-03
 7.000	22.500	7.1100e-03
 7.000	22.750	7.1103e-03
 7.000	23.000	7.1103e-03
 7.000	23.250	7.1100e-03
 7.000	23.500	7.1100e-03
 7.000	23.750	7.1100e-03
 7.000	24.000	7.1100e-03
 7.250	17.000	3.2329e-02
 7.250	17.250	2.0510e-02
 7.250	17.500	1.3984e-02
 7.250	17.750	1.0513e-02
 7.250	18.000	8.7981e-03
 7.250	18.250	7.9886e-03
 7.250	18.500	7.5509e-03
 7.250	18.750	7.3128e-03
 7.250	19.000	7.2111e-03
 7.250	19.250	7.1592e-03
 7.250	19.500	7.1305e-03
 7.250	19.750	7.1188e-03
 7.250	20.000	7.1141e-03
 7.250	20.250	7.1120e-03
 7.250	20.500	7.1111e-03
 7.250	20.750	7.1106e-03
 7.250	21.000	7.1104e-03
 7.250	21.250	7.1102e-03
 7.250	21.500	7.1102e-03
 7.250	21.750	7.1115e-03
 7.250	22.000	7.1101e-03
 7.250	22.250	7.1101e-03
 7.250	22.500	7.1101e-03
 7.250	22.750	7.1108e-03
 7.250	23.000	7.1108e-03
 7.250	23.250	7.1100e-03
 7.250	23.500	7.1100e-03
 7.250	23.750	7.1100e-03
 7.250	24.000	7.1100e-03
 7.500	17.000	5.0136e-02
 7.500	17.250	3.2288e-02
 7.500	17.500	2.0489e-02
 7.500	17.750	1.3971e-02
 7.500	18.000	1.0504e-02
 7.500	18.250	8.7947e-03
 7.500	18.500	7.9874e-03
 7.500	18.750	7.5505e-03
 7.500	19.000	7.3126e-03
 7.500	19.250	7.2111e-03
 7.500	19.500	7.1592e-03
 7.500	19.750	7.1305e-03
 7.500	20.000	7.1188e-03
 7.500	20.250	7.1141e-03
 7.500	20.500	7.1120e-03
 7.500	20.750	7.1110e-03
 7.500	21.000	7.1106e-03
 7.500	21.250	7.1104e-03
 7.500	21.500	7.1102e-03
 7.500	21.750	7.1102e-03
 7.500	22.000	7.1101e-03
 7.500	22.250	7.1101e-03
 7.500	22.500	7.1101e-03
 7.500	22.750	7.1101e-03
 7.500	23.000	7.1105e-03
 7.500	23.250	7.1108e-03
 7.500	23.500	7.1100e-03
 7.500	23.750	7.1109e-03
 7.500	24.000	7.1100e-03
 7.750	17.000	7.5099e-02
 7.750	17.250	4.9990e-02
 7.750	17.500	3.2262e-02
 7.750	17.750	2.0477e-02
 7.750	18.000	1.3962e-02
 7.750	18.250	1.0495e-02
 7.750	18.500	8.7915e-03
 7.750	18.750	7.9863e-03
 7.750	19.000	7.5501e-03
 7.750	19.250	7.3125e-03
 7.750	19.500	7.2110e-03
 7.750	19.750	7.1591e-03
 7.750	20.000	7.1305e-03
 7.750	20.250	7.1188e-03
 7.750	20.500	7.1141e-03
 7.750	20.750	7.1120e-03
 7.750	21.000	7.1110e-03
 7.750	21.250	7.1105e-03
 7.750	21.500	7.1103e-03
 7.750	21.750	7.1102e-03
 7.750	22.000	7.1101e-03
 7.750	22.250	7.1101e-03
 7.750	22.500	7.1101e-03
 7.750	22.750	7.1103e-03
 7.750	23.000	7.1103e-03
 7.750	23.250	7.1101e-03
 7.750	23.500	7.1108e-03
 7.750	23.750	7.1108e-03
 7.750	24.000	7.1100e-03
 8.000	17.000	7.6549e-02
 8.000	17.250	7.4064e-02
 8.000	17.500	4.9837e-02
 8.000	17.750	3.2233e-02
 8.000	18.000	2.0470e-02
 8.000	18.250	1.3955e-02
 8.000	18.500	1.0487e-02
 8.000	18.750	8.7881e-03
 8.000	19.000	7.9853e-03
 8.000	19.250	7.5499e-03
 8.000	19.500	7.3124e-03
 8.000	19.750	7.2110e-03
 8.000	20.000	7.1592e-03
 8.000	20.250	7.1305e-03
 8.000	20.500	7.1188e-03
 8.000	20.750	7.1141e-03
 8.000	21.000	7.1120e-03
 8.000	21.250	7.1110e-03
 8.000	21.500	7.1105e-03
 8.000	21.750	7.1103e-03
 8.000	22.000	7.1102e-03
 8.000	22.250	7.1101e-03
 8.000	22.500	7.1100e-03
 8.000	22.750	7.1102e-03
 8.000	23.000	7.1100e-03
 8.000	23.250	7.1105e-03
 8.000	23.500	7.1100e-03
 8.000	23.750	7.1100e-03
 8.000	24.000	7.1100e-03
 8.250	17.000	7.7596e-02
 8.250	17.250	7.6547e-02
 8.250	17.500	7.3930e-02
 8.250	17.750	4.9756e-02
 8.250	18.000	3.2227e-02
 8.250	18.250	2.0467e-02
 8.250	18.500	1.3948e-02
 8.250	18.750	1.0478e-02
 8.250	19.000	8.7846e-03
 8.250	19.250	7.9844e-03
 8.250	19.500	7.5496e-03
 8.250	19.750	7.3123e-03
 8.250	20.000	7.2110e-03
 8.250	20.250	7.1591e-03
 8.250	20.500	7.1305e-03
 8.250	20.750	7.1188e-03
 8.250	21.000	7.1141e-03
 8.250	21.250	7.1120e-03
 8.250	21.500	7.1110e-03
 8.250	21.750	7.1105e-03
 8.250	22.000	7.1103e-03
 8.250	22.250	7.1102e-03
 8.250	22.500	7.1101e-03
 8.250	22.750	7.1102e-03
 8.250	23.000	7.1100e-03
 8.250	23.250	7.1119e-03
 8.250	23.500	7.1100e-03
 8.250	23.750	7.1100e-03
 8.250	24.000	7.1105e-03
 8.500	17.000	7.8060e-02
 8.500	17.250	7.7802e-02
 8.500	17.500	7.6630e-02
 8.500	17.750	7.3880e-02
 8.500	18.000	4.9710e-02
 8.500	18.250	3.2228e-02
 8.500	18.500	2.0467e-02
 8.500	18.750	1.3943e-02
 8.500	19.000	1.0468e-02
 8.500	19.250	8.7808e-03
 8.500	19.500	7.9833e-03
 8.500	19.750	7.5495e-03
 8.500	20.000	7.3123e-03
 8.500	20.250	7.2110e-03
 8.500	20.500	7.1591e-03
 8.500	20.750	7.1305e-03
 8.500	21.000	7.1188e-03
 8.500	21.250	7.1141e-03
 8.500	21.500	7.1120e-03
 8.500	21.750	7.1110e-03
 8.500	22.000	7.1105e-03
 8.500	22.250	7.1103e-03
 8.500	22.500	7.1101e-03
 8.500	22.750	7.1101e-03
 8.500	23.000	7.1100e-03
 8.500	23.250	7.1102e-03
 8.500	23.500	7.1100e-03
 8.500	23.750	7.1100e-03
 8.500	24.000	7.1100e-03
 8.750	17.000	7.7935e-02
 8.750	17.250	7.8508e-02
 8.750	17.500	7.8270e-02
 8.750	17.750	7.6779e-02
 8.750	18.000	7.3976e-02
 8.750	18.250	4.9681e-02
 8.750	18.500	3.2232e-02
 8.750	18.750	2.0469e-02
 8.750	19.000	1.3937e-02
 8.750	19.250	1.0458e-02
 8.750	19.500	8.7767e-03
 8.750	19.750	7.9822e-03
 8.750	20.000	7.5492e-03
 8.750	20.250	7.3123e-03
 8.750	20.500	7.2110e-03
 8.750	20.750	7.1591e-03
 8.750	21.000	7.1305e-03
 8.750	21.250	7.1188e-03
 8.750	21.500	7.1141e-03
 8.750	21.750	7.1120e-03
 8.750	22.000	7.1110e-03
 8.750	22.250	7.1105e-03
 8.750	22.500	7.1103e-03
 8.750	22.750	7.1101e-03
 8.750	23.000	7.1108e-03
 8.750	23.250	7.1100e-03
 8.750	23.500	7.1102e-03
 8.750	23.750	7.1100e-03
 8.750	24.000	7.1100e-03
 9.000	17.000	7.7079e-02
 9.000	17.250	7.8629e-02
 9.000	17.500	7.9441e-02
 9.000	17.750	7.9379e-02
 9.000	18.000	7.7809e-02
 9.000	18.250	7.4670e-02
 9.000	18.500	4.9655e-02
 9.000	18.750	3.2237e-02
 9.000	19.000	2.0474e-02
 9.000	19.250	1.3933e-02
 9.000	19.500	1.0448e-02
 9.000	19.750	8.7725e-03
 9.000	20.000	7.9812e-03
 9.000	20.250	7.5491e-03
 9.000	20.500	7.3122e-03
 9.000	20.750	7.2109e-03
 9.000	21.000	7.1591e-03
 9.000	21.250	7.1305e-03
 9.000	21.500	7.1188e-03
 9.000	21.750	7.1141e-03
 9.000	22.000	7.1119e-03
 9.000	22.250	7.1110e-03
 9.000	22.500	7.1105e-03
 9.000	22.750	7.1103e-03
 9.000	23.000	7.1101e-03
 9.000	23.250	7.1101e-03
 9.000	23.500	7.1100e-03
 9.000	23.750	7.1100e-03
 9.000	24.000	7.1100e-03
 9.250	17.000	7.5394e-02
 9.250	17.250	7.8067e-02
 9.250	17.500	8.0216e-02
 9.250	17.750	8.1751e-02
 9.250	18.000	8.2030e-02
 9.250	18.250	8.0666e-02
 9.250	18.500	7.6551e-02
 9.250	18.750	4.9620e-02
 9.250	19.000	3.2239e-02
 9.250	19.250	2.0480e-02
 9.250	19.500	1.3932e-02
 9.250	19.750	1.0439e-02
 9.250	20.000	8.7686e-03
 9.250	20.250	7.9803e-03
 9.250	20.500	7.5488e-03
 9.250	20.750	7.3122e-03
 9.250	21.000	7.2109e-03
 9.250	21.250	7.1591e-03
 9.250	21.500	7.1302e-03
 9.250	21.750	7.1184e-03
 9.250	22.000	7.1135e-03
 9.250	22.250	7.1115e-03
 9.250	22.500	7.1107e-03
 9.250	22.750	7.1102e-03
 9.250	23.000	7.1101e-03
 9.250	23.250	7.1100e-03
 9.250	23.500	7.1100e-03
 9.250	23.750	7.1099e-03
 9.250	24.000	7.1100e-03
 9.500	17.000	7.2998e-02
 9.500	17.250	7.6853e-02
 9.500	17.500	8.0545e-02
 9.500	17.750	8.4080e-02
 9.500	18.000	8.6793e-02
 9.500	18.250	8.8441e-02
 9.500	18.500	8.7894e-02
 9.500	18.750	7.9643e-02
 9.500	19.000	4.9564e-02
 9.500	19.250	3.2232e-02
 9.500	19.500	2.0488e-02
 9.500	19.750	1.3933e-02
 9.500	20.000	1.0432e-02
 9.500	20.250	8.7650e-03
 9.500	20.500	7.9795e-03
 9.500	20.750	7.5484e-03
 9.500	21.000	7.3117e-03
 9.500	21.250	7.2105e-03
 9.500	21.500	7.1586e-03
 9.500	21.750	7.1299e-03
 9.500	22.000	7.1182e-03
 9.500	22.250	7.1134e-03
 9.500	22.500	7.1113e-03
 9.500	22.750	7.1104e-03
 9.500	23.000	7.1099e-03
 9.500	23.250	7.1096e-03
 9.500	23.500	7.1095e-03
 9.500	23.750	7.1094e-03
 9.500	24.000	7.1094e-03
 9.750	17.000	6.9551e-02
 9.750	17.250	7.4806e-02
 9.750	17.500	8.0249e-02
 9.750	17.750	8.6317e-02
 9.750	18.000	9.2768e-02
 9.750	18.250	9.8172e-02
 9.750	18.500	1.0160e-01
 9.750	18.750	1.0175e-01
 9.750	19.000	7.9534e-02
 9.750	19.250	4.9479e-02
 9.750	19.500	3.2210e-02
 9.750	19.750	2.0496e-02
 9.750	20.000	1.3937e-02
 9.750	20.250	1.0428e-02
 9.750	20.500	8.7625e-03
 9.750	20.750	7.9789e-03
 9.750	21.000	7.5483e-03
 9.750	21.250	7.3117e-03
 9.750	21.500	7.2105e-03
 9.750	21.750	7.1587e-03
 9.750	22.000	7.1299e-03
 9.750	22.250	7.1182e-03
 9.750	22.500	7.1134e-03
 9.750	22.750	7.1114e-03
 9.750	23.000	7.1104e-03
 9.750	23.250	7.1098e-03
 9.750	23.500	7.1095e-03
 9.750	23.750	7.1095e-03
 9.750	24.000	7.1094e-03
10.000	17.000	6.4902e-02
10.000	17.250	7.1940e-02
10.000	17.500	7.9576e-02
10.000	17.750	8.8682e-02
10.000	18.000	9.9651e-02
10.000	18.250	1.0979e-01
10.000	18.500	1.1698e-01
10.000	18.750	1.2022e-01
10.000	19.000	1.1478e-01
10.000	19.250	7.9420e-02
10.000	19.500	4.9371e-02
10.000	19.750	3.2162e-02
10.000	20.000	2.0500e-02
10.000	20.250	1.3942e-02
10.000	20.500	1.0425e-02
10.000	20.750	8.7604e-03
10.000	21.000	7.9788e-03
10.000	21.250	7.5484e-03
10.000	21.500	7.3116e-03
10.000	21.750	7.2106e-03
10.000	22.000	7.1587e-03
10.000	22.250	7.1300e-03
10.000	22.500	7.1182e-03
10.000	22.750	7.1134e-03
10.000	23.000	7.1113e-03
10.000	23.250	7.1104e-03
10.000	23.500	7.1099e-03
10.000	23.750	7.1096e-03
10.000	24.000	7.1095e-03
10.250	17.000	6.0391e-02
10.250	17.250	6.8267e-02
10.250	17.500	7.8760e-02
10.250	17.750	9.1760e-02
10.250	18.000	1.0725e-01
10.250	18.250	1.2190e-01
10.250	18.500	1.3306e-01
10.250	18.750	1.4007e-01
10.250	19.000	1.4260e-01
10.250	19.250	1.3065e-01
10.250	19.500	7.9285e-02
10.250	19.750	4.9245e-02
10.250	20.000	3.2076e-02
10.250	20.250	2.0496e-02
10.250	20.500	1.3948e-02
10.250	20.750	1.0425e-02
10.250	21.000	8.7593e-03
10.250	21.250	7.9788e-03
10.250	21.500	7.5484e-03
10.250	21.750	7.3117e-03
10.250	22.000	7.2106e-03
10.250	22.250	7.1588e-03
10.250	22.500	7.1300e-03
10.250	22.750	7.1182e-03
10.250	23.000	7.1134e-03
10.250	23.250	7.1114e-03
10.250	23.500	7.1104e-03
10.250	23.750	7.1099e-03
10.250	24.000	7.1096e-03
10.500	17.000	5.6289e-02
10.500	17.250	6.5199e-02
10.500	17.500	7.8036e-02
10.500	17.750	9.5778e-02
10.500	18.000	1.1554e-01
10.500	18.250	1.3402e-01
10.500	18.500	1.4844e-01
10.500	18.750	1.5874e-01
10.500	19.000	1.6399e-01
10.500	19.250	1.6474e-01
10.500	19.500	1.3166e-01
10.500	19.750	7.9149e-02
10.500	20.000	4.9083e-02
10.500	20.250	3.1959e-02
10.500	20.500	2.0479e-02
10.500	20.750	1.3951e-02
10.500	21.000	1.0427e-02
10.500	21.250	8.7590e-03
10.500	21.500	7.9792e-03
10.500	21.750	7.5484e-03
10.500	22.000	7.3118e-03
10.500	22.250	7.2107e-03
10.500	22.500	7.1588e-03
10.500	22.750	7.1301e-03
10.500	23.000	7.1183e-03
10.500	23.250	7.1134e-03
10.500	23.500	7.1114e-03
10.500	23.750	7.1104e-03
10.500	24.000	7.1099e-03
10.750	17.000	5.2819e-02
10.750	17.250	6.2818e-02
10.750	17.500	7.8697e-02
10.750	17.750	1.0033e-01
10.750	18.000	1.2380e-01
10.750	18.250	1.4493e-01
10.750	18.500	1.6209e-01
10.750	18.750	1.7486e-01
10.750	19.000	1.8276e-01
10.750	19.250	1.8591e-01
10.750	19.500	1.8291e-01
10.750	19.750	1.3148e-01
10.750	20.000	7.8966e-02
10.750	20.250	4.8873e-02
10.750	20.500	3.1808e-02
10.750	20.750	2.0450e-02
10.750	21.000	1.3949e-02
10.750	21.250	1.0430e-02
10.750	21.500	8.7596e-03
10.750	21.750	7.9798e-03
10.750	22.000	7.5485e-03
10.750	22.250	7.3118e-03
10.750	22.500	7.2109e-03
10.750	22.750	7.1588e-03
10.750	23.000	7.1301e-03
10.750	23.250	7.1184e-03
10.750	23.500	7.1134e-03
10.750	23.750	7.1113e-03
10.750	24.000	7.1104e-03
11.000	17.000	4.9846e-02
11.000	17.250	6.0988e-02
11.000	17.500	7.9652e-02
11.000	17.750	1.0456e-01
11.000	18.000	1.3018e-01
11.000	18.250	1.5315e-01
11.000	18.500	1.7244e-01
11.000	18.750	1.8765e-01
11.000	19.000	1.9838e-01
11.000	19.250	2.0443e-01
11.000	19.500	2.0564e-01
11.000	19.750	1.9913e-01
11.000	20.000	1.3121e-01
11.000	20.250	7.8682e-02
11.000	20.500	4.8624e-02
11.000	20.750	3.1654e-02
11.000	21.000	2.0377e-02
11.000	21.250	1.3939e-02
11.000	21.500	1.0435e-02
11.000	21.750	8.7610e-03
11.000	22.000	7.9807e-03
11.000	22.250	7.5486e-03
11.000	22.500	7.3118e-03
11.000	22.750	7.2109e-03
11.000	23.000	7.1589e-03
11.000	23.250	7.1302e-03
11.000	23.500	7.1184e-03
11.000	23.750	7.1136e-03
11.000	24.000	7.1114e-03
11.250	17.000	4.7142e-02
11.250	17.250	5.9242e-02
11.250	17.500	7.9874e-02
11.250	17.750	1.0673e-01
11.250	18.000	1.3391e-01
11.250	18.250	1.5815e-01
11.250	18.500	1.7926e-01
11.250	18.750	1.9715e-01
11.250	19.000	2.1024e-01
11.250	19.250	2.1902e-01
11.250	19.500	2.2271e-01
11.250	19.750	2.2149e-01
11.250	20.000	2.0488e-01
11.250	20.250	1.3078e-01
11.250	20.500	7.8453e-02
11.250	20.750	4.8352e-02
11.250	21.000	3.1474e-02
11.250	21.250	2.0268e-02
11.250	21.500	1.3912e-02
11.250	21.750	1.0439e-02
11.250	22.000	8.7630e-03
11.250	22.250	7.9819e-03
11.250	22.500	7.5489e-03
11.250	22.750	7.3116e-03
11.250	23.000	7.2109e-03
11.250	23.250	7.1591e-03
11.250	23.500	7.1302e-03
11.250	23.750	7.1184e-03
11.250	24.000	7.1136e-03
11.500	17.000	4.4639e-02
11.500	17.250	5.7316e-02
11.500	17.500	7.8793e-02
11.500	17.750	1.0640e-01
11.500	18.000	1.3454e-01
11.500	18.250	1.6022e-01
11.500	18.500	1.8319e-01
11.500	18.750	2.0320e-01
11.500	19.000	2.1904e-01
11.500	19.250	2.3007e-01
11.500	19.500	2.3591e-01
11.500	19.750	2.3746e-01
11.500	20.000	2.3440e-01
11.500	20.250	2.0506e-01
11.500	20.500	1.3046e-01
11.500	20.750	7.8078e-02
11.500	21.000	4.8135e-02
11.500	21.250	3.1288e-02
11.500	21.500	2.0103e-02
11.500	21.750	1.3863e-02
11.500	22.000	1.0442e-02
11.500	22.250	8.7657e-03
11.500	22.500	7.9831e-03
11.500	22.750	7.5491e-03
11.500	23.000	7.3115e-03
11.500	23.250	7.2109e-03
11.500	23.500	7.1592e-03
11.500	23.750	7.1303e-03
11.500	24.000	7.1185e-03
11.750	17.000	4.2221e-02
11.750	17.250	5.4972e-02
11.750	17.500	7.6300e-02
11.750	17.750	1.0382e-01
11.750	18.000	1.3246e-01
11.750	18.250	1.5969e-01
11.750	18.500	1.8485e-01
11.750	18.750	2.0718e-01
11.750	19.000	2.2586e-01
11.750	19.250	2.3927e-01
11.750	19.500	2.4744e-01
11.750	19.750	2.5055e-01
11.750	20.000	2.5021e-01
11.750	20.250	2.4591e-01
11.750	20.500	2.0736e-01
11.750	20.750	1.3020e-01
11.750	21.000	7.7891e-02
11.750	21.250	4.8235e-02
11.750	21.500	3.0974e-02
11.750	21.750	1.9898e-02
11.750	22.000	1.3780e-02
11.750	22.250	1.0440e-02
11.750	22.500	8.7686e-03
11.750	22.750	7.9846e-03
11.750	23.000	7.5495e-03
11.750	23.250	7.3114e-03
11.750	23.500	7.2109e-03
11.750	23.750	7.1592e-03
11.750	24.000	7.1305e-03
12.000	17.000	3.9794e-02
12.000	17.250	5.2148e-02
12.000	17.500	7.2384e-02
12.000	17.750	9.9175e-02
12.000	18.000	1.2835e-01
12.000	18.250	1.5720e-01
12.000	18.500	1.8486e-01
12.000	18.750	2.1013e-01
12.000	19.000	2.3139e-01
12.000	19.250	2.4775e-01
12.000	19.500	2.5823e-01
12.000	19.750	2.6307e-01
12.000	20.000	2.6432e-01
12.000	20.250	2.6226e-01
12.000	20.500	2.5661e-01
12.000	20.750	2.0577e-01
12.000	21.000	1.2993e-01
12.000	21.250	7.8233e-02
12.000	21.500	4.8774e-02
12.000	21.750	3.0619e-02
12.000	22.000	1.9664e-02
12.000	22.250	1.3675e-02
12.000	22.500	1.0430e-02
12.000	22.750	8.7719e-03
12.000	23.000	7.9862e-03
12.000	23.250	7.5499e-03
12.000	23.500	7.3111e-03
12.000	23.750	7.2109e-03
12.000	24.000	7.1592e-03
12.250	17.000	3.7247e-02
12.250	17.250	4.8806e-02
12.250	17.500	6.7261e-02
12.250	17.750	9.2713e-02
12.250	18.000	1.2226e-01
12.250	18.250	1.5317e-01
12.250	18.500	1.8366e-01
12.250	18.750	2.1206e-01
12.250	19.000	2.3616e-01
12.250	19.250	2.5529e-01
12.250	19.500	2.6854e-01
12.250	19.750	2.7624e-01
12.250	20.000	2.7830e-01
12.250	20.250	2.7793e-01
12.250	20.500	2.7519e-01
12.250	20.750	2.6873e-01
12.250	21.000	2.0556e-01
12.250	21.250	1.3035e-01
12.250	21.500	7.8944e-02
12.250	21.750	4.9503e-02
12.250	22.000	3.0228e-02
12.250	22.250	1.9496e-02
12.250	22.500	1.3618e-02
12.250	22.750	1.0411e-02
12.250	23.000	8.7750e-03
12.250	23.250	7.9877e-03
12.250	23.500	7.5503e-03
12.250	23.750	7.3109e-03
12.250	24.000	7.2108e-03
12.500	17.000	3.4154e-02
12.500	17.250	4.4887e-02
12.500	17.500	6.1831e-02
12.500	17.750	8.5161e-02
12.500	18.000	1.1447e-01
12.500	18.250	1.4686e-01
12.500	18.500	1.8037e-01
12.500	18.750	2.1236e-01
12.500	19.000	2.3980e-01
12.500	19.250	2.6171e-01
12.500	19.500	2.7761e-01
12.500	19.750	2.8805e-01
12.500	20.000	2.9310e-01
12.500	20.250	2.9378e-01
12.500	20.500	2.9304e-01
12.500	20.750	2.9046e-01
12.500	21.000	2.8442e-01
12.500	21.250	2.0831e-01
12.500	21.500	1.3132e-01
12.500	21.750	7.9868e-02
12.500	22.000	4.9535e-02
12.500	22.250	2.9896e-02
12.500	22.500	1.9254e-02
12.500	22.750	1.3471e-02
12.500	23.000	1.0382e-02
12.500	23.250	8.7770e-03
12.500	23.500	7.9891e-03
12.500	23.750	7.5507e-03
12.500	24.000	7.3105e-03
12.750	17.000	2.9994e-02
12.750	17.250	4.0132e-02
12.750	17.500	5.5642e-02
12.750	17.750	7.7701e-02
12.750	18.000	1.0579e-01
12.750	18.250	1.3847e-01
12.750	18.500	1.7376e-01
12.750	18.750	2.0929e-01
12.750	19.000	2.4106e-01
12.750	19.250	2.6654e-01
12.750	19.500	2.8534e-01
12.750	19.750	2.9848e-01
12.750	20.000	3.0653e-01
12.750	20.250	3.1031e-01
12.750	20.500	3.1109e-01
12.750	20.750	3.1088e-01
12.750	21.000	3.1141e-01
12.750	21.250	3.0594e-01
12.750	21.500	2.1179e-01
12.750	21.750	1.3307e-01
12.750	22.000	8.0819e-02
12.750	22.250	4.8791e-02
12.750	22.500	2.9458e-02
12.750	22.750	1.8961e-02
12.750	23.000	1.3341e-02
12.750	23.250	1.0347e-02
12.750	23.500	8.7773e-03
12.750	23.750	7.9900e-03
12.750	24.000	7.5509e-03
13.000	17.000	2.5888e-02
13.000	17.250	3.5449e-02
13.000	17.500	4.9668e-02
13.000	17.750	7.0017e-02
13.000	18.000	9.6570e-02
13.000	18.250	1.2872e-01
13.000	18.500	1.6467e-01
13.000	18.750	2.0200e-01
13.000	19.000	2.3713e-01
13.000	19.250	2.6724e-01
13.000	19.500	2.8907e-01
13.000	19.750	3.0600e-01
13.000	20.000	3.1741e-01
13.000	20.250	3.2482e-01
13.000	20.500	3.2941e-01
13.000	20.750	3.3128e-01
13.000	21.000	3.3313e-01
13.000	21.250	3.3717e-01
13.000	21.500	3.2527e-01
13.000	21.750	2.1668e-01
13.000	22.000	1.3437e-01
13.000	22.250	8.1262e-02
13.000	22.500	4.8057e-02
13.000	22.750	2.9045e-02
13.000	23.000	1.8731e-02
13.000	23.250	1.3217e-02
13.000	23.500	1.0304e-02
13.000	23.750	8.7750e-03
13.000	24.000	7.9902e-03
13.250	17.000	2.2526e-02
13.250	17.250	3.0920e-02
13.250	17.500	4.4191e-02
13.250	17.750	6.2672e-02
13.250	18.000	8.7419e-02
13.250	18.250	1.1838e-01
13.250	18.500	1.5408e-01
13.250	18.750	1.9205e-01
13.250	19.000	2.2926e-01
13.250	19.250	2.6209e-01
13.250	19.500	2.8806e-01
13.250	19.750	3.0957e-01
13.250	20.000	3.2496e-01
13.250	20.250	3.3593e-01
13.250	20.500	3.4429e-01
13.250	20.750	3.5003e-01
13.250	21.000	3.5507e-01
13.250	21.250	3.6031e-01
13.250	21.500	3.5719e-01
13.250	21.750	3.3983e-01
13.250	22.000	2.1942e-01
13.250	22.250	1.3469e-01
13.250	22.500	8.0548e-02
13.250	22.750	4.7264e-02
13.250	23.000	2.8599e-02
13.250	23.250	1.8616e-02
13.250	23.500	1.3162e-02
13.250	23.750	1.0258e-02
13.250	24.000	8.7686e-03
13.500	17.000	1.9548e-02
13.500	17.250	2.6851e-02
13.500	17.500	3.8646e-02
13.500	17.750	5.5623e-02
13.500	18.000	7.8666e-02
13.500	18.250	1.0802e-01
13.500	18.500	1.4284e-01
13.500	18.750	1.8079e-01
13.500	19.000	2.1911e-01
13.500	19.250	2.5441e-01
13.500	19.500	2.8401e-01
13.500	19.750	3.0794e-01
13.500	20.000	3.2770e-01
13.500	20.250	3.4430e-01
13.500	20.500	3.5567e-01
13.500	20.750	3.6396e-01
13.500	21.000	3.6954e-01
13.500	21.250	3.7783e-01
13.500	21.500	3.7530e-01
13.500	21.750	3.7752e-01
13.500	22.000	3.4913e-01
13.500	22.250	2.2038e-01
13.500	22.500	1.3258e-01
13.500	22.750	7.8786e-02
13.500	23.000	4.6408e-02
13.500	23.250	2.8081e-02
13.500	23.500	1.8268e-02
13.500	23.750	1.2980e-02
13.500	24.000	1.0214e-02
13.750	17.000	1.7079e-02
13.750	17.250	2.3230e-02
13.750	17.500	3.3619e-02
13.750	17.750	4.8973e-02
13.750	18.000	7.0534e-02
13.750	18.250	9.8170e-02
13.750	18.500	1.3160e-01
13.750	18.750	1.6898e-01
13.750	19.000	2.0795e-01
13.750	19.250	2.4560e-01
13.750	19.500	2.7880e-01
13.750	19.750	3.0623e-01
13.750	20.000	3.2883e-01
13.750	20.250	3.4836e-01
13.750	20.500	3.6460e-01
13.750	20.750	3.7654e-01
13.750	21.000	3.8489e-01
13.750	21.250	3.9096e-01
13.750	21.500	3.9131e-01
13.750	21.750	3.9773e-01
13.750	22.000	3.9969e-01
13.750	22.250	3.5612e-01
13.750	22.500	2.1764e-01
13.750	22.750	1.2994e-01
13.750	23.000	7.7043e-02
13.750	23.250	4.5504e-02
13.750	23.500	2.7641e-02
13.750	23.750	1.8024e-02
13.750	24.000	1.2852e-02
14.000	17.000	1.4972e-02
14.000	17.250	2.0233e-02
14.000	17.500	2.8905e-02
14.000	17.750	4.2829e-02
14.000	18.000	6.2740e-02
14.000	18.250	8.8955e-02
14.000	18.500	1.2092e-01
14.000	18.750	1.5740e-01
14.000	19.000	1.9651e-01
14.000	19.250	2.3580e-01
14.000	19.500	2.7264e-01
14.000	19.750	3.0447e-01
14.000	20.000	3.3042e-01
14.000	20.250	3.5207e-01
14.000	20.500	3.7121e-01
14.000	20.750	3.8687e-01
14.000	21.000	3.9881e-01
14.000	21.250	4.0836e-01
14.000	21.500	4.0853e-01
14.000	21.750	4.1621e-01
14.000	22.000	4.2572e-01
14.000	22.250	4.2923e-01
14.000	22.500	3.5854e-01
14.000	22.750	2.1467e-01
14.000	23.000	1.2687e-01
14.000	23.250	7.5695e-02
14.000	23.500	4.4541e-02
14.000	23.750	2.7194e-02
14.000	24.000	1.7752e-02
