nFnu 9500.00A  relative to Inci 1215.00A scaled to 1215A.
Hden   Phi(H)  Eq_Width (A)
 7.000	17.000	9.8517e-03
 7.000	17.250	5.8686e-03
 7.000	17.500	3.7640e-03
 7.000	17.750	2.6925e-03
 7.000	18.000	2.1647e-03
 7.000	18.250	1.8739e-03
 7.000	18.500	1.7104e-03
 7.000	18.750	1.6398e-03
 7.000	19.000	1.6037e-03
 7.000	19.250	1.5840e-03
 7.000	19.500	1.5763e-03
 7.000	19.750	1.5733e-03
 7.000	20.000	1.5720e-03
 7.000	20.250	1.5714e-03
 7.000	20.500	1.5711e-03
 7.000	20.750	1.5709e-03
 7.000	21.000	1.5709e-03
 7.000	21.250	1.5708e-03
 7.000	21.500	1.5709e-03
 7.000	21.750	1.5708e-03
 7.000	22.000	1.5708e-03
 7.000	22.250	1.5708e-03
 7.000	22.500	1.5708e-03
 7.000	22.750	1.5708e-03
 7.000	23.000	1.5708e-03
 7.000	23.250	1.5708e-03
 7.000	23.500	1.5708e-03
 7.000	23.750	1.5708e-03
 7.000	24.000	1.5708e-03
 7.250	17.000	1.7148e-02
 7.250	17.250	9.8441e-03
 7.250	17.500	5.8642e-03
 7.250	17.750	3.7613e-03
 7.250	18.000	2.6917e-03
 7.250	18.250	2.1645e-03
 7.250	18.500	1.8738e-03
 7.250	18.750	1.7104e-03
 7.250	19.000	1.6398e-03
 7.250	19.250	1.6037e-03
 7.250	19.500	1.5840e-03
 7.250	19.750	1.5763e-03
 7.250	20.000	1.5733e-03
 7.250	20.250	1.5720e-03
 7.250	20.500	1.5714e-03
 7.250	20.750	1.5711e-03
 7.250	21.000	1.5709e-03
 7.250	21.250	1.5709e-03
 7.250	21.500	1.5708e-03
 7.250	21.750	1.5711e-03
 7.250	22.000	1.5708e-03
 7.250	22.250	1.5708e-03
 7.250	22.500	1.5708e-03
 7.250	22.750	1.5709e-03
 7.250	23.000	1.5709e-03
 7.250	23.250	1.5708e-03
 7.250	23.500	1.5708e-03
 7.250	23.750	1.5708e-03
 7.250	24.000	1.5708e-03
 7.500	17.000	2.7256e-02
 7.500	17.250	1.7134e-02
 7.500	17.500	9.8387e-03
 7.500	17.750	5.8604e-03
 7.500	18.000	3.7582e-03
 7.500	18.250	2.6906e-03
 7.500	18.500	2.1642e-03
 7.500	18.750	1.8738e-03
 7.500	19.000	1.7103e-03
 7.500	19.250	1.6398e-03
 7.500	19.500	1.6037e-03
 7.500	19.750	1.5840e-03
 7.500	20.000	1.5763e-03
 7.500	20.250	1.5733e-03
 7.500	20.500	1.5720e-03
 7.500	20.750	1.5714e-03
 7.500	21.000	1.5711e-03
 7.500	21.250	1.5709e-03
 7.500	21.500	1.5709e-03
 7.500	21.750	1.5708e-03
 7.500	22.000	1.5708e-03
 7.500	22.250	1.5708e-03
 7.500	22.500	1.5708e-03
 7.500	22.750	1.5708e-03
 7.500	23.000	1.5709e-03
 7.500	23.250	1.5709e-03
 7.500	23.500	1.5708e-03
 7.500	23.750	1.5709e-03
 7.500	24.000	1.5708e-03
 7.750	17.000	4.1779e-02
 7.750	17.250	2.7229e-02
 7.750	17.500	1.7125e-02
 7.750	17.750	9.8353e-03
 7.750	18.000	5.8572e-03
 7.750	18.250	3.7547e-03
 7.750	18.500	2.6894e-03
 7.750	18.750	2.1639e-03
 7.750	19.000	1.8737e-03
 7.750	19.250	1.7103e-03
 7.750	19.500	1.6398e-03
 7.750	19.750	1.6037e-03
 7.750	20.000	1.5840e-03
 7.750	20.250	1.5763e-03
 7.750	20.500	1.5733e-03
 7.750	20.750	1.5720e-03
 7.750	21.000	1.5714e-03
 7.750	21.250	1.5711e-03
 7.750	21.500	1.5709e-03
 7.750	21.750	1.5709e-03
 7.750	22.000	1.5708e-03
 7.750	22.250	1.5708e-03
 7.750	22.500	1.5708e-03
 7.750	22.750	1.5708e-03
 7.750	23.000	1.5708e-03
 7.750	23.250	1.5708e-03
 7.750	23.500	1.5709e-03
 7.750	23.750	1.5709e-03
 7.750	24.000	1.5708e-03
 8.000	17.000	4.4668e-02
 8.000	17.250	4.1340e-02
 8.000	17.500	2.7170e-02
 8.000	17.750	1.7108e-02
 8.000	18.000	9.8336e-03
 8.000	18.250	5.8543e-03
 8.000	18.500	3.7509e-03
 8.000	18.750	2.6879e-03
 8.000	19.000	2.1635e-03
 8.000	19.250	1.8737e-03
 8.000	19.500	1.7103e-03
 8.000	19.750	1.6398e-03
 8.000	20.000	1.6037e-03
 8.000	20.250	1.5840e-03
 8.000	20.500	1.5763e-03
 8.000	20.750	1.5733e-03
 8.000	21.000	1.5720e-03
 8.000	21.250	1.5714e-03
 8.000	21.500	1.5711e-03
 8.000	21.750	1.5709e-03
 8.000	22.000	1.5709e-03
 8.000	22.250	1.5708e-03
 8.000	22.500	1.5708e-03
 8.000	22.750	1.5708e-03
 8.000	23.000	1.5708e-03
 8.000	23.250	1.5709e-03
 8.000	23.500	1.5708e-03
 8.000	23.750	1.5708e-03
 8.000	24.000	1.5708e-03
 8.250	17.000	4.6990e-02
 8.250	17.250	4.4808e-02
 8.250	17.500	4.1355e-02
 8.250	17.750	2.7160e-02
 8.250	18.000	1.7108e-02
 8.250	18.250	9.8334e-03
 8.250	18.500	5.8517e-03
 8.250	18.750	3.7468e-03
 8.250	19.000	2.6863e-03
 8.250	19.250	2.1630e-03
 8.250	19.500	1.8736e-03
 8.250	19.750	1.7103e-03
 8.250	20.000	1.6398e-03
 8.250	20.250	1.6037e-03
 8.250	20.500	1.5840e-03
 8.250	20.750	1.5763e-03
 8.250	21.000	1.5733e-03
 8.250	21.250	1.5720e-03
 8.250	21.500	1.5714e-03
 8.250	21.750	1.5711e-03
 8.250	22.000	1.5709e-03
 8.250	22.250	1.5709e-03
 8.250	22.500	1.5708e-03
 8.250	22.750	1.5708e-03
 8.250	23.000	1.5708e-03
 8.250	23.250	1.5712e-03
 8.250	23.500	1.5708e-03
 8.250	23.750	1.5708e-03
 8.250	24.000	1.5709e-03
 8.500	17.000	4.8811e-02
 8.500	17.250	4.7280e-02
 8.500	17.500	4.4980e-02
 8.500	17.750	4.1400e-02
 8.500	18.000	2.7157e-02
 8.500	18.250	1.7112e-02
 8.500	18.500	9.8343e-03
 8.500	18.750	5.8491e-03
 8.500	19.000	3.7421e-03
 8.500	19.250	2.6844e-03
 8.500	19.500	2.1624e-03
 8.500	19.750	1.8734e-03
 8.500	20.000	1.7102e-03
 8.500	20.250	1.6398e-03
 8.500	20.500	1.6037e-03
 8.500	20.750	1.5840e-03
 8.500	21.000	1.5763e-03
 8.500	21.250	1.5733e-03
 8.500	21.500	1.5720e-03
 8.500	21.750	1.5714e-03
 8.500	22.000	1.5711e-03
 8.500	22.250	1.5709e-03
 8.500	22.500	1.5709e-03
 8.500	22.750	1.5708e-03
 8.500	23.000	1.5708e-03
 8.500	23.250	1.5708e-03
 8.500	23.500	1.5708e-03
 8.500	23.750	1.5708e-03
 8.500	24.000	1.5708e-03
 8.750	17.000	5.0212e-02
 8.750	17.250	4.9276e-02
 8.750	17.500	4.7732e-02
 8.750	17.750	4.5163e-02
 8.750	18.000	4.1515e-02
 8.750	18.250	2.7157e-02
 8.750	18.500	1.7118e-02
 8.750	18.750	9.8365e-03
 8.750	19.000	5.8465e-03
 8.750	19.250	3.7371e-03
 8.750	19.500	2.6823e-03
 8.750	19.750	2.1618e-03
 8.750	20.000	1.8733e-03
 8.750	20.250	1.7102e-03
 8.750	20.500	1.6398e-03
 8.750	20.750	1.6037e-03
 8.750	21.000	1.5840e-03
 8.750	21.250	1.5763e-03
 8.750	21.500	1.5733e-03
 8.750	21.750	1.5720e-03
 8.750	22.000	1.5714e-03
 8.750	22.250	1.5711e-03
 8.750	22.500	1.5709e-03
 8.750	22.750	1.5709e-03
 8.750	23.000	1.5709e-03
 8.750	23.250	1.5708e-03
 8.750	23.500	1.5708e-03
 8.750	23.750	1.5708e-03
 8.750	24.000	1.5708e-03
 9.000	17.000	5.1190e-02
 9.000	17.250	5.0857e-02
 9.000	17.500	5.0083e-02
 9.000	17.750	4.8626e-02
 9.000	18.000	4.5926e-02
 9.000	18.250	4.1961e-02
 9.000	18.500	2.7154e-02
 9.000	18.750	1.7126e-02
 9.000	19.000	9.8400e-03
 9.000	19.250	5.8446e-03
 9.000	19.500	3.7321e-03
 9.000	19.750	2.6802e-03
 9.000	20.000	2.1613e-03
 9.000	20.250	1.8733e-03
 9.000	20.500	1.7101e-03
 9.000	20.750	1.6398e-03
 9.000	21.000	1.6037e-03
 9.000	21.250	1.5840e-03
 9.000	21.500	1.5763e-03
 9.000	21.750	1.5733e-03
 9.000	22.000	1.5719e-03
 9.000	22.250	1.5714e-03
 9.000	22.500	1.5711e-03
 9.000	22.750	1.5709e-03
 9.000	23.000	1.5709e-03
 9.000	23.250	1.5708e-03
 9.000	23.500	1.5708e-03
 9.000	23.750	1.5708e-03
 9.000	24.000	1.5708e-03
 9.250	17.000	5.1787e-02
 9.250	17.250	5.2052e-02
 9.250	17.500	5.2154e-02
 9.250	17.750	5.1874e-02
 9.250	18.000	5.0567e-02
 9.250	18.250	4.7782e-02
 9.250	18.500	4.3064e-02
 9.250	18.750	2.7145e-02
 9.250	19.000	1.7132e-02
 9.250	19.250	9.8449e-03
 9.250	19.500	5.8440e-03
 9.250	19.750	3.7276e-03
 9.250	20.000	2.6782e-03
 9.250	20.250	2.1607e-03
 9.250	20.500	1.8731e-03
 9.250	20.750	1.7101e-03
 9.250	21.000	1.6398e-03
 9.250	21.250	1.6037e-03
 9.250	21.500	1.5839e-03
 9.250	21.750	1.5762e-03
 9.250	22.000	1.5732e-03
 9.250	22.250	1.5719e-03
 9.250	22.500	1.5713e-03
 9.250	22.750	1.5710e-03
 9.250	23.000	1.5709e-03
 9.250	23.250	1.5708e-03
 9.250	23.500	1.5708e-03
 9.250	23.750	1.5708e-03
 9.250	24.000	1.5707e-03
 9.500	17.000	5.2206e-02
 9.500	17.250	5.3009e-02
 9.500	17.500	5.4011e-02
 9.500	17.750	5.5101e-02
 9.500	18.000	5.5605e-02
 9.500	18.250	5.4977e-02
 9.500	18.500	5.2190e-02
 9.500	18.750	4.4844e-02
 9.500	19.000	2.7124e-02
 9.500	19.250	1.7135e-02
 9.500	19.500	9.8510e-03
 9.500	19.750	5.8449e-03
 9.500	20.000	3.7240e-03
 9.500	20.250	2.6764e-03
 9.500	20.500	2.1603e-03
 9.500	20.750	1.8730e-03
 9.500	21.000	1.7100e-03
 9.500	21.250	1.6397e-03
 9.500	21.500	1.6035e-03
 9.500	21.750	1.5839e-03
 9.500	22.000	1.5761e-03
 9.500	22.250	1.5731e-03
 9.500	22.500	1.5719e-03
 9.500	22.750	1.5712e-03
 9.500	23.000	1.5709e-03
 9.500	23.250	1.5708e-03
 9.500	23.500	1.5707e-03
 9.500	23.750	1.5706e-03
 9.500	24.000	1.5706e-03
 9.750	17.000	5.2283e-02
 9.750	17.250	5.3711e-02
 9.750	17.500	5.5652e-02
 9.750	17.750	5.8402e-02
 9.750	18.000	6.1657e-02
 9.750	18.250	6.3804e-02
 9.750	18.500	6.3762e-02
 9.750	18.750	6.0527e-02
 9.750	19.000	4.4867e-02
 9.750	19.250	2.7087e-02
 9.750	19.500	1.7128e-02
 9.750	19.750	9.8579e-03
 9.750	20.000	5.8474e-03
 9.750	20.250	3.7221e-03
 9.750	20.500	2.6751e-03
 9.750	20.750	2.1601e-03
 9.750	21.000	1.8729e-03
 9.750	21.250	1.7100e-03
 9.750	21.500	1.6397e-03
 9.750	21.750	1.6035e-03
 9.750	22.000	1.5839e-03
 9.750	22.250	1.5762e-03
 9.750	22.500	1.5731e-03
 9.750	22.750	1.5719e-03
 9.750	23.000	1.5712e-03
 9.750	23.250	1.5709e-03
 9.750	23.500	1.5708e-03
 9.750	23.750	1.5707e-03
 9.750	24.000	1.5706e-03
10.000	17.000	5.2026e-02
10.000	17.250	5.4264e-02
10.000	17.500	5.7405e-02
10.000	17.750	6.2137e-02
10.000	18.000	6.8688e-02
10.000	18.250	7.4414e-02
10.000	18.500	7.7282e-02
10.000	18.750	7.5947e-02
10.000	19.000	6.7943e-02
10.000	19.250	4.4917e-02
10.000	19.500	2.7035e-02
10.000	19.750	1.7105e-02
10.000	20.000	9.8645e-03
10.000	20.250	5.8512e-03
10.000	20.500	3.7209e-03
10.000	20.750	2.6740e-03
10.000	21.000	2.1599e-03
10.000	21.250	1.8728e-03
10.000	21.500	1.7099e-03
10.000	21.750	1.6397e-03
10.000	22.000	1.6035e-03
10.000	22.250	1.5839e-03
10.000	22.500	1.5762e-03
10.000	22.750	1.5731e-03
10.000	23.000	1.5719e-03
10.000	23.250	1.5712e-03
10.000	23.500	1.5709e-03
10.000	23.750	1.5708e-03
10.000	24.000	1.5707e-03
10.250	17.000	5.2342e-02
10.250	17.250	5.4829e-02
10.250	17.500	5.9614e-02
10.250	17.750	6.7004e-02
10.250	18.000	7.6884e-02
10.250	18.250	8.5984e-02
10.250	18.500	9.2066e-02
10.250	18.750	9.3855e-02
10.250	19.000	9.0639e-02
10.250	19.250	7.7248e-02
10.250	19.500	4.4900e-02
10.250	19.750	2.6977e-02
10.250	20.000	1.7055e-02
10.250	20.250	9.8680e-03
10.250	20.500	5.8553e-03
10.250	20.750	3.7210e-03
10.250	21.000	2.6735e-03
10.250	21.250	2.1599e-03
10.250	21.500	1.8728e-03
10.250	21.750	1.7099e-03
10.250	22.000	1.6397e-03
10.250	22.250	1.6036e-03
10.250	22.500	1.5839e-03
10.250	22.750	1.5762e-03
10.250	23.000	1.5731e-03
10.250	23.250	1.5719e-03
10.250	23.500	1.5712e-03
10.250	23.750	1.5709e-03
10.250	24.000	1.5708e-03
10.500	17.000	5.3526e-02
10.500	17.250	5.6404e-02
10.500	17.500	6.2737e-02
10.500	17.750	7.3526e-02
10.500	18.000	8.6701e-02
10.500	18.250	9.8902e-02
10.500	18.500	1.0726e-01
10.500	18.750	1.1189e-01
10.500	19.000	1.1105e-01
10.500	19.250	1.0498e-01
10.500	19.500	7.7112e-02
10.500	19.750	4.4746e-02
10.500	20.000	2.6857e-02
10.500	20.250	1.6980e-02
10.500	20.500	9.8661e-03
10.500	20.750	5.8588e-03
10.500	21.000	3.7223e-03
10.500	21.250	2.6734e-03
10.500	21.500	2.1602e-03
10.500	21.750	1.8728e-03
10.500	22.000	1.7099e-03
10.500	22.250	1.6397e-03
10.500	22.500	1.6036e-03
10.500	22.750	1.5839e-03
10.500	23.000	1.5762e-03
10.500	23.250	1.5731e-03
10.500	23.500	1.5719e-03
10.500	23.750	1.5712e-03
10.500	24.000	1.5709e-03
10.750	17.000	5.5892e-02
10.750	17.250	5.9202e-02
10.750	17.500	6.7860e-02
10.750	17.750	8.1875e-02
10.750	18.000	9.7930e-02
10.750	18.250	1.1204e-01
10.750	18.500	1.2261e-01
10.750	18.750	1.2887e-01
10.750	19.000	1.3044e-01
10.750	19.250	1.2723e-01
10.750	19.500	1.1679e-01
10.750	19.750	7.7031e-02
10.750	20.000	4.4512e-02
10.750	20.250	2.6673e-02
10.750	20.500	1.6880e-02
10.750	20.750	9.8555e-03
10.750	21.000	5.8601e-03
10.750	21.250	3.7244e-03
10.750	21.500	2.6739e-03
10.750	21.750	2.1606e-03
10.750	22.000	1.8729e-03
10.750	22.250	1.7099e-03
10.750	22.500	1.6397e-03
10.750	22.750	1.6036e-03
10.750	23.000	1.5839e-03
10.750	23.250	1.5762e-03
10.750	23.500	1.5732e-03
10.750	23.750	1.5719e-03
10.750	24.000	1.5712e-03
11.000	17.000	5.9556e-02
11.000	17.250	6.3313e-02
11.000	17.500	7.4388e-02
11.000	17.750	9.1580e-02
11.000	18.000	1.0949e-01
11.000	18.250	1.2495e-01
11.000	18.500	1.3689e-01
11.000	18.750	1.4490e-01
11.000	19.000	1.4884e-01
11.000	19.250	1.4844e-01
11.000	19.500	1.4320e-01
11.000	19.750	1.3023e-01
11.000	20.000	7.6691e-02
11.000	20.250	4.3988e-02
11.000	20.500	2.6463e-02
11.000	20.750	1.6776e-02
11.000	21.000	9.8212e-03
11.000	21.250	5.8572e-03
11.000	21.500	3.7274e-03
11.000	21.750	2.6747e-03
11.000	22.000	2.1612e-03
11.000	22.250	1.8730e-03
11.000	22.500	1.7098e-03
11.000	22.750	1.6398e-03
11.000	23.000	1.6036e-03
11.000	23.250	1.5839e-03
11.000	23.500	1.5762e-03
11.000	23.750	1.5732e-03
11.000	24.000	1.5719e-03
11.250	17.000	6.4743e-02
11.250	17.250	6.8612e-02
11.250	17.500	8.1671e-02
11.250	17.750	1.0131e-01
11.250	18.000	1.2089e-01
11.250	18.250	1.3705e-01
11.250	18.500	1.4998e-01
11.250	18.750	1.6013e-01
11.250	19.000	1.6570e-01
11.250	19.250	1.6748e-01
11.250	19.500	1.6508e-01
11.250	19.750	1.5829e-01
11.250	20.000	1.3441e-01
11.250	20.250	7.6418e-02
11.250	20.500	4.3789e-02
11.250	20.750	2.6253e-02
11.250	21.000	1.6679e-02
11.250	21.250	9.7626e-03
11.250	21.500	5.8449e-03
11.250	21.750	3.7304e-03
11.250	22.000	2.6760e-03
11.250	22.250	2.1619e-03
11.250	22.500	1.8732e-03
11.250	22.750	1.7097e-03
11.250	23.000	1.6398e-03
11.250	23.250	1.6037e-03
11.250	23.500	1.5839e-03
11.250	23.750	1.5762e-03
11.250	24.000	1.5732e-03
11.500	17.000	7.2062e-02
11.500	17.250	7.5376e-02
11.500	17.500	8.9360e-02
11.500	17.750	1.1047e-01
11.500	18.000	1.3127e-01
11.500	18.250	1.4840e-01
11.500	18.500	1.6233e-01
11.500	18.750	1.7358e-01
11.500	19.000	1.8096e-01
11.500	19.250	1.8453e-01
11.500	19.500	1.8421e-01
11.500	19.750	1.8045e-01
11.500	20.000	1.7250e-01
11.500	20.250	1.3659e-01
11.500	20.500	7.5932e-02
11.500	20.750	4.3388e-02
11.500	21.000	2.6135e-02
11.500	21.250	1.6595e-02
11.500	21.500	9.6750e-03
11.500	21.750	5.8206e-03
11.500	22.000	3.7323e-03
11.500	22.250	2.6777e-03
11.500	22.500	2.1627e-03
11.500	22.750	1.8733e-03
11.500	23.000	1.7096e-03
11.500	23.250	1.6397e-03
11.500	23.500	1.6037e-03
11.500	23.750	1.5840e-03
11.500	24.000	1.5762e-03
11.750	17.000	8.2298e-02
11.750	17.250	8.4038e-02
11.750	17.500	9.7564e-02
11.750	17.750	1.1886e-01
11.750	18.000	1.4023e-01
11.750	18.250	1.5865e-01
11.750	18.500	1.7386e-01
11.750	18.750	1.8584e-01
11.750	19.000	1.9511e-01
11.750	19.250	2.0007e-01
11.750	19.500	2.0148e-01
11.750	19.750	1.9915e-01
11.750	20.000	1.9425e-01
11.750	20.250	1.8533e-01
11.750	20.500	1.3731e-01
11.750	20.750	7.5525e-02
11.750	21.000	4.3228e-02
11.750	21.250	2.6338e-02
11.750	21.500	1.6422e-02
11.750	21.750	9.5627e-03
11.750	22.000	5.7791e-03
11.750	22.250	3.7318e-03
11.750	22.500	2.6794e-03
11.750	22.750	2.1635e-03
11.750	23.000	1.8736e-03
11.750	23.250	1.7095e-03
11.750	23.500	1.6397e-03
11.750	23.750	1.6037e-03
11.750	24.000	1.5840e-03
12.000	17.000	9.6735e-02
12.000	17.250	9.5281e-02
12.000	17.500	1.0654e-01
12.000	17.750	1.2641e-01
12.000	18.000	1.4798e-01
12.000	18.250	1.6775e-01
12.000	18.500	1.8465e-01
12.000	18.750	1.9831e-01
12.000	19.000	2.0838e-01
12.000	19.250	2.1468e-01
12.000	19.500	2.1713e-01
12.000	19.750	2.1592e-01
12.000	20.000	2.1235e-01
12.000	20.250	2.0618e-01
12.000	20.500	1.9631e-01
12.000	20.750	1.3681e-01
12.000	21.000	7.5420e-02
12.000	21.250	4.3524e-02
12.000	21.500	2.6982e-02
12.000	21.750	1.6217e-02
12.000	22.000	9.4284e-03
12.000	22.250	5.7254e-03
12.000	22.500	3.7267e-03
12.000	22.750	2.6810e-03
12.000	23.000	2.1644e-03
12.000	23.250	1.8738e-03
12.000	23.500	1.7093e-03
12.000	23.750	1.6396e-03
12.000	24.000	1.6037e-03
12.250	17.000	1.1655e-01
12.250	17.250	1.0991e-01
12.250	17.500	1.1669e-01
12.250	17.750	1.3344e-01
12.250	18.000	1.5472e-01
12.250	18.250	1.7601e-01
12.250	18.500	1.9479e-01
12.250	18.750	2.1040e-01
12.250	19.000	2.2140e-01
12.250	19.250	2.2831e-01
12.250	19.500	2.3146e-01
12.250	19.750	2.3152e-01
12.250	20.000	2.2800e-01
12.250	20.250	2.2316e-01
12.250	20.500	2.1656e-01
12.250	20.750	2.0625e-01
12.250	21.000	1.3619e-01
12.250	21.250	7.5565e-02
12.250	21.500	4.4262e-02
12.250	21.750	2.7801e-02
12.250	22.000	1.5988e-02
12.250	22.250	9.3353e-03
12.250	22.500	5.6984e-03
12.250	22.750	3.7163e-03
12.250	23.000	2.6821e-03
12.250	23.250	2.1649e-03
12.250	23.500	1.8739e-03
12.250	23.750	1.7091e-03
12.250	24.000	1.6395e-03
12.500	17.000	1.4176e-01
12.500	17.250	1.2767e-01
12.500	17.500	1.2858e-01
12.500	17.750	1.4118e-01
12.500	18.000	1.6128e-01
12.500	18.250	1.8328e-01
12.500	18.500	2.0415e-01
12.500	18.750	2.2149e-01
12.500	19.000	2.3372e-01
12.500	19.250	2.4116e-01
12.500	19.500	2.4425e-01
12.500	19.750	2.4472e-01
12.500	20.000	2.4241e-01
12.500	20.250	2.3770e-01
12.500	20.500	2.3252e-01
12.500	20.750	2.2569e-01
12.500	21.000	2.1422e-01
12.500	21.250	1.3543e-01
12.500	21.500	7.6239e-02
12.500	21.750	4.5224e-02
12.500	22.000	2.7973e-02
12.500	22.250	1.5791e-02
12.500	22.500	9.1969e-03
12.500	22.750	5.6242e-03
12.500	23.000	3.7001e-03
12.500	23.250	2.6822e-03
12.500	23.500	2.1649e-03
12.500	23.750	1.8738e-03
12.500	24.000	1.7086e-03
12.750	17.000	1.4896e-01
12.750	17.250	1.4552e-01
12.750	17.500	1.4233e-01
12.750	17.750	1.5189e-01
12.750	18.000	1.6955e-01
12.750	18.250	1.9100e-01
12.750	18.500	2.1237e-01
12.750	18.750	2.3129e-01
12.750	19.000	2.4526e-01
12.750	19.250	2.5338e-01
12.750	19.500	2.5647e-01
12.750	19.750	2.5657e-01
12.750	20.000	2.5470e-01
12.750	20.250	2.5101e-01
12.750	20.500	2.4618e-01
12.750	20.750	2.4091e-01
12.750	21.000	2.3570e-01
12.750	21.250	2.2386e-01
12.750	21.500	1.3511e-01
12.750	21.750	7.6936e-02
12.750	22.000	4.6244e-02
12.750	22.250	2.7459e-02
12.750	22.500	1.5521e-02
12.750	22.750	9.0269e-03
12.750	23.000	5.5551e-03
12.750	23.250	3.6788e-03
12.750	23.500	2.6804e-03
12.750	23.750	2.1642e-03
12.750	24.000	1.8733e-03
13.000	17.000	1.3364e-01
13.000	17.250	1.5206e-01
13.000	17.500	1.5946e-01
13.000	17.750	1.6736e-01
13.000	18.000	1.8121e-01
13.000	18.250	2.0047e-01
13.000	18.500	2.2112e-01
13.000	18.750	2.4002e-01
13.000	19.000	2.5469e-01
13.000	19.250	2.6410e-01
13.000	19.500	2.6722e-01
13.000	19.750	2.6742e-01
13.000	20.000	2.6538e-01
13.000	20.250	2.6237e-01
13.000	20.500	2.5875e-01
13.000	20.750	2.5417e-01
13.000	21.000	2.4968e-01
13.000	21.250	2.4557e-01
13.000	21.500	2.2963e-01
13.000	21.750	1.3440e-01
13.000	22.000	7.7202e-02
13.000	22.250	4.6773e-02
13.000	22.500	2.6953e-02
13.000	22.750	1.5253e-02
13.000	23.000	8.8932e-03
13.000	23.250	5.4851e-03
13.000	23.500	3.6509e-03
13.000	23.750	2.6758e-03
13.000	24.000	2.1620e-03
13.250	17.000	1.3384e-01
13.250	17.250	1.5322e-01
13.250	17.500	1.8269e-01
13.250	17.750	1.8978e-01
13.250	18.000	1.9814e-01
13.250	18.250	2.1367e-01
13.250	18.500	2.3215e-01
13.250	18.750	2.4966e-01
13.250	19.000	2.6389e-01
13.250	19.250	2.7302e-01
13.250	19.500	2.7679e-01
13.250	19.750	2.7781e-01
13.250	20.000	2.7575e-01
13.250	20.250	2.7251e-01
13.250	20.500	2.6938e-01
13.250	20.750	2.6577e-01
13.250	21.000	2.6262e-01
13.250	21.250	2.5904e-01
13.250	21.500	2.5062e-01
13.250	21.750	2.2623e-01
13.250	22.000	1.3169e-01
13.250	22.250	7.6941e-02
13.250	22.500	4.6208e-02
13.250	22.750	2.6375e-02
13.250	23.000	1.4948e-02
13.250	23.250	8.8137e-03
13.250	23.500	5.4420e-03
13.250	23.750	3.6193e-03
13.250	24.000	2.6667e-03
13.500	17.000	1.3331e-01
13.500	17.250	1.5399e-01
13.500	17.500	1.8705e-01
13.500	17.750	2.0893e-01
13.500	18.000	2.2045e-01
13.500	18.250	2.3192e-01
13.500	18.500	2.4671e-01
13.500	18.750	2.6170e-01
13.500	19.000	2.7453e-01
13.500	19.250	2.8307e-01
13.500	19.500	2.8716e-01
13.500	19.750	2.8743e-01
13.500	20.000	2.8573e-01
13.500	20.250	2.8334e-01
13.500	20.500	2.7956e-01
13.500	20.750	2.7549e-01
13.500	21.000	2.7087e-01
13.500	21.250	2.6870e-01
13.500	21.500	2.6067e-01
13.500	21.750	2.5215e-01
13.500	22.000	2.1849e-01
13.500	22.250	1.2752e-01
13.500	22.500	7.4510e-02
13.500	22.750	4.4718e-02
13.500	23.000	2.5720e-02
13.500	23.250	1.4582e-02
13.500	23.500	8.5974e-03
13.500	23.750	5.3282e-03
13.500	24.000	3.5835e-03
13.750	17.000	1.3379e-01
13.750	17.250	1.5344e-01
13.750	17.500	1.9029e-01
13.750	17.750	2.2069e-01
13.750	18.000	2.4775e-01
13.750	18.250	2.5490e-01
13.750	18.500	2.6526e-01
13.750	18.750	2.7710e-01
13.750	19.000	2.8796e-01
13.750	19.250	2.9569e-01
13.750	19.500	2.9958e-01
13.750	19.750	2.9972e-01
13.750	20.000	2.9754e-01
13.750	20.250	2.9468e-01
13.750	20.500	2.9126e-01
13.750	20.750	2.8702e-01
13.750	21.000	2.8215e-01
13.750	21.250	2.7688e-01
13.750	21.500	2.7014e-01
13.750	21.750	2.6495e-01
13.750	22.000	2.5300e-01
13.750	22.250	2.0847e-01
13.750	22.500	1.2079e-01
13.750	22.750	7.1644e-02
13.750	23.000	4.3199e-02
13.750	23.250	2.4972e-02
13.750	23.500	1.4237e-02
13.750	23.750	8.4151e-03
13.750	24.000	5.2288e-03
14.000	17.000	1.3358e-01
14.000	17.250	1.5358e-01
14.000	17.500	1.9010e-01
14.000	17.750	2.2851e-01
14.000	18.000	2.6682e-01
14.000	18.250	2.8605e-01
14.000	18.500	2.9042e-01
14.000	18.750	2.9695e-01
14.000	19.000	3.0458e-01
14.000	19.250	3.1080e-01
14.000	19.500	3.1430e-01
14.000	19.750	3.1488e-01
14.000	20.000	3.1236e-01
14.000	20.250	3.0844e-01
14.000	20.500	3.0467e-01
14.000	20.750	3.0047e-01
14.000	21.000	2.9551e-01
14.000	21.250	2.9073e-01
14.000	21.500	2.8260e-01
14.000	21.750	2.7811e-01
14.000	22.000	2.7228e-01
14.000	22.250	2.5573e-01
14.000	22.500	1.9600e-01
14.000	22.750	1.1406e-01
14.000	23.000	6.8322e-02
14.000	23.250	4.1840e-02
14.000	23.500	2.4100e-02
14.000	23.750	1.3841e-02
14.000	24.000	8.1915e-03
