InwC 1.11867m  relative to Inci 1215.00A scaled to 1215A.
Hden   Phi(H)  Eq_Width (A)
 7.000	17.000	1.0400e-03
 7.000	17.250	1.0405e-03
 7.000	17.500	1.0409e-03
 7.000	17.750	1.0413e-03
 7.000	18.000	1.0418e-03
 7.000	18.250	1.0421e-03
 7.000	18.500	1.0424e-03
 7.000	18.750	1.0426e-03
 7.000	19.000	1.0426e-03
 7.000	19.250	1.0428e-03
 7.000	19.500	1.0428e-03
 7.000	19.750	1.0428e-03
 7.000	20.000	1.0428e-03
 7.000	20.250	1.0428e-03
 7.000	20.500	1.0428e-03
 7.000	20.750	1.0428e-03
 7.000	21.000	1.0428e-03
 7.000	21.250	1.0428e-03
 7.000	21.500	1.0429e-03
 7.000	21.750	1.0428e-03
 7.000	22.000	1.0428e-03
 7.000	22.250	1.0428e-03
 7.000	22.500	1.0428e-03
 7.000	22.750	1.0429e-03
 7.000	23.000	1.0429e-03
 7.000	23.250	1.0428e-03
 7.000	23.500	1.0428e-03
 7.000	23.750	1.0428e-03
 7.000	24.000	1.0428e-03
 7.250	17.000	1.0383e-03
 7.250	17.250	1.0400e-03
 7.250	17.500	1.0405e-03
 7.250	17.750	1.0409e-03
 7.250	18.000	1.0413e-03
 7.250	18.250	1.0418e-03
 7.250	18.500	1.0421e-03
 7.250	18.750	1.0424e-03
 7.250	19.000	1.0426e-03
 7.250	19.250	1.0426e-03
 7.250	19.500	1.0428e-03
 7.250	19.750	1.0428e-03
 7.250	20.000	1.0428e-03
 7.250	20.250	1.0428e-03
 7.250	20.500	1.0428e-03
 7.250	20.750	1.0428e-03
 7.250	21.000	1.0428e-03
 7.250	21.250	1.0428e-03
 7.250	21.500	1.0428e-03
 7.250	21.750	1.0430e-03
 7.250	22.000	1.0428e-03
 7.250	22.250	1.0428e-03
 7.250	22.500	1.0428e-03
 7.250	22.750	1.0430e-03
 7.250	23.000	1.0430e-03
 7.250	23.250	1.0428e-03
 7.250	23.500	1.0428e-03
 7.250	23.750	1.0428e-03
 7.250	24.000	1.0428e-03
 7.500	17.000	9.9770e-04
 7.500	17.250	1.0384e-03
 7.500	17.500	1.0400e-03
 7.500	17.750	1.0405e-03
 7.500	18.000	1.0409e-03
 7.500	18.250	1.0413e-03
 7.500	18.500	1.0418e-03
 7.500	18.750	1.0421e-03
 7.500	19.000	1.0424e-03
 7.500	19.250	1.0426e-03
 7.500	19.500	1.0426e-03
 7.500	19.750	1.0428e-03
 7.500	20.000	1.0428e-03
 7.500	20.250	1.0428e-03
 7.500	20.500	1.0428e-03
 7.500	20.750	1.0428e-03
 7.500	21.000	1.0428e-03
 7.500	21.250	1.0428e-03
 7.500	21.500	1.0428e-03
 7.500	21.750	1.0428e-03
 7.500	22.000	1.0428e-03
 7.500	22.250	1.0428e-03
 7.500	22.500	1.0428e-03
 7.500	22.750	1.0428e-03
 7.500	23.000	1.0429e-03
 7.500	23.250	1.0430e-03
 7.500	23.500	1.0428e-03
 7.500	23.750	1.0430e-03
 7.500	24.000	1.0428e-03
 7.750	17.000	9.2214e-04
 7.750	17.250	9.9786e-04
 7.750	17.500	1.0384e-03
 7.750	17.750	1.0400e-03
 7.750	18.000	1.0405e-03
 7.750	18.250	1.0409e-03
 7.750	18.500	1.0413e-03
 7.750	18.750	1.0418e-03
 7.750	19.000	1.0421e-03
 7.750	19.250	1.0424e-03
 7.750	19.500	1.0426e-03
 7.750	19.750	1.0426e-03
 7.750	20.000	1.0428e-03
 7.750	20.250	1.0428e-03
 7.750	20.500	1.0428e-03
 7.750	20.750	1.0428e-03
 7.750	21.000	1.0428e-03
 7.750	21.250	1.0428e-03
 7.750	21.500	1.0428e-03
 7.750	21.750	1.0428e-03
 7.750	22.000	1.0428e-03
 7.750	22.250	1.0428e-03
 7.750	22.500	1.0428e-03
 7.750	22.750	1.0429e-03
 7.750	23.000	1.0429e-03
 7.750	23.250	1.0428e-03
 7.750	23.500	1.0430e-03
 7.750	23.750	1.0430e-03
 7.750	24.000	1.0428e-03
 8.000	17.000	6.5202e-04
 8.000	17.250	9.1654e-04
 8.000	17.500	9.9753e-04
 8.000	17.750	1.0383e-03
 8.000	18.000	1.0400e-03
 8.000	18.250	1.0405e-03
 8.000	18.500	1.0409e-03
 8.000	18.750	1.0413e-03
 8.000	19.000	1.0418e-03
 8.000	19.250	1.0421e-03
 8.000	19.500	1.0424e-03
 8.000	19.750	1.0426e-03
 8.000	20.000	1.0426e-03
 8.000	20.250	1.0428e-03
 8.000	20.500	1.0428e-03
 8.000	20.750	1.0428e-03
 8.000	21.000	1.0428e-03
 8.000	21.250	1.0428e-03
 8.000	21.500	1.0428e-03
 8.000	21.750	1.0428e-03
 8.000	22.000	1.0428e-03
 8.000	22.250	1.0428e-03
 8.000	22.500	1.0428e-03
 8.000	22.750	1.0429e-03
 8.000	23.000	1.0428e-03
 8.000	23.250	1.0429e-03
 8.000	23.500	1.0428e-03
 8.000	23.750	1.0428e-03
 8.000	24.000	1.0428e-03
 8.250	17.000	4.5671e-04
 8.250	17.250	6.5457e-04
 8.250	17.500	9.1745e-04
 8.250	17.750	9.9761e-04
 8.250	18.000	1.0384e-03
 8.250	18.250	1.0400e-03
 8.250	18.500	1.0405e-03
 8.250	18.750	1.0409e-03
 8.250	19.000	1.0413e-03
 8.250	19.250	1.0418e-03
 8.250	19.500	1.0421e-03
 8.250	19.750	1.0424e-03
 8.250	20.000	1.0426e-03
 8.250	20.250	1.0427e-03
 8.250	20.500	1.0428e-03
 8.250	20.750	1.0428e-03
 8.250	21.000	1.0428e-03
 8.250	21.250	1.0428e-03
 8.250	21.500	1.0428e-03
 8.250	21.750	1.0428e-03
 8.250	22.000	1.0428e-03
 8.250	22.250	1.0428e-03
 8.250	22.500	1.0428e-03
 8.250	22.750	1.0429e-03
 8.250	23.000	1.0428e-03
 8.250	23.250	1.0431e-03
 8.250	23.500	1.0428e-03
 8.250	23.750	1.0428e-03
 8.250	24.000	1.0429e-03
 8.500	17.000	3.1901e-04
 8.500	17.250	4.6008e-04
 8.500	17.500	6.5745e-04
 8.500	17.750	9.1877e-04
 8.500	18.000	9.9778e-04
 8.500	18.250	1.0384e-03
 8.500	18.500	1.0400e-03
 8.500	18.750	1.0405e-03
 8.500	19.000	1.0409e-03
 8.500	19.250	1.0414e-03
 8.500	19.500	1.0418e-03
 8.500	19.750	1.0421e-03
 8.500	20.000	1.0424e-03
 8.500	20.250	1.0426e-03
 8.500	20.500	1.0426e-03
 8.500	20.750	1.0428e-03
 8.500	21.000	1.0428e-03
 8.500	21.250	1.0428e-03
 8.500	21.500	1.0428e-03
 8.500	21.750	1.0428e-03
 8.500	22.000	1.0428e-03
 8.500	22.250	1.0428e-03
 8.500	22.500	1.0428e-03
 8.500	22.750	1.0428e-03
 8.500	23.000	1.0428e-03
 8.500	23.250	1.0429e-03
 8.500	23.500	1.0428e-03
 8.500	23.750	1.0428e-03
 8.500	24.000	1.0428e-03
 8.750	17.000	2.2296e-04
 8.750	17.250	3.2280e-04
 8.750	17.500	4.6494e-04
 8.750	17.750	6.5942e-04
 8.750	18.000	9.2107e-04
 8.750	18.250	9.9778e-04
 8.750	18.500	1.0384e-03
 8.750	18.750	1.0400e-03
 8.750	19.000	1.0405e-03
 8.750	19.250	1.0409e-03
 8.750	19.500	1.0414e-03
 8.750	19.750	1.0418e-03
 8.750	20.000	1.0421e-03
 8.750	20.250	1.0424e-03
 8.750	20.500	1.0426e-03
 8.750	20.750	1.0426e-03
 8.750	21.000	1.0428e-03
 8.750	21.250	1.0428e-03
 8.750	21.500	1.0428e-03
 8.750	21.750	1.0428e-03
 8.750	22.000	1.0428e-03
 8.750	22.250	1.0428e-03
 8.750	22.500	1.0428e-03
 8.750	22.750	1.0428e-03
 8.750	23.000	1.0430e-03
 8.750	23.250	1.0428e-03
 8.750	23.500	1.0429e-03
 8.750	23.750	1.0428e-03
 8.750	24.000	1.0428e-03
 9.000	17.000	1.5588e-04
 9.000	17.250	2.2626e-04
 9.000	17.500	3.2831e-04
 9.000	17.750	4.7342e-04
 9.000	18.000	6.6897e-04
 9.000	18.250	9.2864e-04
 9.000	18.500	9.9778e-04
 9.000	18.750	1.0384e-03
 9.000	19.000	1.0400e-03
 9.000	19.250	1.0405e-03
 9.000	19.500	1.0409e-03
 9.000	19.750	1.0414e-03
 9.000	20.000	1.0418e-03
 9.000	20.250	1.0421e-03
 9.000	20.500	1.0424e-03
 9.000	20.750	1.0426e-03
 9.000	21.000	1.0426e-03
 9.000	21.250	1.0428e-03
 9.000	21.500	1.0428e-03
 9.000	21.750	1.0428e-03
 9.000	22.000	1.0428e-03
 9.000	22.250	1.0428e-03
 9.000	22.500	1.0428e-03
 9.000	22.750	1.0428e-03
 9.000	23.000	1.0428e-03
 9.000	23.250	1.0428e-03
 9.000	23.500	1.0428e-03
 9.000	23.750	1.0428e-03
 9.000	24.000	1.0428e-03
 9.250	17.000	1.0914e-04
 9.250	17.250	1.5868e-04
 9.250	17.500	2.3185e-04
 9.250	17.750	3.3901e-04
 9.250	18.000	4.8889e-04
 9.250	18.250	6.8905e-04
 9.250	18.500	9.4650e-04
 9.250	18.750	9.9770e-04
 9.250	19.000	1.0383e-03
 9.250	19.250	1.0400e-03
 9.250	19.500	1.0405e-03
 9.250	19.750	1.0409e-03
 9.250	20.000	1.0414e-03
 9.250	20.250	1.0418e-03
 9.250	20.500	1.0421e-03
 9.250	20.750	1.0424e-03
 9.250	21.000	1.0426e-03
 9.250	21.250	1.0426e-03
 9.250	21.500	1.0427e-03
 9.250	21.750	1.0427e-03
 9.250	22.000	1.0427e-03
 9.250	22.250	1.0427e-03
 9.250	22.500	1.0428e-03
 9.250	22.750	1.0428e-03
 9.250	23.000	1.0428e-03
 9.250	23.250	1.0428e-03
 9.250	23.500	1.0428e-03
 9.250	23.750	1.0428e-03
 9.250	24.000	1.0428e-03
 9.500	17.000	7.6708e-05
 9.500	17.250	1.1152e-04
 9.500	17.500	1.6387e-04
 9.500	17.750	2.4296e-04
 9.500	18.000	3.5827e-04
 9.500	18.250	5.1984e-04
 9.500	18.500	7.3226e-04
 9.500	18.750	9.7457e-04
 9.500	19.000	9.9745e-04
 9.500	19.250	1.0381e-03
 9.500	19.500	1.0400e-03
 9.500	19.750	1.0405e-03
 9.500	20.000	1.0409e-03
 9.500	20.250	1.0414e-03
 9.500	20.500	1.0418e-03
 9.500	20.750	1.0421e-03
 9.500	21.000	1.0424e-03
 9.500	21.250	1.0425e-03
 9.500	21.500	1.0426e-03
 9.500	21.750	1.0426e-03
 9.500	22.000	1.0427e-03
 9.500	22.250	1.0427e-03
 9.500	22.500	1.0427e-03
 9.500	22.750	1.0427e-03
 9.500	23.000	1.0427e-03
 9.500	23.250	1.0427e-03
 9.500	23.500	1.0427e-03
 9.500	23.750	1.0427e-03
 9.500	24.000	1.0427e-03
 9.750	17.000	5.3909e-05
 9.750	17.250	7.8519e-05
 9.750	17.500	1.1580e-04
 9.750	17.750	1.7407e-04
 9.750	18.000	2.6436e-04
 9.750	18.250	3.9498e-04
 9.750	18.500	5.7514e-04
 9.750	18.750	8.1152e-04
 9.750	19.000	9.7449e-04
 9.750	19.250	9.9695e-04
 9.750	19.500	1.0379e-03
 9.750	19.750	1.0399e-03
 9.750	20.000	1.0404e-03
 9.750	20.250	1.0409e-03
 9.750	20.500	1.0414e-03
 9.750	20.750	1.0418e-03
 9.750	21.000	1.0421e-03
 9.750	21.250	1.0424e-03
 9.750	21.500	1.0425e-03
 9.750	21.750	1.0426e-03
 9.750	22.000	1.0426e-03
 9.750	22.250	1.0427e-03
 9.750	22.500	1.0427e-03
 9.750	22.750	1.0427e-03
 9.750	23.000	1.0427e-03
 9.750	23.250	1.0427e-03
 9.750	23.500	1.0427e-03
 9.750	23.750	1.0427e-03
 9.750	24.000	1.0427e-03
10.000	17.000	3.7942e-05
10.000	17.250	5.5226e-05
10.000	17.500	8.1975e-05
10.000	17.750	1.2494e-04
10.000	18.000	1.9506e-04
10.000	18.250	3.0049e-04
10.000	18.500	4.4864e-04
10.000	18.750	6.4362e-04
10.000	19.000	8.7663e-04
10.000	19.250	9.7399e-04
10.000	19.500	9.9630e-04
10.000	19.750	1.0372e-03
10.000	20.000	1.0399e-03
10.000	20.250	1.0404e-03
10.000	20.500	1.0409e-03
10.000	20.750	1.0414e-03
10.000	21.000	1.0418e-03
10.000	21.250	1.0421e-03
10.000	21.500	1.0424e-03
10.000	21.750	1.0425e-03
10.000	22.000	1.0426e-03
10.000	22.250	1.0427e-03
10.000	22.500	1.0427e-03
10.000	22.750	1.0427e-03
10.000	23.000	1.0427e-03
10.000	23.250	1.0427e-03
10.000	23.500	1.0427e-03
10.000	23.750	1.0427e-03
10.000	24.000	1.0427e-03
10.250	17.000	2.6749e-05
10.250	17.250	3.9012e-05
10.250	17.500	5.8189e-05
10.250	17.750	9.0206e-05
10.250	18.000	1.4387e-04
10.250	18.250	2.2584e-04
10.250	18.500	3.4469e-04
10.250	18.750	5.0741e-04
10.250	19.000	7.2263e-04
10.250	19.250	9.5877e-04
10.250	19.500	9.7333e-04
10.250	19.750	9.9523e-04
10.250	20.000	1.0363e-03
10.250	20.250	1.0398e-03
10.250	20.500	1.0403e-03
10.250	20.750	1.0409e-03
10.250	21.000	1.0413e-03
10.250	21.250	1.0418e-03
10.250	21.500	1.0421e-03
10.250	21.750	1.0424e-03
10.250	22.000	1.0425e-03
10.250	22.250	1.0426e-03
10.250	22.500	1.0427e-03
10.250	22.750	1.0427e-03
10.250	23.000	1.0427e-03
10.250	23.250	1.0427e-03
10.250	23.500	1.0427e-03
10.250	23.750	1.0427e-03
10.250	24.000	1.0427e-03
10.500	17.000	1.8848e-05
10.500	17.250	2.7654e-05
10.500	17.500	4.1564e-05
10.500	17.750	6.5514e-05
10.500	18.000	1.0634e-04
10.500	18.250	1.6971e-04
10.500	18.500	2.6033e-04
10.500	18.750	3.9078e-04
10.500	19.000	5.6543e-04
10.500	19.250	7.9556e-04
10.500	19.500	9.6082e-04
10.500	19.750	9.7259e-04
10.500	20.000	9.9432e-04
10.500	20.250	1.0351e-03
10.500	20.500	1.0396e-03
10.500	20.750	1.0402e-03
10.500	21.000	1.0408e-03
10.500	21.250	1.0413e-03
10.500	21.500	1.0418e-03
10.500	21.750	1.0421e-03
10.500	22.000	1.0424e-03
10.500	22.250	1.0425e-03
10.500	22.500	1.0426e-03
10.500	22.750	1.0427e-03
10.500	23.000	1.0427e-03
10.500	23.250	1.0427e-03
10.500	23.500	1.0427e-03
10.500	23.750	1.0427e-03
10.500	24.000	1.0427e-03
10.750	17.000	1.3333e-05
10.750	17.250	1.9588e-05
10.750	17.500	2.9877e-05
10.750	17.750	4.7819e-05
10.750	18.000	7.8519e-05
10.750	18.250	1.2593e-04
10.750	18.500	1.9523e-04
10.750	18.750	2.9325e-04
10.750	19.000	4.2947e-04
10.750	19.250	6.1613e-04
10.750	19.500	8.5243e-04
10.750	19.750	9.6025e-04
10.750	20.000	9.7185e-04
10.750	20.250	9.9358e-04
10.750	20.500	1.0339e-03
10.750	20.750	1.0393e-03
10.750	21.000	1.0401e-03
10.750	21.250	1.0407e-03
10.750	21.500	1.0413e-03
10.750	21.750	1.0417e-03
10.750	22.000	1.0421e-03
10.750	22.250	1.0424e-03
10.750	22.500	1.0426e-03
10.750	22.750	1.0426e-03
10.750	23.000	1.0427e-03
10.750	23.250	1.0427e-03
10.750	23.500	1.0427e-03
10.750	23.750	1.0427e-03
10.750	24.000	1.0427e-03
11.000	17.000	9.3827e-06
11.000	17.250	1.3909e-05
11.000	17.500	2.1399e-05
11.000	17.750	3.4897e-05
11.000	18.000	5.7531e-05
11.000	18.250	9.2428e-05
11.000	18.500	1.4346e-04
11.000	18.750	2.1654e-04
11.000	19.000	3.2008e-04
11.000	19.250	4.6502e-04
11.000	19.500	6.6288e-04
11.000	19.750	9.2000e-04
11.000	20.000	9.5942e-04
11.000	20.250	9.7128e-04
11.000	20.500	9.9309e-04
11.000	20.750	1.0333e-03
11.000	21.000	1.0389e-03
11.000	21.250	1.0398e-03
11.000	21.500	1.0407e-03
11.000	21.750	1.0412e-03
11.000	22.000	1.0417e-03
11.000	22.250	1.0421e-03
11.000	22.500	1.0424e-03
11.000	22.750	1.0426e-03
11.000	23.000	1.0426e-03
11.000	23.250	1.0427e-03
11.000	23.500	1.0427e-03
11.000	23.750	1.0427e-03
11.000	24.000	1.0427e-03
11.250	17.000	6.6667e-06
11.250	17.250	9.7942e-06
11.250	17.500	1.5391e-05
11.250	17.750	2.5267e-05
11.250	18.000	4.1811e-05
11.250	18.250	6.6914e-05
11.250	18.500	1.0379e-04
11.250	18.750	1.5852e-04
11.250	19.000	2.3481e-04
11.250	19.250	3.4263e-04
11.250	19.500	4.9457e-04
11.250	19.750	7.0593e-04
11.250	20.000	9.3761e-04
11.250	20.250	9.5852e-04
11.250	20.500	9.7070e-04
11.250	20.750	9.9342e-04
11.250	21.000	1.0341e-03
11.250	21.250	1.0384e-03
11.250	21.500	1.0397e-03
11.250	21.750	1.0406e-03
11.250	22.000	1.0412e-03
11.250	22.250	1.0416e-03
11.250	22.500	1.0421e-03
11.250	22.750	1.0424e-03
11.250	23.000	1.0426e-03
11.250	23.250	1.0426e-03
11.250	23.500	1.0427e-03
11.250	23.750	1.0427e-03
11.250	24.000	1.0427e-03
11.500	17.000	4.6914e-06
11.500	17.250	6.9959e-06
11.500	17.500	1.0947e-05
11.500	17.750	1.8189e-05
11.500	18.000	2.9959e-05
11.500	18.250	4.7984e-05
11.500	18.500	7.4568e-05
11.500	18.750	1.1399e-04
11.500	19.000	1.6979e-04
11.500	19.250	2.4905e-04
11.500	19.500	3.6165e-04
11.500	19.750	5.2165e-04
11.500	20.000	7.4535e-04
11.500	20.250	9.4420e-04
11.500	20.500	9.5720e-04
11.500	20.750	9.7037e-04
11.500	21.000	9.9523e-04
11.500	21.250	1.0353e-03
11.500	21.500	1.0382e-03
11.500	21.750	1.0393e-03
11.500	22.000	1.0402e-03
11.500	22.250	1.0410e-03
11.500	22.500	1.0415e-03
11.500	22.750	1.0420e-03
11.500	23.000	1.0423e-03
11.500	23.250	1.0425e-03
11.500	23.500	1.0426e-03
11.500	23.750	1.0427e-03
11.500	24.000	1.0427e-03
11.750	17.000	3.3745e-06
11.750	17.250	5.0206e-06
11.750	17.500	7.8189e-06
11.750	17.750	1.2922e-05
11.750	18.000	2.1152e-05
11.750	18.250	3.3909e-05
11.750	18.500	5.3004e-05
11.750	18.750	8.0823e-05
11.750	19.000	1.2181e-04
11.750	19.250	1.7926e-04
11.750	19.500	2.6123e-04
11.750	19.750	3.7745e-04
11.750	20.000	5.4486e-04
11.750	20.250	7.7868e-04
11.750	20.500	9.4510e-04
11.750	20.750	9.5547e-04
11.750	21.000	9.7086e-04
11.750	21.250	1.0005e-03
11.750	21.500	1.0358e-03
11.750	21.750	1.0374e-03
11.750	22.000	1.0387e-03
11.750	22.250	1.0398e-03
11.750	22.500	1.0407e-03
11.750	22.750	1.0413e-03
11.750	23.000	1.0418e-03
11.750	23.250	1.0423e-03
11.750	23.500	1.0425e-03
11.750	23.750	1.0426e-03
11.750	24.000	1.0427e-03
12.000	17.000	2.4691e-06
12.000	17.250	3.6214e-06
12.000	17.500	5.5967e-06
12.000	17.750	9.0535e-06
12.000	18.000	1.4733e-05
12.000	18.250	2.3704e-05
12.000	18.500	3.7284e-05
12.000	18.750	5.7366e-05
12.000	19.000	8.6667e-05
12.000	19.250	1.2823e-04
12.000	19.500	1.8724e-04
12.000	19.750	2.7111e-04
12.000	20.000	3.9136e-04
12.000	20.250	5.6321e-04
12.000	20.500	8.0453e-04
12.000	20.750	9.3967e-04
12.000	21.000	9.5350e-04
12.000	21.250	9.7416e-04
12.000	21.500	1.0120e-03
12.000	21.750	1.0347e-03
12.000	22.000	1.0363e-03
12.000	22.250	1.0378e-03
12.000	22.500	1.0392e-03
12.000	22.750	1.0402e-03
12.000	23.000	1.0410e-03
12.000	23.250	1.0416e-03
12.000	23.500	1.0422e-03
12.000	23.750	1.0425e-03
12.000	24.000	1.0426e-03
12.250	17.000	1.8107e-06
12.250	17.250	2.6337e-06
12.250	17.500	4.0329e-06
12.250	17.750	6.3374e-06
12.250	18.000	1.0206e-05
12.250	18.250	1.6461e-05
12.250	18.500	2.6091e-05
12.250	18.750	4.0658e-05
12.250	19.000	6.1564e-05
12.250	19.250	9.1440e-05
12.250	19.500	1.3374e-04
12.250	19.750	1.9407e-04
12.250	20.000	2.7885e-04
12.250	20.250	4.0115e-04
12.250	20.500	5.7728e-04
12.250	20.750	8.2469e-04
12.250	21.000	9.3185e-04
12.250	21.250	9.5177e-04
12.250	21.500	9.8239e-04
12.250	21.750	1.0235e-03
12.250	22.000	1.0327e-03
12.250	22.250	1.0347e-03
12.250	22.500	1.0365e-03
12.250	22.750	1.0382e-03
12.250	23.000	1.0396e-03
12.250	23.250	1.0404e-03
12.250	23.500	1.0413e-03
12.250	23.750	1.0421e-03
12.250	24.000	1.0424e-03
12.500	17.000	1.3992e-06
12.500	17.250	1.8930e-06
12.500	17.500	2.7984e-06
12.500	17.750	4.3621e-06
12.500	18.000	7.0782e-06
12.500	18.250	1.1440e-05
12.500	18.500	1.8272e-05
12.500	18.750	2.8642e-05
12.500	19.000	4.3621e-05
12.500	19.250	6.5103e-05
12.500	19.500	9.5144e-05
12.500	19.750	1.3794e-04
12.500	20.000	1.9868e-04
12.500	20.250	2.8453e-04
12.500	20.500	4.0897e-04
12.500	20.750	5.8650e-04
12.500	21.000	8.3292e-04
12.500	21.250	9.2156e-04
12.500	21.500	9.5580e-04
12.500	21.750	9.8872e-04
12.500	22.000	1.0262e-03
12.500	22.250	1.0295e-03
12.500	22.500	1.0320e-03
12.500	22.750	1.0344e-03
12.500	23.000	1.0367e-03
12.500	23.250	1.0385e-03
12.500	23.500	1.0396e-03
12.500	23.750	1.0408e-03
12.500	24.000	1.0419e-03
12.750	17.000	8.2305e-07
12.750	17.250	1.3169e-06
12.750	17.500	1.9753e-06
12.750	17.750	3.0453e-06
12.750	18.000	4.9383e-06
12.750	18.250	7.9835e-06
12.750	18.500	1.2840e-05
12.750	18.750	2.0165e-05
12.750	19.000	3.0947e-05
12.750	19.250	4.6255e-05
12.750	19.500	6.7819e-05
12.750	19.750	9.8107e-05
12.750	20.000	1.4115e-04
12.750	20.250	2.0189e-04
12.750	20.500	2.8897e-04
12.750	20.750	4.1309e-04
12.750	21.000	5.9358e-04
12.750	21.250	8.4222e-04
12.750	21.500	9.1893e-04
12.750	21.750	9.5523e-04
12.750	22.000	9.9309e-04
12.750	22.250	1.0205e-03
12.750	22.500	1.0246e-03
12.750	22.750	1.0281e-03
12.750	23.000	1.0314e-03
12.750	23.250	1.0343e-03
12.750	23.500	1.0367e-03
12.750	23.750	1.0381e-03
12.750	24.000	1.0399e-03
13.000	17.000	1.0000e-07
13.000	17.250	1.0000e-07
13.000	17.500	1.3992e-06
13.000	17.750	2.1399e-06
13.000	18.000	3.4568e-06
13.000	18.250	5.5967e-06
13.000	18.500	8.9712e-06
13.000	18.750	1.4239e-05
13.000	19.000	2.1893e-05
13.000	19.250	3.2757e-05
13.000	19.500	4.8148e-05
13.000	19.750	6.9794e-05
13.000	20.000	1.0016e-04
13.000	20.250	1.4321e-04
13.000	20.500	2.0420e-04
13.000	20.750	2.9128e-04
13.000	21.000	4.1572e-04
13.000	21.250	5.9605e-04
13.000	21.500	8.4938e-04
13.000	21.750	9.0593e-04
13.000	22.000	9.4947e-04
13.000	22.250	9.9078e-04
13.000	22.500	1.0117e-03
13.000	22.750	1.0173e-03
13.000	23.000	1.0221e-03
13.000	23.250	1.0267e-03
13.000	23.500	1.0306e-03
13.000	23.750	1.0337e-03
13.000	24.000	1.0358e-03
13.250	17.000	1.0000e-07
13.250	17.250	1.0000e-07
13.250	17.500	9.8765e-07
13.250	17.750	1.5638e-06
13.250	18.000	2.4691e-06
13.250	18.250	3.9506e-06
13.250	18.500	6.3374e-06
13.250	18.750	9.9588e-06
13.250	19.000	1.5391e-05
13.250	19.250	2.3128e-05
13.250	19.500	3.4156e-05
13.250	19.750	4.9630e-05
13.250	20.000	7.1276e-05
13.250	20.250	1.0173e-04
13.250	20.500	1.4494e-04
13.250	20.750	2.0560e-04
13.250	21.000	2.9267e-04
13.250	21.250	4.1539e-04
13.250	21.500	5.9918e-04
13.250	21.750	8.1984e-04
13.250	22.000	8.8239e-04
13.250	22.250	9.3523e-04
13.250	22.500	9.7761e-04
13.250	22.750	9.9852e-04
13.250	23.000	1.0063e-03
13.250	23.250	1.0130e-03
13.250	23.500	1.0194e-03
13.250	23.750	1.0249e-03
13.250	24.000	1.0290e-03
13.500	17.000	1.0000e-07
13.500	17.250	1.0000e-07
13.500	17.500	1.0000e-07
13.500	17.750	1.0700e-06
13.500	18.000	1.7284e-06
13.500	18.250	2.7984e-06
13.500	18.500	4.4444e-06
13.500	18.750	6.9959e-06
13.500	19.000	1.0782e-05
13.500	19.250	1.6296e-05
13.500	19.500	2.4198e-05
13.500	19.750	3.5226e-05
13.500	20.000	5.0700e-05
13.500	20.250	7.2346e-05
13.500	20.500	1.0288e-04
13.500	20.750	1.4568e-04
13.500	21.000	2.0510e-04
13.500	21.250	2.8988e-04
13.500	21.500	4.1490e-04
13.500	21.750	5.8305e-04
13.500	22.000	7.7547e-04
13.500	22.250	8.4650e-04
13.500	22.500	9.0716e-04
13.500	22.750	9.5407e-04
13.500	23.000	9.7901e-04
13.500	23.250	9.8988e-04
13.500	23.500	9.9984e-04
13.500	23.750	1.0090e-03
13.500	24.000	1.0161e-03
13.750	17.000	1.0000e-07
13.750	17.250	1.0000e-07
13.750	17.500	1.0000e-07
13.750	17.750	1.0000e-07
13.750	18.000	1.2346e-06
13.750	18.250	1.9753e-06
13.750	18.500	3.1276e-06
13.750	18.750	4.8560e-06
13.750	19.000	7.5720e-06
13.750	19.250	1.1440e-05
13.750	19.500	1.7037e-05
13.750	19.750	2.4938e-05
13.750	20.000	3.5967e-05
13.750	20.250	5.1523e-05
13.750	20.500	7.3169e-05
13.750	20.750	1.0362e-04
13.750	21.000	1.4568e-04
13.750	21.250	2.0329e-04
13.750	21.500	2.8979e-04
13.750	21.750	4.0477e-04
13.750	22.000	5.5794e-04
13.750	22.250	7.2074e-04
13.750	22.500	7.9827e-04
13.750	22.750	8.6914e-04
13.750	23.000	9.2189e-04
13.750	23.250	9.5062e-04
13.750	23.500	9.6560e-04
13.750	23.750	9.8033e-04
13.750	24.000	9.9317e-04
14.000	17.000	1.0000e-07
14.000	17.250	1.0000e-07
14.000	17.500	1.0000e-07
14.000	17.750	1.0000e-07
14.000	18.000	1.0000e-07
14.000	18.250	1.3992e-06
14.000	18.500	2.1399e-06
14.000	18.750	3.3745e-06
14.000	19.000	5.1852e-06
14.000	19.250	7.9835e-06
14.000	19.500	1.1934e-05
14.000	19.750	1.7531e-05
14.000	20.000	2.5432e-05
14.000	20.250	3.6543e-05
14.000	20.500	5.2099e-05
14.000	20.750	7.3745e-05
14.000	21.000	1.0354e-04
14.000	21.250	1.4453e-04
14.000	21.500	2.0469e-04
14.000	21.750	2.8313e-04
14.000	22.000	3.8823e-04
14.000	22.250	5.2337e-04
14.000	22.500	6.5481e-04
14.000	22.750	7.3761e-04
14.000	23.000	8.1728e-04
14.000	23.250	8.7802e-04
14.000	23.500	9.0996e-04
14.000	23.750	9.3078e-04
14.000	24.000	9.5226e-04
