InwT 1410.00A  relative to Inci 1215.00A scaled to 1215A.
Hden   Phi(H)  Eq_Width (A)
 7.000	17.000	1.9082e-02
 7.000	17.250	1.4776e-02
 7.000	17.500	1.1941e-02
 7.000	17.750	1.0154e-02
 7.000	18.000	9.1519e-03
 7.000	18.250	8.5822e-03
 7.000	18.500	8.2533e-03
 7.000	18.750	8.1039e-03
 7.000	19.000	8.0264e-03
 7.000	19.250	7.9833e-03
 7.000	19.500	7.9652e-03
 7.000	19.750	7.9576e-03
 7.000	20.000	7.9543e-03
 7.000	20.250	7.9528e-03
 7.000	20.500	7.9521e-03
 7.000	20.750	7.9517e-03
 7.000	21.000	7.9514e-03
 7.000	21.250	7.9514e-03
 7.000	21.500	7.9514e-03
 7.000	21.750	7.9512e-03
 7.000	22.000	7.9512e-03
 7.000	22.250	7.9512e-03
 7.000	22.500	7.9512e-03
 7.000	22.750	7.9514e-03
 7.000	23.000	7.9514e-03
 7.000	23.250	7.9512e-03
 7.000	23.500	7.9512e-03
 7.000	23.750	7.9512e-03
 7.000	24.000	7.9512e-03
 7.250	17.000	2.5392e-02
 7.250	17.250	1.9019e-02
 7.250	17.500	1.4742e-02
 7.250	17.750	1.1923e-02
 7.250	18.000	1.0145e-02
 7.250	18.250	9.1470e-03
 7.250	18.500	8.5799e-03
 7.250	18.750	8.2524e-03
 7.250	19.000	8.1035e-03
 7.250	19.250	8.0263e-03
 7.250	19.500	7.9832e-03
 7.250	19.750	7.9652e-03
 7.250	20.000	7.9576e-03
 7.250	20.250	7.9543e-03
 7.250	20.500	7.9528e-03
 7.250	20.750	7.9520e-03
 7.250	21.000	7.9517e-03
 7.250	21.250	7.9514e-03
 7.250	21.500	7.9514e-03
 7.250	21.750	7.9528e-03
 7.250	22.000	7.9512e-03
 7.250	22.250	7.9512e-03
 7.250	22.500	7.9512e-03
 7.250	22.750	7.9519e-03
 7.250	23.000	7.9519e-03
 7.250	23.250	7.9512e-03
 7.250	23.500	7.9512e-03
 7.250	23.750	7.9512e-03
 7.250	24.000	7.9512e-03
 7.500	17.000	2.7242e-02
 7.500	17.250	2.5347e-02
 7.500	17.500	1.8983e-02
 7.500	17.750	1.4723e-02
 7.500	18.000	1.1912e-02
 7.500	18.250	1.0139e-02
 7.500	18.500	9.1438e-03
 7.500	18.750	8.5785e-03
 7.500	19.000	8.2519e-03
 7.500	19.250	8.1034e-03
 7.500	19.500	8.0262e-03
 7.500	19.750	7.9832e-03
 7.500	20.000	7.9652e-03
 7.500	20.250	7.9576e-03
 7.500	20.500	7.9543e-03
 7.500	20.750	7.9528e-03
 7.500	21.000	7.9520e-03
 7.500	21.250	7.9516e-03
 7.500	21.500	7.9514e-03
 7.500	21.750	7.9514e-03
 7.500	22.000	7.9513e-03
 7.500	22.250	7.9512e-03
 7.500	22.500	7.9512e-03
 7.500	22.750	7.9512e-03
 7.500	23.000	7.9516e-03
 7.500	23.250	7.9519e-03
 7.500	23.500	7.9512e-03
 7.500	23.750	7.9521e-03
 7.500	24.000	7.9512e-03
 7.750	17.000	3.0778e-02
 7.750	17.250	2.6877e-02
 7.750	17.500	2.5327e-02
 7.750	17.750	1.8962e-02
 7.750	18.000	1.4713e-02
 7.750	18.250	1.1905e-02
 7.750	18.500	1.0134e-02
 7.750	18.750	9.1416e-03
 7.750	19.000	8.5775e-03
 7.750	19.250	8.2516e-03
 7.750	19.500	8.1033e-03
 7.750	19.750	8.0262e-03
 7.750	20.000	7.9832e-03
 7.750	20.250	7.9652e-03
 7.750	20.500	7.9576e-03
 7.750	20.750	7.9543e-03
 7.750	21.000	7.9528e-03
 7.750	21.250	7.9520e-03
 7.750	21.500	7.9516e-03
 7.750	21.750	7.9514e-03
 7.750	22.000	7.9513e-03
 7.750	22.250	7.9512e-03
 7.750	22.500	7.9512e-03
 7.750	22.750	7.9514e-03
 7.750	23.000	7.9514e-03
 7.750	23.250	7.9512e-03
 7.750	23.500	7.9519e-03
 7.750	23.750	7.9519e-03
 7.750	24.000	7.9512e-03
 8.000	17.000	3.0823e-02
 8.000	17.250	2.9735e-02
 8.000	17.500	2.6501e-02
 8.000	17.750	2.5296e-02
 8.000	18.000	1.8949e-02
 8.000	18.250	1.4707e-02
 8.000	18.500	1.1902e-02
 8.000	18.750	1.0131e-02
 8.000	19.000	9.1402e-03
 8.000	19.250	8.5770e-03
 8.000	19.500	8.2514e-03
 8.000	19.750	8.1032e-03
 8.000	20.000	8.0262e-03
 8.000	20.250	7.9832e-03
 8.000	20.500	7.9652e-03
 8.000	20.750	7.9576e-03
 8.000	21.000	7.9543e-03
 8.000	21.250	7.9528e-03
 8.000	21.500	7.9520e-03
 8.000	21.750	7.9516e-03
 8.000	22.000	7.9514e-03
 8.000	22.250	7.9513e-03
 8.000	22.500	7.9512e-03
 8.000	22.750	7.9514e-03
 8.000	23.000	7.9511e-03
 8.000	23.250	7.9516e-03
 8.000	23.500	7.9511e-03
 8.000	23.750	7.9511e-03
 8.000	24.000	7.9511e-03
 8.250	17.000	3.0815e-02
 8.250	17.250	3.0086e-02
 8.250	17.500	2.9161e-02
 8.250	17.750	2.6285e-02
 8.250	18.000	2.5289e-02
 8.250	18.250	1.8940e-02
 8.250	18.500	1.4706e-02
 8.250	18.750	1.1900e-02
 8.250	19.000	1.0129e-02
 8.250	19.250	9.1390e-03
 8.250	19.500	8.5765e-03
 8.250	19.750	8.2512e-03
 8.250	20.000	8.1031e-03
 8.250	20.250	8.0262e-03
 8.250	20.500	7.9832e-03
 8.250	20.750	7.9652e-03
 8.250	21.000	7.9576e-03
 8.250	21.250	7.9543e-03
 8.250	21.500	7.9528e-03
 8.250	21.750	7.9520e-03
 8.250	22.000	7.9516e-03
 8.250	22.250	7.9514e-03
 8.250	22.500	7.9513e-03
 8.250	22.750	7.9514e-03
 8.250	23.000	7.9511e-03
 8.250	23.250	7.9532e-03
 8.250	23.500	7.9511e-03
 8.250	23.750	7.9511e-03
 8.250	24.000	7.9517e-03
 8.500	17.000	3.0644e-02
 8.500	17.250	3.0219e-02
 8.500	17.500	2.9592e-02
 8.500	17.750	2.8790e-02
 8.500	18.000	2.6164e-02
 8.500	18.250	2.5278e-02
 8.500	18.500	1.8932e-02
 8.500	18.750	1.4706e-02
 8.500	19.000	1.1899e-02
 8.500	19.250	1.0127e-02
 8.500	19.500	9.1379e-03
 8.500	19.750	8.5761e-03
 8.500	20.000	8.2511e-03
 8.500	20.250	8.1031e-03
 8.500	20.500	8.0261e-03
 8.500	20.750	7.9832e-03
 8.500	21.000	7.9652e-03
 8.500	21.250	7.9576e-03
 8.500	21.500	7.9543e-03
 8.500	21.750	7.9528e-03
 8.500	22.000	7.9520e-03
 8.500	22.250	7.9516e-03
 8.500	22.500	7.9514e-03
 8.500	22.750	7.9513e-03
 8.500	23.000	7.9512e-03
 8.500	23.250	7.9514e-03
 8.500	23.500	7.9511e-03
 8.500	23.750	7.9511e-03
 8.500	24.000	7.9511e-03
 8.750	17.000	3.0389e-02
 8.750	17.250	3.0228e-02
 8.750	17.500	2.9854e-02
 8.750	17.750	2.9286e-02
 8.750	18.000	2.8562e-02
 8.750	18.250	2.6095e-02
 8.750	18.500	2.5261e-02
 8.750	18.750	1.8924e-02
 8.750	19.000	1.4707e-02
 8.750	19.250	1.1898e-02
 8.750	19.500	1.0125e-02
 8.750	19.750	9.1371e-03
 8.750	20.000	8.5759e-03
 8.750	20.250	8.2510e-03
 8.750	20.500	8.1031e-03
 8.750	20.750	8.0261e-03
 8.750	21.000	7.9832e-03
 8.750	21.250	7.9652e-03
 8.750	21.500	7.9576e-03
 8.750	21.750	7.9543e-03
 8.750	22.000	7.9528e-03
 8.750	22.250	7.9520e-03
 8.750	22.500	7.9516e-03
 8.750	22.750	7.9514e-03
 8.750	23.000	7.9520e-03
 8.750	23.250	7.9512e-03
 8.750	23.500	7.9514e-03
 8.750	23.750	7.9511e-03
 8.750	24.000	7.9511e-03
 9.000	17.000	3.0004e-02
 9.000	17.250	3.0128e-02
 9.000	17.500	2.9994e-02
 9.000	17.750	2.9631e-02
 9.000	18.000	2.9083e-02
 9.000	18.250	2.8428e-02
 9.000	18.500	2.6044e-02
 9.000	18.750	2.5238e-02
 9.000	19.000	1.8915e-02
 9.000	19.250	1.4708e-02
 9.000	19.500	1.1897e-02
 9.000	19.750	1.0123e-02
 9.000	20.000	9.1363e-03
 9.000	20.250	8.5756e-03
 9.000	20.500	8.2509e-03
 9.000	20.750	8.1030e-03
 9.000	21.000	8.0261e-03
 9.000	21.250	7.9832e-03
 9.000	21.500	7.9652e-03
 9.000	21.750	7.9576e-03
 9.000	22.000	7.9542e-03
 9.000	22.250	7.9528e-03
 9.000	22.500	7.9519e-03
 9.000	22.750	7.9516e-03
 9.000	23.000	7.9514e-03
 9.000	23.250	7.9512e-03
 9.000	23.500	7.9512e-03
 9.000	23.750	7.9511e-03
 9.000	24.000	7.9512e-03
 9.250	17.000	2.9413e-02
 9.250	17.250	2.9846e-02
 9.250	17.500	3.0016e-02
 9.250	17.750	2.9886e-02
 9.250	18.000	2.9498e-02
 9.250	18.250	2.8978e-02
 9.250	18.500	2.8352e-02
 9.250	18.750	2.5992e-02
 9.250	19.000	2.5206e-02
 9.250	19.250	1.8903e-02
 9.250	19.500	1.4708e-02
 9.250	19.750	1.1897e-02
 9.250	20.000	1.0121e-02
 9.250	20.250	9.1356e-03
 9.250	20.500	8.5754e-03
 9.250	20.750	8.2509e-03
 9.250	21.000	8.1030e-03
 9.250	21.250	8.0261e-03
 9.250	21.500	7.9827e-03
 9.250	21.750	7.9646e-03
 9.250	22.000	7.9570e-03
 9.250	22.250	7.9537e-03
 9.250	22.500	7.9524e-03
 9.250	22.750	7.9516e-03
 9.250	23.000	7.9514e-03
 9.250	23.250	7.9512e-03
 9.250	23.500	7.9510e-03
 9.250	23.750	7.9509e-03
 9.250	24.000	7.9510e-03
 9.500	17.000	2.8554e-02
 9.500	17.250	2.9284e-02
 9.500	17.500	2.9820e-02
 9.500	17.750	3.0038e-02
 9.500	18.000	2.9866e-02
 9.500	18.250	2.9449e-02
 9.500	18.500	2.9016e-02
 9.500	18.750	2.8193e-02
 9.500	19.000	2.5932e-02
 9.500	19.250	2.5163e-02
 9.500	19.500	1.8889e-02
 9.500	19.750	1.4706e-02
 9.500	20.000	1.1896e-02
 9.500	20.250	1.0119e-02
 9.500	20.500	9.1351e-03
 9.500	20.750	8.5749e-03
 9.500	21.000	8.2504e-03
 9.500	21.250	8.1026e-03
 9.500	21.500	8.0255e-03
 9.500	21.750	7.9824e-03
 9.500	22.000	7.9644e-03
 9.500	22.250	7.9569e-03
 9.500	22.500	7.9535e-03
 9.500	22.750	7.9519e-03
 9.500	23.000	7.9512e-03
 9.500	23.250	7.9508e-03
 9.500	23.500	7.9506e-03
 9.500	23.750	7.9505e-03
 9.500	24.000	7.9504e-03
 9.750	17.000	2.7396e-02
 9.750	17.250	2.8371e-02
 9.750	17.500	2.9270e-02
 9.750	17.750	2.9908e-02
 9.750	18.000	3.0134e-02
 9.750	18.250	2.9969e-02
 9.750	18.500	2.9586e-02
 9.750	18.750	2.9211e-02
 9.750	19.000	2.7901e-02
 9.750	19.250	2.5851e-02
 9.750	19.500	2.5105e-02
 9.750	19.750	1.8873e-02
 9.750	20.000	1.4703e-02
 9.750	20.250	1.1896e-02
 9.750	20.500	1.0118e-02
 9.750	20.750	9.1347e-03
 9.750	21.000	8.5748e-03
 9.750	21.250	8.2503e-03
 9.750	21.500	8.1026e-03
 9.750	21.750	8.0256e-03
 9.750	22.000	7.9825e-03
 9.750	22.250	7.9644e-03
 9.750	22.500	7.9568e-03
 9.750	22.750	7.9536e-03
 9.750	23.000	7.9519e-03
 9.750	23.250	7.9512e-03
 9.750	23.500	7.9508e-03
 9.750	23.750	7.9505e-03
 9.750	24.000	7.9505e-03
10.000	17.000	2.5996e-02
10.000	17.250	2.7083e-02
10.000	17.500	2.8247e-02
10.000	17.750	2.9356e-02
10.000	18.000	3.0110e-02
10.000	18.250	3.0418e-02
10.000	18.500	3.0223e-02
10.000	18.750	2.9858e-02
10.000	19.000	2.9601e-02
10.000	19.250	2.7523e-02
10.000	19.500	2.5734e-02
10.000	19.750	2.5026e-02
10.000	20.000	1.8856e-02
10.000	20.250	1.4698e-02
10.000	20.500	1.1896e-02
10.000	20.750	1.0117e-02
10.000	21.000	9.1346e-03
10.000	21.250	8.5749e-03
10.000	21.500	8.2503e-03
10.000	21.750	8.1026e-03
10.000	22.000	8.0257e-03
10.000	22.250	7.9826e-03
10.000	22.500	7.9644e-03
10.000	22.750	7.9569e-03
10.000	23.000	7.9535e-03
10.000	23.250	7.9520e-03
10.000	23.500	7.9512e-03
10.000	23.750	7.9508e-03
10.000	24.000	7.9506e-03
10.250	17.000	2.4755e-02
10.250	17.250	2.5568e-02
10.250	17.500	2.6863e-02
10.250	17.750	2.8288e-02
10.250	18.000	2.9607e-02
10.250	18.250	3.0462e-02
10.250	18.500	3.0686e-02
10.250	18.750	3.0478e-02
10.250	19.000	3.0193e-02
10.250	19.250	2.9843e-02
10.250	19.500	2.7278e-02
10.250	19.750	2.5578e-02
10.250	20.000	2.4947e-02
10.250	20.250	1.8845e-02
10.250	20.500	1.4693e-02
10.250	20.750	1.1896e-02
10.250	21.000	1.0117e-02
10.250	21.250	9.1347e-03
10.250	21.500	8.5749e-03
10.250	21.750	8.2503e-03
10.250	22.000	8.1026e-03
10.250	22.250	8.0257e-03
10.250	22.500	7.9826e-03
10.250	22.750	7.9644e-03
10.250	23.000	7.9569e-03
10.250	23.250	7.9536e-03
10.250	23.500	7.9519e-03
10.250	23.750	7.9512e-03
10.250	24.000	7.9508e-03
10.500	17.000	2.3821e-02
10.500	17.250	2.4273e-02
10.500	17.500	2.5295e-02
10.500	17.750	2.6885e-02
10.500	18.000	2.8513e-02
10.500	18.250	2.9780e-02
10.500	18.500	3.0492e-02
10.500	18.750	3.0582e-02
10.500	19.000	3.0401e-02
10.500	19.250	3.0342e-02
10.500	19.500	3.0601e-02
10.500	19.750	2.7388e-02
10.500	20.000	2.5610e-02
10.500	20.250	2.4878e-02
10.500	20.500	1.8843e-02
10.500	20.750	1.4688e-02
10.500	21.000	1.1895e-02
10.500	21.250	1.0117e-02
10.500	21.500	9.1350e-03
10.500	21.750	8.5750e-03
10.500	22.000	8.2505e-03
10.500	22.250	8.1027e-03
10.500	22.500	8.0257e-03
10.500	22.750	7.9827e-03
10.500	23.000	7.9645e-03
10.500	23.250	7.9568e-03
10.500	23.500	7.9536e-03
10.500	23.750	7.9520e-03
10.500	24.000	7.9512e-03
10.750	17.000	2.3237e-02
10.750	17.250	2.3378e-02
10.750	17.500	2.4029e-02
10.750	17.750	2.5334e-02
10.750	18.000	2.6877e-02
10.750	18.250	2.8261e-02
10.750	18.500	2.9279e-02
10.750	18.750	2.9913e-02
10.750	19.000	3.0196e-02
10.750	19.250	3.0274e-02
10.750	19.500	3.0522e-02
10.750	19.750	3.0586e-02
10.750	20.000	2.7783e-02
10.750	20.250	2.5919e-02
10.750	20.500	2.4921e-02
10.750	20.750	1.8858e-02
10.750	21.000	1.4684e-02
10.750	21.250	1.1895e-02
10.750	21.500	1.0117e-02
10.750	21.750	9.1355e-03
10.750	22.000	8.5751e-03
10.750	22.250	8.2505e-03
10.750	22.500	8.1030e-03
10.750	22.750	8.0258e-03
10.750	23.000	7.9827e-03
10.750	23.250	7.9646e-03
10.750	23.500	7.9569e-03
10.750	23.750	7.9535e-03
10.750	24.000	7.9520e-03
11.000	17.000	2.2967e-02
11.000	17.250	2.2925e-02
11.000	17.500	2.3210e-02
11.000	17.750	2.3877e-02
11.000	18.000	2.4890e-02
11.000	18.250	2.6062e-02
11.000	18.500	2.7314e-02
11.000	18.750	2.8472e-02
11.000	19.000	2.9319e-02
11.000	19.250	2.9819e-02
11.000	19.500	3.0104e-02
11.000	19.750	3.0396e-02
11.000	20.000	3.1291e-02
11.000	20.250	2.9100e-02
11.000	20.500	2.6517e-02
11.000	20.750	2.5125e-02
11.000	21.000	1.8920e-02
11.000	21.250	1.4685e-02
11.000	21.500	1.1895e-02
11.000	21.750	1.0118e-02
11.000	22.000	9.1363e-03
11.000	22.250	8.5753e-03
11.000	22.500	8.2504e-03
11.000	22.750	8.1030e-03
11.000	23.000	8.0259e-03
11.000	23.250	7.9828e-03
11.000	23.500	7.9647e-03
11.000	23.750	7.9570e-03
11.000	24.000	7.9536e-03
11.250	17.000	2.2964e-02
11.250	17.250	2.2830e-02
11.250	17.500	2.2717e-02
11.250	17.750	2.2700e-02
11.250	18.000	2.2963e-02
11.250	18.250	2.3674e-02
11.250	18.500	2.4923e-02
11.250	18.750	2.6415e-02
11.250	19.000	2.7799e-02
11.250	19.250	2.8817e-02
11.250	19.500	2.9469e-02
11.250	19.750	2.9889e-02
11.250	20.000	3.0670e-02
11.250	20.250	3.2015e-02
11.250	20.500	2.9827e-02
11.250	20.750	2.7510e-02
11.250	21.000	2.5660e-02
11.250	21.250	1.9027e-02
11.250	21.500	1.4696e-02
11.250	21.750	1.1895e-02
11.250	22.000	1.0119e-02
11.250	22.250	9.1372e-03
11.250	22.500	8.5756e-03
11.250	22.750	8.2503e-03
11.250	23.000	8.1030e-03
11.250	23.250	8.0262e-03
11.250	23.500	7.9828e-03
11.250	23.750	7.9647e-03
11.250	24.000	7.9571e-03
11.500	17.000	2.3213e-02
11.500	17.250	2.2916e-02
11.500	17.500	2.2425e-02
11.500	17.750	2.1839e-02
11.500	18.000	2.1421e-02
11.500	18.250	2.1581e-02
11.500	18.500	2.2493e-02
11.500	18.750	2.4040e-02
11.500	19.000	2.5825e-02
11.500	19.250	2.7303e-02
11.500	19.500	2.8402e-02
11.500	19.750	2.9250e-02
11.500	20.000	2.9914e-02
11.500	20.250	3.1164e-02
11.500	20.500	3.3472e-02
11.500	20.750	3.1529e-02
11.500	21.000	2.9049e-02
11.500	21.250	2.6333e-02
11.500	21.500	1.9183e-02
11.500	21.750	1.4717e-02
11.500	22.000	1.1894e-02
11.500	22.250	1.0120e-02
11.500	22.500	9.1384e-03
11.500	22.750	8.5760e-03
11.500	23.000	8.2502e-03
11.500	23.250	8.1030e-03
11.500	23.500	8.0262e-03
11.500	23.750	7.9829e-03
11.500	24.000	7.9647e-03
11.750	17.000	2.3666e-02
11.750	17.250	2.3057e-02
11.750	17.500	2.2201e-02
11.750	17.750	2.1188e-02
11.750	18.000	2.0369e-02
11.750	18.250	2.0074e-02
11.750	18.500	2.0521e-02
11.750	18.750	2.1766e-02
11.750	19.000	2.3570e-02
11.750	19.250	2.5466e-02
11.750	19.500	2.7000e-02
11.750	19.750	2.8269e-02
11.750	20.000	2.9387e-02
11.750	20.250	3.0416e-02
11.750	20.500	3.2617e-02
11.750	20.750	3.5189e-02
11.750	21.000	3.3685e-02
11.750	21.250	3.1453e-02
11.750	21.500	2.6857e-02
11.750	21.750	1.9366e-02
11.750	22.000	1.4756e-02
11.750	22.250	1.1894e-02
11.750	22.500	1.0122e-02
11.750	22.750	9.1396e-03
11.750	23.000	8.5765e-03
11.750	23.250	8.2500e-03
11.750	23.500	8.1030e-03
11.750	23.750	8.0263e-03
11.750	24.000	7.9830e-03
12.000	17.000	2.4186e-02
12.000	17.250	2.3171e-02
12.000	17.500	2.1929e-02
12.000	17.750	2.0644e-02
12.000	18.000	1.9667e-02
12.000	18.250	1.9152e-02
12.000	18.500	1.9250e-02
12.000	18.750	1.9993e-02
12.000	19.000	2.1430e-02
12.000	19.250	2.3399e-02
12.000	19.500	2.5378e-02
12.000	19.750	2.7027e-02
12.000	20.000	2.8564e-02
12.000	20.250	3.0019e-02
12.000	20.500	3.1412e-02
12.000	20.750	3.4230e-02
12.000	21.000	3.7532e-02
12.000	21.250	3.7520e-02
12.000	21.500	3.4971e-02
12.000	21.750	2.7293e-02
12.000	22.000	1.9565e-02
12.000	22.250	1.4806e-02
12.000	22.500	1.1893e-02
12.000	22.750	1.0124e-02
12.000	23.000	9.1409e-03
12.000	23.250	8.5771e-03
12.000	23.500	8.2499e-03
12.000	23.750	8.1030e-03
12.000	24.000	8.0263e-03
12.250	17.000	2.4604e-02
12.250	17.250	2.3107e-02
12.250	17.500	2.1508e-02
12.250	17.750	2.0113e-02
12.250	18.000	1.9138e-02
12.250	18.250	1.8659e-02
12.250	18.500	1.8621e-02
12.250	18.750	1.8981e-02
12.250	19.000	1.9869e-02
12.250	19.250	2.1457e-02
12.250	19.500	2.3554e-02
12.250	19.750	2.5658e-02
12.250	20.000	2.7511e-02
12.250	20.250	2.9378e-02
12.250	20.500	3.1264e-02
12.250	20.750	3.3204e-02
12.250	21.000	3.7265e-02
12.250	21.250	4.1867e-02
12.250	21.500	4.2588e-02
12.250	21.750	3.8865e-02
12.250	22.000	2.7713e-02
12.250	22.250	1.9660e-02
12.250	22.500	1.4817e-02
12.250	22.750	1.1891e-02
12.250	23.000	1.0125e-02
12.250	23.250	9.1421e-03
12.250	23.500	8.5778e-03
12.250	23.750	8.2495e-03
12.250	24.000	8.1030e-03
12.500	17.000	2.4499e-02
12.500	17.250	2.2585e-02
12.500	17.500	2.0855e-02
12.500	17.750	1.9551e-02
12.500	18.000	1.8758e-02
12.500	18.250	1.8396e-02
12.500	18.500	1.8367e-02
12.500	18.750	1.8602e-02
12.500	19.000	1.9118e-02
12.500	19.250	2.0138e-02
12.500	19.500	2.1851e-02
12.500	19.750	2.4113e-02
12.500	20.000	2.6366e-02
12.500	20.250	2.8501e-02
12.500	20.500	3.0807e-02
12.500	20.750	3.3508e-02
12.500	21.000	3.6983e-02
12.500	21.250	4.2768e-02
12.500	21.500	4.7903e-02
12.500	21.750	4.8430e-02
12.500	22.000	4.1043e-02
12.500	22.250	2.8003e-02
12.500	22.500	1.9812e-02
12.500	22.750	1.4871e-02
12.500	23.000	1.1887e-02
12.500	23.250	1.0126e-02
12.500	23.500	9.1433e-03
12.500	23.750	8.5784e-03
12.500	24.000	8.2492e-03
12.750	17.000	1.9324e-02
12.750	17.250	2.1335e-02
12.750	17.500	2.0121e-02
12.750	17.750	1.9108e-02
12.750	18.000	1.8499e-02
12.750	18.250	1.8242e-02
12.750	18.500	1.8272e-02
12.750	18.750	1.8531e-02
12.750	19.000	1.8961e-02
12.750	19.250	1.9630e-02
12.750	19.500	2.0793e-02
12.750	19.750	2.2655e-02
12.750	20.000	2.5046e-02
12.750	20.250	2.7615e-02
12.750	20.500	3.0169e-02
12.750	20.750	3.3310e-02
12.750	21.000	3.7785e-02
12.750	21.250	4.3014e-02
12.750	21.500	4.9854e-02
12.750	21.750	5.6297e-02
12.750	22.000	5.4526e-02
12.750	22.250	4.2047e-02
12.750	22.500	2.8381e-02
12.750	22.750	1.9985e-02
12.750	23.000	1.4904e-02
12.750	23.250	1.1882e-02
12.750	23.500	1.0126e-02
12.750	23.750	9.1441e-03
12.750	24.000	8.5789e-03
13.000	17.000	1.1774e-02
13.000	17.250	1.6313e-02
13.000	17.500	1.8733e-02
13.000	17.750	1.8870e-02
13.000	18.000	1.8364e-02
13.000	18.250	1.8173e-02
13.000	18.500	1.8248e-02
13.000	18.750	1.8545e-02
13.000	19.000	1.9016e-02
13.000	19.250	1.9645e-02
13.000	19.500	2.0465e-02
13.000	19.750	2.1810e-02
13.000	20.000	2.3813e-02
13.000	20.250	2.6406e-02
13.000	20.500	2.9594e-02
13.000	20.750	3.2861e-02
13.000	21.000	3.7153e-02
13.000	21.250	4.3844e-02
13.000	21.500	5.0630e-02
13.000	21.750	5.9854e-02
13.000	22.000	6.4105e-02
13.000	22.250	5.9249e-02
13.000	22.500	4.2856e-02
13.000	22.750	2.8680e-02
13.000	23.000	2.0091e-02
13.000	23.250	1.4923e-02
13.000	23.500	1.1873e-02
13.000	23.750	1.0125e-02
13.000	24.000	9.1444e-03
13.250	17.000	8.8289e-03
13.250	17.250	1.1959e-02
13.250	17.500	1.7587e-02
13.250	17.750	1.8848e-02
13.250	18.000	1.8371e-02
13.250	18.250	1.8187e-02
13.250	18.500	1.8273e-02
13.250	18.750	1.8587e-02
13.250	19.000	1.9098e-02
13.250	19.250	1.9773e-02
13.250	19.500	2.0591e-02
13.250	19.750	2.1709e-02
13.250	20.000	2.3259e-02
13.250	20.250	2.5397e-02
13.250	20.500	2.8355e-02
13.250	20.750	3.2078e-02
13.250	21.000	3.6678e-02
13.250	21.250	4.2644e-02
13.250	21.500	4.9308e-02
13.250	21.750	5.7030e-02
13.250	22.000	6.6294e-02
13.250	22.250	7.0401e-02
13.250	22.500	6.1929e-02
13.250	22.750	4.3629e-02
13.250	23.000	2.8966e-02
13.250	23.250	2.0082e-02
13.250	23.500	1.4904e-02
13.250	23.750	1.1864e-02
13.250	24.000	1.0122e-02
13.500	17.000	7.0129e-03
13.500	17.250	9.2555e-03
13.500	17.500	1.3657e-02
13.500	17.750	1.7498e-02
13.500	18.000	1.8498e-02
13.500	18.250	1.8300e-02
13.500	18.500	1.8353e-02
13.500	18.750	1.8653e-02
13.500	19.000	1.9175e-02
13.500	19.250	1.9891e-02
13.500	19.500	2.0791e-02
13.500	19.750	2.1909e-02
13.500	20.000	2.3341e-02
13.500	20.250	2.5289e-02
13.500	20.500	2.7749e-02
13.500	20.750	3.0931e-02
13.500	21.000	3.4664e-02
13.500	21.250	4.0413e-02
13.500	21.500	4.5185e-02
13.500	21.750	5.2409e-02
13.500	22.000	6.1209e-02
13.500	22.250	7.0625e-02
13.500	22.500	7.2985e-02
13.500	22.750	6.3233e-02
13.500	23.000	4.4332e-02
13.500	23.250	2.9277e-02
13.500	23.500	2.0241e-02
13.500	23.750	1.4929e-02
13.500	24.000	1.1854e-02
13.750	17.000	5.9746e-03
13.750	17.250	7.5281e-03
13.750	17.500	1.0945e-02
13.750	17.750	1.4698e-02
13.750	18.000	1.8474e-02
13.750	18.250	1.8430e-02
13.750	18.500	1.8459e-02
13.750	18.750	1.8741e-02
13.750	19.000	1.9256e-02
13.750	19.250	2.0001e-02
13.750	19.500	2.0966e-02
13.750	19.750	2.2162e-02
13.750	20.000	2.3675e-02
13.750	20.250	2.5617e-02
13.750	20.500	2.8062e-02
13.750	20.750	3.1009e-02
13.750	21.000	3.4475e-02
13.750	21.250	3.8397e-02
13.750	21.500	4.3188e-02
13.750	21.750	4.9434e-02
13.750	22.000	5.7329e-02
13.750	22.250	6.8438e-02
13.750	22.500	7.3953e-02
13.750	22.750	7.6133e-02
13.750	23.000	6.4800e-02
13.750	23.250	4.4942e-02
13.750	23.500	2.9466e-02
13.750	23.750	2.0286e-02
13.750	24.000	1.4918e-02
14.000	17.000	5.3348e-03
14.000	17.250	6.5263e-03
14.000	17.500	9.0196e-03
14.000	17.750	1.2379e-02
14.000	18.000	1.6268e-02
14.000	18.250	1.8645e-02
14.000	18.500	1.8583e-02
14.000	18.750	1.8805e-02
14.000	19.000	1.9317e-02
14.000	19.250	2.0089e-02
14.000	19.500	2.1115e-02
14.000	19.750	2.2415e-02
14.000	20.000	2.4012e-02
14.000	20.250	2.6034e-02
14.000	20.500	2.8607e-02
14.000	20.750	3.1708e-02
14.000	21.000	3.5356e-02
14.000	21.250	3.9563e-02
14.000	21.500	4.3654e-02
14.000	21.750	4.9290e-02
14.000	22.000	5.6621e-02
14.000	22.250	6.7764e-02
14.000	22.500	7.9571e-02
14.000	22.750	8.0427e-02
14.000	23.000	7.9371e-02
14.000	23.250	6.6918e-02
14.000	23.500	4.5463e-02
14.000	23.750	2.9602e-02
14.000	24.000	2.0310e-02
