InwT 575.146A  relative to Inci 1215.00A scaled to 1215A.
Hden   Phi(H)  Eq_Width (A)
 7.000	17.000	3.4356e-02
 7.000	17.250	2.8903e-02
 7.000	17.500	2.1156e-02
 7.000	17.750	1.4616e-02
 7.000	18.000	1.1116e-02
 7.000	18.250	9.1756e-03
 7.000	18.500	8.1855e-03
 7.000	18.750	7.8407e-03
 7.000	19.000	7.6750e-03
 7.000	19.250	7.5875e-03
 7.000	19.500	7.5509e-03
 7.000	19.750	7.5353e-03
 7.000	20.000	7.5284e-03
 7.000	20.250	7.5251e-03
 7.000	20.500	7.5235e-03
 7.000	20.750	7.5226e-03
 7.000	21.000	7.5221e-03
 7.000	21.250	7.5218e-03
 7.000	21.500	7.5219e-03
 7.000	21.750	7.5216e-03
 7.000	22.000	7.5216e-03
 7.000	22.250	7.5216e-03
 7.000	22.500	7.5216e-03
 7.000	22.750	7.5217e-03
 7.000	23.000	7.5217e-03
 7.000	23.250	7.5215e-03
 7.000	23.500	7.5215e-03
 7.000	23.750	7.5215e-03
 7.000	24.000	7.5215e-03
 7.250	17.000	3.6146e-02
 7.250	17.250	3.4037e-02
 7.250	17.500	2.8709e-02
 7.250	17.750	2.1032e-02
 7.250	18.000	1.4547e-02
 7.250	18.250	1.1082e-02
 7.250	18.500	9.1597e-03
 7.250	18.750	8.1799e-03
 7.250	19.000	7.8386e-03
 7.250	19.250	7.6743e-03
 7.250	19.500	7.5873e-03
 7.250	19.750	7.5509e-03
 7.250	20.000	7.5353e-03
 7.250	20.250	7.5284e-03
 7.250	20.500	7.5251e-03
 7.250	20.750	7.5235e-03
 7.250	21.000	7.5226e-03
 7.250	21.250	7.5221e-03
 7.250	21.500	7.5218e-03
 7.250	21.750	7.5232e-03
 7.250	22.000	7.5216e-03
 7.250	22.250	7.5216e-03
 7.250	22.500	7.5216e-03
 7.250	22.750	7.5223e-03
 7.250	23.000	7.5223e-03
 7.250	23.250	7.5215e-03
 7.250	23.500	7.5215e-03
 7.250	23.750	7.5215e-03
 7.250	24.000	7.5215e-03
 7.500	17.000	2.9017e-02
 7.500	17.250	3.5926e-02
 7.500	17.500	3.3863e-02
 7.500	17.750	2.8608e-02
 7.500	18.000	2.0956e-02
 7.500	18.250	1.4500e-02
 7.500	18.500	1.1060e-02
 7.500	18.750	9.1494e-03
 7.500	19.000	8.1763e-03
 7.500	19.250	7.8373e-03
 7.500	19.500	7.6738e-03
 7.500	19.750	7.5872e-03
 7.500	20.000	7.5509e-03
 7.500	20.250	7.5353e-03
 7.500	20.500	7.5283e-03
 7.500	20.750	7.5251e-03
 7.500	21.000	7.5234e-03
 7.500	21.250	7.5226e-03
 7.500	21.500	7.5221e-03
 7.500	21.750	7.5219e-03
 7.500	22.000	7.5217e-03
 7.500	22.250	7.5216e-03
 7.500	22.500	7.5216e-03
 7.500	22.750	7.5216e-03
 7.500	23.000	7.5219e-03
 7.500	23.250	7.5223e-03
 7.500	23.500	7.5215e-03
 7.500	23.750	7.5225e-03
 7.500	24.000	7.5215e-03
 7.750	17.000	2.2126e-02
 7.750	17.250	2.9058e-02
 7.750	17.500	3.5816e-02
 7.750	17.750	3.3769e-02
 7.750	18.000	2.8563e-02
 7.750	18.250	2.0911e-02
 7.750	18.500	1.4466e-02
 7.750	18.750	1.1044e-02
 7.750	19.000	9.1430e-03
 7.750	19.250	8.1741e-03
 7.750	19.500	7.8365e-03
 7.750	19.750	7.6736e-03
 7.750	20.000	7.5872e-03
 7.750	20.250	7.5509e-03
 7.750	20.500	7.5353e-03
 7.750	20.750	7.5283e-03
 7.750	21.000	7.5250e-03
 7.750	21.250	7.5234e-03
 7.750	21.500	7.5226e-03
 7.750	21.750	7.5221e-03
 7.750	22.000	7.5218e-03
 7.750	22.250	7.5216e-03
 7.750	22.500	7.5216e-03
 7.750	22.750	7.5217e-03
 7.750	23.000	7.5218e-03
 7.750	23.250	7.5216e-03
 7.750	23.500	7.5223e-03
 7.750	23.750	7.5223e-03
 7.750	24.000	7.5215e-03
 8.000	17.000	1.6872e-02
 8.000	17.250	2.2105e-02
 8.000	17.500	2.8984e-02
 8.000	17.750	3.5746e-02
 8.000	18.000	3.3715e-02
 8.000	18.250	2.8553e-02
 8.000	18.500	2.0884e-02
 8.000	18.750	1.4439e-02
 8.000	19.000	1.1033e-02
 8.000	19.250	9.1389e-03
 8.000	19.500	8.1727e-03
 8.000	19.750	7.8360e-03
 8.000	20.000	7.6734e-03
 8.000	20.250	7.5871e-03
 8.000	20.500	7.5509e-03
 8.000	20.750	7.5353e-03
 8.000	21.000	7.5283e-03
 8.000	21.250	7.5250e-03
 8.000	21.500	7.5234e-03
 8.000	21.750	7.5225e-03
 8.000	22.000	7.5221e-03
 8.000	22.250	7.5218e-03
 8.000	22.500	7.5216e-03
 8.000	22.750	7.5217e-03
 8.000	23.000	7.5215e-03
 8.000	23.250	7.5220e-03
 8.000	23.500	7.5215e-03
 8.000	23.750	7.5215e-03
 8.000	24.000	7.5215e-03
 8.250	17.000	1.3120e-02
 8.250	17.250	1.6950e-02
 8.250	17.500	2.2168e-02
 8.250	17.750	2.9000e-02
 8.250	18.000	3.5681e-02
 8.250	18.250	3.3676e-02
 8.250	18.500	2.8565e-02
 8.250	18.750	2.0868e-02
 8.250	19.000	1.4416e-02
 8.250	19.250	1.1024e-02
 8.250	19.500	9.1360e-03
 8.250	19.750	8.1718e-03
 8.250	20.000	7.8356e-03
 8.250	20.250	7.6733e-03
 8.250	20.500	7.5871e-03
 8.250	20.750	7.5509e-03
 8.250	21.000	7.5353e-03
 8.250	21.250	7.5283e-03
 8.250	21.500	7.5250e-03
 8.250	21.750	7.5234e-03
 8.250	22.000	7.5225e-03
 8.250	22.250	7.5221e-03
 8.250	22.500	7.5217e-03
 8.250	22.750	7.5218e-03
 8.250	23.000	7.5216e-03
 8.250	23.250	7.5235e-03
 8.250	23.500	7.5215e-03
 8.250	23.750	7.5215e-03
 8.250	24.000	7.5221e-03
 8.500	17.000	1.0399e-02
 8.500	17.250	1.3170e-02
 8.500	17.500	1.6989e-02
 8.500	17.750	2.2178e-02
 8.500	18.000	2.8980e-02
 8.500	18.250	3.5591e-02
 8.500	18.500	3.3642e-02
 8.500	18.750	2.8589e-02
 8.500	19.000	2.0857e-02
 8.500	19.250	1.4395e-02
 8.500	19.500	1.1017e-02
 8.500	19.750	9.1341e-03
 8.500	20.000	8.1713e-03
 8.500	20.250	7.8355e-03
 8.500	20.500	7.6733e-03
 8.500	20.750	7.5871e-03
 8.500	21.000	7.5509e-03
 8.500	21.250	7.5353e-03
 8.500	21.500	7.5283e-03
 8.500	21.750	7.5250e-03
 8.500	22.000	7.5234e-03
 8.500	22.250	7.5225e-03
 8.500	22.500	7.5221e-03
 8.500	22.750	7.5217e-03
 8.500	23.000	7.5216e-03
 8.500	23.250	7.5217e-03
 8.500	23.500	7.5215e-03
 8.500	23.750	7.5215e-03
 8.500	24.000	7.5215e-03
 8.750	17.000	8.3965e-03
 8.750	17.250	1.0450e-02
 8.750	17.500	1.3211e-02
 8.750	17.750	1.7009e-02
 8.750	18.000	2.2178e-02
 8.750	18.250	2.8917e-02
 8.750	18.500	3.5472e-02
 8.750	18.750	3.3599e-02
 8.750	19.000	2.8621e-02
 8.750	19.250	2.0849e-02
 8.750	19.500	1.4373e-02
 8.750	19.750	1.1010e-02
 8.750	20.000	9.1327e-03
 8.750	20.250	8.1709e-03
 8.750	20.500	7.8354e-03
 8.750	20.750	7.6732e-03
 8.750	21.000	7.5871e-03
 8.750	21.250	7.5509e-03
 8.750	21.500	7.5353e-03
 8.750	21.750	7.5283e-03
 8.750	22.000	7.5250e-03
 8.750	22.250	7.5234e-03
 8.750	22.500	7.5225e-03
 8.750	22.750	7.5221e-03
 8.750	23.000	7.5225e-03
 8.750	23.250	7.5216e-03
 8.750	23.500	7.5217e-03
 8.750	23.750	7.5215e-03
 8.750	24.000	7.5215e-03
 9.000	17.000	6.7774e-03
 9.000	17.250	8.4950e-03
 9.000	17.500	1.0528e-02
 9.000	17.750	1.3257e-02
 9.000	18.000	1.7036e-02
 9.000	18.250	2.2169e-02
 9.000	18.500	2.8841e-02
 9.000	18.750	3.5338e-02
 9.000	19.000	3.3543e-02
 9.000	19.250	2.8652e-02
 9.000	19.500	2.0842e-02
 9.000	19.750	1.4352e-02
 9.000	20.000	1.1004e-02
 9.000	20.250	9.1314e-03
 9.000	20.500	8.1707e-03
 9.000	20.750	7.8354e-03
 9.000	21.000	7.6732e-03
 9.000	21.250	7.5871e-03
 9.000	21.500	7.5509e-03
 9.000	21.750	7.5352e-03
 9.000	22.000	7.5283e-03
 9.000	22.250	7.5250e-03
 9.000	22.500	7.5234e-03
 9.000	22.750	7.5225e-03
 9.000	23.000	7.5221e-03
 9.000	23.250	7.5217e-03
 9.000	23.500	7.5216e-03
 9.000	23.750	7.5216e-03
 9.000	24.000	7.5216e-03
 9.250	17.000	5.3087e-03
 9.250	17.250	6.9291e-03
 9.250	17.500	8.6538e-03
 9.250	17.750	1.0671e-02
 9.250	18.000	1.3380e-02
 9.250	18.250	1.7134e-02
 9.250	18.500	2.2233e-02
 9.250	18.750	2.8780e-02
 9.250	19.000	3.5195e-02
 9.250	19.250	3.3468e-02
 9.250	19.500	2.8672e-02
 9.250	19.750	2.0836e-02
 9.250	20.000	1.4332e-02
 9.250	20.250	1.0999e-02
 9.250	20.500	9.1305e-03
 9.250	20.750	8.1705e-03
 9.250	21.000	7.8354e-03
 9.250	21.250	7.6732e-03
 9.250	21.500	7.5867e-03
 9.250	21.750	7.5504e-03
 9.250	22.000	7.5347e-03
 9.250	22.250	7.5278e-03
 9.250	22.500	7.5247e-03
 9.250	22.750	7.5230e-03
 9.250	23.000	7.5223e-03
 9.250	23.250	7.5219e-03
 9.250	23.500	7.5216e-03
 9.250	23.750	7.5215e-03
 9.250	24.000	7.5214e-03
 9.500	17.000	3.9018e-03
 9.500	17.250	5.4929e-03
 9.500	17.500	7.1733e-03
 9.500	17.750	8.9289e-03
 9.500	18.000	1.0932e-02
 9.500	18.250	1.3614e-02
 9.500	18.500	1.7370e-02
 9.500	18.750	2.2493e-02
 9.500	19.000	2.8799e-02
 9.500	19.250	3.5078e-02
 9.500	19.500	3.3379e-02
 9.500	19.750	2.8676e-02
 9.500	20.000	2.0834e-02
 9.500	20.250	1.4316e-02
 9.500	20.500	1.0995e-02
 9.500	20.750	9.1291e-03
 9.500	21.000	8.1697e-03
 9.500	21.250	7.8349e-03
 9.500	21.500	7.6726e-03
 9.500	21.750	7.5863e-03
 9.500	22.000	7.5501e-03
 9.500	22.250	7.5346e-03
 9.500	22.500	7.5276e-03
 9.500	22.750	7.5243e-03
 9.500	23.000	7.5226e-03
 9.500	23.250	7.5217e-03
 9.500	23.500	7.5213e-03
 9.500	23.750	7.5211e-03
 9.500	24.000	7.5209e-03
 9.750	17.000	2.5900e-03
 9.750	17.250	4.0580e-03
 9.750	17.500	5.7681e-03
 9.750	17.750	7.5533e-03
 9.750	18.000	9.3377e-03
 9.750	18.250	1.1340e-02
 9.750	18.500	1.4058e-02
 9.750	18.750	1.7919e-02
 9.750	19.000	2.3016e-02
 9.750	19.250	2.8992e-02
 9.750	19.500	3.5050e-02
 9.750	19.750	3.3294e-02
 9.750	20.000	2.8669e-02
 9.750	20.250	2.0835e-02
 9.750	20.500	1.4303e-02
 9.750	20.750	1.0993e-02
 9.750	21.000	9.1289e-03
 9.750	21.250	8.1696e-03
 9.750	21.500	7.8349e-03
 9.750	21.750	7.6727e-03
 9.750	22.000	7.5863e-03
 9.750	22.250	7.5501e-03
 9.750	22.500	7.5346e-03
 9.750	22.750	7.5277e-03
 9.750	23.000	7.5243e-03
 9.750	23.250	7.5226e-03
 9.750	23.500	7.5217e-03
 9.750	23.750	7.5212e-03
 9.750	24.000	7.5210e-03
10.000	17.000	1.4484e-03
10.000	17.250	2.6848e-03
10.000	17.500	4.2957e-03
10.000	17.750	6.1613e-03
10.000	18.000	8.0523e-03
10.000	18.250	9.9007e-03
10.000	18.500	1.1998e-02
10.000	18.750	1.4890e-02
10.000	19.000	1.8974e-02
10.000	19.250	2.4058e-02
10.000	19.500	2.9554e-02
10.000	19.750	3.5216e-02
10.000	20.000	3.3254e-02
10.000	20.250	2.8652e-02
10.000	20.500	2.0843e-02
10.000	20.750	1.4296e-02
10.000	21.000	1.0993e-02
10.000	21.250	9.1293e-03
10.000	21.500	8.1696e-03
10.000	21.750	7.8351e-03
10.000	22.000	7.6728e-03
10.000	22.250	7.5864e-03
10.000	22.500	7.5501e-03
10.000	22.750	7.5346e-03
10.000	23.000	7.5276e-03
10.000	23.250	7.5244e-03
10.000	23.500	7.5226e-03
10.000	23.750	7.5218e-03
10.000	24.000	7.5213e-03
10.250	17.000	7.6675e-04
10.250	17.250	1.4984e-03
10.250	17.500	2.8474e-03
10.250	17.750	4.6184e-03
10.250	18.000	6.6553e-03
10.250	18.250	8.7216e-03
10.250	18.500	1.0770e-02
10.250	18.750	1.3146e-02
10.250	19.000	1.6365e-02
10.250	19.250	2.0752e-02
10.250	19.500	2.5622e-02
10.250	19.750	3.0556e-02
10.250	20.000	3.5709e-02
10.250	20.250	3.3321e-02
10.250	20.500	2.8644e-02
10.250	20.750	2.0857e-02
10.250	21.000	1.4295e-02
10.250	21.250	1.0995e-02
10.250	21.500	9.1299e-03
10.250	21.750	8.1697e-03
10.250	22.000	7.8351e-03
10.250	22.250	7.6728e-03
10.250	22.500	7.5866e-03
10.250	22.750	7.5501e-03
10.250	23.000	7.5346e-03
10.250	23.250	7.5277e-03
10.250	23.500	7.5243e-03
10.250	23.750	7.5226e-03
10.250	24.000	7.5218e-03
10.500	17.000	4.1053e-04
10.500	17.250	7.8889e-04
10.500	17.500	1.5920e-03
10.500	17.750	3.0767e-03
10.500	18.000	5.0440e-03
10.500	18.250	7.3442e-03
10.500	18.500	9.7113e-03
10.500	18.750	1.2090e-02
10.500	19.000	1.4812e-02
10.500	19.250	1.8460e-02
10.500	19.500	2.3092e-02
10.500	19.750	2.7797e-02
10.500	20.000	3.2200e-02
10.500	20.250	3.6701e-02
10.500	20.500	3.3590e-02
10.500	20.750	2.8666e-02
10.500	21.000	2.0875e-02
10.500	21.250	1.4299e-02
10.500	21.500	1.1000e-02
10.500	21.750	9.1310e-03
10.500	22.000	8.1700e-03
10.500	22.250	7.8353e-03
10.500	22.500	7.6729e-03
10.500	22.750	7.5867e-03
10.500	23.000	7.5502e-03
10.500	23.250	7.5346e-03
10.500	23.500	7.5277e-03
10.500	23.750	7.5244e-03
10.500	24.000	7.5226e-03
10.750	17.000	2.5374e-04
10.750	17.250	4.2337e-04
10.750	17.500	8.4091e-04
10.750	17.750	1.7698e-03
10.750	18.000	3.4072e-03
10.750	18.250	5.6872e-03
10.750	18.500	8.3232e-03
10.750	18.750	1.1010e-02
10.750	19.000	1.3721e-02
10.750	19.250	1.6872e-02
10.750	19.500	2.1081e-02
10.750	19.750	2.6246e-02
10.750	20.000	3.0761e-02
10.750	20.250	3.4607e-02
10.750	20.500	3.8329e-02
10.750	20.750	3.4194e-02
10.750	21.000	2.8744e-02
10.750	21.250	2.0901e-02
10.750	21.500	1.4310e-02
10.750	21.750	1.1007e-02
10.750	22.000	9.1330e-03
10.750	22.250	8.1701e-03
10.750	22.500	7.8356e-03
10.750	22.750	7.6731e-03
10.750	23.000	7.5867e-03
10.750	23.250	7.5503e-03
10.750	23.500	7.5346e-03
10.750	23.750	7.5276e-03
10.750	24.000	7.5244e-03
11.000	17.000	1.8897e-04
11.000	17.250	2.6560e-04
11.000	17.500	4.5531e-04
11.000	17.750	9.4551e-04
11.000	18.000	2.0233e-03
11.000	18.250	3.8781e-03
11.000	18.500	6.4807e-03
11.000	18.750	9.4423e-03
11.000	19.000	1.2402e-02
11.000	19.250	1.5507e-02
11.000	19.500	1.9269e-02
11.000	19.750	2.4309e-02
11.000	20.000	3.0244e-02
11.000	20.250	3.5044e-02
11.000	20.500	3.7969e-02
11.000	20.750	4.0793e-02
11.000	21.000	3.5120e-02
11.000	21.250	2.8928e-02
11.000	21.500	2.0938e-02
11.000	21.750	1.4328e-02
11.000	22.000	1.1018e-02
11.000	22.250	9.1357e-03
11.000	22.500	8.1703e-03
11.000	22.750	7.8360e-03
11.000	23.000	7.6733e-03
11.000	23.250	7.5867e-03
11.000	23.500	7.5504e-03
11.000	23.750	7.5347e-03
11.000	24.000	7.5277e-03
11.250	17.000	1.6008e-04
11.250	17.250	2.0066e-04
11.250	17.500	2.9235e-04
11.250	17.750	5.2593e-04
11.250	18.000	1.1063e-03
11.250	18.250	2.3159e-03
11.250	18.500	4.3976e-03
11.250	18.750	7.3074e-03
11.250	19.000	1.0521e-02
11.250	19.250	1.3802e-02
11.250	19.500	1.7481e-02
11.250	19.750	2.2110e-02
11.250	20.000	2.8059e-02
11.250	20.250	3.5009e-02
11.250	20.500	3.9836e-02
11.250	20.750	4.2498e-02
11.250	21.000	4.4038e-02
11.250	21.250	3.6523e-02
11.250	21.500	2.9214e-02
11.250	21.750	2.0987e-02
11.250	22.000	1.4354e-02
11.250	22.250	1.1032e-02
11.250	22.500	9.1397e-03
11.250	22.750	8.1705e-03
11.250	23.000	7.8362e-03
11.250	23.250	7.6737e-03
11.250	23.500	7.5867e-03
11.250	23.750	7.5505e-03
11.250	24.000	7.5348e-03
11.500	17.000	1.4683e-04
11.500	17.250	1.7284e-04
11.500	17.500	2.2741e-04
11.500	17.750	3.4922e-04
11.500	18.000	6.3745e-04
11.500	18.250	1.2762e-03
11.500	18.500	2.5846e-03
11.500	18.750	4.8905e-03
11.500	19.000	8.0848e-03
11.500	19.250	1.1566e-02
11.500	19.500	1.5319e-02
11.500	19.750	1.9838e-02
11.500	20.000	2.5583e-02
11.500	20.250	3.2563e-02
11.500	20.500	4.0872e-02
11.500	20.750	4.6263e-02
11.500	21.000	4.8395e-02
11.500	21.250	4.7979e-02
11.500	21.500	3.8238e-02
11.500	21.750	2.9605e-02
11.500	22.000	2.1048e-02
11.500	22.250	1.4389e-02
11.500	22.500	1.1049e-02
11.500	22.750	9.1453e-03
11.500	23.000	8.1709e-03
11.500	23.250	7.8365e-03
11.500	23.500	7.6738e-03
11.500	23.750	7.5868e-03
11.500	24.000	7.5505e-03
11.750	17.000	1.4049e-04
11.750	17.250	1.5909e-04
11.750	17.500	1.9852e-04
11.750	17.750	2.7597e-04
11.750	18.000	4.3465e-04
11.750	18.250	7.5490e-04
11.750	18.500	1.4183e-03
11.750	18.750	2.8214e-03
11.750	19.000	5.3649e-03
11.750	19.250	8.8731e-03
11.750	19.500	1.2719e-02
11.750	19.750	1.7164e-02
11.750	20.000	2.2766e-02
11.750	20.250	2.9899e-02
11.750	20.500	3.8088e-02
11.750	20.750	4.7637e-02
11.750	21.000	5.3851e-02
11.750	21.250	5.5887e-02
11.750	21.500	5.1930e-02
11.750	21.750	4.0229e-02
11.750	22.000	3.0097e-02
11.750	22.250	2.1108e-02
11.750	22.500	1.4433e-02
11.750	22.750	1.1072e-02
11.750	23.000	9.1529e-03
11.750	23.250	8.1714e-03
11.750	23.500	7.8370e-03
11.750	23.750	7.6741e-03
11.750	24.000	7.5871e-03
12.000	17.000	1.3704e-04
12.000	17.250	1.5111e-04
12.000	17.500	1.8132e-04
12.000	17.750	2.3868e-04
12.000	18.000	3.4239e-04
12.000	18.250	5.2683e-04
12.000	18.500	8.5531e-04
12.000	18.750	1.5374e-03
12.000	19.000	3.0609e-03
12.000	19.250	5.8926e-03
12.000	19.500	9.7757e-03
12.000	19.750	1.4146e-02
12.000	20.000	1.9542e-02
12.000	20.250	2.6451e-02
12.000	20.500	3.5036e-02
12.000	20.750	4.4595e-02
12.000	21.000	5.5788e-02
12.000	21.250	6.4012e-02
12.000	21.500	6.5220e-02
12.000	21.750	5.5975e-02
12.000	22.000	4.2263e-02
12.000	22.250	3.0607e-02
12.000	22.500	2.1151e-02
12.000	22.750	1.4482e-02
12.000	23.000	1.1096e-02
12.000	23.250	9.1626e-03
12.000	23.500	8.1719e-03
12.000	23.750	7.8374e-03
12.000	24.000	7.6743e-03
12.250	17.000	1.3572e-04
12.250	17.250	1.4568e-04
12.250	17.500	1.6741e-04
12.250	17.750	2.1169e-04
12.250	18.000	2.8716e-04
12.250	18.250	4.1366e-04
12.250	18.500	6.1350e-04
12.250	18.750	9.4848e-04
12.250	19.000	1.6683e-03
12.250	19.250	3.3751e-03
12.250	19.500	6.5659e-03
12.250	19.750	1.0929e-02
12.250	20.000	1.6051e-02
12.250	20.250	2.2652e-02
12.250	20.500	3.1101e-02
12.250	20.750	4.1320e-02
12.250	21.000	5.3033e-02
12.250	21.250	6.6688e-02
12.250	21.500	7.6250e-02
12.250	21.750	7.5341e-02
12.250	22.000	5.9903e-02
12.250	22.250	4.3500e-02
12.250	22.500	3.0806e-02
12.250	22.750	2.1165e-02
12.250	23.000	1.4530e-02
12.250	23.250	1.1123e-02
12.250	23.500	9.1733e-03
12.250	23.750	8.1725e-03
12.250	24.000	7.8378e-03
12.500	17.000	1.3267e-04
12.500	17.250	1.4156e-04
12.500	17.500	1.5909e-04
12.500	17.750	1.8856e-04
12.500	18.000	2.4551e-04
12.500	18.250	3.3802e-04
12.500	18.500	4.8436e-04
12.500	18.750	6.9901e-04
12.500	19.000	1.0561e-03
12.500	19.250	1.8695e-03
12.500	19.500	3.8304e-03
12.500	19.750	7.4932e-03
12.500	20.000	1.2446e-02
12.500	20.250	1.8542e-02
12.500	20.500	2.6634e-02
12.500	20.750	3.7043e-02
12.500	21.000	4.9798e-02
12.500	21.250	6.4544e-02
12.500	21.500	8.0204e-02
12.500	21.750	9.0066e-02
12.500	22.000	8.3579e-02
12.500	22.250	6.2971e-02
12.500	22.500	4.5044e-02
12.500	22.750	3.1269e-02
12.500	23.000	2.1142e-02
12.500	23.250	1.4570e-02
12.500	23.500	1.1149e-02
12.500	23.750	9.1842e-03
12.500	24.000	8.1726e-03
12.750	17.000	1.2691e-04
12.750	17.250	1.3374e-04
12.750	17.500	1.4667e-04
12.750	17.750	1.7128e-04
12.750	18.000	2.1267e-04
12.750	18.250	2.8091e-04
12.750	18.500	3.9119e-04
12.750	18.750	5.5794e-04
12.750	19.000	7.9852e-04
12.750	19.250	1.2095e-03
12.750	19.500	2.1715e-03
12.750	19.750	4.4639e-03
12.750	20.000	8.6164e-03
12.750	20.250	1.4407e-02
12.750	20.500	2.1732e-02
12.750	20.750	3.1788e-02
12.750	21.000	4.5172e-02
12.750	21.250	6.0976e-02
12.750	21.500	7.8185e-02
12.750	21.750	9.7353e-02
12.750	22.000	1.0476e-01
12.750	22.250	9.1235e-02
12.750	22.500	6.6508e-02
12.750	22.750	4.6655e-02
12.750	23.000	3.1494e-02
12.750	23.250	2.1084e-02
12.750	23.500	1.4596e-02
12.750	23.750	1.1171e-02
12.750	24.000	9.1938e-03
13.000	17.000	1.2099e-04
13.000	17.250	1.2584e-04
13.000	17.500	1.3440e-04
13.000	17.750	1.5267e-04
13.000	18.000	1.8403e-04
13.000	18.250	2.3654e-04
13.000	18.500	3.2189e-04
13.000	18.750	4.5374e-04
13.000	19.000	6.4510e-04
13.000	19.250	9.2823e-04
13.000	19.500	1.4209e-03
13.000	19.750	2.5643e-03
13.000	20.000	5.1756e-03
13.000	20.250	9.8374e-03
13.000	20.500	1.6787e-02
13.000	20.750	2.5668e-02
13.000	21.000	3.7966e-02
13.000	21.250	5.4900e-02
13.000	21.500	7.3488e-02
13.000	21.750	9.6111e-02
13.000	22.000	1.1429e-01
13.000	22.250	1.1829e-01
13.000	22.500	9.7992e-02
13.000	22.750	6.9370e-02
13.000	23.000	4.7578e-02
13.000	23.250	3.1568e-02
13.000	23.500	2.0983e-02
13.000	23.750	1.4607e-02
13.000	24.000	1.1189e-02
13.250	17.000	1.1383e-04
13.250	17.250	1.1638e-04
13.250	17.500	1.2362e-04
13.250	17.750	1.3654e-04
13.250	18.000	1.5992e-04
13.250	18.250	2.0115e-04
13.250	18.500	2.6947e-04
13.250	18.750	3.7745e-04
13.250	19.000	5.3704e-04
13.250	19.250	7.6930e-04
13.250	19.500	1.1160e-03
13.250	19.750	1.7370e-03
13.250	20.000	3.0727e-03
13.250	20.250	5.8997e-03
13.250	20.500	1.1120e-02
13.250	20.750	1.9011e-02
13.250	21.000	3.0013e-02
13.250	21.250	4.4948e-02
13.250	21.500	6.3523e-02
13.250	21.750	8.4447e-02
13.250	22.000	1.1122e-01
13.250	22.250	1.3092e-01
13.250	22.500	1.3082e-01
13.250	22.750	1.0447e-01
13.250	23.000	7.1996e-02
13.250	23.250	4.7546e-02
13.250	23.500	3.1352e-02
13.250	23.750	2.0852e-02
13.250	24.000	1.4594e-02
13.500	17.000	1.0626e-04
13.500	17.250	1.0741e-04
13.500	17.500	1.1300e-04
13.500	17.750	1.2230e-04
13.500	18.000	1.4025e-04
13.500	18.250	1.7292e-04
13.500	18.500	2.2963e-04
13.500	18.750	3.2181e-04
13.500	19.000	4.6255e-04
13.500	19.250	6.6700e-04
13.500	19.500	9.6716e-04
13.500	19.750	1.4350e-03
13.500	20.000	2.2374e-03
13.500	20.250	3.8172e-03
13.500	20.500	6.9536e-03
13.500	20.750	1.2518e-02
13.500	21.000	2.0751e-02
13.500	21.250	3.3438e-02
13.500	21.500	4.8612e-02
13.500	21.750	6.9156e-02
13.500	22.000	9.4216e-02
13.500	22.250	1.2462e-01
13.500	22.500	1.4708e-01
13.500	22.750	1.4347e-01
13.500	23.000	1.1050e-01
13.500	23.250	7.4658e-02
13.500	23.500	4.8693e-02
13.500	23.750	3.1391e-02
13.500	24.000	2.0697e-02
13.750	17.000	9.9918e-05
13.750	17.250	9.8848e-05
13.750	17.500	1.0321e-04
13.750	17.750	1.1012e-04
13.750	18.000	1.2420e-04
13.750	18.250	1.5086e-04
13.750	18.500	1.9819e-04
13.750	18.750	2.7877e-04
13.750	19.000	4.0782e-04
13.750	19.250	6.0058e-04
13.750	19.500	8.8115e-04
13.750	19.750	1.3009e-03
13.750	20.000	1.9640e-03
13.750	20.250	3.0756e-03
13.750	20.500	5.0538e-03
13.750	20.750	8.6326e-03
13.750	21.000	1.4650e-02
13.750	21.250	2.3568e-02
13.750	21.500	3.6384e-02
13.750	21.750	5.3976e-02
13.750	22.000	7.6215e-02
13.750	22.250	1.0751e-01
13.750	22.500	1.4288e-01
13.750	22.750	1.6570e-01
13.750	23.000	1.5630e-01
13.750	23.250	1.1588e-01
13.750	23.500	7.6329e-02
13.750	23.750	4.8943e-02
13.750	24.000	3.1184e-02
14.000	17.000	9.3827e-05
14.000	17.250	9.2346e-05
14.000	17.500	9.2675e-05
14.000	17.750	9.9506e-05
14.000	18.000	1.1086e-04
14.000	18.250	1.3333e-04
14.000	18.500	1.7440e-04
14.000	18.750	2.4543e-04
14.000	19.000	3.6305e-04
14.000	19.250	5.4864e-04
14.000	19.500	8.2609e-04
14.000	19.750	1.2313e-03
14.000	20.000	1.8426e-03
14.000	20.250	2.8036e-03
14.000	20.500	4.3743e-03
14.000	20.750	6.9769e-03
14.000	21.000	1.1339e-02
14.000	21.250	1.8386e-02
14.000	21.500	2.8288e-02
14.000	21.750	4.2500e-02
14.000	22.000	6.1616e-02
14.000	22.250	8.8465e-02
14.000	22.500	1.2604e-01
14.000	22.750	1.6275e-01
14.000	23.000	1.8501e-01
14.000	23.250	1.6870e-01
14.000	23.500	1.2073e-01
14.000	23.750	7.7584e-02
14.000	24.000	4.9039e-02
