nFnu 1103.23A  relative to Inci 1215.00A scaled to 1215A.
Hden   Phi(H)  Eq_Width (A)
 7.000	17.000	2.2644e-02
 7.000	17.250	1.8747e-02
 7.000	17.500	1.5375e-02
 7.000	17.750	1.2532e-02
 7.000	18.000	1.0595e-02
 7.000	18.250	9.4388e-03
 7.000	18.500	8.7253e-03
 7.000	18.750	8.3775e-03
 7.000	19.000	8.1941e-03
 7.000	19.250	8.0908e-03
 7.000	19.500	8.0468e-03
 7.000	19.750	8.0283e-03
 7.000	20.000	8.0202e-03
 7.000	20.250	8.0164e-03
 7.000	20.500	8.0145e-03
 7.000	20.750	8.0135e-03
 7.000	21.000	8.0129e-03
 7.000	21.250	8.0126e-03
 7.000	21.500	8.0126e-03
 7.000	21.750	8.0123e-03
 7.000	22.000	8.0123e-03
 7.000	22.250	8.0123e-03
 7.000	22.500	8.0123e-03
 7.000	22.750	8.0125e-03
 7.000	23.000	8.0125e-03
 7.000	23.250	8.0123e-03
 7.000	23.500	8.0123e-03
 7.000	23.750	8.0123e-03
 7.000	24.000	8.0123e-03
 7.250	17.000	2.6757e-02
 7.250	17.250	2.2422e-02
 7.250	17.500	1.8637e-02
 7.250	17.750	1.5322e-02
 7.250	18.000	1.2502e-02
 7.250	18.250	1.0579e-02
 7.250	18.500	9.4310e-03
 7.250	18.750	8.7226e-03
 7.250	19.000	8.3765e-03
 7.250	19.250	8.1937e-03
 7.250	19.500	8.0907e-03
 7.250	19.750	8.0468e-03
 7.250	20.000	8.0283e-03
 7.250	20.250	8.0202e-03
 7.250	20.500	8.0164e-03
 7.250	20.750	8.0145e-03
 7.250	21.000	8.0135e-03
 7.250	21.250	8.0129e-03
 7.250	21.500	8.0126e-03
 7.250	21.750	8.0140e-03
 7.250	22.000	8.0123e-03
 7.250	22.250	8.0123e-03
 7.250	22.500	8.0123e-03
 7.250	22.750	8.0131e-03
 7.250	23.000	8.0130e-03
 7.250	23.250	8.0123e-03
 7.250	23.500	8.0123e-03
 7.250	23.750	8.0123e-03
 7.250	24.000	8.0123e-03
 7.500	17.000	2.8646e-02
 7.500	17.250	2.6539e-02
 7.500	17.500	2.2295e-02
 7.500	17.750	1.8577e-02
 7.500	18.000	1.5297e-02
 7.500	18.250	1.2484e-02
 7.500	18.500	1.0569e-02
 7.500	18.750	9.4260e-03
 7.500	19.000	8.7208e-03
 7.500	19.250	8.3759e-03
 7.500	19.500	8.1935e-03
 7.500	19.750	8.0906e-03
 7.500	20.000	8.0468e-03
 7.500	20.250	8.0283e-03
 7.500	20.500	8.0202e-03
 7.500	20.750	8.0164e-03
 7.500	21.000	8.0144e-03
 7.500	21.250	8.0134e-03
 7.500	21.500	8.0129e-03
 7.500	21.750	8.0126e-03
 7.500	22.000	8.0124e-03
 7.500	22.250	8.0123e-03
 7.500	22.500	8.0123e-03
 7.500	22.750	8.0123e-03
 7.500	23.000	8.0127e-03
 7.500	23.250	8.0131e-03
 7.500	23.500	8.0123e-03
 7.500	23.750	8.0133e-03
 7.500	24.000	8.0123e-03
 7.750	17.000	3.2271e-02
 7.750	17.250	2.7146e-02
 7.750	17.500	2.6420e-02
 7.750	17.750	2.2221e-02
 7.750	18.000	1.8548e-02
 7.750	18.250	1.5288e-02
 7.750	18.500	1.2475e-02
 7.750	18.750	1.0563e-02
 7.750	19.000	9.4230e-03
 7.750	19.250	8.7197e-03
 7.750	19.500	8.3755e-03
 7.750	19.750	8.1933e-03
 7.750	20.000	8.0906e-03
 7.750	20.250	8.0468e-03
 7.750	20.500	8.0283e-03
 7.750	20.750	8.0202e-03
 7.750	21.000	8.0163e-03
 7.750	21.250	8.0144e-03
 7.750	21.500	8.0134e-03
 7.750	21.750	8.0128e-03
 7.750	22.000	8.0126e-03
 7.750	22.250	8.0124e-03
 7.750	22.500	8.0123e-03
 7.750	22.750	8.0125e-03
 7.750	23.000	8.0125e-03
 7.750	23.250	8.0123e-03
 7.750	23.500	8.0130e-03
 7.750	23.750	8.0130e-03
 7.750	24.000	8.0123e-03
 8.000	17.000	3.2955e-02
 8.000	17.250	2.8992e-02
 8.000	17.500	2.5968e-02
 8.000	17.750	2.6340e-02
 8.000	18.000	2.2176e-02
 8.000	18.250	1.8536e-02
 8.000	18.500	1.5291e-02
 8.000	18.750	1.2471e-02
 8.000	19.000	1.0559e-02
 8.000	19.250	9.4211e-03
 8.000	19.500	8.7189e-03
 8.000	19.750	8.3752e-03
 8.000	20.000	8.1933e-03
 8.000	20.250	8.0906e-03
 8.000	20.500	8.0468e-03
 8.000	20.750	8.0283e-03
 8.000	21.000	8.0202e-03
 8.000	21.250	8.0163e-03
 8.000	21.500	8.0144e-03
 8.000	21.750	8.0134e-03
 8.000	22.000	8.0128e-03
 8.000	22.250	8.0125e-03
 8.000	22.500	8.0123e-03
 8.000	22.750	8.0125e-03
 8.000	23.000	8.0123e-03
 8.000	23.250	8.0128e-03
 8.000	23.500	8.0122e-03
 8.000	23.750	8.0122e-03
 8.000	24.000	8.0122e-03
 8.250	17.000	3.3263e-02
 8.250	17.250	3.0161e-02
 8.250	17.500	2.6770e-02
 8.250	17.750	2.5073e-02
 8.250	18.000	2.6291e-02
 8.250	18.250	2.2144e-02
 8.250	18.500	1.8536e-02
 8.250	18.750	1.5300e-02
 8.250	19.000	1.2471e-02
 8.250	19.250	1.0557e-02
 8.250	19.500	9.4198e-03
 8.250	19.750	8.7185e-03
 8.250	20.000	8.3751e-03
 8.250	20.250	8.1932e-03
 8.250	20.500	8.0906e-03
 8.250	20.750	8.0468e-03
 8.250	21.000	8.0283e-03
 8.250	21.250	8.0202e-03
 8.250	21.500	8.0163e-03
 8.250	21.750	8.0144e-03
 8.250	22.000	8.0134e-03
 8.250	22.250	8.0128e-03
 8.250	22.500	8.0125e-03
 8.250	22.750	8.0126e-03
 8.250	23.000	8.0123e-03
 8.250	23.250	8.0143e-03
 8.250	23.500	8.0122e-03
 8.250	23.750	8.0122e-03
 8.250	24.000	8.0128e-03
 8.500	17.000	3.3331e-02
 8.500	17.250	3.1004e-02
 8.500	17.500	2.8289e-02
 8.500	17.750	2.5313e-02
 8.500	18.000	2.4541e-02
 8.500	18.250	2.6243e-02
 8.500	18.500	2.2118e-02
 8.500	18.750	1.8542e-02
 8.500	19.000	1.5316e-02
 8.500	19.250	1.2472e-02
 8.500	19.500	1.0556e-02
 8.500	19.750	9.4190e-03
 8.500	20.000	8.7182e-03
 8.500	20.250	8.3750e-03
 8.500	20.500	8.1932e-03
 8.500	20.750	8.0906e-03
 8.500	21.000	8.0468e-03
 8.500	21.250	8.0283e-03
 8.500	21.500	8.0202e-03
 8.500	21.750	8.0163e-03
 8.500	22.000	8.0144e-03
 8.500	22.250	8.0134e-03
 8.500	22.500	8.0128e-03
 8.500	22.750	8.0125e-03
 8.500	23.000	8.0123e-03
 8.500	23.250	8.0125e-03
 8.500	23.500	8.0122e-03
 8.500	23.750	8.0122e-03
 8.500	24.000	8.0122e-03
 8.750	17.000	3.3445e-02
 8.750	17.250	3.1664e-02
 8.750	17.500	2.9565e-02
 8.750	17.750	2.7136e-02
 8.750	18.000	2.4388e-02
 8.750	18.250	2.4227e-02
 8.750	18.500	2.6189e-02
 8.750	18.750	2.2091e-02
 8.750	19.000	1.8552e-02
 8.750	19.250	1.5334e-02
 8.750	19.500	1.2475e-02
 8.750	19.750	1.0555e-02
 8.750	20.000	9.4185e-03
 8.750	20.250	8.7179e-03
 8.750	20.500	8.3749e-03
 8.750	20.750	8.1932e-03
 8.750	21.000	8.0906e-03
 8.750	21.250	8.0468e-03
 8.750	21.500	8.0283e-03
 8.750	21.750	8.0202e-03
 8.750	22.000	8.0163e-03
 8.750	22.250	8.0144e-03
 8.750	22.500	8.0134e-03
 8.750	22.750	8.0128e-03
 8.750	23.000	8.0133e-03
 8.750	23.250	8.0123e-03
 8.750	23.500	8.0125e-03
 8.750	23.750	8.0122e-03
 8.750	24.000	8.0122e-03
 9.000	17.000	3.3668e-02
 9.000	17.250	3.2267e-02
 9.000	17.500	3.0622e-02
 9.000	17.750	2.8614e-02
 9.000	18.000	2.6284e-02
 9.000	18.250	2.3751e-02
 9.000	18.500	2.4013e-02
 9.000	18.750	2.6127e-02
 9.000	19.000	2.2060e-02
 9.000	19.250	1.8560e-02
 9.000	19.500	1.5353e-02
 9.000	19.750	1.2478e-02
 9.000	20.000	1.0555e-02
 9.000	20.250	9.4180e-03
 9.000	20.500	8.7178e-03
 9.000	20.750	8.3749e-03
 9.000	21.000	8.1932e-03
 9.000	21.250	8.0906e-03
 9.000	21.500	8.0468e-03
 9.000	21.750	8.0282e-03
 9.000	22.000	8.0201e-03
 9.000	22.250	8.0163e-03
 9.000	22.500	8.0144e-03
 9.000	22.750	8.0133e-03
 9.000	23.000	8.0128e-03
 9.000	23.250	8.0125e-03
 9.000	23.500	8.0123e-03
 9.000	23.750	8.0123e-03
 9.000	24.000	8.0123e-03
 9.250	17.000	3.4043e-02
 9.250	17.250	3.2851e-02
 9.250	17.500	3.1562e-02
 9.250	17.750	2.9928e-02
 9.250	18.000	2.7899e-02
 9.250	18.250	2.5592e-02
 9.250	18.500	2.3170e-02
 9.250	18.750	2.3856e-02
 9.250	19.000	2.6053e-02
 9.250	19.250	2.2021e-02
 9.250	19.500	1.8562e-02
 9.250	19.750	1.5370e-02
 9.250	20.000	1.2481e-02
 9.250	20.250	1.0555e-02
 9.250	20.500	9.4177e-03
 9.250	20.750	8.7176e-03
 9.250	21.000	8.3748e-03
 9.250	21.250	8.1932e-03
 9.250	21.500	8.0901e-03
 9.250	21.750	8.0463e-03
 9.250	22.000	8.0276e-03
 9.250	22.250	8.0196e-03
 9.250	22.500	8.0160e-03
 9.250	22.750	8.0141e-03
 9.250	23.000	8.0132e-03
 9.250	23.250	8.0127e-03
 9.250	23.500	8.0123e-03
 9.250	23.750	8.0122e-03
 9.250	24.000	8.0122e-03
 9.500	17.000	3.4645e-02
 9.500	17.250	3.3455e-02
 9.500	17.500	3.2405e-02
 9.500	17.750	3.1139e-02
 9.500	18.000	2.9405e-02
 9.500	18.250	2.7190e-02
 9.500	18.500	2.4718e-02
 9.500	18.750	2.2527e-02
 9.500	19.000	2.3732e-02
 9.500	19.250	2.5971e-02
 9.500	19.500	2.1974e-02
 9.500	19.750	1.8555e-02
 9.500	20.000	1.5383e-02
 9.500	20.250	1.2483e-02
 9.500	20.500	1.0555e-02
 9.500	20.750	9.4171e-03
 9.500	21.000	8.7170e-03
 9.500	21.250	8.3743e-03
 9.500	21.500	8.1925e-03
 9.500	21.750	8.0898e-03
 9.500	22.000	8.0460e-03
 9.500	22.250	8.0275e-03
 9.500	22.500	8.0193e-03
 9.500	22.750	8.0156e-03
 9.500	23.000	8.0136e-03
 9.500	23.250	8.0126e-03
 9.500	23.500	8.0121e-03
 9.500	23.750	8.0118e-03
 9.500	24.000	8.0116e-03
 9.750	17.000	3.5632e-02
 9.750	17.250	3.4186e-02
 9.750	17.500	3.3188e-02
 9.750	17.750	3.2215e-02
 9.750	18.000	3.0837e-02
 9.750	18.250	2.8843e-02
 9.750	18.500	2.6252e-02
 9.750	18.750	2.3325e-02
 9.750	19.000	2.2307e-02
 9.750	19.250	2.3620e-02
 9.750	19.500	2.5881e-02
 9.750	19.750	2.1922e-02
 9.750	20.000	1.8539e-02
 9.750	20.250	1.5391e-02
 9.750	20.500	1.2485e-02
 9.750	20.750	1.0554e-02
 9.750	21.000	9.4170e-03
 9.750	21.250	8.7169e-03
 9.750	21.500	8.3743e-03
 9.750	21.750	8.1926e-03
 9.750	22.000	8.0898e-03
 9.750	22.250	8.0461e-03
 9.750	22.500	8.0275e-03
 9.750	22.750	8.0194e-03
 9.750	23.000	8.0156e-03
 9.750	23.250	8.0136e-03
 9.750	23.500	8.0126e-03
 9.750	23.750	8.0120e-03
 9.750	24.000	8.0117e-03
10.000	17.000	3.7224e-02
10.000	17.250	3.5236e-02
10.000	17.500	3.4012e-02
10.000	17.750	3.3176e-02
10.000	18.000	3.2191e-02
10.000	18.250	3.0560e-02
10.000	18.500	2.8126e-02
10.000	18.750	2.5136e-02
10.000	19.000	2.2256e-02
10.000	19.250	2.2038e-02
10.000	19.500	2.3504e-02
10.000	19.750	2.5789e-02
10.000	20.000	2.1871e-02
10.000	20.250	1.8515e-02
10.000	20.500	1.5395e-02
10.000	20.750	1.2487e-02
10.000	21.000	1.0554e-02
10.000	21.250	9.4170e-03
10.000	21.500	8.7168e-03
10.000	21.750	8.3743e-03
10.000	22.000	8.1927e-03
10.000	22.250	8.0900e-03
10.000	22.500	8.0460e-03
10.000	22.750	8.0275e-03
10.000	23.000	8.0193e-03
10.000	23.250	8.0156e-03
10.000	23.500	8.0137e-03
10.000	23.750	8.0126e-03
10.000	24.000	8.0121e-03
10.250	17.000	3.9720e-02
10.250	17.250	3.6897e-02
10.250	17.500	3.5164e-02
10.250	17.750	3.4210e-02
10.250	18.000	3.3490e-02
10.250	18.250	3.2279e-02
10.250	18.500	3.0236e-02
10.250	18.750	2.7337e-02
10.250	19.000	2.3851e-02
10.250	19.250	2.0900e-02
10.250	19.500	2.1918e-02
10.250	19.750	2.3400e-02
10.250	20.000	2.5744e-02
10.250	20.250	2.1840e-02
10.250	20.500	1.8488e-02
10.250	20.750	1.5394e-02
10.250	21.000	1.2488e-02
10.250	21.250	1.0555e-02
10.250	21.500	9.4170e-03
10.250	21.750	8.7167e-03
10.250	22.000	8.3744e-03
10.250	22.250	8.1927e-03
10.250	22.500	8.0900e-03
10.250	22.750	8.0460e-03
10.250	23.000	8.0275e-03
10.250	23.250	8.0193e-03
10.250	23.500	8.0156e-03
10.250	23.750	8.0136e-03
10.250	24.000	8.0126e-03
10.500	17.000	4.3236e-02
10.500	17.250	3.9489e-02
10.500	17.500	3.7004e-02
10.500	17.750	3.5711e-02
10.500	18.000	3.5008e-02
10.500	18.250	3.4091e-02
10.500	18.500	3.2428e-02
10.500	18.750	2.9906e-02
10.500	19.000	2.6546e-02
10.500	19.250	2.2649e-02
10.500	19.500	2.1454e-02
10.500	19.750	2.2136e-02
10.500	20.000	2.3534e-02
10.500	20.250	2.5764e-02
10.500	20.500	2.1842e-02
10.500	20.750	1.8465e-02
10.500	21.000	1.5389e-02
10.500	21.250	1.2488e-02
10.500	21.500	1.0555e-02
10.500	21.750	9.4170e-03
10.500	22.000	8.7168e-03
10.500	22.250	8.3745e-03
10.500	22.500	8.1928e-03
10.500	22.750	8.0900e-03
10.500	23.000	8.0462e-03
10.500	23.250	8.0275e-03
10.500	23.500	8.0194e-03
10.500	23.750	8.0156e-03
10.500	24.000	8.0137e-03
10.750	17.000	4.7839e-02
10.750	17.250	4.3140e-02
10.750	17.500	3.9920e-02
10.750	17.750	3.8139e-02
10.750	18.000	3.7189e-02
10.750	18.250	3.6214e-02
10.750	18.500	3.4745e-02
10.750	18.750	3.2513e-02
10.750	19.000	2.9508e-02
10.750	19.250	2.5816e-02
10.750	19.500	2.1708e-02
10.750	19.750	2.1705e-02
10.750	20.000	2.2688e-02
10.750	20.250	2.4030e-02
10.750	20.500	2.6020e-02
10.750	20.750	2.1901e-02
10.750	21.000	1.8453e-02
10.750	21.250	1.5380e-02
10.750	21.500	1.2488e-02
10.750	21.750	1.0555e-02
10.750	22.000	9.4172e-03
10.750	22.250	8.7168e-03
10.750	22.500	8.3747e-03
10.750	22.750	8.1928e-03
10.750	23.000	8.0901e-03
10.750	23.250	8.0463e-03
10.750	23.500	8.0276e-03
10.750	23.750	8.0193e-03
10.750	24.000	8.0156e-03
11.000	17.000	5.3600e-02
11.000	17.250	4.7910e-02
11.000	17.500	4.4020e-02
11.000	17.750	4.1818e-02
11.000	18.000	4.0407e-02
11.000	18.250	3.8957e-02
11.000	18.500	3.7237e-02
11.000	18.750	3.5114e-02
11.000	19.000	3.2434e-02
11.000	19.250	2.9125e-02
11.000	19.500	2.5210e-02
11.000	19.750	2.0917e-02
11.000	20.000	2.2589e-02
11.000	20.250	2.4091e-02
11.000	20.500	2.4961e-02
11.000	20.750	2.6581e-02
11.000	21.000	2.2123e-02
11.000	21.250	1.8464e-02
11.000	21.500	1.5368e-02
11.000	21.750	1.2486e-02
11.000	22.000	1.0555e-02
11.000	22.250	9.4174e-03
11.000	22.500	8.7166e-03
11.000	22.750	8.3748e-03
11.000	23.000	8.1930e-03
11.000	23.250	8.0901e-03
11.000	23.500	8.0463e-03
11.000	23.750	8.0277e-03
11.000	24.000	8.0194e-03
11.250	17.000	6.0641e-02
11.250	17.250	5.3826e-02
11.250	17.500	4.9315e-02
11.250	17.750	4.6773e-02
11.250	18.000	4.4875e-02
11.250	18.250	4.2577e-02
11.250	18.500	4.0182e-02
11.250	18.750	3.7986e-02
11.250	19.000	3.5350e-02
11.250	19.250	3.2304e-02
11.250	19.500	2.8841e-02
11.250	19.750	2.4851e-02
11.250	20.000	2.1107e-02
11.250	20.250	2.3684e-02
11.250	20.500	2.5283e-02
11.250	20.750	2.6477e-02
11.250	21.000	2.7752e-02
11.250	21.250	2.2509e-02
11.250	21.500	1.8533e-02
11.250	21.750	1.5355e-02
11.250	22.000	1.2484e-02
11.250	22.250	1.0555e-02
11.250	22.500	9.4178e-03
11.250	22.750	8.7165e-03
11.250	23.000	8.3748e-03
11.250	23.250	8.1933e-03
11.250	23.500	8.0902e-03
11.250	23.750	8.0463e-03
11.250	24.000	8.0277e-03
11.500	17.000	6.9132e-02
11.500	17.250	6.1032e-02
11.500	17.500	5.5837e-02
11.500	17.750	5.2902e-02
11.500	18.000	5.0415e-02
11.500	18.250	4.7358e-02
11.500	18.500	4.4123e-02
11.500	18.750	4.1268e-02
11.500	19.000	3.8401e-02
11.500	19.250	3.5419e-02
11.500	19.500	3.2273e-02
11.500	19.750	2.8816e-02
11.500	20.000	2.4874e-02
11.500	20.250	2.2082e-02
11.500	20.500	2.5438e-02
11.500	20.750	2.7455e-02
11.500	21.000	2.8766e-02
11.500	21.250	2.9260e-02
11.500	21.500	2.3101e-02
11.500	21.750	1.8665e-02
11.500	22.000	1.5345e-02
11.500	22.250	1.2482e-02
11.500	22.500	1.0555e-02
11.500	22.750	9.4184e-03
11.500	23.000	8.7163e-03
11.500	23.250	8.3748e-03
11.500	23.500	8.1933e-03
11.500	23.750	8.0903e-03
11.500	24.000	8.0463e-03
11.750	17.000	7.8851e-02
11.750	17.250	6.9466e-02
11.750	17.500	6.3509e-02
11.750	17.750	5.9980e-02
11.750	18.000	5.6725e-02
11.750	18.250	5.3138e-02
11.750	18.500	4.9168e-02
11.750	18.750	4.5198e-02
11.750	19.000	4.1872e-02
11.750	19.250	3.8630e-02
11.750	19.500	3.5511e-02
11.750	19.750	3.2352e-02
11.750	20.000	2.9054e-02
11.750	20.250	2.5309e-02
11.750	20.500	2.3576e-02
11.750	20.750	2.7611e-02
11.750	21.000	3.0307e-02
11.750	21.250	3.2164e-02
11.750	21.500	3.0781e-02
11.750	21.750	2.3840e-02
11.750	22.000	1.8906e-02
11.750	22.250	1.5344e-02
11.750	22.500	1.2478e-02
11.750	22.750	1.0555e-02
11.750	23.000	9.4190e-03
11.750	23.250	8.7160e-03
11.750	23.500	8.3748e-03
11.750	23.750	8.1934e-03
11.750	24.000	8.0905e-03
12.000	17.000	8.9082e-02
12.000	17.250	7.8551e-02
12.000	17.500	7.1840e-02
12.000	17.750	6.7586e-02
12.000	18.000	6.3714e-02
12.000	18.250	5.9660e-02
12.000	18.500	5.5152e-02
12.000	18.750	5.0462e-02
12.000	19.000	4.6095e-02
12.000	19.250	4.2140e-02
12.000	19.500	3.8756e-02
12.000	19.750	3.5602e-02
12.000	20.000	3.2632e-02
12.000	20.250	2.9611e-02
12.000	20.500	2.6192e-02
12.000	20.750	2.5658e-02
12.000	21.000	3.0624e-02
12.000	21.250	3.4955e-02
12.000	21.500	3.7001e-02
12.000	21.750	3.2248e-02
12.000	22.000	2.4703e-02
12.000	22.250	1.9233e-02
12.000	22.500	1.5359e-02
12.000	22.750	1.2474e-02
12.000	23.000	1.0555e-02
12.000	23.250	9.4198e-03
12.000	23.500	8.7156e-03
12.000	23.750	8.3747e-03
12.000	24.000	8.1935e-03
12.250	17.000	9.7101e-02
12.250	17.250	8.6953e-02
12.250	17.500	7.9825e-02
12.250	17.750	7.5092e-02
12.250	18.000	7.1046e-02
12.250	18.250	6.6716e-02
12.250	18.500	6.1762e-02
12.250	18.750	5.6680e-02
12.250	19.000	5.1380e-02
12.250	19.250	4.6423e-02
12.250	19.500	4.2246e-02
12.250	19.750	3.8817e-02
12.250	20.000	3.5767e-02
12.250	20.250	3.3108e-02
12.250	20.500	3.0534e-02
12.250	20.750	2.7605e-02
12.250	21.000	2.8956e-02
12.250	21.250	3.5539e-02
12.250	21.500	4.1148e-02
12.250	21.750	4.2568e-02
12.250	22.000	3.3793e-02
12.250	22.250	2.5241e-02
12.250	22.500	1.9384e-02
12.250	22.750	1.5392e-02
12.250	23.000	1.2471e-02
12.250	23.250	1.0555e-02
12.250	23.500	9.4207e-03
12.250	23.750	8.7152e-03
12.250	24.000	8.3746e-03
12.500	17.000	9.5940e-02
12.500	17.250	9.2576e-02
12.500	17.500	8.6665e-02
12.500	17.750	8.2064e-02
12.500	18.000	7.8047e-02
12.500	18.250	7.3632e-02
12.500	18.500	6.8742e-02
12.500	18.750	6.3248e-02
12.500	19.000	5.7338e-02
12.500	19.250	5.1635e-02
12.500	19.500	4.6343e-02
12.500	19.750	4.2179e-02
12.500	20.000	3.8811e-02
12.500	20.250	3.6040e-02
12.500	20.500	3.3866e-02
12.500	20.750	3.2064e-02
12.500	21.000	3.0366e-02
12.500	21.250	3.4318e-02
12.500	21.500	4.2351e-02
12.500	21.750	4.8557e-02
12.500	22.000	4.6622e-02
12.500	22.250	3.5030e-02
12.500	22.500	2.6041e-02
12.500	22.750	1.9806e-02
12.500	23.000	1.5440e-02
12.500	23.250	1.2468e-02
12.500	23.500	1.0555e-02
12.500	23.750	9.4214e-03
12.500	24.000	8.7145e-03
12.750	17.000	8.9119e-02
12.750	17.250	9.2991e-02
12.750	17.500	9.2410e-02
12.750	17.750	8.7785e-02
12.750	18.000	8.3640e-02
12.750	18.250	7.9654e-02
12.750	18.500	7.5033e-02
12.750	18.750	6.9754e-02
12.750	19.000	6.3797e-02
12.750	19.250	5.7453e-02
12.750	19.500	5.1303e-02
12.750	19.750	4.5980e-02
12.750	20.000	4.1896e-02
12.750	20.250	3.8838e-02
12.750	20.500	3.6527e-02
12.750	20.750	3.5159e-02
12.750	21.000	3.4812e-02
12.750	21.250	3.4737e-02
12.750	21.500	4.1259e-02
12.750	21.750	5.1625e-02
12.750	22.000	5.6717e-02
12.750	22.250	4.9894e-02
12.750	22.500	3.6667e-02
12.750	22.750	2.7001e-02
12.750	23.000	2.0158e-02
12.750	23.250	1.5497e-02
12.750	23.500	1.2466e-02
12.750	23.750	1.0554e-02
12.750	24.000	9.4221e-03
13.000	17.000	9.2299e-02
13.000	17.250	8.2940e-02
13.000	17.500	8.4629e-02
13.000	17.750	8.6479e-02
13.000	18.000	8.4758e-02
13.000	18.250	8.2218e-02
13.000	18.500	7.9093e-02
13.000	18.750	7.4834e-02
13.000	19.000	6.9524e-02
13.000	19.250	6.3343e-02
13.000	19.500	5.6815e-02
13.000	19.750	5.0651e-02
13.000	20.000	4.5443e-02
13.000	20.250	4.1550e-02
13.000	20.500	3.8946e-02
13.000	20.750	3.7368e-02
13.000	21.000	3.7014e-02
13.000	21.250	3.8506e-02
13.000	21.500	4.0345e-02
13.000	21.750	5.0902e-02
13.000	22.000	6.0591e-02
13.000	22.250	6.4017e-02
13.000	22.500	5.2890e-02
13.000	22.750	3.8125e-02
13.000	23.000	2.7723e-02
13.000	23.250	2.0466e-02
13.000	23.500	1.5563e-02
13.000	23.750	1.2466e-02
13.000	24.000	1.0554e-02
13.250	17.000	8.8312e-02
13.250	17.250	7.6992e-02
13.250	17.500	4.3058e-02
13.250	17.750	5.7692e-02
13.250	18.000	7.2223e-02
13.250	18.250	7.6181e-02
13.250	18.500	7.7219e-02
13.250	18.750	7.6211e-02
13.250	19.000	7.3012e-02
13.250	19.250	6.8026e-02
13.250	19.500	6.1978e-02
13.250	19.750	5.5748e-02
13.250	20.000	4.9755e-02
13.250	20.250	4.4763e-02
13.250	20.500	4.1217e-02
13.250	20.750	3.9065e-02
13.250	21.000	3.8519e-02
13.250	21.250	3.9487e-02
13.250	21.500	4.1648e-02
13.250	21.750	4.4836e-02
13.250	22.000	5.7716e-02
13.250	22.250	6.8864e-02
13.250	22.500	6.9976e-02
13.250	22.750	5.5965e-02
13.250	23.000	3.9640e-02
13.250	23.250	2.7986e-02
13.250	23.500	2.0544e-02
13.250	23.750	1.5633e-02
13.250	24.000	1.2468e-02
13.500	17.000	8.4549e-02
13.500	17.250	7.3460e-02
13.500	17.500	3.7580e-02
13.500	17.750	3.5617e-02
13.500	18.000	3.5371e-02
13.500	18.250	4.3308e-02
13.500	18.500	6.0012e-02
13.500	18.750	6.8140e-02
13.500	19.000	7.0913e-02
13.500	19.250	6.9573e-02
13.500	19.500	6.5545e-02
13.500	19.750	6.0072e-02
13.500	20.000	5.4152e-02
13.500	20.250	4.8671e-02
13.500	20.500	4.4117e-02
13.500	20.750	4.0865e-02
13.500	21.000	3.8902e-02
13.500	21.250	3.9184e-02
13.500	21.500	3.9866e-02
13.500	21.750	4.2465e-02
13.500	22.000	4.7551e-02
13.500	22.250	6.2786e-02
13.500	22.500	7.4983e-02
13.500	22.750	7.5254e-02
13.500	23.000	5.9079e-02
13.500	23.250	4.1355e-02
13.500	23.500	2.9054e-02
13.500	23.750	2.0975e-02
13.500	24.000	1.5695e-02
13.750	17.000	7.9730e-02
13.750	17.250	7.2676e-02
13.750	17.500	3.6598e-02
13.750	17.750	3.2993e-02
13.750	18.000	3.2525e-02
13.750	18.250	3.2463e-02
13.750	18.500	3.2568e-02
13.750	18.750	3.5272e-02
13.750	19.000	5.4779e-02
13.750	19.250	6.3468e-02
13.750	19.500	6.4827e-02
13.750	19.750	6.2105e-02
13.750	20.000	5.7528e-02
13.750	20.250	5.2419e-02
13.750	20.500	4.7611e-02
13.750	20.750	4.3656e-02
13.750	21.000	4.0827e-02
13.750	21.250	3.9211e-02
13.750	21.500	3.9251e-02
13.750	21.750	4.0897e-02
13.750	22.000	4.4042e-02
13.750	22.250	5.2421e-02
13.750	22.500	6.8395e-02
13.750	22.750	8.2146e-02
13.750	23.000	8.0977e-02
13.750	23.250	6.2117e-02
13.750	23.500	4.2680e-02
13.750	23.750	2.9671e-02
13.750	24.000	2.1206e-02
14.000	17.000	7.2550e-02
14.000	17.250	7.1307e-02
14.000	17.500	4.1627e-02
14.000	17.750	3.0682e-02
14.000	18.000	3.0056e-02
14.000	18.250	2.9907e-02
14.000	18.500	2.9952e-02
14.000	18.750	3.0031e-02
14.000	19.000	3.0084e-02
14.000	19.250	3.7726e-02
14.000	19.500	5.4357e-02
14.000	19.750	5.9016e-02
14.000	20.000	5.8131e-02
14.000	20.250	5.4741e-02
14.000	20.500	5.0617e-02
14.000	20.750	4.6737e-02
14.000	21.000	4.3573e-02
14.000	21.250	4.1570e-02
14.000	21.500	4.0486e-02
14.000	21.750	4.1179e-02
14.000	22.000	4.3602e-02
14.000	22.250	4.9276e-02
14.000	22.500	6.1027e-02
14.000	22.750	7.6494e-02
14.000	23.000	8.9958e-02
14.000	23.250	8.7287e-02
14.000	23.500	6.5083e-02
14.000	23.750	4.3897e-02
14.000	24.000	3.0286e-02
