InwC 8500.00A  relative to Inci 1215.00A scaled to 1215A.
Hden   Phi(H)  Eq_Width (A)
 7.000	17.000	1.9803e-03
 7.000	17.250	1.9812e-03
 7.000	17.500	1.9821e-03
 7.000	17.750	1.9829e-03
 7.000	18.000	1.9838e-03
 7.000	18.250	1.9844e-03
 7.000	18.500	1.9849e-03
 7.000	18.750	1.9852e-03
 7.000	19.000	1.9854e-03
 7.000	19.250	1.9856e-03
 7.000	19.500	1.9857e-03
 7.000	19.750	1.9857e-03
 7.000	20.000	1.9858e-03
 7.000	20.250	1.9858e-03
 7.000	20.500	1.9858e-03
 7.000	20.750	1.9858e-03
 7.000	21.000	1.9858e-03
 7.000	21.250	1.9858e-03
 7.000	21.500	1.9858e-03
 7.000	21.750	1.9858e-03
 7.000	22.000	1.9858e-03
 7.000	22.250	1.9858e-03
 7.000	22.500	1.9858e-03
 7.000	22.750	1.9858e-03
 7.000	23.000	1.9858e-03
 7.000	23.250	1.9858e-03
 7.000	23.500	1.9858e-03
 7.000	23.750	1.9858e-03
 7.000	24.000	1.9858e-03
 7.250	17.000	1.9771e-03
 7.250	17.250	1.9804e-03
 7.250	17.500	1.9812e-03
 7.250	17.750	1.9821e-03
 7.250	18.000	1.9829e-03
 7.250	18.250	1.9838e-03
 7.250	18.500	1.9844e-03
 7.250	18.750	1.9849e-03
 7.250	19.000	1.9852e-03
 7.250	19.250	1.9854e-03
 7.250	19.500	1.9856e-03
 7.250	19.750	1.9857e-03
 7.250	20.000	1.9857e-03
 7.250	20.250	1.9857e-03
 7.250	20.500	1.9858e-03
 7.250	20.750	1.9858e-03
 7.250	21.000	1.9858e-03
 7.250	21.250	1.9858e-03
 7.250	21.500	1.9858e-03
 7.250	21.750	1.9862e-03
 7.250	22.000	1.9858e-03
 7.250	22.250	1.9858e-03
 7.250	22.500	1.9858e-03
 7.250	22.750	1.9859e-03
 7.250	23.000	1.9859e-03
 7.250	23.250	1.9858e-03
 7.250	23.500	1.9858e-03
 7.250	23.750	1.9858e-03
 7.250	24.000	1.9858e-03
 7.500	17.000	1.8998e-03
 7.500	17.250	1.9773e-03
 7.500	17.500	1.9804e-03
 7.500	17.750	1.9812e-03
 7.500	18.000	1.9821e-03
 7.500	18.250	1.9829e-03
 7.500	18.500	1.9838e-03
 7.500	18.750	1.9844e-03
 7.500	19.000	1.9849e-03
 7.500	19.250	1.9852e-03
 7.500	19.500	1.9854e-03
 7.500	19.750	1.9856e-03
 7.500	20.000	1.9857e-03
 7.500	20.250	1.9857e-03
 7.500	20.500	1.9857e-03
 7.500	20.750	1.9858e-03
 7.500	21.000	1.9858e-03
 7.500	21.250	1.9858e-03
 7.500	21.500	1.9858e-03
 7.500	21.750	1.9858e-03
 7.500	22.000	1.9858e-03
 7.500	22.250	1.9858e-03
 7.500	22.500	1.9858e-03
 7.500	22.750	1.9858e-03
 7.500	23.000	1.9858e-03
 7.500	23.250	1.9859e-03
 7.500	23.500	1.9858e-03
 7.500	23.750	1.9860e-03
 7.500	24.000	1.9858e-03
 7.750	17.000	1.7559e-03
 7.750	17.250	1.9001e-03
 7.750	17.500	1.9774e-03
 7.750	17.750	1.9804e-03
 7.750	18.000	1.9812e-03
 7.750	18.250	1.9821e-03
 7.750	18.500	1.9830e-03
 7.750	18.750	1.9838e-03
 7.750	19.000	1.9844e-03
 7.750	19.250	1.9849e-03
 7.750	19.500	1.9852e-03
 7.750	19.750	1.9854e-03
 7.750	20.000	1.9856e-03
 7.750	20.250	1.9857e-03
 7.750	20.500	1.9857e-03
 7.750	20.750	1.9857e-03
 7.750	21.000	1.9858e-03
 7.750	21.250	1.9858e-03
 7.750	21.500	1.9858e-03
 7.750	21.750	1.9858e-03
 7.750	22.000	1.9858e-03
 7.750	22.250	1.9858e-03
 7.750	22.500	1.9858e-03
 7.750	22.750	1.9858e-03
 7.750	23.000	1.9858e-03
 7.750	23.250	1.9858e-03
 7.750	23.500	1.9859e-03
 7.750	23.750	1.9859e-03
 7.750	24.000	1.9858e-03
 8.000	17.000	1.2416e-03
 8.000	17.250	1.7452e-03
 8.000	17.500	1.8994e-03
 8.000	17.750	1.9770e-03
 8.000	18.000	1.9804e-03
 8.000	18.250	1.9812e-03
 8.000	18.500	1.9821e-03
 8.000	18.750	1.9830e-03
 8.000	19.000	1.9838e-03
 8.000	19.250	1.9844e-03
 8.000	19.500	1.9849e-03
 8.000	19.750	1.9852e-03
 8.000	20.000	1.9854e-03
 8.000	20.250	1.9856e-03
 8.000	20.500	1.9857e-03
 8.000	20.750	1.9857e-03
 8.000	21.000	1.9857e-03
 8.000	21.250	1.9858e-03
 8.000	21.500	1.9858e-03
 8.000	21.750	1.9858e-03
 8.000	22.000	1.9858e-03
 8.000	22.250	1.9858e-03
 8.000	22.500	1.9858e-03
 8.000	22.750	1.9858e-03
 8.000	23.000	1.9858e-03
 8.000	23.250	1.9858e-03
 8.000	23.500	1.9858e-03
 8.000	23.750	1.9858e-03
 8.000	24.000	1.9858e-03
 8.250	17.000	8.6979e-04
 8.250	17.250	1.2465e-03
 8.250	17.500	1.7471e-03
 8.250	17.750	1.8997e-03
 8.250	18.000	1.9772e-03
 8.250	18.250	1.9804e-03
 8.250	18.500	1.9812e-03
 8.250	18.750	1.9821e-03
 8.250	19.000	1.9830e-03
 8.250	19.250	1.9838e-03
 8.250	19.500	1.9844e-03
 8.250	19.750	1.9849e-03
 8.250	20.000	1.9852e-03
 8.250	20.250	1.9854e-03
 8.250	20.500	1.9856e-03
 8.250	20.750	1.9857e-03
 8.250	21.000	1.9857e-03
 8.250	21.250	1.9857e-03
 8.250	21.500	1.9858e-03
 8.250	21.750	1.9858e-03
 8.250	22.000	1.9858e-03
 8.250	22.250	1.9858e-03
 8.250	22.500	1.9858e-03
 8.250	22.750	1.9858e-03
 8.250	23.000	1.9858e-03
 8.250	23.250	1.9863e-03
 8.250	23.500	1.9858e-03
 8.250	23.750	1.9858e-03
 8.250	24.000	1.9858e-03
 8.500	17.000	6.0757e-04
 8.500	17.250	8.7621e-04
 8.500	17.500	1.2519e-03
 8.500	17.750	1.7495e-03
 8.500	18.000	1.8999e-03
 8.500	18.250	1.9773e-03
 8.500	18.500	1.9804e-03
 8.500	18.750	1.9812e-03
 8.500	19.000	1.9821e-03
 8.500	19.250	1.9830e-03
 8.500	19.500	1.9838e-03
 8.500	19.750	1.9844e-03
 8.500	20.000	1.9849e-03
 8.500	20.250	1.9852e-03
 8.500	20.500	1.9854e-03
 8.500	20.750	1.9856e-03
 8.500	21.000	1.9857e-03
 8.500	21.250	1.9857e-03
 8.500	21.500	1.9857e-03
 8.500	21.750	1.9858e-03
 8.500	22.000	1.9858e-03
 8.500	22.250	1.9858e-03
 8.500	22.500	1.9858e-03
 8.500	22.750	1.9858e-03
 8.500	23.000	1.9858e-03
 8.500	23.250	1.9858e-03
 8.500	23.500	1.9858e-03
 8.500	23.750	1.9858e-03
 8.500	24.000	1.9858e-03
 8.750	17.000	4.2477e-04
 8.750	17.250	6.1473e-04
 8.750	17.500	8.8535e-04
 8.750	17.750	1.2557e-03
 8.750	18.000	1.7539e-03
 8.750	18.250	1.9000e-03
 8.750	18.500	1.9773e-03
 8.750	18.750	1.9804e-03
 8.750	19.000	1.9812e-03
 8.750	19.250	1.9821e-03
 8.750	19.500	1.9830e-03
 8.750	19.750	1.9838e-03
 8.750	20.000	1.9844e-03
 8.750	20.250	1.9849e-03
 8.750	20.500	1.9852e-03
 8.750	20.750	1.9854e-03
 8.750	21.000	1.9856e-03
 8.750	21.250	1.9857e-03
 8.750	21.500	1.9857e-03
 8.750	21.750	1.9857e-03
 8.750	22.000	1.9858e-03
 8.750	22.250	1.9858e-03
 8.750	22.500	1.9858e-03
 8.750	22.750	1.9858e-03
 8.750	23.000	1.9859e-03
 8.750	23.250	1.9858e-03
 8.750	23.500	1.9858e-03
 8.750	23.750	1.9858e-03
 8.750	24.000	1.9858e-03
 9.000	17.000	2.9695e-04
 9.000	17.250	4.3095e-04
 9.000	17.500	6.2527e-04
 9.000	17.750	9.0148e-04
 9.000	18.000	1.2739e-03
 9.000	18.250	1.7684e-03
 9.000	18.500	1.9000e-03
 9.000	18.750	1.9773e-03
 9.000	19.000	1.9804e-03
 9.000	19.250	1.9812e-03
 9.000	19.500	1.9821e-03
 9.000	19.750	1.9830e-03
 9.000	20.000	1.9838e-03
 9.000	20.250	1.9844e-03
 9.000	20.500	1.9849e-03
 9.000	20.750	1.9852e-03
 9.000	21.000	1.9854e-03
 9.000	21.250	1.9856e-03
 9.000	21.500	1.9857e-03
 9.000	21.750	1.9857e-03
 9.000	22.000	1.9857e-03
 9.000	22.250	1.9857e-03
 9.000	22.500	1.9857e-03
 9.000	22.750	1.9858e-03
 9.000	23.000	1.9858e-03
 9.000	23.250	1.9858e-03
 9.000	23.500	1.9858e-03
 9.000	23.750	1.9858e-03
 9.000	24.000	1.9858e-03
 9.250	17.000	2.0790e-04
 9.250	17.250	3.0230e-04
 9.250	17.500	4.4165e-04
 9.250	17.750	6.4568e-04
 9.250	18.000	9.3103e-04
 9.250	18.250	1.3122e-03
 9.250	18.500	1.8025e-03
 9.250	18.750	1.8998e-03
 9.250	19.000	1.9771e-03
 9.250	19.250	1.9803e-03
 9.250	19.500	1.9812e-03
 9.250	19.750	1.9821e-03
 9.250	20.000	1.9830e-03
 9.250	20.250	1.9838e-03
 9.250	20.500	1.9844e-03
 9.250	20.750	1.9849e-03
 9.250	21.000	1.9852e-03
 9.250	21.250	1.9854e-03
 9.250	21.500	1.9855e-03
 9.250	21.750	1.9855e-03
 9.250	22.000	1.9855e-03
 9.250	22.250	1.9856e-03
 9.250	22.500	1.9856e-03
 9.250	22.750	1.9856e-03
 9.250	23.000	1.9857e-03
 9.250	23.250	1.9857e-03
 9.250	23.500	1.9857e-03
 9.250	23.750	1.9857e-03
 9.250	24.000	1.9857e-03
 9.500	17.000	1.4626e-04
 9.500	17.250	2.1243e-04
 9.500	17.500	3.1218e-04
 9.500	17.750	4.6272e-04
 9.500	18.000	6.8239e-04
 9.500	18.250	9.9012e-04
 9.500	18.500	1.3947e-03
 9.500	18.750	1.8561e-03
 9.500	19.000	1.8994e-03
 9.500	19.250	1.9769e-03
 9.500	19.500	1.9803e-03
 9.500	19.750	1.9812e-03
 9.500	20.000	1.9821e-03
 9.500	20.250	1.9830e-03
 9.500	20.500	1.9838e-03
 9.500	20.750	1.9844e-03
 9.500	21.000	1.9849e-03
 9.500	21.250	1.9851e-03
 9.500	21.500	1.9853e-03
 9.500	21.750	1.9854e-03
 9.500	22.000	1.9855e-03
 9.500	22.250	1.9855e-03
 9.500	22.500	1.9855e-03
 9.500	22.750	1.9855e-03
 9.500	23.000	1.9855e-03
 9.500	23.250	1.9855e-03
 9.500	23.500	1.9855e-03
 9.500	23.750	1.9855e-03
 9.500	24.000	1.9855e-03
 9.750	17.000	1.0288e-04
 9.750	17.250	1.4963e-04
 9.750	17.500	2.2066e-04
 9.750	17.750	3.3152e-04
 9.750	18.000	5.0354e-04
 9.750	18.250	7.5226e-04
 9.750	18.500	1.0956e-03
 9.750	18.750	1.5458e-03
 9.750	19.000	1.8560e-03
 9.750	19.250	1.8986e-03
 9.750	19.500	1.9763e-03
 9.750	19.750	1.9803e-03
 9.750	20.000	1.9812e-03
 9.750	20.250	1.9821e-03
 9.750	20.500	1.9830e-03
 9.750	20.750	1.9838e-03
 9.750	21.000	1.9844e-03
 9.750	21.250	1.9849e-03
 9.750	21.500	1.9851e-03
 9.750	21.750	1.9853e-03
 9.750	22.000	1.9854e-03
 9.750	22.250	1.9855e-03
 9.750	22.500	1.9855e-03
 9.750	22.750	1.9855e-03
 9.750	23.000	1.9855e-03
 9.750	23.250	1.9855e-03
 9.750	23.500	1.9855e-03
 9.750	23.750	1.9855e-03
 9.750	24.000	1.9855e-03
10.000	17.000	7.2346e-05
10.000	17.250	1.0535e-04
10.000	17.500	1.5621e-04
10.000	17.750	2.3802e-04
10.000	18.000	3.7152e-04
10.000	18.250	5.7243e-04
10.000	18.500	8.5473e-04
10.000	18.750	1.2263e-03
10.000	19.000	1.6703e-03
10.000	19.250	1.8555e-03
10.000	19.500	1.8974e-03
10.000	19.750	1.9752e-03
10.000	20.000	1.9802e-03
10.000	20.250	1.9812e-03
10.000	20.500	1.9821e-03
10.000	20.750	1.9830e-03
10.000	21.000	1.9838e-03
10.000	21.250	1.9844e-03
10.000	21.500	1.9849e-03
10.000	21.750	1.9851e-03
10.000	22.000	1.9853e-03
10.000	22.250	1.9854e-03
10.000	22.500	1.9855e-03
10.000	22.750	1.9855e-03
10.000	23.000	1.9855e-03
10.000	23.250	1.9855e-03
10.000	23.500	1.9855e-03
10.000	23.750	1.9855e-03
10.000	24.000	1.9855e-03
10.250	17.000	5.1029e-05
10.250	17.250	7.4403e-05
10.250	17.500	1.1095e-04
10.250	17.750	1.7185e-04
10.250	18.000	2.7399e-04
10.250	18.250	4.3021e-04
10.250	18.500	6.5663e-04
10.250	18.750	9.6675e-04
10.250	19.000	1.3773e-03
10.250	19.250	1.8273e-03
10.250	19.500	1.8546e-03
10.250	19.750	1.8958e-03
10.250	20.000	1.9736e-03
10.250	20.250	1.9802e-03
10.250	20.500	1.9812e-03
10.250	20.750	1.9821e-03
10.250	21.000	1.9830e-03
10.250	21.250	1.9838e-03
10.250	21.500	1.9844e-03
10.250	21.750	1.9849e-03
10.250	22.000	1.9851e-03
10.250	22.250	1.9853e-03
10.250	22.500	1.9855e-03
10.250	22.750	1.9855e-03
10.250	23.000	1.9855e-03
10.250	23.250	1.9855e-03
10.250	23.500	1.9855e-03
10.250	23.750	1.9855e-03
10.250	24.000	1.9855e-03
10.500	17.000	3.6049e-05
10.500	17.250	5.2757e-05
10.500	17.500	7.9259e-05
10.500	17.750	1.2486e-04
10.500	18.000	2.0255e-04
10.500	18.250	3.2321e-04
10.500	18.500	4.9580e-04
10.500	18.750	7.4444e-04
10.500	19.000	1.0777e-03
10.500	19.250	1.5167e-03
10.500	19.500	1.8316e-03
10.500	19.750	1.8535e-03
10.500	20.000	1.8944e-03
10.500	20.250	1.9714e-03
10.500	20.500	1.9800e-03
10.500	20.750	1.9811e-03
10.500	21.000	1.9821e-03
10.500	21.250	1.9830e-03
10.500	21.500	1.9838e-03
10.500	21.750	1.9844e-03
10.500	22.000	1.9849e-03
10.500	22.250	1.9851e-03
10.500	22.500	1.9853e-03
10.500	22.750	1.9855e-03
10.500	23.000	1.9855e-03
10.500	23.250	1.9855e-03
10.500	23.500	1.9855e-03
10.500	23.750	1.9855e-03
10.500	24.000	1.9855e-03
10.750	17.000	2.5514e-05
10.750	17.250	3.7449e-05
10.750	17.500	5.6955e-05
10.750	17.750	9.1193e-05
10.750	18.000	1.4955e-04
10.750	18.250	2.3975e-04
10.750	18.500	3.7169e-04
10.750	18.750	5.5860e-04
10.750	19.000	8.1844e-04
10.750	19.250	1.1747e-03
10.750	19.500	1.6258e-03
10.750	19.750	1.8309e-03
10.750	20.000	1.8525e-03
10.750	20.250	1.8933e-03
10.750	20.500	1.9697e-03
10.750	20.750	1.9797e-03
10.750	21.000	1.9809e-03
10.750	21.250	1.9820e-03
10.750	21.500	1.9830e-03
10.750	21.750	1.9838e-03
10.750	22.000	1.9844e-03
10.750	22.250	1.9849e-03
10.750	22.500	1.9852e-03
10.750	22.750	1.9853e-03
10.750	23.000	1.9855e-03
10.750	23.250	1.9855e-03
10.750	23.500	1.9855e-03
10.750	23.750	1.9855e-03
10.750	24.000	1.9855e-03
11.000	17.000	1.8025e-05
11.000	17.250	2.6584e-05
11.000	17.500	4.0988e-05
11.000	17.750	6.6584e-05
11.000	18.000	1.0963e-04
11.000	18.250	1.7588e-04
11.000	18.500	2.7300e-04
11.000	18.750	4.1226e-04
11.000	19.000	6.0988e-04
11.000	19.250	8.8650e-04
11.000	19.500	1.2645e-03
11.000	19.750	1.7556e-03
11.000	20.000	1.8300e-03
11.000	20.250	1.8519e-03
11.000	20.500	1.8929e-03
11.000	20.750	1.9691e-03
11.000	21.000	1.9793e-03
11.000	21.250	1.9806e-03
11.000	21.500	1.9819e-03
11.000	21.750	1.9829e-03
11.000	22.000	1.9837e-03
11.000	22.250	1.9844e-03
11.000	22.500	1.9849e-03
11.000	22.750	1.9852e-03
11.000	23.000	1.9853e-03
11.000	23.250	1.9855e-03
11.000	23.500	1.9855e-03
11.000	23.750	1.9855e-03
11.000	24.000	1.9855e-03
11.250	17.000	1.2757e-05
11.250	17.250	1.8848e-05
11.250	17.500	2.9383e-05
11.250	17.750	4.8230e-05
11.250	18.000	7.9753e-05
11.250	18.250	1.2733e-04
11.250	18.500	1.9761e-04
11.250	18.750	3.0173e-04
11.250	19.000	4.4716e-04
11.250	19.250	6.5309e-04
11.250	19.500	9.4346e-04
11.250	19.750	1.3479e-03
11.250	20.000	1.7907e-03
11.250	20.250	1.8291e-03
11.250	20.500	1.8514e-03
11.250	20.750	1.8941e-03
11.250	21.000	1.9711e-03
11.250	21.250	1.9787e-03
11.250	21.500	1.9804e-03
11.250	21.750	1.9817e-03
11.250	22.000	1.9828e-03
11.250	22.250	1.9836e-03
11.250	22.500	1.9844e-03
11.250	22.750	1.9849e-03
11.250	23.000	1.9852e-03
11.250	23.250	1.9854e-03
11.250	23.500	1.9855e-03
11.250	23.750	1.9856e-03
11.250	24.000	1.9856e-03
11.500	17.000	9.1358e-06
11.500	17.250	1.3498e-05
11.500	17.500	2.1070e-05
11.500	17.750	3.4733e-05
11.500	18.000	5.7119e-05
11.500	18.250	9.1276e-05
11.500	18.500	1.4189e-04
11.500	18.750	2.1695e-04
11.500	19.000	3.2329e-04
11.500	19.250	4.7449e-04
11.500	19.500	6.8988e-04
11.500	19.750	9.9638e-04
11.500	20.000	1.4253e-03
11.500	20.250	1.8054e-03
11.500	20.500	1.8280e-03
11.500	20.750	1.8519e-03
11.500	21.000	1.8984e-03
11.500	21.250	1.9742e-03
11.500	21.500	1.9784e-03
11.500	21.750	1.9800e-03
11.500	22.000	1.9814e-03
11.500	22.250	1.9826e-03
11.500	22.500	1.9835e-03
11.500	22.750	1.9843e-03
11.500	23.000	1.9849e-03
11.500	23.250	1.9852e-03
11.500	23.500	1.9854e-03
11.500	23.750	1.9855e-03
11.500	24.000	1.9856e-03
11.750	17.000	6.6667e-06
11.750	17.250	9.7119e-06
11.750	17.500	1.5144e-05
11.750	17.750	2.4774e-05
11.750	18.000	4.0329e-05
11.750	18.250	6.4527e-05
11.750	18.500	1.0082e-04
11.750	18.750	1.5374e-04
11.750	19.000	2.3177e-04
11.750	19.250	3.4140e-04
11.750	19.500	4.9827e-04
11.750	19.750	7.2099e-04
11.750	20.000	1.0427e-03
11.750	20.250	1.4929e-03
11.750	20.500	1.8107e-03
11.750	20.750	1.8267e-03
11.750	21.000	1.8542e-03
11.750	21.250	1.9098e-03
11.750	21.500	1.9752e-03
11.750	21.750	1.9776e-03
11.750	22.000	1.9793e-03
11.750	22.250	1.9810e-03
11.750	22.500	1.9823e-03
11.750	22.750	1.9833e-03
11.750	23.000	1.9841e-03
11.750	23.250	1.9849e-03
11.750	23.500	1.9851e-03
11.750	23.750	1.9854e-03
11.750	24.000	1.9856e-03
12.000	17.000	4.9383e-06
12.000	17.250	7.0782e-06
12.000	17.500	1.0864e-05
12.000	17.750	1.7449e-05
12.000	18.000	2.8148e-05
12.000	18.250	4.5185e-05
12.000	18.500	7.0947e-05
12.000	18.750	1.0922e-04
12.000	19.000	1.6486e-04
12.000	19.250	2.4420e-04
12.000	19.500	3.5704e-04
12.000	19.750	5.1778e-04
12.000	20.000	7.4930e-04
12.000	20.250	1.0816e-03
12.000	20.500	1.5488e-03
12.000	20.750	1.8055e-03
12.000	21.000	1.8261e-03
12.000	21.250	1.8627e-03
12.000	21.500	1.9317e-03
12.000	21.750	1.9740e-03
12.000	22.000	1.9765e-03
12.000	22.250	1.9784e-03
12.000	22.500	1.9802e-03
12.000	22.750	1.9818e-03
12.000	23.000	1.9829e-03
12.000	23.250	1.9840e-03
12.000	23.500	1.9848e-03
12.000	23.750	1.9851e-03
12.000	24.000	1.9853e-03
12.250	17.000	3.7037e-06
12.250	17.250	5.1852e-06
12.250	17.500	7.7366e-06
12.250	17.750	1.2181e-05
12.250	18.000	1.9588e-05
12.250	18.250	3.1440e-05
12.250	18.500	4.9712e-05
12.250	18.750	7.7284e-05
12.250	19.000	1.1720e-04
12.250	19.250	1.7407e-04
12.250	19.500	2.5490e-04
12.250	19.750	3.7062e-04
12.250	20.000	5.3416e-04
12.250	20.250	7.7103e-04
12.250	20.500	1.1144e-03
12.250	20.750	1.5980e-03
12.250	21.000	1.7985e-03
12.250	21.250	1.8273e-03
12.250	21.500	1.8784e-03
12.250	21.750	1.9556e-03
12.250	22.000	1.9718e-03
12.250	22.250	1.9745e-03
12.250	22.500	1.9769e-03
12.250	22.750	1.9792e-03
12.250	23.000	1.9811e-03
12.250	23.250	1.9823e-03
12.250	23.500	1.9835e-03
12.250	23.750	1.9846e-03
12.250	24.000	1.9850e-03
12.500	17.000	2.7984e-06
12.500	17.250	3.7860e-06
12.500	17.500	5.5144e-06
12.500	17.750	8.4774e-06
12.500	18.000	1.3580e-05
12.500	18.250	2.1893e-05
12.500	18.500	3.4897e-05
12.500	18.750	5.4568e-05
12.500	19.000	8.3045e-05
12.500	19.250	1.2395e-04
12.500	19.500	1.8132e-04
12.500	19.750	2.6346e-04
12.500	20.000	3.8049e-04
12.500	20.250	5.4716e-04
12.500	20.500	7.9086e-04
12.500	20.750	1.1413e-03
12.500	21.000	1.6294e-03
12.500	21.250	1.7899e-03
12.500	21.500	1.8350e-03
12.500	21.750	1.8939e-03
12.500	22.000	1.9637e-03
12.500	22.250	1.9681e-03
12.500	22.500	1.9716e-03
12.500	22.750	1.9747e-03
12.500	23.000	1.9775e-03
12.500	23.250	1.9798e-03
12.500	23.500	1.9814e-03
12.500	23.750	1.9830e-03
12.500	24.000	1.9844e-03
12.750	17.000	1.7284e-06
12.750	17.250	2.7160e-06
12.750	17.500	3.9506e-06
12.750	17.750	6.0082e-06
12.750	18.000	9.5473e-06
12.750	18.250	1.5309e-05
12.750	18.500	2.4527e-05
12.750	18.750	3.8519e-05
12.750	19.000	5.8930e-05
12.750	19.250	8.8066e-05
12.750	19.500	1.2914e-04
12.750	19.750	1.8724e-04
12.750	20.000	2.7029e-04
12.750	20.250	3.8840e-04
12.750	20.500	5.5934e-04
12.750	20.750	8.0626e-04
12.750	21.000	1.1690e-03
12.750	21.250	1.6709e-03
12.750	21.500	1.7863e-03
12.750	21.750	1.8402e-03
12.750	22.000	1.9079e-03
12.750	22.250	1.9574e-03
12.750	22.500	1.9626e-03
12.750	22.750	1.9672e-03
12.750	23.000	1.9712e-03
12.750	23.250	1.9748e-03
12.750	23.500	1.9779e-03
12.750	23.750	1.9798e-03
12.750	24.000	1.9821e-03
13.000	17.000	9.0535e-07
13.000	17.250	1.7284e-06
13.000	17.500	2.7984e-06
13.000	17.750	4.2798e-06
13.000	18.000	6.7490e-06
13.000	18.250	1.0782e-05
13.000	18.500	1.7284e-05
13.000	18.750	2.7160e-05
13.000	19.000	4.1646e-05
13.000	19.250	6.2469e-05
13.000	19.500	9.1770e-05
13.000	19.750	1.3317e-04
13.000	20.000	1.9169e-04
13.000	20.250	2.7547e-04
13.000	20.500	3.9539e-04
13.000	20.750	5.6938e-04
13.000	21.000	8.2222e-04
13.000	21.250	1.1940e-03
13.000	21.500	1.6915e-03
13.000	21.750	1.7746e-03
13.000	22.000	1.8387e-03
13.000	22.250	1.9119e-03
13.000	22.500	1.9472e-03
13.000	22.750	1.9542e-03
13.000	23.000	1.9603e-03
13.000	23.250	1.9658e-03
13.000	23.500	1.9707e-03
13.000	23.750	1.9745e-03
13.000	24.000	1.9772e-03
13.250	17.000	1.0000e-07
13.250	17.250	9.8765e-07
13.250	17.500	1.9753e-06
13.250	17.750	3.2099e-06
13.250	18.000	4.8560e-06
13.250	18.250	7.6543e-06
13.250	18.500	1.2181e-05
13.250	18.750	1.9095e-05
13.250	19.000	2.9383e-05
13.250	19.250	4.4115e-05
13.250	19.500	6.5185e-05
13.250	19.750	9.4733e-05
13.250	20.000	1.3638e-04
13.250	20.250	1.9564e-04
13.250	20.500	2.8082e-04
13.250	20.750	4.0230e-04
13.250	21.000	5.8041e-04
13.250	21.250	8.3761e-04
13.250	21.500	1.2062e-03
13.250	21.750	1.6609e-03
13.250	22.000	1.7479e-03
13.250	22.250	1.8258e-03
13.250	22.500	1.8985e-03
13.250	22.750	1.9319e-03
13.250	23.000	1.9415e-03
13.250	23.250	1.9497e-03
13.250	23.500	1.9576e-03
13.250	23.750	1.9642e-03
13.250	24.000	1.9692e-03
13.500	17.000	1.0000e-07
13.500	17.250	1.0000e-07
13.500	17.500	1.2346e-06
13.500	17.750	2.2222e-06
13.500	18.000	3.5391e-06
13.500	18.250	5.5144e-06
13.500	18.500	8.6420e-06
13.500	18.750	1.3416e-05
13.500	19.000	2.0658e-05
13.500	19.250	3.1111e-05
13.500	19.500	4.6173e-05
13.500	19.750	6.7325e-05
13.500	20.000	9.7037e-05
13.500	20.250	1.3909e-04
13.500	20.500	1.9926e-04
13.500	20.750	2.8519e-04
13.500	21.000	4.0741e-04
13.500	21.250	5.8716e-04
13.500	21.500	8.4115e-04
13.500	21.750	1.2025e-03
13.500	22.000	1.6072e-03
13.500	22.250	1.7042e-03
13.500	22.500	1.7914e-03
13.500	22.750	1.8695e-03
13.500	23.000	1.9090e-03
13.500	23.250	1.9223e-03
13.500	23.500	1.9345e-03
13.500	23.750	1.9454e-03
13.500	24.000	1.9541e-03
13.750	17.000	1.0000e-07
13.750	17.250	1.0000e-07
13.750	17.500	1.0000e-07
13.750	17.750	1.3992e-06
13.750	18.000	2.5514e-06
13.750	18.250	3.8683e-06
13.750	18.500	6.0905e-06
13.750	18.750	9.3827e-06
13.750	19.000	1.4486e-05
13.750	19.250	2.1893e-05
13.750	19.500	3.2510e-05
13.750	19.750	4.7654e-05
13.750	20.000	6.8971e-05
13.750	20.250	9.9095e-05
13.750	20.500	1.4181e-04
13.750	20.750	2.0296e-04
13.750	21.000	2.8979e-04
13.750	21.250	4.1317e-04
13.750	21.500	5.9053e-04
13.750	21.750	8.4502e-04
13.750	22.000	1.1901e-03
13.750	22.250	1.5374e-03
13.750	22.500	1.6418e-03
13.750	22.750	1.7442e-03
13.750	23.000	1.8301e-03
13.750	23.250	1.8749e-03
13.750	23.500	1.8935e-03
13.750	23.750	1.9115e-03
13.750	24.000	1.9270e-03
14.000	17.000	1.0000e-07
14.000	17.250	1.0000e-07
14.000	17.500	1.0000e-07
14.000	17.750	9.0535e-07
14.000	18.000	1.6461e-06
14.000	18.250	2.7984e-06
14.000	18.500	4.2798e-06
14.000	18.750	6.5844e-06
14.000	19.000	1.0123e-05
14.000	19.250	1.5309e-05
14.000	19.500	2.2798e-05
14.000	19.750	3.3580e-05
14.000	20.000	4.8807e-05
14.000	20.250	7.0370e-05
14.000	20.500	1.0099e-04
14.000	20.750	1.4469e-04
14.000	21.000	2.0634e-04
14.000	21.250	2.9490e-04
14.000	21.500	4.1926e-04
14.000	21.750	5.9728e-04
14.000	22.000	8.4675e-04
14.000	22.250	1.1697e-03
14.000	22.500	1.4477e-03
14.000	22.750	1.5621e-03
14.000	23.000	1.6783e-03
14.000	23.250	1.7770e-03
14.000	23.500	1.8253e-03
14.000	23.750	1.8514e-03
14.000	24.000	1.8780e-03
