InwC 1196.33A  relative to Inci 1215.00A scaled to 1215A.
Hden   Phi(H)  Eq_Width (A)
 7.000	17.000	7.9989e-03
 7.000	17.250	7.9960e-03
 7.000	17.500	7.9969e-03
 7.000	17.750	7.9993e-03
 7.000	18.000	8.0023e-03
 7.000	18.250	8.0049e-03
 7.000	18.500	8.0068e-03
 7.000	18.750	8.0078e-03
 7.000	19.000	8.0087e-03
 7.000	19.250	8.0095e-03
 7.000	19.500	8.0096e-03
 7.000	19.750	8.0098e-03
 7.000	20.000	8.0099e-03
 7.000	20.250	8.0100e-03
 7.000	20.500	8.0100e-03
 7.000	20.750	8.0100e-03
 7.000	21.000	8.0100e-03
 7.000	21.250	8.0100e-03
 7.000	21.500	8.0101e-03
 7.000	21.750	8.0100e-03
 7.000	22.000	8.0100e-03
 7.000	22.250	8.0100e-03
 7.000	22.500	8.0100e-03
 7.000	22.750	8.0102e-03
 7.000	23.000	8.0102e-03
 7.000	23.250	8.0100e-03
 7.000	23.500	8.0100e-03
 7.000	23.750	8.0100e-03
 7.000	24.000	8.0100e-03
 7.250	17.000	7.9970e-03
 7.250	17.250	7.9988e-03
 7.250	17.500	7.9960e-03
 7.250	17.750	7.9969e-03
 7.250	18.000	7.9993e-03
 7.250	18.250	8.0023e-03
 7.250	18.500	8.0049e-03
 7.250	18.750	8.0068e-03
 7.250	19.000	8.0078e-03
 7.250	19.250	8.0087e-03
 7.250	19.500	8.0094e-03
 7.250	19.750	8.0096e-03
 7.250	20.000	8.0098e-03
 7.250	20.250	8.0099e-03
 7.250	20.500	8.0099e-03
 7.250	20.750	8.0100e-03
 7.250	21.000	8.0100e-03
 7.250	21.250	8.0100e-03
 7.250	21.500	8.0100e-03
 7.250	21.750	8.0115e-03
 7.250	22.000	8.0100e-03
 7.250	22.250	8.0100e-03
 7.250	22.500	8.0100e-03
 7.250	22.750	8.0108e-03
 7.250	23.000	8.0108e-03
 7.250	23.250	8.0100e-03
 7.250	23.500	8.0100e-03
 7.250	23.750	8.0100e-03
 7.250	24.000	8.0100e-03
 7.500	17.000	7.7124e-03
 7.500	17.250	7.9975e-03
 7.500	17.500	7.9988e-03
 7.500	17.750	7.9960e-03
 7.500	18.000	7.9969e-03
 7.500	18.250	7.9993e-03
 7.500	18.500	8.0023e-03
 7.500	18.750	8.0049e-03
 7.500	19.000	8.0068e-03
 7.500	19.250	8.0078e-03
 7.500	19.500	8.0087e-03
 7.500	19.750	8.0095e-03
 7.500	20.000	8.0096e-03
 7.500	20.250	8.0098e-03
 7.500	20.500	8.0099e-03
 7.500	20.750	8.0099e-03
 7.500	21.000	8.0099e-03
 7.500	21.250	8.0099e-03
 7.500	21.500	8.0100e-03
 7.500	21.750	8.0100e-03
 7.500	22.000	8.0100e-03
 7.500	22.250	8.0100e-03
 7.500	22.500	8.0100e-03
 7.500	22.750	8.0100e-03
 7.500	23.000	8.0104e-03
 7.500	23.250	8.0108e-03
 7.500	23.500	8.0100e-03
 7.500	23.750	8.0109e-03
 7.500	24.000	8.0100e-03
 7.750	17.000	8.5515e-02
 7.750	17.250	7.7137e-03
 7.750	17.500	7.9979e-03
 7.750	17.750	7.9988e-03
 7.750	18.000	7.9960e-03
 7.750	18.250	7.9969e-03
 7.750	18.500	7.9993e-03
 7.750	18.750	8.0023e-03
 7.750	19.000	8.0049e-03
 7.750	19.250	8.0068e-03
 7.750	19.500	8.0078e-03
 7.750	19.750	8.0087e-03
 7.750	20.000	8.0095e-03
 7.750	20.250	8.0096e-03
 7.750	20.500	8.0098e-03
 7.750	20.750	8.0098e-03
 7.750	21.000	8.0099e-03
 7.750	21.250	8.0099e-03
 7.750	21.500	8.0099e-03
 7.750	21.750	8.0099e-03
 7.750	22.000	8.0099e-03
 7.750	22.250	8.0100e-03
 7.750	22.500	8.0100e-03
 7.750	22.750	8.0101e-03
 7.750	23.000	8.0102e-03
 7.750	23.250	8.0100e-03
 7.750	23.500	8.0108e-03
 7.750	23.750	8.0108e-03
 7.750	24.000	8.0100e-03
 8.000	17.000	3.8557e-01
 8.000	17.250	9.2663e-02
 8.000	17.500	7.7118e-03
 8.000	17.750	7.9967e-03
 8.000	18.000	7.9988e-03
 8.000	18.250	7.9960e-03
 8.000	18.500	7.9969e-03
 8.000	18.750	7.9993e-03
 8.000	19.000	8.0023e-03
 8.000	19.250	8.0049e-03
 8.000	19.500	8.0068e-03
 8.000	19.750	8.0078e-03
 8.000	20.000	8.0087e-03
 8.000	20.250	8.0095e-03
 8.000	20.500	8.0096e-03
 8.000	20.750	8.0098e-03
 8.000	21.000	8.0098e-03
 8.000	21.250	8.0099e-03
 8.000	21.500	8.0099e-03
 8.000	21.750	8.0099e-03
 8.000	22.000	8.0099e-03
 8.000	22.250	8.0099e-03
 8.000	22.500	8.0099e-03
 8.000	22.750	8.0101e-03
 8.000	23.000	8.0100e-03
 8.000	23.250	8.0105e-03
 8.000	23.500	8.0100e-03
 8.000	23.750	8.0100e-03
 8.000	24.000	8.0100e-03
 8.250	17.000	5.4576e-01
 8.250	17.250	3.8270e-01
 8.250	17.500	9.1301e-02
 8.250	17.750	7.7136e-03
 8.250	18.000	7.9972e-03
 8.250	18.250	7.9988e-03
 8.250	18.500	7.9960e-03
 8.250	18.750	7.9969e-03
 8.250	19.000	7.9993e-03
 8.250	19.250	8.0023e-03
 8.250	19.500	8.0049e-03
 8.250	19.750	8.0068e-03
 8.250	20.000	8.0078e-03
 8.250	20.250	8.0087e-03
 8.250	20.500	8.0095e-03
 8.250	20.750	8.0096e-03
 8.250	21.000	8.0098e-03
 8.250	21.250	8.0099e-03
 8.250	21.500	8.0099e-03
 8.250	21.750	8.0099e-03
 8.250	22.000	8.0099e-03
 8.250	22.250	8.0099e-03
 8.250	22.500	8.0099e-03
 8.250	22.750	8.0101e-03
 8.250	23.000	8.0099e-03
 8.250	23.250	8.0120e-03
 8.250	23.500	8.0099e-03
 8.250	23.750	8.0099e-03
 8.250	24.000	8.0105e-03
 8.500	17.000	6.3507e-01
 8.500	17.250	5.4248e-01
 8.500	17.500	3.7924e-01
 8.500	17.750	8.9441e-02
 8.500	18.000	7.7151e-03
 8.500	18.250	7.9975e-03
 8.500	18.500	7.9988e-03
 8.500	18.750	7.9960e-03
 8.500	19.000	7.9969e-03
 8.500	19.250	7.9994e-03
 8.500	19.500	8.0023e-03
 8.500	19.750	8.0049e-03
 8.500	20.000	8.0068e-03
 8.500	20.250	8.0078e-03
 8.500	20.500	8.0087e-03
 8.500	20.750	8.0094e-03
 8.500	21.000	8.0096e-03
 8.500	21.250	8.0098e-03
 8.500	21.500	8.0098e-03
 8.500	21.750	8.0099e-03
 8.500	22.000	8.0099e-03
 8.500	22.250	8.0099e-03
 8.500	22.500	8.0099e-03
 8.500	22.750	8.0099e-03
 8.500	23.000	8.0099e-03
 8.500	23.250	8.0100e-03
 8.500	23.500	8.0099e-03
 8.500	23.750	8.0099e-03
 8.500	24.000	8.0099e-03
 8.750	17.000	6.8785e-01
 8.750	17.250	6.3227e-01
 8.750	17.500	5.3811e-01
 8.750	17.750	3.7697e-01
 8.750	18.000	8.6086e-02
 8.750	18.250	7.7163e-03
 8.750	18.500	7.9977e-03
 8.750	18.750	7.9987e-03
 8.750	19.000	7.9960e-03
 8.750	19.250	7.9969e-03
 8.750	19.500	7.9994e-03
 8.750	19.750	8.0024e-03
 8.750	20.000	8.0049e-03
 8.750	20.250	8.0068e-03
 8.750	20.500	8.0078e-03
 8.750	20.750	8.0087e-03
 8.750	21.000	8.0095e-03
 8.750	21.250	8.0096e-03
 8.750	21.500	8.0098e-03
 8.750	21.750	8.0098e-03
 8.750	22.000	8.0099e-03
 8.750	22.250	8.0099e-03
 8.750	22.500	8.0099e-03
 8.750	22.750	8.0099e-03
 8.750	23.000	8.0107e-03
 8.750	23.250	8.0099e-03
 8.750	23.500	8.0101e-03
 8.750	23.750	8.0099e-03
 8.750	24.000	8.0099e-03
 9.000	17.000	7.2019e-01
 9.000	17.250	6.8532e-01
 9.000	17.500	6.2783e-01
 9.000	17.750	5.3057e-01
 9.000	18.000	3.6605e-01
 9.000	18.250	7.5202e-02
 9.000	18.500	7.7168e-03
 9.000	18.750	7.9976e-03
 9.000	19.000	7.9987e-03
 9.000	19.250	7.9959e-03
 9.000	19.500	7.9969e-03
 9.000	19.750	7.9994e-03
 9.000	20.000	8.0024e-03
 9.000	20.250	8.0049e-03
 9.000	20.500	8.0068e-03
 9.000	20.750	8.0078e-03
 9.000	21.000	8.0087e-03
 9.000	21.250	8.0095e-03
 9.000	21.500	8.0096e-03
 9.000	21.750	8.0098e-03
 9.000	22.000	8.0098e-03
 9.000	22.250	8.0098e-03
 9.000	22.500	8.0099e-03
 9.000	22.750	8.0099e-03
 9.000	23.000	8.0099e-03
 9.000	23.250	8.0099e-03
 9.000	23.500	8.0099e-03
 9.000	23.750	8.0099e-03
 9.000	24.000	8.0100e-03
 9.250	17.000	7.4059e-01
 9.250	17.250	7.1795e-01
 9.250	17.500	6.8109e-01
 9.250	17.750	6.1988e-01
 9.250	18.000	5.1758e-01
 9.250	18.250	3.4434e-01
 9.250	18.500	4.9704e-02
 9.250	18.750	7.7156e-03
 9.250	19.000	7.9969e-03
 9.250	19.250	7.9985e-03
 9.250	19.500	7.9958e-03
 9.250	19.750	7.9969e-03
 9.250	20.000	7.9995e-03
 9.250	20.250	8.0024e-03
 9.250	20.500	8.0049e-03
 9.250	20.750	8.0068e-03
 9.250	21.000	8.0078e-03
 9.250	21.250	8.0087e-03
 9.250	21.500	8.0090e-03
 9.250	21.750	8.0091e-03
 9.250	22.000	8.0091e-03
 9.250	22.250	8.0093e-03
 9.250	22.500	8.0095e-03
 9.250	22.750	8.0095e-03
 9.250	23.000	8.0096e-03
 9.250	23.250	8.0097e-03
 9.250	23.500	8.0097e-03
 9.250	23.750	8.0097e-03
 9.250	24.000	8.0098e-03
 9.500	17.000	7.5346e-01
 9.500	17.250	7.3848e-01
 9.500	17.500	7.1437e-01
 9.500	17.750	6.7477e-01
 9.500	18.000	6.0643e-01
 9.500	18.250	4.9031e-01
 9.500	18.500	2.9749e-01
 9.500	18.750	8.2272e-03
 9.500	19.000	7.7116e-03
 9.500	19.250	7.9953e-03
 9.500	19.500	7.9984e-03
 9.500	19.750	7.9958e-03
 9.500	20.000	7.9969e-03
 9.500	20.250	7.9995e-03
 9.500	20.500	8.0025e-03
 9.500	20.750	8.0045e-03
 9.500	21.000	8.0063e-03
 9.500	21.250	8.0073e-03
 9.500	21.500	8.0081e-03
 9.500	21.750	8.0086e-03
 9.500	22.000	8.0089e-03
 9.500	22.250	8.0091e-03
 9.500	22.500	8.0091e-03
 9.500	22.750	8.0091e-03
 9.500	23.000	8.0091e-03
 9.500	23.250	8.0091e-03
 9.500	23.500	8.0091e-03
 9.500	23.750	8.0091e-03
 9.500	24.000	8.0091e-03
 9.750	17.000	7.6166e-01
 9.750	17.250	7.5168e-01
 9.750	17.500	7.3555e-01
 9.750	17.750	7.0867e-01
 9.750	18.000	6.6031e-01
 9.750	18.250	5.7891e-01
 9.750	18.500	4.4042e-01
 9.750	18.750	2.0569e-01
 9.750	19.000	7.7585e-03
 9.750	19.250	7.7038e-03
 9.750	19.500	7.9921e-03
 9.750	19.750	7.9980e-03
 9.750	20.000	7.9957e-03
 9.750	20.250	7.9968e-03
 9.750	20.500	7.9994e-03
 9.750	20.750	8.0024e-03
 9.750	21.000	8.0047e-03
 9.750	21.250	8.0064e-03
 9.750	21.500	8.0073e-03
 9.750	21.750	8.0082e-03
 9.750	22.000	8.0086e-03
 9.750	22.250	8.0089e-03
 9.750	22.500	8.0090e-03
 9.750	22.750	8.0091e-03
 9.750	23.000	8.0091e-03
 9.750	23.250	8.0091e-03
 9.750	23.500	8.0091e-03
 9.750	23.750	8.0091e-03
 9.750	24.000	8.0091e-03
10.000	17.000	7.6664e-01
10.000	17.250	7.5979e-01
10.000	17.500	7.4836e-01
10.000	17.750	7.2913e-01
10.000	18.000	6.9510e-01
10.000	18.250	6.3574e-01
10.000	18.500	5.3688e-01
10.000	18.750	3.7509e-01
10.000	19.000	1.2519e-01
10.000	19.250	7.5913e-03
10.000	19.500	7.6895e-03
10.000	19.750	7.9860e-03
10.000	20.000	7.9974e-03
10.000	20.250	7.9956e-03
10.000	20.500	7.9968e-03
10.000	20.750	7.9995e-03
10.000	21.000	8.0025e-03
10.000	21.250	8.0049e-03
10.000	21.500	8.0064e-03
10.000	21.750	8.0073e-03
10.000	22.000	8.0083e-03
10.000	22.250	8.0088e-03
10.000	22.500	8.0089e-03
10.000	22.750	8.0090e-03
10.000	23.000	8.0091e-03
10.000	23.250	8.0091e-03
10.000	23.500	8.0091e-03
10.000	23.750	8.0091e-03
10.000	24.000	8.0091e-03
10.250	17.000	7.6947e-01
10.250	17.250	7.6486e-01
10.250	17.500	7.5663e-01
10.250	17.750	7.4224e-01
10.250	18.000	7.1713e-01
10.250	18.250	6.7480e-01
10.250	18.500	6.0396e-01
10.250	18.750	4.8772e-01
10.250	19.000	2.9322e-01
10.250	19.250	1.1635e-02
10.250	19.500	7.5263e-03
10.250	19.750	7.6700e-03
10.250	20.000	7.9776e-03
10.250	20.250	7.9963e-03
10.250	20.500	7.9952e-03
10.250	20.750	7.9968e-03
10.250	21.000	7.9995e-03
10.250	21.250	8.0025e-03
10.250	21.500	8.0049e-03
10.250	21.750	8.0065e-03
10.250	22.000	8.0073e-03
10.250	22.250	8.0083e-03
10.250	22.500	8.0089e-03
10.250	22.750	8.0089e-03
10.250	23.000	8.0091e-03
10.250	23.250	8.0091e-03
10.250	23.500	8.0091e-03
10.250	23.750	8.0091e-03
10.250	24.000	8.0091e-03
10.500	17.000	7.7065e-01
10.500	17.250	7.6762e-01
10.500	17.500	7.6159e-01
10.500	17.750	7.5051e-01
10.500	18.000	7.3128e-01
10.500	18.250	6.9996e-01
10.500	18.500	6.5057e-01
10.500	18.750	5.6950e-01
10.500	19.000	4.3735e-01
10.500	19.250	2.0989e-01
10.500	19.500	7.6083e-03
10.500	19.750	7.5004e-03
10.500	20.000	7.6560e-03
10.500	20.250	7.9666e-03
10.500	20.500	7.9948e-03
10.500	20.750	7.9947e-03
10.500	21.000	7.9966e-03
10.500	21.250	7.9995e-03
10.500	21.500	8.0025e-03
10.500	21.750	8.0049e-03
10.500	22.000	8.0067e-03
10.500	22.250	8.0074e-03
10.500	22.500	8.0083e-03
10.500	22.750	8.0090e-03
10.500	23.000	8.0090e-03
10.500	23.250	8.0090e-03
10.500	23.500	8.0091e-03
10.500	23.750	8.0091e-03
10.500	24.000	8.0091e-03
10.750	17.000	7.7041e-01
10.750	17.250	7.6860e-01
10.750	17.500	7.6405e-01
10.750	17.750	7.5510e-01
10.750	18.000	7.3995e-01
10.750	18.250	7.1710e-01
10.750	18.500	6.8282e-01
10.750	18.750	6.2885e-01
10.750	19.000	5.4078e-01
10.750	19.250	3.9020e-01
10.750	19.500	1.3785e-01
10.750	19.750	7.4272e-03
10.750	20.000	7.4848e-03
10.750	20.250	7.6481e-03
10.750	20.500	7.9572e-03
10.750	20.750	7.9928e-03
10.750	21.000	7.9941e-03
10.750	21.250	7.9965e-03
10.750	21.500	7.9995e-03
10.750	21.750	8.0025e-03
10.750	22.000	8.0049e-03
10.750	22.250	8.0067e-03
10.750	22.500	8.0077e-03
10.750	22.750	8.0084e-03
10.750	23.000	8.0090e-03
10.750	23.250	8.0091e-03
10.750	23.500	8.0091e-03
10.750	23.750	8.0091e-03
10.750	24.000	8.0091e-03
11.000	17.000	7.6887e-01
11.000	17.250	7.6799e-01
11.000	17.500	7.6426e-01
11.000	17.750	7.5672e-01
11.000	18.000	7.4490e-01
11.000	18.250	7.2803e-01
11.000	18.500	7.0509e-01
11.000	18.750	6.6903e-01
11.000	19.000	6.1067e-01
11.000	19.250	5.1285e-01
11.000	19.500	3.4315e-01
11.000	19.750	3.9437e-02
11.000	20.000	7.4091e-03
11.000	20.250	7.4888e-03
11.000	20.500	7.6440e-03
11.000	20.750	7.9519e-03
11.000	21.000	7.9908e-03
11.000	21.250	7.9933e-03
11.000	21.500	7.9963e-03
11.000	21.750	7.9994e-03
11.000	22.000	8.0025e-03
11.000	22.250	8.0049e-03
11.000	22.500	8.0068e-03
11.000	22.750	8.0077e-03
11.000	23.000	8.0086e-03
11.000	23.250	8.0090e-03
11.000	23.500	8.0091e-03
11.000	23.750	8.0091e-03
11.000	24.000	8.0091e-03
11.250	17.000	7.6575e-01
11.250	17.250	7.6572e-01
11.250	17.500	7.6238e-01
11.250	17.750	7.5571e-01
11.250	18.000	7.4626e-01
11.250	18.250	7.3437e-01
11.250	18.500	7.1823e-01
11.250	18.750	6.9452e-01
11.250	19.000	6.5640e-01
11.250	19.250	5.9434e-01
11.250	19.500	4.8792e-01
11.250	19.750	2.9520e-01
11.250	20.000	1.5468e-02
11.250	20.250	7.3882e-03
11.250	20.500	7.4753e-03
11.250	20.750	7.6481e-03
11.250	21.000	7.9599e-03
11.250	21.250	7.9889e-03
11.250	21.500	7.9923e-03
11.250	21.750	7.9960e-03
11.250	22.000	7.9993e-03
11.250	22.250	8.0024e-03
11.250	22.500	8.0049e-03
11.250	22.750	8.0068e-03
11.250	23.000	8.0077e-03
11.250	23.250	8.0087e-03
11.250	23.500	8.0090e-03
11.250	23.750	8.0092e-03
11.250	24.000	8.0092e-03
11.500	17.000	7.6064e-01
11.500	17.250	7.6137e-01
11.500	17.500	7.5823e-01
11.500	17.750	7.5198e-01
11.500	18.000	7.4440e-01
11.500	18.250	7.3588e-01
11.500	18.500	7.2472e-01
11.500	18.750	7.0897e-01
11.500	19.000	6.8531e-01
11.500	19.250	6.4561e-01
11.500	19.500	5.7919e-01
11.500	19.750	4.6279e-01
11.500	20.000	2.4714e-01
11.500	20.250	7.2968e-03
11.500	20.500	7.3837e-03
11.500	20.750	7.4790e-03
11.500	21.000	7.6664e-03
11.500	21.250	7.9732e-03
11.500	21.500	7.9870e-03
11.500	21.750	7.9914e-03
11.500	22.000	7.9956e-03
11.500	22.250	7.9992e-03
11.500	22.500	8.0023e-03
11.500	22.750	8.0049e-03
11.500	23.000	8.0068e-03
11.500	23.250	8.0078e-03
11.500	23.500	8.0087e-03
11.500	23.750	8.0091e-03
11.500	24.000	8.0092e-03
11.750	17.000	7.5284e-01
11.750	17.250	7.5428e-01
11.750	17.500	7.5131e-01
11.750	17.750	7.4521e-01
11.750	18.000	7.3924e-01
11.750	18.250	7.3321e-01
11.750	18.500	7.2591e-01
11.750	18.750	7.1595e-01
11.750	19.000	7.0074e-01
11.750	19.250	6.7658e-01
11.750	19.500	6.3526e-01
11.750	19.750	5.6541e-01
11.750	20.000	4.3931e-01
11.750	20.250	2.0146e-01
11.750	20.500	7.3230e-03
11.750	20.750	7.3811e-03
11.750	21.000	7.4897e-03
11.750	21.250	7.7135e-03
11.750	21.500	7.9760e-03
11.750	21.750	7.9849e-03
11.750	22.000	7.9903e-03
11.750	22.250	7.9951e-03
11.750	22.500	7.9990e-03
11.750	22.750	8.0022e-03
11.750	23.000	8.0049e-03
11.750	23.250	8.0068e-03
11.750	23.500	8.0078e-03
11.750	23.750	8.0087e-03
11.750	24.000	8.0093e-03
12.000	17.000	7.4175e-01
12.000	17.250	7.4351e-01
12.000	17.500	7.4049e-01
12.000	17.750	7.3512e-01
12.000	18.000	7.3078e-01
12.000	18.250	7.2707e-01
12.000	18.500	7.2280e-01
12.000	18.750	7.1677e-01
12.000	19.000	7.0754e-01
12.000	19.250	6.9324e-01
12.000	19.500	6.6859e-01
12.000	19.750	6.2610e-01
12.000	20.000	5.5231e-01
12.000	20.250	4.1802e-01
12.000	20.500	1.6012e-01
12.000	20.750	7.3006e-03
12.000	21.000	7.3860e-03
12.000	21.250	7.5315e-03
12.000	21.500	7.8006e-03
12.000	21.750	7.9739e-03
12.000	22.000	7.9834e-03
12.000	22.250	7.9896e-03
12.000	22.500	7.9947e-03
12.000	22.750	7.9988e-03
12.000	23.000	8.0021e-03
12.000	23.250	8.0048e-03
12.000	23.500	8.0067e-03
12.000	23.750	8.0077e-03
12.000	24.000	8.0087e-03
12.250	17.000	7.2661e-01
12.250	17.250	7.2746e-01
12.250	17.500	7.2484e-01
12.250	17.750	7.2156e-01
12.250	18.000	7.1937e-01
12.250	18.250	7.1779e-01
12.250	18.500	7.1616e-01
12.250	18.750	7.1316e-01
12.250	19.000	7.0839e-01
12.250	19.250	7.0024e-01
12.250	19.500	6.8669e-01
12.250	19.750	6.6138e-01
12.250	20.000	6.1797e-01
12.250	20.250	5.4092e-01
12.250	20.500	3.9786e-01
12.250	20.750	1.1787e-01
12.250	21.000	7.2923e-03
12.250	21.250	7.4095e-03
12.250	21.500	7.5962e-03
12.250	21.750	7.9058e-03
12.250	22.000	7.9715e-03
12.250	22.250	7.9807e-03
12.250	22.500	7.9882e-03
12.250	22.750	7.9941e-03
12.250	23.000	7.9985e-03
12.250	23.250	8.0019e-03
12.250	23.500	8.0047e-03
12.250	23.750	8.0067e-03
12.250	24.000	8.0077e-03
12.500	17.000	7.0715e-01
12.500	17.250	7.0592e-01
12.500	17.500	7.0492e-01
12.500	17.750	7.0481e-01
12.500	18.000	7.0515e-01
12.500	18.250	7.0566e-01
12.500	18.500	7.0604e-01
12.500	18.750	7.0599e-01
12.500	19.000	7.0482e-01
12.500	19.250	7.0133e-01
12.500	19.500	6.9418e-01
12.500	19.750	6.8091e-01
12.500	20.000	6.5533e-01
12.500	20.250	6.1060e-01
12.500	20.500	5.2971e-01
12.500	20.750	3.7895e-01
12.500	21.000	8.6288e-02
12.500	21.250	7.3057e-03
12.500	21.500	7.4499e-03
12.500	21.750	7.6769e-03
12.500	22.000	7.9539e-03
12.500	22.250	7.9691e-03
12.500	22.500	7.9786e-03
12.500	22.750	7.9868e-03
12.500	23.000	7.9934e-03
12.500	23.250	7.9982e-03
12.500	23.500	8.0017e-03
12.500	23.750	8.0045e-03
12.500	24.000	8.0067e-03
12.750	17.000	6.0907e-01
12.750	17.250	6.8063e-01
12.750	17.500	6.8516e-01
12.750	17.750	6.8625e-01
12.750	18.000	6.8776e-01
12.750	18.250	6.8985e-01
12.750	18.500	6.9247e-01
12.750	18.750	6.9507e-01
12.750	19.000	6.9703e-01
12.750	19.250	6.9765e-01
12.750	19.500	6.9549e-01
12.750	19.750	6.8883e-01
12.750	20.000	6.7574e-01
12.750	20.250	6.4972e-01
12.750	20.500	6.0316e-01
12.750	20.750	5.1897e-01
12.750	21.000	3.5621e-01
12.750	21.250	3.8532e-02
12.750	21.500	7.3276e-03
12.750	21.750	7.5093e-03
12.750	22.000	7.7637e-03
12.750	22.250	7.9537e-03
12.750	22.500	7.9669e-03
12.750	22.750	7.9769e-03
12.750	23.000	7.9857e-03
12.750	23.250	7.9926e-03
12.750	23.500	7.9978e-03
12.750	23.750	8.0014e-03
12.750	24.000	8.0044e-03
13.000	17.000	3.9940e-01
13.000	17.250	5.7592e-01
13.000	17.500	6.5008e-01
13.000	17.750	6.6646e-01
13.000	18.000	6.6728e-01
13.000	18.250	6.7027e-01
13.000	18.500	6.7482e-01
13.000	18.750	6.8001e-01
13.000	19.000	6.8509e-01
13.000	19.250	6.8935e-01
13.000	19.500	6.9139e-01
13.000	19.750	6.9001e-01
13.000	20.000	6.8388e-01
13.000	20.250	6.7078e-01
13.000	20.500	6.4394e-01
13.000	20.750	5.9540e-01
13.000	21.000	5.0586e-01
13.000	21.250	3.3014e-01
13.000	21.500	9.5342e-03
13.000	21.750	7.3630e-03
13.000	22.000	7.5618e-03
13.000	22.250	7.8291e-03
13.000	22.500	7.9523e-03
13.000	22.750	7.9653e-03
13.000	23.000	7.9757e-03
13.000	23.250	7.9846e-03
13.000	23.500	7.9919e-03
13.000	23.750	7.9971e-03
13.000	24.000	8.0010e-03
13.250	17.000	2.7475e-01
13.250	17.250	4.3489e-01
13.250	17.500	6.1308e-01
13.250	17.750	6.4644e-01
13.250	18.000	6.4470e-01
13.250	18.250	6.4680e-01
13.250	18.500	6.5257e-01
13.250	18.750	6.6038e-01
13.250	19.000	6.6863e-01
13.250	19.250	6.7644e-01
13.250	19.500	6.8256e-01
13.250	19.750	6.8589e-01
13.250	20.000	6.8519e-01
13.250	20.250	6.7896e-01
13.250	20.500	6.6509e-01
13.250	20.750	6.3709e-01
13.250	21.000	5.8551e-01
13.250	21.250	4.8985e-01
13.250	21.500	3.1131e-01
13.250	21.750	7.2463e-03
13.250	22.000	7.3773e-03
13.250	22.250	7.5993e-03
13.250	22.500	7.8493e-03
13.250	22.750	7.9508e-03
13.250	23.000	7.9637e-03
13.250	23.250	7.9745e-03
13.250	23.500	7.9838e-03
13.250	23.750	7.9911e-03
13.250	24.000	7.9964e-03
13.500	17.000	1.8003e-01
13.500	17.250	3.0915e-01
13.500	17.500	4.9566e-01
13.500	17.750	5.9995e-01
13.500	18.000	6.2127e-01
13.500	18.250	6.2080e-01
13.500	18.500	6.2603e-01
13.500	18.750	6.3571e-01
13.500	19.000	6.4704e-01
13.500	19.250	6.5838e-01
13.500	19.500	6.6820e-01
13.500	19.750	6.7567e-01
13.500	20.000	6.7976e-01
13.500	20.250	6.7939e-01
13.500	20.500	6.7303e-01
13.500	20.750	6.5848e-01
13.500	21.000	6.2893e-01
13.500	21.250	5.7397e-01
13.500	21.500	4.7732e-01
13.500	21.750	2.8627e-01
13.500	22.000	7.2209e-03
13.500	22.250	7.3750e-03
13.500	22.500	7.5890e-03
13.500	22.750	7.8364e-03
13.500	23.000	7.9486e-03
13.500	23.250	7.9613e-03
13.500	23.500	7.9729e-03
13.500	23.750	7.9826e-03
13.500	24.000	7.9901e-03
13.750	17.000	1.1565e-01
13.750	17.250	2.0716e-01
13.750	17.500	3.7402e-01
13.750	17.750	5.0658e-01
13.750	18.000	5.8422e-01
13.750	18.250	5.8905e-01
13.750	18.500	5.9555e-01
13.750	18.750	6.0633e-01
13.750	19.000	6.1991e-01
13.750	19.250	6.3481e-01
13.750	19.500	6.4864e-01
13.750	19.750	6.6016e-01
13.750	20.000	6.6860e-01
13.750	20.250	6.7311e-01
13.750	20.500	6.7273e-01
13.750	20.750	6.6586e-01
13.750	21.000	6.4984e-01
13.750	21.250	6.1770e-01
13.750	21.500	5.6180e-01
13.750	21.750	4.5346e-01
13.750	22.000	2.5021e-01
13.750	22.250	7.2148e-03
13.750	22.500	7.3505e-03
13.750	22.750	7.5762e-03
13.750	23.000	7.8291e-03
13.750	23.250	7.9452e-03
13.750	23.500	7.9587e-03
13.750	23.750	7.9713e-03
13.750	24.000	7.9812e-03
14.000	17.000	7.1915e-02
14.000	17.250	1.3521e-01
14.000	17.500	2.5989e-01
14.000	17.750	4.0190e-01
14.000	18.000	5.0043e-01
14.000	18.250	5.4533e-01
14.000	18.500	5.5521e-01
14.000	18.750	5.6972e-01
14.000	19.000	5.8710e-01
14.000	19.250	6.0527e-01
14.000	19.500	6.2322e-01
14.000	19.750	6.3907e-01
14.000	20.000	6.5186e-01
14.000	20.250	6.6107e-01
14.000	20.500	6.6566e-01
14.000	20.750	6.6477e-01
14.000	21.000	6.5684e-01
14.000	21.250	6.3821e-01
14.000	21.500	6.0432e-01
14.000	21.750	5.3873e-01
14.000	22.000	4.1493e-01
14.000	22.250	1.9421e-01
14.000	22.500	7.2053e-03
14.000	22.750	7.3348e-03
14.000	23.000	7.5609e-03
14.000	23.250	7.8375e-03
14.000	23.500	7.9398e-03
14.000	23.750	7.9545e-03
14.000	24.000	7.9684e-03
