InwT 1035.92A  relative to Inci 1215.00A scaled to 1215A.
Hden   Phi(H)  Eq_Width (A)
 7.000	17.000	1.4372e-02
 7.000	17.250	1.2920e-02
 7.000	17.500	1.1544e-02
 7.000	17.750	1.0248e-02
 7.000	18.000	9.3046e-03
 7.000	18.250	8.7326e-03
 7.000	18.500	8.3720e-03
 7.000	18.750	8.1922e-03
 7.000	19.000	8.0970e-03
 7.000	19.250	8.0435e-03
 7.000	19.500	8.0205e-03
 7.000	19.750	8.0109e-03
 7.000	20.000	8.0066e-03
 7.000	20.250	8.0046e-03
 7.000	20.500	8.0036e-03
 7.000	20.750	8.0031e-03
 7.000	21.000	8.0028e-03
 7.000	21.250	8.0026e-03
 7.000	21.500	8.0027e-03
 7.000	21.750	8.0025e-03
 7.000	22.000	8.0025e-03
 7.000	22.250	8.0025e-03
 7.000	22.500	8.0025e-03
 7.000	22.750	8.0027e-03
 7.000	23.000	8.0027e-03
 7.000	23.250	8.0025e-03
 7.000	23.500	8.0025e-03
 7.000	23.750	8.0025e-03
 7.000	24.000	8.0025e-03
 7.250	17.000	1.5733e-02
 7.250	17.250	1.4242e-02
 7.250	17.500	1.2856e-02
 7.250	17.750	1.1514e-02
 7.250	18.000	1.0232e-02
 7.250	18.250	9.2953e-03
 7.250	18.500	8.7281e-03
 7.250	18.750	8.3705e-03
 7.250	19.000	8.1916e-03
 7.250	19.250	8.0969e-03
 7.250	19.500	8.0434e-03
 7.250	19.750	8.0205e-03
 7.250	20.000	8.0108e-03
 7.250	20.250	8.0066e-03
 7.250	20.500	8.0046e-03
 7.250	20.750	8.0036e-03
 7.250	21.000	8.0031e-03
 7.250	21.250	8.0028e-03
 7.250	21.500	8.0026e-03
 7.250	21.750	8.0041e-03
 7.250	22.000	8.0025e-03
 7.250	22.250	8.0025e-03
 7.250	22.500	8.0025e-03
 7.250	22.750	8.0032e-03
 7.250	23.000	8.0032e-03
 7.250	23.250	8.0025e-03
 7.250	23.500	8.0025e-03
 7.250	23.750	8.0025e-03
 7.250	24.000	8.0025e-03
 7.500	17.000	1.6750e-02
 7.500	17.250	1.5597e-02
 7.500	17.500	1.4167e-02
 7.500	17.750	1.2821e-02
 7.500	18.000	1.1500e-02
 7.500	18.250	1.0222e-02
 7.500	18.500	9.2896e-03
 7.500	18.750	8.7252e-03
 7.500	19.000	8.3694e-03
 7.500	19.250	8.1912e-03
 7.500	19.500	8.0967e-03
 7.500	19.750	8.0434e-03
 7.500	20.000	8.0205e-03
 7.500	20.250	8.0108e-03
 7.500	20.500	8.0066e-03
 7.500	20.750	8.0045e-03
 7.500	21.000	8.0035e-03
 7.500	21.250	8.0030e-03
 7.500	21.500	8.0028e-03
 7.500	21.750	8.0026e-03
 7.500	22.000	8.0026e-03
 7.500	22.250	8.0025e-03
 7.500	22.500	8.0025e-03
 7.500	22.750	8.0025e-03
 7.500	23.000	8.0029e-03
 7.500	23.250	8.0032e-03
 7.500	23.500	8.0025e-03
 7.500	23.750	8.0035e-03
 7.500	24.000	8.0025e-03
 7.750	17.000	1.8166e-02
 7.750	17.250	1.5888e-02
 7.750	17.500	1.5521e-02
 7.750	17.750	1.4124e-02
 7.750	18.000	1.2804e-02
 7.750	18.250	1.1496e-02
 7.750	18.500	1.0217e-02
 7.750	18.750	9.2863e-03
 7.750	19.000	8.7235e-03
 7.750	19.250	8.3687e-03
 7.750	19.500	8.1909e-03
 7.750	19.750	8.0966e-03
 7.750	20.000	8.0434e-03
 7.750	20.250	8.0205e-03
 7.750	20.500	8.0108e-03
 7.750	20.750	8.0066e-03
 7.750	21.000	8.0045e-03
 7.750	21.250	8.0035e-03
 7.750	21.500	8.0030e-03
 7.750	21.750	8.0027e-03
 7.750	22.000	8.0026e-03
 7.750	22.250	8.0026e-03
 7.750	22.500	8.0025e-03
 7.750	22.750	8.0026e-03
 7.750	23.000	8.0027e-03
 7.750	23.250	8.0025e-03
 7.750	23.500	8.0032e-03
 7.750	23.750	8.0032e-03
 7.750	24.000	8.0025e-03
 8.000	17.000	1.5021e-02
 8.000	17.250	1.6273e-02
 8.000	17.500	1.5228e-02
 8.000	17.750	1.5473e-02
 8.000	18.000	1.4097e-02
 8.000	18.250	1.2797e-02
 8.000	18.500	1.1499e-02
 8.000	18.750	1.0216e-02
 8.000	19.000	9.2844e-03
 8.000	19.250	8.7224e-03
 8.000	19.500	8.3683e-03
 8.000	19.750	8.1908e-03
 8.000	20.000	8.0965e-03
 8.000	20.250	8.0434e-03
 8.000	20.500	8.0205e-03
 8.000	20.750	8.0108e-03
 8.000	21.000	8.0066e-03
 8.000	21.250	8.0045e-03
 8.000	21.500	8.0035e-03
 8.000	21.750	8.0030e-03
 8.000	22.000	8.0027e-03
 8.000	22.250	8.0026e-03
 8.000	22.500	8.0025e-03
 8.000	22.750	8.0026e-03
 8.000	23.000	8.0025e-03
 8.000	23.250	8.0029e-03
 8.000	23.500	8.0024e-03
 8.000	23.750	8.0024e-03
 8.000	24.000	8.0024e-03
 8.250	17.000	1.2026e-02
 8.250	17.250	1.3448e-02
 8.250	17.500	1.5021e-02
 8.250	17.750	1.4717e-02
 8.250	18.000	1.5443e-02
 8.250	18.250	1.4079e-02
 8.250	18.500	1.2797e-02
 8.250	18.750	1.1506e-02
 8.250	19.000	1.0216e-02
 8.250	19.250	9.2835e-03
 8.250	19.500	8.7217e-03
 8.250	19.750	8.3681e-03
 8.250	20.000	8.1907e-03
 8.250	20.250	8.0965e-03
 8.250	20.500	8.0434e-03
 8.250	20.750	8.0205e-03
 8.250	21.000	8.0108e-03
 8.250	21.250	8.0066e-03
 8.250	21.500	8.0045e-03
 8.250	21.750	8.0035e-03
 8.250	22.000	8.0030e-03
 8.250	22.250	8.0027e-03
 8.250	22.500	8.0026e-03
 8.250	22.750	8.0027e-03
 8.250	23.000	8.0024e-03
 8.250	23.250	8.0045e-03
 8.250	23.500	8.0024e-03
 8.250	23.750	8.0024e-03
 8.250	24.000	8.0030e-03
 8.500	17.000	9.7770e-03
 8.500	17.250	1.0761e-02
 8.500	17.500	1.2410e-02
 8.500	17.750	1.4207e-02
 8.500	18.000	1.4412e-02
 8.500	18.250	1.5416e-02
 8.500	18.500	1.4064e-02
 8.500	18.750	1.2800e-02
 8.500	19.000	1.1516e-02
 8.500	19.250	1.0218e-02
 8.500	19.500	9.2830e-03
 8.500	19.750	8.7213e-03
 8.500	20.000	8.3679e-03
 8.500	20.250	8.1906e-03
 8.500	20.500	8.0965e-03
 8.500	20.750	8.0433e-03
 8.500	21.000	8.0205e-03
 8.500	21.250	8.0108e-03
 8.500	21.500	8.0066e-03
 8.500	21.750	8.0045e-03
 8.500	22.000	8.0035e-03
 8.500	22.250	8.0030e-03
 8.500	22.500	8.0027e-03
 8.500	22.750	8.0026e-03
 8.500	23.000	8.0025e-03
 8.500	23.250	8.0026e-03
 8.500	23.500	8.0024e-03
 8.500	23.750	8.0024e-03
 8.500	24.000	8.0024e-03
 8.750	17.000	8.2673e-03
 8.750	17.250	8.8412e-03
 8.750	17.500	9.9831e-03
 8.750	17.750	1.1783e-02
 8.750	18.000	1.3705e-02
 8.750	18.250	1.4232e-02
 8.750	18.500	1.5387e-02
 8.750	18.750	1.4050e-02
 8.750	19.000	1.2806e-02
 8.750	19.250	1.1527e-02
 8.750	19.500	1.0220e-02
 8.750	19.750	9.2830e-03
 8.750	20.000	8.7211e-03
 8.750	20.250	8.3678e-03
 8.750	20.500	8.1906e-03
 8.750	20.750	8.0965e-03
 8.750	21.000	8.0433e-03
 8.750	21.250	8.0205e-03
 8.750	21.500	8.0108e-03
 8.750	21.750	8.0066e-03
 8.750	22.000	8.0045e-03
 8.750	22.250	8.0035e-03
 8.750	22.500	8.0030e-03
 8.750	22.750	8.0027e-03
 8.750	23.000	8.0034e-03
 8.750	23.250	8.0025e-03
 8.750	23.500	8.0026e-03
 8.750	23.750	8.0024e-03
 8.750	24.000	8.0024e-03
 9.000	17.000	7.3084e-03
 9.000	17.250	7.6015e-03
 9.000	17.500	8.2948e-03
 9.000	17.750	9.5384e-03
 9.000	18.000	1.1434e-02
 9.000	18.250	1.3421e-02
 9.000	18.500	1.4112e-02
 9.000	18.750	1.5356e-02
 9.000	19.000	1.4033e-02
 9.000	19.250	1.2811e-02
 9.000	19.500	1.1540e-02
 9.000	19.750	1.0223e-02
 9.000	20.000	9.2830e-03
 9.000	20.250	8.7209e-03
 9.000	20.500	8.3677e-03
 9.000	20.750	8.1906e-03
 9.000	21.000	8.0965e-03
 9.000	21.250	8.0433e-03
 9.000	21.500	8.0205e-03
 9.000	21.750	8.0108e-03
 9.000	22.000	8.0065e-03
 9.000	22.250	8.0045e-03
 9.000	22.500	8.0035e-03
 9.000	22.750	8.0030e-03
 9.000	23.000	8.0027e-03
 9.000	23.250	8.0026e-03
 9.000	23.500	8.0025e-03
 9.000	23.750	8.0024e-03
 9.000	24.000	8.0025e-03
 9.250	17.000	6.7338e-03
 9.250	17.250	6.8347e-03
 9.250	17.500	7.2412e-03
 9.250	17.750	8.0351e-03
 9.250	18.000	9.3797e-03
 9.250	18.250	1.1352e-02
 9.250	18.500	1.3268e-02
 9.250	18.750	1.4027e-02
 9.250	19.000	1.5321e-02
 9.250	19.250	1.4013e-02
 9.250	19.500	1.2812e-02
 9.250	19.750	1.1551e-02
 9.250	20.000	1.0225e-02
 9.250	20.250	9.2830e-03
 9.250	20.500	8.7207e-03
 9.250	20.750	8.3677e-03
 9.250	21.000	8.1906e-03
 9.250	21.250	8.0965e-03
 9.250	21.500	8.0429e-03
 9.250	21.750	8.0199e-03
 9.250	22.000	8.0101e-03
 9.250	22.250	8.0060e-03
 9.250	22.500	8.0042e-03
 9.250	22.750	8.0032e-03
 9.250	23.000	8.0027e-03
 9.250	23.250	8.0026e-03
 9.250	23.500	8.0024e-03
 9.250	23.750	8.0023e-03
 9.250	24.000	8.0023e-03
 9.500	17.000	6.4269e-03
 9.500	17.250	6.3832e-03
 9.500	17.500	6.6132e-03
 9.500	17.750	7.1385e-03
 9.500	18.000	8.0287e-03
 9.500	18.250	9.4822e-03
 9.500	18.500	1.1551e-02
 9.500	18.750	1.3151e-02
 9.500	19.000	1.3964e-02
 9.500	19.250	1.5282e-02
 9.500	19.500	1.3989e-02
 9.500	19.750	1.2808e-02
 9.500	20.000	1.1559e-02
 9.500	20.250	1.0228e-02
 9.500	20.500	9.2832e-03
 9.500	20.750	8.7202e-03
 9.500	21.000	8.3671e-03
 9.500	21.250	8.1901e-03
 9.500	21.500	8.0959e-03
 9.500	21.750	8.0426e-03
 9.500	22.000	8.0197e-03
 9.500	22.250	8.0100e-03
 9.500	22.500	8.0058e-03
 9.500	22.750	8.0037e-03
 9.500	23.000	8.0027e-03
 9.500	23.250	8.0022e-03
 9.500	23.500	8.0020e-03
 9.500	23.750	8.0018e-03
 9.500	24.000	8.0017e-03
 9.750	17.000	6.3427e-03
 9.750	17.250	6.1460e-03
 9.750	17.500	6.2365e-03
 9.750	17.750	6.6013e-03
 9.750	18.000	7.2617e-03
 9.750	18.250	8.3166e-03
 9.750	18.500	9.9128e-03
 9.750	18.750	1.1935e-02
 9.750	19.000	1.3053e-02
 9.750	19.250	1.3911e-02
 9.750	19.500	1.5241e-02
 9.750	19.750	1.3961e-02
 9.750	20.000	1.2799e-02
 9.750	20.250	1.1564e-02
 9.750	20.500	1.0229e-02
 9.750	20.750	9.2831e-03
 9.750	21.000	8.7202e-03
 9.750	21.250	8.3671e-03
 9.750	21.500	8.1901e-03
 9.750	21.750	8.0960e-03
 9.750	22.000	8.0426e-03
 9.750	22.250	8.0198e-03
 9.750	22.500	8.0100e-03
 9.750	22.750	8.0058e-03
 9.750	23.000	8.0038e-03
 9.750	23.250	8.0027e-03
 9.750	23.500	8.0022e-03
 9.750	23.750	8.0019e-03
 9.750	24.000	8.0017e-03
10.000	17.000	6.4643e-03
10.000	17.250	6.0893e-03
10.000	17.500	6.0240e-03
10.000	17.750	6.2821e-03
10.000	18.000	6.8537e-03
10.000	18.250	7.6848e-03
10.000	18.500	8.8648e-03
10.000	18.750	1.0508e-02
10.000	19.000	1.2167e-02
10.000	19.250	1.2952e-02
10.000	19.500	1.3860e-02
10.000	19.750	1.5199e-02
10.000	20.000	1.3935e-02
10.000	20.250	1.2785e-02
10.000	20.500	1.1567e-02
10.000	20.750	1.0231e-02
10.000	21.000	9.2833e-03
10.000	21.250	8.7204e-03
10.000	21.500	8.3670e-03
10.000	21.750	8.1901e-03
10.000	22.000	8.0960e-03
10.000	22.250	8.0426e-03
10.000	22.500	8.0198e-03
10.000	22.750	8.0100e-03
10.000	23.000	8.0058e-03
10.000	23.250	8.0038e-03
10.000	23.500	8.0028e-03
10.000	23.750	8.0022e-03
10.000	24.000	8.0020e-03
10.250	17.000	6.8253e-03
10.250	17.250	6.2429e-03
10.250	17.500	6.0034e-03
10.250	17.750	6.1443e-03
10.250	18.000	6.6489e-03
10.250	18.250	7.3605e-03
10.250	18.500	8.2864e-03
10.250	18.750	9.5319e-03
10.250	19.000	1.1106e-02
10.250	19.250	1.2237e-02
10.250	19.500	1.2914e-02
10.250	19.750	1.3821e-02
10.250	20.000	1.5182e-02
10.250	20.250	1.3918e-02
10.250	20.500	1.2770e-02
10.250	20.750	1.1567e-02
10.250	21.000	1.0232e-02
10.250	21.250	9.2834e-03
10.250	21.500	8.7204e-03
10.250	21.750	8.3670e-03
10.250	22.000	8.1901e-03
10.250	22.250	8.0960e-03
10.250	22.500	8.0428e-03
10.250	22.750	8.0198e-03
10.250	23.000	8.0100e-03
10.250	23.250	8.0058e-03
10.250	23.500	8.0038e-03
10.250	23.750	8.0027e-03
10.250	24.000	8.0022e-03
10.500	17.000	7.3918e-03
10.500	17.250	6.6423e-03
10.500	17.500	6.2152e-03
10.500	17.750	6.2265e-03
10.500	18.000	6.6249e-03
10.500	18.250	7.2428e-03
10.500	18.500	7.9686e-03
10.500	18.750	8.8623e-03
10.500	19.000	1.0045e-02
10.500	19.250	1.1472e-02
10.500	19.500	1.2448e-02
10.500	19.750	1.3008e-02
10.500	20.000	1.3882e-02
10.500	20.250	1.5198e-02
10.500	20.500	1.3920e-02
10.500	20.750	1.2756e-02
10.500	21.000	1.1563e-02
10.500	21.250	1.0232e-02
10.500	21.500	9.2834e-03
10.500	21.750	8.7205e-03
10.500	22.000	8.3672e-03
10.500	22.250	8.1902e-03
10.500	22.500	8.0961e-03
10.500	22.750	8.0428e-03
10.500	23.000	8.0198e-03
10.500	23.250	8.0100e-03
10.500	23.500	8.0058e-03
10.500	23.750	8.0038e-03
10.500	24.000	8.0028e-03
10.750	17.000	8.1230e-03
10.750	17.250	7.2577e-03
10.750	17.500	6.7060e-03
10.750	17.750	6.5804e-03
10.750	18.000	6.8105e-03
10.750	18.250	7.2263e-03
10.750	18.500	7.7371e-03
10.750	18.750	8.3466e-03
10.750	19.000	9.2087e-03
10.750	19.250	1.0436e-02
10.750	19.500	1.1660e-02
10.750	19.750	1.2572e-02
10.750	20.000	1.3241e-02
10.750	20.250	1.4096e-02
10.750	20.500	1.5324e-02
10.750	20.750	1.3950e-02
10.750	21.000	1.2750e-02
10.750	21.250	1.1557e-02
10.750	21.500	1.0231e-02
10.750	21.750	9.2832e-03
10.750	22.000	8.7205e-03
10.750	22.250	8.3672e-03
10.750	22.500	8.1905e-03
10.750	22.750	8.0961e-03
10.750	23.000	8.0429e-03
10.750	23.250	8.0199e-03
10.750	23.500	8.0101e-03
10.750	23.750	8.0058e-03
10.750	24.000	8.0038e-03
11.000	17.000	8.9877e-03
11.000	17.250	8.0432e-03
11.000	17.500	7.4297e-03
11.000	17.750	7.2089e-03
11.000	18.000	7.2345e-03
11.000	18.250	7.3623e-03
11.000	18.500	7.6079e-03
11.000	18.750	7.9978e-03
11.000	19.000	8.5919e-03
11.000	19.250	9.5077e-03
11.000	19.500	1.0810e-02
11.000	19.750	1.1904e-02
11.000	20.000	1.2937e-02
11.000	20.250	1.3802e-02
11.000	20.500	1.4504e-02
11.000	20.750	1.5597e-02
11.000	21.000	1.4064e-02
11.000	21.250	1.2756e-02
11.000	21.500	1.1549e-02
11.000	21.750	1.0230e-02
11.000	22.000	9.2830e-03
11.000	22.250	8.7206e-03
11.000	22.500	8.3672e-03
11.000	22.750	8.1905e-03
11.000	23.000	8.0964e-03
11.000	23.250	8.0429e-03
11.000	23.500	8.0200e-03
11.000	23.750	8.0102e-03
11.000	24.000	8.0058e-03
11.250	17.000	9.9593e-03
11.250	17.250	8.9547e-03
11.250	17.500	8.3166e-03
11.250	17.750	8.0446e-03
11.250	18.000	7.8963e-03
11.250	18.250	7.7202e-03
11.250	18.500	7.6574e-03
11.250	18.750	7.8364e-03
11.250	19.000	8.1879e-03
11.250	19.250	8.7984e-03
11.250	19.500	9.8037e-03
11.250	19.750	1.1197e-02
11.250	20.000	1.2169e-02
11.250	20.250	1.3405e-02
11.250	20.500	1.4327e-02
11.250	20.750	1.5172e-02
11.250	21.000	1.6157e-02
11.250	21.250	1.4265e-02
11.250	21.500	1.2794e-02
11.250	21.750	1.1541e-02
11.250	22.000	1.0228e-02
11.250	22.250	9.2828e-03
11.250	22.500	8.7207e-03
11.250	22.750	8.3671e-03
11.250	23.000	8.1906e-03
11.250	23.250	8.0965e-03
11.250	23.500	8.0429e-03
11.250	23.750	8.0200e-03
11.250	24.000	8.0103e-03
11.500	17.000	1.1002e-02
11.500	17.250	9.9620e-03
11.500	17.500	9.3111e-03
11.500	17.750	8.9981e-03
11.500	18.000	8.7196e-03
11.500	18.250	8.3382e-03
11.500	18.500	7.9974e-03
11.500	18.750	7.8774e-03
11.500	19.000	7.9940e-03
11.500	19.250	8.3377e-03
11.500	19.500	9.0107e-03
11.500	19.750	1.0144e-02
11.500	20.000	1.1657e-02
11.500	20.250	1.2640e-02
11.500	20.500	1.4131e-02
11.500	20.750	1.5244e-02
11.500	21.000	1.6186e-02
11.500	21.250	1.6887e-02
11.500	21.500	1.4576e-02
11.500	21.750	1.2869e-02
11.500	22.000	1.1534e-02
11.500	22.250	1.0226e-02
11.500	22.500	9.2825e-03
11.500	22.750	8.7209e-03
11.500	23.000	8.3670e-03
11.500	23.250	8.1905e-03
11.500	23.500	8.0966e-03
11.500	23.750	8.0430e-03
11.500	24.000	8.0201e-03
11.750	17.000	1.1995e-02
11.750	17.250	1.0993e-02
11.750	17.500	1.0349e-02
11.750	17.750	9.9900e-03
11.750	18.000	9.6132e-03
11.750	18.250	9.1455e-03
11.750	18.500	8.6221e-03
11.750	18.750	8.1853e-03
11.750	19.000	8.0160e-03
11.750	19.250	8.1114e-03
11.750	19.500	8.4818e-03
11.750	19.750	9.2468e-03
11.750	20.000	1.0551e-02
11.750	20.250	1.2217e-02
11.750	20.500	1.3314e-02
11.750	20.750	1.5045e-02
11.750	21.000	1.6467e-02
11.750	21.250	1.7695e-02
11.750	21.500	1.7645e-02
11.750	21.750	1.4969e-02
11.750	22.000	1.3007e-02
11.750	22.250	1.1534e-02
11.750	22.500	1.0223e-02
11.750	22.750	9.2820e-03
11.750	23.000	8.7212e-03
11.750	23.250	8.3668e-03
11.750	23.500	8.1905e-03
11.750	23.750	8.0966e-03
11.750	24.000	8.0432e-03
12.000	17.000	1.2748e-02
12.000	17.250	1.1890e-02
12.000	17.500	1.1313e-02
12.000	17.750	1.0934e-02
12.000	18.000	1.0526e-02
12.000	18.250	1.0031e-02
12.000	18.500	9.4322e-03
12.000	18.750	8.8087e-03
12.000	19.000	8.3178e-03
12.000	19.250	8.1020e-03
12.000	19.500	8.2072e-03
12.000	19.750	8.6308e-03
12.000	20.000	9.5395e-03
12.000	20.250	1.1050e-02
12.000	20.500	1.2897e-02
12.000	20.750	1.4190e-02
12.000	21.000	1.6323e-02
12.000	21.250	1.8442e-02
12.000	21.500	1.9850e-02
12.000	21.750	1.8391e-02
12.000	22.000	1.5433e-02
12.000	22.250	1.3194e-02
12.000	22.500	1.1543e-02
12.000	22.750	1.0220e-02
12.000	23.000	9.2814e-03
12.000	23.250	8.7214e-03
12.000	23.500	8.3667e-03
12.000	23.750	8.1905e-03
12.000	24.000	8.0967e-03
12.250	17.000	1.3014e-02
12.250	17.250	1.2442e-02
12.250	17.500	1.2037e-02
12.250	17.750	1.1730e-02
12.250	18.000	1.1370e-02
12.250	18.250	1.0899e-02
12.250	18.500	1.0294e-02
12.250	18.750	9.6133e-03
12.250	19.000	8.9148e-03
12.250	19.250	8.3742e-03
12.250	19.500	8.1614e-03
12.250	19.750	8.2989e-03
12.250	20.000	8.8153e-03
12.250	20.250	9.9062e-03
12.250	20.500	1.1681e-02
12.250	20.750	1.3779e-02
12.250	21.000	1.5551e-02
12.250	21.250	1.8367e-02
12.250	21.500	2.1090e-02
12.250	21.750	2.2367e-02
12.250	22.000	1.9190e-02
12.250	22.250	1.5732e-02
12.250	22.500	1.3285e-02
12.250	22.750	1.1565e-02
12.250	23.000	1.0217e-02
12.250	23.250	9.2807e-03
12.250	23.500	8.7216e-03
12.250	23.750	8.3664e-03
12.250	24.000	8.1905e-03
12.500	17.000	1.2787e-02
12.500	17.250	1.2585e-02
12.500	17.500	1.2424e-02
12.500	17.750	1.2270e-02
12.500	18.000	1.2036e-02
12.500	18.250	1.1647e-02
12.500	18.500	1.1116e-02
12.500	18.750	1.0448e-02
12.500	19.000	9.6842e-03
12.500	19.250	8.9429e-03
12.500	19.500	8.3843e-03
12.500	19.750	8.2056e-03
12.500	20.000	8.3986e-03
12.500	20.250	9.0496e-03
12.500	20.500	1.0381e-02
12.500	20.750	1.2551e-02
12.500	21.000	1.5164e-02
12.500	21.250	1.7727e-02
12.500	21.500	2.1212e-02
12.500	21.750	2.4299e-02
12.500	22.000	2.4289e-02
12.500	22.250	1.9847e-02
12.500	22.500	1.6174e-02
12.500	22.750	1.3531e-02
12.500	23.000	1.1596e-02
12.500	23.250	1.0214e-02
12.500	23.500	9.2801e-03
12.500	23.750	8.7219e-03
12.500	24.000	8.3661e-03
12.750	17.000	1.2027e-02
12.750	17.250	1.2365e-02
12.750	17.500	1.2450e-02
12.750	17.750	1.2483e-02
12.750	18.000	1.2428e-02
12.750	18.250	1.2211e-02
12.750	18.500	1.1795e-02
12.750	18.750	1.1214e-02
12.750	19.000	1.0494e-02
12.750	19.250	9.6863e-03
12.750	19.500	8.9137e-03
12.750	19.750	8.3694e-03
12.750	20.000	8.2314e-03
12.750	20.250	8.5328e-03
12.750	20.500	9.3716e-03
12.750	20.750	1.1070e-02
12.750	21.000	1.3930e-02
12.750	21.250	1.7221e-02
12.750	21.500	2.0554e-02
12.750	21.750	2.5079e-02
12.750	22.000	2.7891e-02
12.750	22.250	2.5934e-02
12.750	22.500	2.0719e-02
12.750	22.750	1.6708e-02
12.750	23.000	1.3741e-02
12.750	23.250	1.1634e-02
12.750	23.500	1.0213e-02
12.750	23.750	9.2793e-03
12.750	24.000	8.7221e-03
13.000	17.000	1.1033e-02
13.000	17.250	1.1622e-02
13.000	17.500	1.2015e-02
13.000	17.750	1.2306e-02
13.000	18.000	1.2460e-02
13.000	18.250	1.2464e-02
13.000	18.500	1.2245e-02
13.000	18.750	1.1804e-02
13.000	19.000	1.1185e-02
13.000	19.250	1.0435e-02
13.000	19.500	9.6034e-03
13.000	19.750	8.8404e-03
13.000	20.000	8.3274e-03
13.000	20.250	8.2441e-03
13.000	20.500	8.7222e-03
13.000	20.750	9.8294e-03
13.000	21.000	1.1985e-02
13.000	21.250	1.5699e-02
13.000	21.500	1.9669e-02
13.000	21.750	2.4474e-02
13.000	22.000	2.8876e-02
13.000	22.250	3.1214e-02
13.000	22.500	2.7479e-02
13.000	22.750	2.1511e-02
13.000	23.000	1.7121e-02
13.000	23.250	1.3928e-02
13.000	23.500	1.1678e-02
13.000	23.750	1.0212e-02
13.000	24.000	9.2785e-03
13.250	17.000	1.0317e-02
13.250	17.250	1.0882e-02
13.250	17.500	1.1315e-02
13.250	17.750	1.1704e-02
13.250	18.000	1.2065e-02
13.250	18.250	1.2308e-02
13.250	18.500	1.2345e-02
13.250	18.750	1.2122e-02
13.250	19.000	1.1668e-02
13.250	19.250	1.1035e-02
13.250	19.500	1.0279e-02
13.250	19.750	9.4895e-03
13.250	20.000	8.7594e-03
13.250	20.250	8.2716e-03
13.250	20.500	8.2592e-03
13.250	20.750	8.8760e-03
13.250	21.000	1.0389e-02
13.250	21.250	1.3119e-02
13.250	21.500	1.7148e-02
13.250	21.750	2.1588e-02
13.250	22.000	2.7334e-02
13.250	22.250	3.2501e-02
13.250	22.500	3.4084e-02
13.250	22.750	2.9086e-02
13.250	23.000	2.2343e-02
13.250	23.250	1.7290e-02
13.250	23.500	1.3985e-02
13.250	23.750	1.1725e-02
13.250	24.000	1.0215e-02
13.500	17.000	9.5532e-03
13.500	17.250	1.0162e-02
13.500	17.500	1.0563e-02
13.500	17.750	1.0901e-02
13.500	18.000	1.1303e-02
13.500	18.250	1.1709e-02
13.500	18.500	1.1990e-02
13.500	18.750	1.2040e-02
13.500	19.000	1.1831e-02
13.500	19.250	1.1389e-02
13.500	19.500	1.0783e-02
13.500	19.750	1.0072e-02
13.500	20.000	9.3310e-03
13.500	20.250	8.6792e-03
13.500	20.500	8.2575e-03
13.500	20.750	8.2885e-03
13.500	21.000	8.9235e-03
13.500	21.250	1.0740e-02
13.500	21.500	1.3361e-02
13.500	21.750	1.7702e-02
13.500	22.000	2.2781e-02
13.500	22.250	2.9537e-02
13.500	22.500	3.5413e-02
13.500	22.750	3.6782e-02
13.500	23.000	3.0739e-02
13.500	23.250	2.3288e-02
13.500	23.500	1.7899e-02
13.500	23.750	1.4247e-02
13.500	24.000	1.1768e-02
13.750	17.000	8.7238e-03
13.750	17.250	9.4149e-03
13.750	17.500	9.8377e-03
13.750	17.750	1.0141e-02
13.750	18.000	1.0516e-02
13.750	18.250	1.0935e-02
13.750	18.500	1.1300e-02
13.750	18.750	1.1529e-02
13.750	19.000	1.1583e-02
13.750	19.250	1.1413e-02
13.750	19.500	1.1026e-02
13.750	19.750	1.0479e-02
13.750	20.000	9.8459e-03
13.750	20.250	9.2100e-03
13.750	20.500	8.6670e-03
13.750	20.750	8.3514e-03
13.750	21.000	8.4512e-03
13.750	21.250	9.1558e-03
13.750	21.500	1.0855e-02
13.750	21.750	1.3915e-02
13.750	22.000	1.8560e-02
13.750	22.250	2.4711e-02
13.750	22.500	3.2090e-02
13.750	22.750	3.8820e-02
13.750	23.000	3.9714e-02
13.750	23.250	3.2377e-02
13.750	23.500	2.4038e-02
13.750	23.750	1.8269e-02
13.750	24.000	1.4396e-02
14.000	17.000	7.7477e-03
14.000	17.250	8.6156e-03
14.000	17.500	9.1230e-03
14.000	17.750	9.4065e-03
14.000	18.000	9.7543e-03
14.000	18.250	1.0178e-02
14.000	18.500	1.0567e-02
14.000	18.750	1.0852e-02
14.000	19.000	1.1003e-02
14.000	19.250	1.1041e-02
14.000	19.500	1.0930e-02
14.000	19.750	1.0629e-02
14.000	20.000	1.0180e-02
14.000	20.250	9.6630e-03
14.000	20.500	9.1714e-03
14.000	20.750	8.7895e-03
14.000	21.000	8.6484e-03
14.000	21.250	8.9464e-03
14.000	21.500	9.7880e-03
14.000	21.750	1.1749e-02
14.000	22.000	1.5192e-02
14.000	22.250	2.0925e-02
14.000	22.500	2.8021e-02
14.000	22.750	3.5541e-02
14.000	23.000	4.2561e-02
14.000	23.250	4.2915e-02
14.000	23.500	3.3999e-02
14.000	23.750	2.4739e-02
14.000	24.000	1.8643e-02
