InwC 897.800A  relative to Inci 1215.00A scaled to 1215A.
Hden   Phi(H)  Eq_Width (A)
 7.000	17.000	3.8914e-03
 7.000	17.250	5.5524e-03
 7.000	17.500	6.6996e-03
 7.000	17.750	7.2703e-03
 7.000	18.000	7.5693e-03
 7.000	18.250	7.7782e-03
 7.000	18.500	7.8947e-03
 7.000	18.750	7.9246e-03
 7.000	19.000	7.9375e-03
 7.000	19.250	7.9430e-03
 7.000	19.500	7.9441e-03
 7.000	19.750	7.9444e-03
 7.000	20.000	7.9445e-03
 7.000	20.250	7.9446e-03
 7.000	20.500	7.9446e-03
 7.000	20.750	7.9446e-03
 7.000	21.000	7.9446e-03
 7.000	21.250	7.9446e-03
 7.000	21.500	7.9448e-03
 7.000	21.750	7.9446e-03
 7.000	22.000	7.9446e-03
 7.000	22.250	7.9446e-03
 7.000	22.500	7.9446e-03
 7.000	22.750	7.9449e-03
 7.000	23.000	7.9449e-03
 7.000	23.250	7.9446e-03
 7.000	23.500	7.9446e-03
 7.000	23.750	7.9446e-03
 7.000	24.000	7.9446e-03
 7.250	17.000	2.3958e-03
 7.250	17.250	3.9030e-03
 7.250	17.500	5.5651e-03
 7.250	17.750	6.7075e-03
 7.250	18.000	7.2729e-03
 7.250	18.250	7.5702e-03
 7.250	18.500	7.7784e-03
 7.250	18.750	7.8947e-03
 7.250	19.000	7.9246e-03
 7.250	19.250	7.9375e-03
 7.250	19.500	7.9430e-03
 7.250	19.750	7.9441e-03
 7.250	20.000	7.9444e-03
 7.250	20.250	7.9444e-03
 7.250	20.500	7.9445e-03
 7.250	20.750	7.9446e-03
 7.250	21.000	7.9446e-03
 7.250	21.250	7.9446e-03
 7.250	21.500	7.9446e-03
 7.250	21.750	7.9462e-03
 7.250	22.000	7.9446e-03
 7.250	22.250	7.9446e-03
 7.250	22.500	7.9446e-03
 7.250	22.750	7.9454e-03
 7.250	23.000	7.9454e-03
 7.250	23.250	7.9446e-03
 7.250	23.500	7.9446e-03
 7.250	23.750	7.9446e-03
 7.250	24.000	7.9446e-03
 7.500	17.000	1.2862e-03
 7.500	17.250	2.4020e-03
 7.500	17.500	3.9129e-03
 7.500	17.750	5.5779e-03
 7.500	18.000	6.7170e-03
 7.500	18.250	7.2764e-03
 7.500	18.500	7.5714e-03
 7.500	18.750	7.7788e-03
 7.500	19.000	7.8947e-03
 7.500	19.250	7.9247e-03
 7.500	19.500	7.9375e-03
 7.500	19.750	7.9430e-03
 7.500	20.000	7.9441e-03
 7.500	20.250	7.9444e-03
 7.500	20.500	7.9444e-03
 7.500	20.750	7.9445e-03
 7.500	21.000	7.9445e-03
 7.500	21.250	7.9446e-03
 7.500	21.500	7.9446e-03
 7.500	21.750	7.9446e-03
 7.500	22.000	7.9446e-03
 7.500	22.250	7.9446e-03
 7.500	22.500	7.9446e-03
 7.500	22.750	7.9446e-03
 7.500	23.000	7.9450e-03
 7.500	23.250	7.9454e-03
 7.500	23.500	7.9446e-03
 7.500	23.750	7.9456e-03
 7.500	24.000	7.9446e-03
 7.750	17.000	6.6848e-04
 7.750	17.250	1.2901e-03
 7.750	17.500	2.4060e-03
 7.750	17.750	3.9212e-03
 7.750	18.000	5.5911e-03
 7.750	18.250	6.7280e-03
 7.750	18.500	7.2808e-03
 7.750	18.750	7.5731e-03
 7.750	19.000	7.7793e-03
 7.750	19.250	7.8949e-03
 7.750	19.500	7.9247e-03
 7.750	19.750	7.9375e-03
 7.750	20.000	7.9430e-03
 7.750	20.250	7.9441e-03
 7.750	20.500	7.9444e-03
 7.750	20.750	7.9444e-03
 7.750	21.000	7.9445e-03
 7.750	21.250	7.9445e-03
 7.750	21.500	7.9445e-03
 7.750	21.750	7.9445e-03
 7.750	22.000	7.9446e-03
 7.750	22.250	7.9446e-03
 7.750	22.500	7.9446e-03
 7.750	22.750	7.9449e-03
 7.750	23.000	7.9449e-03
 7.750	23.250	7.9447e-03
 7.750	23.500	7.9454e-03
 7.750	23.750	7.9454e-03
 7.750	24.000	7.9446e-03
 8.000	17.000	3.4947e-04
 8.000	17.250	6.6807e-04
 8.000	17.500	1.2888e-03
 8.000	17.750	2.4077e-03
 8.000	18.000	3.9281e-03
 8.000	18.250	5.6046e-03
 8.000	18.500	6.7406e-03
 8.000	18.750	7.2865e-03
 8.000	19.000	7.5753e-03
 8.000	19.250	7.7800e-03
 8.000	19.500	7.8950e-03
 8.000	19.750	7.9247e-03
 8.000	20.000	7.9375e-03
 8.000	20.250	7.9430e-03
 8.000	20.500	7.9441e-03
 8.000	20.750	7.9444e-03
 8.000	21.000	7.9444e-03
 8.000	21.250	7.9445e-03
 8.000	21.500	7.9445e-03
 8.000	21.750	7.9445e-03
 8.000	22.000	7.9445e-03
 8.000	22.250	7.9445e-03
 8.000	22.500	7.9445e-03
 8.000	22.750	7.9448e-03
 8.000	23.000	7.9446e-03
 8.000	23.250	7.9451e-03
 8.000	23.500	7.9446e-03
 8.000	23.750	7.9446e-03
 8.000	24.000	7.9446e-03
 8.250	17.000	1.8321e-04
 8.250	17.250	3.4947e-04
 8.250	17.500	6.6815e-04
 8.250	17.750	1.2885e-03
 8.250	18.000	2.4078e-03
 8.250	18.250	3.9336e-03
 8.250	18.500	5.6188e-03
 8.250	18.750	6.7548e-03
 8.250	19.000	7.2932e-03
 8.250	19.250	7.5781e-03
 8.250	19.500	7.7809e-03
 8.250	19.750	7.8952e-03
 8.250	20.000	7.9248e-03
 8.250	20.250	7.9375e-03
 8.250	20.500	7.9430e-03
 8.250	20.750	7.9441e-03
 8.250	21.000	7.9444e-03
 8.250	21.250	7.9444e-03
 8.250	21.500	7.9445e-03
 8.250	21.750	7.9445e-03
 8.250	22.000	7.9445e-03
 8.250	22.250	7.9445e-03
 8.250	22.500	7.9445e-03
 8.250	22.750	7.9448e-03
 8.250	23.000	7.9445e-03
 8.250	23.250	7.9467e-03
 8.250	23.500	7.9445e-03
 8.250	23.750	7.9445e-03
 8.250	24.000	7.9451e-03
 8.500	17.000	9.6379e-05
 8.500	17.250	1.8296e-04
 8.500	17.500	3.4905e-04
 8.500	17.750	6.6741e-04
 8.500	18.000	1.2868e-03
 8.500	18.250	2.4054e-03
 8.500	18.500	3.9377e-03
 8.500	18.750	5.6338e-03
 8.500	19.000	6.7709e-03
 8.500	19.250	7.3007e-03
 8.500	19.500	7.5812e-03
 8.500	19.750	7.7821e-03
 8.500	20.000	7.8955e-03
 8.500	20.250	7.9249e-03
 8.500	20.500	7.9376e-03
 8.500	20.750	7.9430e-03
 8.500	21.000	7.9441e-03
 8.500	21.250	7.9444e-03
 8.500	21.500	7.9444e-03
 8.500	21.750	7.9445e-03
 8.500	22.000	7.9445e-03
 8.500	22.250	7.9445e-03
 8.500	22.500	7.9445e-03
 8.500	22.750	7.9445e-03
 8.500	23.000	7.9445e-03
 8.500	23.250	7.9448e-03
 8.500	23.500	7.9445e-03
 8.500	23.750	7.9445e-03
 8.500	24.000	7.9445e-03
 8.750	17.000	5.1276e-05
 8.750	17.250	9.6132e-05
 8.750	17.500	1.8263e-04
 8.750	17.750	3.4864e-04
 8.750	18.000	6.6650e-04
 8.750	18.250	1.2835e-03
 8.750	18.500	2.4007e-03
 8.750	18.750	3.9402e-03
 8.750	19.000	5.6495e-03
 8.750	19.250	6.7879e-03
 8.750	19.500	7.3091e-03
 8.750	19.750	7.5848e-03
 8.750	20.000	7.7834e-03
 8.750	20.250	7.8959e-03
 8.750	20.500	7.9250e-03
 8.750	20.750	7.9376e-03
 8.750	21.000	7.9430e-03
 8.750	21.250	7.9441e-03
 8.750	21.500	7.9444e-03
 8.750	21.750	7.9444e-03
 8.750	22.000	7.9445e-03
 8.750	22.250	7.9445e-03
 8.750	22.500	7.9445e-03
 8.750	22.750	7.9445e-03
 8.750	23.000	7.9453e-03
 8.750	23.250	7.9445e-03
 8.750	23.500	7.9448e-03
 8.750	23.750	7.9445e-03
 8.750	24.000	7.9445e-03
 9.000	17.000	2.7490e-05
 9.000	17.250	5.1193e-05
 9.000	17.500	9.6049e-05
 9.000	17.750	1.8255e-04
 9.000	18.000	3.4881e-04
 9.000	18.250	6.6650e-04
 9.000	18.500	1.2811e-03
 9.000	18.750	2.3963e-03
 9.000	19.000	3.9414e-03
 9.000	19.250	5.6645e-03
 9.000	19.500	6.8055e-03
 9.000	19.750	7.3178e-03
 9.000	20.000	7.5886e-03
 9.000	20.250	7.7849e-03
 9.000	20.500	7.8962e-03
 9.000	20.750	7.9251e-03
 9.000	21.000	7.9377e-03
 9.000	21.250	7.9430e-03
 9.000	21.500	7.9441e-03
 9.000	21.750	7.9444e-03
 9.000	22.000	7.9444e-03
 9.000	22.250	7.9444e-03
 9.000	22.500	7.9445e-03
 9.000	22.750	7.9445e-03
 9.000	23.000	7.9445e-03
 9.000	23.250	7.9445e-03
 9.000	23.500	7.9445e-03
 9.000	23.750	7.9445e-03
 9.000	24.000	7.9446e-03
 9.250	17.000	1.4650e-05
 9.250	17.250	2.7407e-05
 9.250	17.500	5.1276e-05
 9.250	17.750	9.6379e-05
 9.250	18.000	1.8362e-04
 9.250	18.250	3.5095e-04
 9.250	18.500	6.6947e-04
 9.250	18.750	1.2821e-03
 9.250	19.000	2.3935e-03
 9.250	19.250	3.9413e-03
 9.250	19.500	5.6774e-03
 9.250	19.750	6.8226e-03
 9.250	20.000	7.3266e-03
 9.250	20.250	7.5924e-03
 9.250	20.500	7.7864e-03
 9.250	20.750	7.8967e-03
 9.250	21.000	7.9253e-03
 9.250	21.250	7.9377e-03
 9.250	21.500	7.9426e-03
 9.250	21.750	7.9435e-03
 9.250	22.000	7.9437e-03
 9.250	22.250	7.9440e-03
 9.250	22.500	7.9441e-03
 9.250	22.750	7.9442e-03
 9.250	23.000	7.9443e-03
 9.250	23.250	7.9444e-03
 9.250	23.500	7.9444e-03
 9.250	23.750	7.9444e-03
 9.250	24.000	7.9444e-03
 9.500	17.000	7.6543e-06
 9.500	17.250	1.4733e-05
 9.500	17.500	2.7737e-05
 9.500	17.750	5.2016e-05
 9.500	18.000	9.7695e-05
 9.500	18.250	1.8601e-04
 9.500	18.500	3.5564e-04
 9.500	18.750	6.7885e-04
 9.500	19.000	1.2915e-03
 9.500	19.250	2.3969e-03
 9.500	19.500	3.9418e-03
 9.500	19.750	5.6868e-03
 9.500	20.000	6.8384e-03
 9.500	20.250	7.3353e-03
 9.500	20.500	7.5964e-03
 9.500	20.750	7.7851e-03
 9.500	21.000	7.8960e-03
 9.500	21.250	7.9247e-03
 9.500	21.500	7.9371e-03
 9.500	21.750	7.9422e-03
 9.500	22.000	7.9433e-03
 9.500	22.250	7.9436e-03
 9.500	22.500	7.9437e-03
 9.500	22.750	7.9437e-03
 9.500	23.000	7.9437e-03
 9.500	23.250	7.9437e-03
 9.500	23.500	7.9438e-03
 9.500	23.750	7.9438e-03
 9.500	24.000	7.9438e-03
 9.750	17.000	3.8683e-06
 9.750	17.250	7.7366e-06
 9.750	17.500	1.4979e-05
 9.750	17.750	2.8395e-05
 9.750	18.000	5.3333e-05
 9.750	18.250	1.0000e-04
 9.750	18.500	1.9037e-04
 9.750	18.750	3.6453e-04
 9.750	19.000	6.9523e-04
 9.750	19.250	1.3180e-03
 9.750	19.500	2.4159e-03
 9.750	19.750	3.9477e-03
 9.750	20.000	5.6956e-03
 9.750	20.250	6.8490e-03
 9.750	20.500	7.3409e-03
 9.750	20.750	7.5984e-03
 9.750	21.000	7.7876e-03
 9.750	21.250	7.8966e-03
 9.750	21.500	7.9249e-03
 9.750	21.750	7.9373e-03
 9.750	22.000	7.9423e-03
 9.750	22.250	7.9434e-03
 9.750	22.500	7.9436e-03
 9.750	22.750	7.9437e-03
 9.750	23.000	7.9437e-03
 9.750	23.250	7.9437e-03
 9.750	23.500	7.9437e-03
 9.750	23.750	7.9437e-03
 9.750	24.000	7.9437e-03
10.000	17.000	1.7284e-06
10.000	17.250	3.9506e-06
10.000	17.500	7.9835e-06
10.000	17.750	1.5556e-05
10.000	18.000	2.9465e-05
10.000	18.250	5.5144e-05
10.000	18.500	1.0362e-04
10.000	18.750	1.9819e-04
10.000	19.000	3.8214e-04
10.000	19.250	7.3416e-04
10.000	19.500	1.3859e-03
10.000	19.750	2.4680e-03
10.000	20.000	3.9688e-03
10.000	20.250	5.7042e-03
10.000	20.500	6.8640e-03
10.000	20.750	7.3509e-03
10.000	21.000	7.6037e-03
10.000	21.250	7.7908e-03
10.000	21.500	7.8973e-03
10.000	21.750	7.9253e-03
10.000	22.000	7.9374e-03
10.000	22.250	7.9424e-03
10.000	22.500	7.9433e-03
10.000	22.750	7.9436e-03
10.000	23.000	7.9437e-03
10.000	23.250	7.9438e-03
10.000	23.500	7.9438e-03
10.000	23.750	7.9438e-03
10.000	24.000	7.9438e-03
10.250	17.000	9.0535e-07
10.250	17.250	1.8107e-06
10.250	17.500	4.1152e-06
10.250	17.750	8.3951e-06
10.250	18.000	1.6296e-05
10.250	18.250	3.0947e-05
10.250	18.500	5.8189e-05
10.250	18.750	1.1070e-04
10.250	19.000	2.1506e-04
10.250	19.250	4.2099e-04
10.250	19.500	8.1086e-04
10.250	19.750	1.5144e-03
10.250	20.000	2.5669e-03
10.250	20.250	4.0161e-03
10.250	20.500	5.7203e-03
10.250	20.750	6.8790e-03
10.250	21.000	7.3594e-03
10.250	21.250	7.6083e-03
10.250	21.500	7.7935e-03
10.250	21.750	7.8982e-03
10.250	22.000	7.9255e-03
10.250	22.250	7.9375e-03
10.250	22.500	7.9426e-03
10.250	22.750	7.9434e-03
10.250	23.000	7.9436e-03
10.250	23.250	7.9437e-03
10.250	23.500	7.9437e-03
10.250	23.750	7.9438e-03
10.250	24.000	7.9438e-03
10.500	17.000	1.0000e-07
10.500	17.250	9.0535e-07
10.500	17.500	1.8930e-06
10.500	17.750	4.3621e-06
10.500	18.000	8.8889e-06
10.500	18.250	1.7531e-05
10.500	18.500	3.3663e-05
10.500	18.750	6.4691e-05
10.500	19.000	1.2576e-04
10.500	19.250	2.4889e-04
10.500	19.500	4.8313e-04
10.500	19.750	9.3416e-04
10.500	20.000	1.7081e-03
10.500	20.250	2.7453e-03
10.500	20.500	4.1157e-03
10.500	20.750	5.7527e-03
10.500	21.000	6.8924e-03
10.500	21.250	7.3679e-03
10.500	21.500	7.6130e-03
10.500	21.750	7.7960e-03
10.500	22.000	7.8995e-03
10.500	22.250	7.9259e-03
10.500	22.500	7.9376e-03
10.500	22.750	7.9426e-03
10.500	23.000	7.9435e-03
10.500	23.250	7.9436e-03
10.500	23.500	7.9437e-03
10.500	23.750	7.9438e-03
10.500	24.000	7.9438e-03
10.750	17.000	1.0000e-07
10.750	17.250	1.0000e-07
10.750	17.500	9.8765e-07
10.750	17.750	2.1399e-06
10.750	18.000	4.6914e-06
10.750	18.250	9.9588e-06
10.750	18.500	2.0000e-05
10.750	18.750	3.9588e-05
10.750	19.000	7.7860e-05
10.750	19.250	1.5366e-04
10.750	19.500	3.0543e-04
10.750	19.750	5.8403e-04
10.750	20.000	1.1090e-03
10.750	20.250	1.9402e-03
10.750	20.500	2.9867e-03
10.750	20.750	4.3049e-03
10.750	21.000	5.8114e-03
10.750	21.250	6.9087e-03
10.750	21.500	7.3768e-03
10.750	21.750	7.6183e-03
10.750	22.000	7.7989e-03
10.750	22.250	7.9007e-03
10.750	22.500	7.9267e-03
10.750	22.750	7.9379e-03
10.750	23.000	7.9427e-03
10.750	23.250	7.9435e-03
10.750	23.500	7.9437e-03
10.750	23.750	7.9437e-03
10.750	24.000	7.9437e-03
11.000	17.000	1.0000e-07
11.000	17.250	1.0000e-07
11.000	17.500	1.0000e-07
11.000	17.750	1.0700e-06
11.000	18.000	2.4691e-06
11.000	18.250	5.5967e-06
11.000	18.500	1.2181e-05
11.000	18.750	2.5350e-05
11.000	19.000	5.0700e-05
11.000	19.250	9.9671e-05
11.000	19.500	1.9597e-04
11.000	19.750	3.8691e-04
11.000	20.000	7.2107e-04
11.000	20.250	1.2974e-03
11.000	20.500	2.2081e-03
11.000	20.750	3.3147e-03
11.000	21.000	4.5057e-03
11.000	21.250	5.9202e-03
11.000	21.500	6.9323e-03
11.000	21.750	7.3878e-03
11.000	22.000	7.6247e-03
11.000	22.250	7.8023e-03
11.000	22.500	7.9019e-03
11.000	22.750	7.9273e-03
11.000	23.000	7.9383e-03
11.000	23.250	7.9428e-03
11.000	23.500	7.9436e-03
11.000	23.750	7.9438e-03
11.000	24.000	7.9438e-03
11.250	17.000	1.0000e-07
11.250	17.250	1.0000e-07
11.250	17.500	1.0000e-07
11.250	17.750	1.0000e-07
11.250	18.000	1.2346e-06
11.250	18.250	3.0453e-06
11.250	18.500	7.3251e-06
11.250	18.750	1.6379e-05
11.250	19.000	3.3663e-05
11.250	19.250	6.6502e-05
11.250	19.500	1.2897e-04
11.250	19.750	2.5053e-04
11.250	20.000	4.8881e-04
11.250	20.250	8.9004e-04
11.250	20.500	1.5576e-03
11.250	20.750	2.4908e-03
11.250	21.000	3.5824e-03
11.250	21.250	4.7776e-03
11.250	21.500	6.0512e-03
11.250	21.750	6.9680e-03
11.250	22.000	7.4032e-03
11.250	22.250	7.6333e-03
11.250	22.500	7.8068e-03
11.250	22.750	7.9035e-03
11.250	23.000	7.9281e-03
11.250	23.250	7.9388e-03
11.250	23.500	7.9429e-03
11.250	23.750	7.9437e-03
11.250	24.000	7.9439e-03
11.500	17.000	1.0000e-07
11.500	17.250	1.0000e-07
11.500	17.500	1.0000e-07
11.500	17.750	1.0000e-07
11.500	18.000	1.0000e-07
11.500	18.250	1.6461e-06
11.500	18.500	4.1975e-06
11.500	18.750	1.0041e-05
11.500	19.000	2.1811e-05
11.500	19.250	4.3868e-05
11.500	19.500	8.4856e-05
11.500	19.750	1.6305e-04
11.500	20.000	3.1358e-04
11.500	20.250	5.9753e-04
11.500	20.500	1.0753e-03
11.500	20.750	1.8183e-03
11.500	21.000	2.7808e-03
11.500	21.250	3.8797e-03
11.500	21.500	5.0301e-03
11.500	21.750	6.2085e-03
11.500	22.000	7.0195e-03
11.500	22.250	7.4247e-03
11.500	22.500	7.6458e-03
11.500	22.750	7.8130e-03
11.500	23.000	7.9057e-03
11.500	23.250	7.9291e-03
11.500	23.500	7.9393e-03
11.500	23.750	7.9430e-03
11.500	24.000	7.9438e-03
11.750	17.000	1.0000e-07
11.750	17.250	1.0000e-07
11.750	17.500	1.0000e-07
11.750	17.750	1.0000e-07
11.750	18.000	1.0000e-07
11.750	18.250	9.0535e-07
11.750	18.500	2.3045e-06
11.750	18.750	5.6790e-06
11.750	19.000	1.3086e-05
11.750	19.250	2.7737e-05
11.750	19.500	5.4403e-05
11.750	19.750	1.0403e-04
11.750	20.000	1.9860e-04
11.750	20.250	3.8049e-04
11.750	20.500	7.0856e-04
11.750	20.750	1.2672e-03
11.750	21.000	2.0890e-03
11.750	21.250	3.0909e-03
11.750	21.500	4.1335e-03
11.750	21.750	5.3100e-03
11.750	22.000	6.3624e-03
11.750	22.250	7.0815e-03
11.750	22.500	7.4539e-03
11.750	22.750	7.6643e-03
11.750	23.000	7.8217e-03
11.750	23.250	7.9086e-03
11.750	23.500	7.9305e-03
11.750	23.750	7.9398e-03
11.750	24.000	7.9434e-03
12.000	17.000	1.0000e-07
12.000	17.250	1.0000e-07
12.000	17.500	1.0000e-07
12.000	17.750	1.0000e-07
12.000	18.000	1.0000e-07
12.000	18.250	1.0000e-07
12.000	18.500	1.1523e-06
12.000	18.750	2.9630e-06
12.000	19.000	7.1605e-06
12.000	19.250	1.6049e-05
12.000	19.500	3.3251e-05
12.000	19.750	6.4362e-05
12.000	20.000	1.2239e-04
12.000	20.250	2.3358e-04
12.000	20.500	4.4634e-04
12.000	20.750	8.2667e-04
12.000	21.000	1.4679e-03
12.000	21.250	2.3638e-03
12.000	21.500	3.3973e-03
12.000	21.750	4.4388e-03
12.000	22.000	5.5556e-03
12.000	22.250	6.4998e-03
12.000	22.500	7.1435e-03
12.000	22.750	7.4891e-03
12.000	23.000	7.6856e-03
12.000	23.250	7.8332e-03
12.000	23.500	7.9124e-03
12.000	23.750	7.9321e-03
12.000	24.000	7.9404e-03
12.250	17.000	1.0000e-07
12.250	17.250	1.0000e-07
12.250	17.500	1.0000e-07
12.250	17.750	1.0000e-07
12.250	18.000	1.0000e-07
12.250	18.250	1.0000e-07
12.250	18.500	1.0000e-07
12.250	18.750	1.4815e-06
12.250	19.000	3.6214e-06
12.250	19.250	8.4774e-06
12.250	19.500	1.8683e-05
12.250	19.750	3.8189e-05
12.250	20.000	7.3416e-05
12.250	20.250	1.3975e-04
12.250	20.500	2.6757e-04
12.250	20.750	5.1021e-04
12.250	21.000	9.4634e-04
12.250	21.250	1.6664e-03
12.250	21.500	2.6253e-03
12.250	21.750	3.6860e-03
12.250	22.000	4.6994e-03
12.250	22.250	5.7566e-03
12.250	22.500	6.6172e-03
12.250	22.750	7.2012e-03
12.250	23.000	7.5251e-03
12.250	23.250	7.7095e-03
12.250	23.500	7.8463e-03
12.250	23.750	7.9167e-03
12.250	24.000	7.9338e-03
12.500	17.000	1.0000e-07
12.500	17.250	1.0000e-07
12.500	17.500	1.0000e-07
12.500	17.750	1.0000e-07
12.500	18.000	1.0000e-07
12.500	18.250	1.0000e-07
12.500	18.500	1.0000e-07
12.500	18.750	1.0000e-07
12.500	19.000	1.7284e-06
12.500	19.250	4.1152e-06
12.500	19.500	9.4650e-06
12.500	19.750	2.0823e-05
12.500	20.000	4.2305e-05
12.500	20.250	8.1481e-05
12.500	20.500	1.5638e-04
12.500	20.750	3.0123e-04
12.500	21.000	5.7580e-04
12.500	21.250	1.0666e-03
12.500	21.500	1.8545e-03
12.500	21.750	2.8625e-03
12.500	22.000	3.9393e-03
12.500	22.250	4.9295e-03
12.500	22.500	5.9337e-03
12.500	22.750	6.7382e-03
12.500	23.000	7.2514e-03
12.500	23.250	7.5558e-03
12.500	23.500	7.7324e-03
12.500	23.750	7.8595e-03
12.500	24.000	7.9209e-03
12.750	17.000	1.0000e-07
12.750	17.250	1.0000e-07
12.750	17.500	1.0000e-07
12.750	17.750	1.0000e-07
12.750	18.000	1.0000e-07
12.750	18.250	1.0000e-07
12.750	18.500	1.0000e-07
12.750	18.750	1.0000e-07
12.750	19.000	1.0000e-07
12.750	19.250	1.8930e-06
12.750	19.500	4.4444e-06
12.750	19.750	1.0206e-05
12.750	20.000	2.2469e-05
12.750	20.250	4.5926e-05
12.750	20.500	8.9218e-05
12.750	20.750	1.7342e-04
12.750	21.000	3.3745e-04
12.750	21.250	6.4230e-04
12.750	21.500	1.1752e-03
12.750	21.750	2.0280e-03
12.750	22.000	3.0691e-03
12.750	22.250	4.1500e-03
12.750	22.500	5.1307e-03
12.750	22.750	6.0932e-03
12.750	23.000	6.8214e-03
12.750	23.250	7.2937e-03
12.750	23.500	7.5815e-03
12.750	23.750	7.7522e-03
12.750	24.000	7.8709e-03
13.000	17.000	1.0000e-07
13.000	17.250	1.0000e-07
13.000	17.500	1.0000e-07
13.000	17.750	1.0000e-07
13.000	18.000	1.0000e-07
13.000	18.250	1.0000e-07
13.000	18.500	1.0000e-07
13.000	18.750	1.0000e-07
13.000	19.000	1.0000e-07
13.000	19.250	9.0535e-07
13.000	19.500	1.9753e-06
13.000	19.750	4.5267e-06
13.000	20.000	1.0617e-05
13.000	20.250	2.3539e-05
13.000	20.500	4.9136e-05
13.000	20.750	9.6955e-05
13.000	21.000	1.9021e-04
13.000	21.250	3.7243e-04
13.000	21.500	7.0123e-04
13.000	21.750	1.2888e-03
13.000	22.000	2.1770e-03
13.000	22.250	3.2547e-03
13.000	22.500	4.3409e-03
13.000	22.750	5.2998e-03
13.000	23.000	6.1979e-03
13.000	23.250	6.8866e-03
13.000	23.500	7.3280e-03
13.000	23.750	7.6026e-03
13.000	24.000	7.7681e-03
13.250	17.000	1.0000e-07
13.250	17.250	1.0000e-07
13.250	17.500	1.0000e-07
13.250	17.750	1.0000e-07
13.250	18.000	1.0000e-07
13.250	18.250	1.0000e-07
13.250	18.500	1.0000e-07
13.250	18.750	1.0000e-07
13.250	19.000	1.0000e-07
13.250	19.250	1.0000e-07
13.250	19.500	9.0535e-07
13.250	19.750	1.9753e-06
13.250	20.000	4.6091e-06
13.250	20.250	1.0700e-05
13.250	20.500	2.4198e-05
13.250	20.750	5.1193e-05
13.250	21.000	1.0379e-04
13.250	21.250	2.0568e-04
13.250	21.500	3.9860e-04
13.250	21.750	7.4864e-04
13.250	22.000	1.3866e-03
13.250	22.250	2.3293e-03
13.250	22.500	3.4257e-03
13.250	22.750	4.5095e-03
13.250	23.000	5.4384e-03
13.250	23.250	6.2639e-03
13.250	23.500	6.9224e-03
13.250	23.750	7.3579e-03
13.250	24.000	7.6196e-03
13.500	17.000	1.0000e-07
13.500	17.250	1.0000e-07
13.500	17.500	1.0000e-07
13.500	17.750	1.0000e-07
13.500	18.000	1.0000e-07
13.500	18.250	1.0000e-07
13.500	18.500	1.0000e-07
13.500	18.750	1.0000e-07
13.500	19.000	1.0000e-07
13.500	19.250	1.0000e-07
13.500	19.500	1.0000e-07
13.500	19.750	9.0535e-07
13.500	20.000	2.0576e-06
13.500	20.250	4.6091e-06
13.500	20.500	1.0782e-05
13.500	20.750	2.4444e-05
13.500	21.000	5.1523e-05
13.500	21.250	1.0691e-04
13.500	21.500	2.1119e-04
13.500	21.750	4.1449e-04
13.500	22.000	7.9366e-04
13.500	22.250	1.4856e-03
13.500	22.500	2.4919e-03
13.500	22.750	3.6167e-03
13.500	23.000	4.6586e-03
13.500	23.250	5.5549e-03
13.500	23.500	6.3583e-03
13.500	23.750	6.9784e-03
13.500	24.000	7.3821e-03
13.750	17.000	1.0000e-07
13.750	17.250	1.0000e-07
13.750	17.500	1.0000e-07
13.750	17.750	1.0000e-07
13.750	18.000	1.0000e-07
13.750	18.250	1.0000e-07
13.750	18.500	1.0000e-07
13.750	18.750	1.0000e-07
13.750	19.000	1.0000e-07
13.750	19.250	1.0000e-07
13.750	19.500	1.0000e-07
13.750	19.750	1.0000e-07
13.750	20.000	9.8765e-07
13.750	20.250	2.0576e-06
13.750	20.500	4.6914e-06
13.750	20.750	1.0947e-05
13.750	21.000	2.4774e-05
13.750	21.250	5.2346e-05
13.750	21.500	1.0733e-04
13.750	21.750	2.1679e-04
13.750	22.000	4.2840e-04
13.750	22.250	8.4370e-04
13.750	22.500	1.6044e-03
13.750	22.750	2.6792e-03
13.750	23.000	3.8213e-03
13.750	23.250	4.7952e-03
13.750	23.500	5.6567e-03
13.750	23.750	6.4312e-03
13.750	24.000	7.0244e-03
14.000	17.000	1.0000e-07
14.000	17.250	1.0000e-07
14.000	17.500	1.0000e-07
14.000	17.750	1.0000e-07
14.000	18.000	1.0000e-07
14.000	18.250	1.0000e-07
14.000	18.500	1.0000e-07
14.000	18.750	1.0000e-07
14.000	19.000	1.0000e-07
14.000	19.250	1.0000e-07
14.000	19.500	1.0000e-07
14.000	19.750	1.0000e-07
14.000	20.000	1.0000e-07
14.000	20.250	1.0700e-06
14.000	20.500	2.2222e-06
14.000	20.750	4.9383e-06
14.000	21.000	1.1358e-05
14.000	21.250	2.5679e-05
14.000	21.500	5.3992e-05
14.000	21.750	1.0996e-04
14.000	22.000	2.2025e-04
14.000	22.250	4.4428e-04
14.000	22.500	8.9300e-04
14.000	22.750	1.6973e-03
14.000	23.000	2.8505e-03
14.000	23.250	4.0163e-03
14.000	23.500	4.9365e-03
14.000	23.750	5.7618e-03
14.000	24.000	6.5150e-03
