InwT 3648.00A  relative to Inci 1215.00A scaled to 1215A.
Hden   Phi(H)  Eq_Width (A)
 7.000	17.000	1.2992e-02
 7.000	17.250	9.7560e-03
 7.000	17.500	7.8988e-03
 7.000	17.750	6.8811e-03
 7.000	18.000	6.3574e-03
 7.000	18.250	6.0668e-03
 7.000	18.500	5.9021e-03
 7.000	18.750	5.8291e-03
 7.000	19.000	5.7915e-03
 7.000	19.250	5.7709e-03
 7.000	19.500	5.7625e-03
 7.000	19.750	5.7591e-03
 7.000	20.000	5.7577e-03
 7.000	20.250	5.7570e-03
 7.000	20.500	5.7567e-03
 7.000	20.750	5.7565e-03
 7.000	21.000	5.7565e-03
 7.000	21.250	5.7564e-03
 7.000	21.500	5.7565e-03
 7.000	21.750	5.7563e-03
 7.000	22.000	5.7563e-03
 7.000	22.250	5.7563e-03
 7.000	22.500	5.7563e-03
 7.000	22.750	5.7565e-03
 7.000	23.000	5.7565e-03
 7.000	23.250	5.7563e-03
 7.000	23.500	5.7563e-03
 7.000	23.750	5.7563e-03
 7.000	24.000	5.7563e-03
 7.250	17.000	1.8445e-02
 7.250	17.250	1.2985e-02
 7.250	17.500	9.7511e-03
 7.250	17.750	7.8956e-03
 7.250	18.000	6.8797e-03
 7.250	18.250	6.3569e-03
 7.250	18.500	6.0667e-03
 7.250	18.750	5.9021e-03
 7.250	19.000	5.8291e-03
 7.250	19.250	5.7915e-03
 7.250	19.500	5.7709e-03
 7.250	19.750	5.7625e-03
 7.250	20.000	5.7591e-03
 7.250	20.250	5.7577e-03
 7.250	20.500	5.7570e-03
 7.250	20.750	5.7567e-03
 7.250	21.000	5.7565e-03
 7.250	21.250	5.7565e-03
 7.250	21.500	5.7564e-03
 7.250	21.750	5.7574e-03
 7.250	22.000	5.7563e-03
 7.250	22.250	5.7563e-03
 7.250	22.500	5.7563e-03
 7.250	22.750	5.7569e-03
 7.250	23.000	5.7569e-03
 7.250	23.250	5.7563e-03
 7.250	23.500	5.7563e-03
 7.250	23.750	5.7563e-03
 7.250	24.000	5.7563e-03
 7.500	17.000	2.4093e-02
 7.500	17.250	1.8444e-02
 7.500	17.500	1.2980e-02
 7.500	17.750	9.7477e-03
 7.500	18.000	7.8927e-03
 7.500	18.250	6.8784e-03
 7.500	18.500	6.3565e-03
 7.500	18.750	6.0664e-03
 7.500	19.000	5.9021e-03
 7.500	19.250	5.8291e-03
 7.500	19.500	5.7915e-03
 7.500	19.750	5.7709e-03
 7.500	20.000	5.7625e-03
 7.500	20.250	5.7591e-03
 7.500	20.500	5.7577e-03
 7.500	20.750	5.7570e-03
 7.500	21.000	5.7566e-03
 7.500	21.250	5.7565e-03
 7.500	21.500	5.7564e-03
 7.500	21.750	5.7564e-03
 7.500	22.000	5.7564e-03
 7.500	22.250	5.7563e-03
 7.500	22.500	5.7563e-03
 7.500	22.750	5.7563e-03
 7.500	23.000	5.7566e-03
 7.500	23.250	5.7569e-03
 7.500	23.500	5.7563e-03
 7.500	23.750	5.7570e-03
 7.500	24.000	5.7563e-03
 7.750	17.000	3.2097e-02
 7.750	17.250	2.4089e-02
 7.750	17.500	1.8445e-02
 7.750	17.750	1.2978e-02
 7.750	18.000	9.7454e-03
 7.750	18.250	7.8900e-03
 7.750	18.500	6.8772e-03
 7.750	18.750	6.3560e-03
 7.750	19.000	6.0663e-03
 7.750	19.250	5.9020e-03
 7.750	19.500	5.8291e-03
 7.750	19.750	5.7915e-03
 7.750	20.000	5.7709e-03
 7.750	20.250	5.7625e-03
 7.750	20.500	5.7591e-03
 7.750	20.750	5.7576e-03
 7.750	21.000	5.7570e-03
 7.750	21.250	5.7566e-03
 7.750	21.500	5.7565e-03
 7.750	21.750	5.7564e-03
 7.750	22.000	5.7563e-03
 7.750	22.250	5.7563e-03
 7.750	22.500	5.7563e-03
 7.750	22.750	5.7565e-03
 7.750	23.000	5.7565e-03
 7.750	23.250	5.7563e-03
 7.750	23.500	5.7569e-03
 7.750	23.750	5.7569e-03
 7.750	24.000	5.7563e-03
 8.000	17.000	3.0833e-02
 8.000	17.250	3.1736e-02
 8.000	17.500	2.4040e-02
 8.000	17.750	1.8435e-02
 8.000	18.000	1.2976e-02
 8.000	18.250	9.7437e-03
 8.000	18.500	7.8872e-03
 8.000	18.750	6.8759e-03
 8.000	19.000	6.3556e-03
 8.000	19.250	6.0663e-03
 8.000	19.500	5.9020e-03
 8.000	19.750	5.8291e-03
 8.000	20.000	5.7915e-03
 8.000	20.250	5.7709e-03
 8.000	20.500	5.7625e-03
 8.000	20.750	5.7591e-03
 8.000	21.000	5.7576e-03
 8.000	21.250	5.7570e-03
 8.000	21.500	5.7566e-03
 8.000	21.750	5.7565e-03
 8.000	22.000	5.7564e-03
 8.000	22.250	5.7563e-03
 8.000	22.500	5.7563e-03
 8.000	22.750	5.7565e-03
 8.000	23.000	5.7563e-03
 8.000	23.250	5.7566e-03
 8.000	23.500	5.7563e-03
 8.000	23.750	5.7563e-03
 8.000	24.000	5.7563e-03
 8.250	17.000	2.9911e-02
 8.250	17.250	3.0886e-02
 8.250	17.500	3.1744e-02
 8.250	17.750	2.4040e-02
 8.250	18.000	1.8437e-02
 8.250	18.250	1.2975e-02
 8.250	18.500	9.7423e-03
 8.250	18.750	7.8844e-03
 8.250	19.000	6.8745e-03
 8.250	19.250	6.3551e-03
 8.250	19.500	6.0661e-03
 8.250	19.750	5.9019e-03
 8.250	20.000	5.8291e-03
 8.250	20.250	5.7915e-03
 8.250	20.500	5.7709e-03
 8.250	20.750	5.7625e-03
 8.250	21.000	5.7591e-03
 8.250	21.250	5.7576e-03
 8.250	21.500	5.7570e-03
 8.250	21.750	5.7566e-03
 8.250	22.000	5.7565e-03
 8.250	22.250	5.7564e-03
 8.250	22.500	5.7563e-03
 8.250	22.750	5.7565e-03
 8.250	23.000	5.7563e-03
 8.250	23.250	5.7578e-03
 8.250	23.500	5.7563e-03
 8.250	23.750	5.7563e-03
 8.250	24.000	5.7567e-03
 8.500	17.000	2.9141e-02
 8.500	17.250	3.0016e-02
 8.500	17.500	3.0955e-02
 8.500	17.750	3.1772e-02
 8.500	18.000	2.4044e-02
 8.500	18.250	1.8438e-02
 8.500	18.500	1.2975e-02
 8.500	18.750	9.7412e-03
 8.500	19.000	7.8814e-03
 8.500	19.250	6.8730e-03
 8.500	19.500	6.3546e-03
 8.500	19.750	6.0660e-03
 8.500	20.000	5.9019e-03
 8.500	20.250	5.8291e-03
 8.500	20.500	5.7915e-03
 8.500	20.750	5.7709e-03
 8.500	21.000	5.7625e-03
 8.500	21.250	5.7591e-03
 8.500	21.500	5.7576e-03
 8.500	21.750	5.7570e-03
 8.500	22.000	5.7566e-03
 8.500	22.250	5.7565e-03
 8.500	22.500	5.7564e-03
 8.500	22.750	5.7563e-03
 8.500	23.000	5.7563e-03
 8.500	23.250	5.7564e-03
 8.500	23.500	5.7562e-03
 8.500	23.750	5.7562e-03
 8.500	24.000	5.7562e-03
 8.750	17.000	2.8462e-02
 8.750	17.250	2.9320e-02
 8.750	17.500	3.0207e-02
 8.750	17.750	3.1050e-02
 8.750	18.000	3.1848e-02
 8.750	18.250	2.4048e-02
 8.750	18.500	1.8438e-02
 8.750	18.750	1.2974e-02
 8.750	19.000	9.7401e-03
 8.750	19.250	7.8781e-03
 8.750	19.500	6.8714e-03
 8.750	19.750	6.3541e-03
 8.750	20.000	6.0659e-03
 8.750	20.250	5.9019e-03
 8.750	20.500	5.8291e-03
 8.750	20.750	5.7915e-03
 8.750	21.000	5.7709e-03
 8.750	21.250	5.7625e-03
 8.750	21.500	5.7591e-03
 8.750	21.750	5.7576e-03
 8.750	22.000	5.7570e-03
 8.750	22.250	5.7566e-03
 8.750	22.500	5.7565e-03
 8.750	22.750	5.7564e-03
 8.750	23.000	5.7569e-03
 8.750	23.250	5.7563e-03
 8.750	23.500	5.7564e-03
 8.750	23.750	5.7563e-03
 8.750	24.000	5.7562e-03
 9.000	17.000	2.7763e-02
 9.000	17.250	2.8726e-02
 9.000	17.500	2.9661e-02
 9.000	17.750	3.0614e-02
 9.000	18.000	3.1448e-02
 9.000	18.250	3.2153e-02
 9.000	18.500	2.4049e-02
 9.000	18.750	1.8435e-02
 9.000	19.000	1.2974e-02
 9.000	19.250	9.7393e-03
 9.000	19.500	7.8749e-03
 9.000	19.750	6.8696e-03
 9.000	20.000	6.3536e-03
 9.000	20.250	6.0658e-03
 9.000	20.500	5.9018e-03
 9.000	20.750	5.8291e-03
 9.000	21.000	5.7915e-03
 9.000	21.250	5.7709e-03
 9.000	21.500	5.7625e-03
 9.000	21.750	5.7591e-03
 9.000	22.000	5.7576e-03
 9.000	22.250	5.7570e-03
 9.000	22.500	5.7566e-03
 9.000	22.750	5.7565e-03
 9.000	23.000	5.7564e-03
 9.000	23.250	5.7563e-03
 9.000	23.500	5.7563e-03
 9.000	23.750	5.7563e-03
 9.000	24.000	5.7563e-03
 9.250	17.000	2.6954e-02
 9.250	17.250	2.8131e-02
 9.250	17.500	2.9283e-02
 9.250	17.750	3.0453e-02
 9.250	18.000	3.1542e-02
 9.250	18.250	3.2501e-02
 9.250	18.500	3.2915e-02
 9.250	18.750	2.4042e-02
 9.250	19.000	1.8430e-02
 9.250	19.250	1.2974e-02
 9.250	19.500	9.7390e-03
 9.250	19.750	7.8719e-03
 9.250	20.000	6.8681e-03
 9.250	20.250	6.3532e-03
 9.250	20.500	6.0657e-03
 9.250	20.750	5.9018e-03
 9.250	21.000	5.8291e-03
 9.250	21.250	5.7915e-03
 9.250	21.500	5.7705e-03
 9.250	21.750	5.7621e-03
 9.250	22.000	5.7586e-03
 9.250	22.250	5.7573e-03
 9.250	22.500	5.7567e-03
 9.250	22.750	5.7564e-03
 9.250	23.000	5.7563e-03
 9.250	23.250	5.7562e-03
 9.250	23.500	5.7562e-03
 9.250	23.750	5.7561e-03
 9.250	24.000	5.7562e-03
 9.500	17.000	2.6026e-02
 9.500	17.250	2.7471e-02
 9.500	17.500	2.8975e-02
 9.500	17.750	3.0571e-02
 9.500	18.000	3.2130e-02
 9.500	18.250	3.3721e-02
 9.500	18.500	3.5099e-02
 9.500	18.750	3.4136e-02
 9.500	19.000	2.4027e-02
 9.500	19.250	1.8421e-02
 9.500	19.500	1.2974e-02
 9.500	19.750	9.7393e-03
 9.500	20.000	7.8696e-03
 9.500	20.250	6.8666e-03
 9.500	20.500	6.3528e-03
 9.500	20.750	6.0653e-03
 9.500	21.000	5.9014e-03
 9.500	21.250	5.8286e-03
 9.500	21.500	5.7911e-03
 9.500	21.750	5.7703e-03
 9.500	22.000	5.7619e-03
 9.500	22.250	5.7585e-03
 9.500	22.500	5.7570e-03
 9.500	22.750	5.7564e-03
 9.500	23.000	5.7560e-03
 9.500	23.250	5.7559e-03
 9.500	23.500	5.7558e-03
 9.500	23.750	5.7557e-03
 9.500	24.000	5.7557e-03
 9.750	17.000	2.4848e-02
 9.750	17.250	2.6637e-02
 9.750	17.500	2.8597e-02
 9.750	17.750	3.0840e-02
 9.750	18.000	3.3324e-02
 9.750	18.250	3.5781e-02
 9.750	18.500	3.8110e-02
 9.750	18.750	4.0009e-02
 9.750	19.000	3.4051e-02
 9.750	19.250	2.4000e-02
 9.750	19.500	1.8404e-02
 9.750	19.750	1.2974e-02
 9.750	20.000	9.7402e-03
 9.750	20.250	7.8683e-03
 9.750	20.500	6.8655e-03
 9.750	20.750	6.3525e-03
 9.750	21.000	6.0653e-03
 9.750	21.250	5.9014e-03
 9.750	21.500	5.8287e-03
 9.750	21.750	5.7912e-03
 9.750	22.000	5.7703e-03
 9.750	22.250	5.7620e-03
 9.750	22.500	5.7585e-03
 9.750	22.750	5.7571e-03
 9.750	23.000	5.7564e-03
 9.750	23.250	5.7560e-03
 9.750	23.500	5.7559e-03
 9.750	23.750	5.7558e-03
 9.750	24.000	5.7557e-03
10.000	17.000	2.3391e-02
10.000	17.250	2.5605e-02
10.000	17.500	2.8139e-02
10.000	17.750	3.1206e-02
10.000	18.000	3.4888e-02
10.000	18.250	3.8553e-02
10.000	18.500	4.1728e-02
10.000	18.750	4.4296e-02
10.000	19.000	4.4748e-02
10.000	19.250	3.3889e-02
10.000	19.500	2.3952e-02
10.000	19.750	1.8374e-02
10.000	20.000	1.2974e-02
10.000	20.250	9.7414e-03
10.000	20.500	7.8676e-03
10.000	20.750	6.8648e-03
10.000	21.000	6.3524e-03
10.000	21.250	6.0654e-03
10.000	21.500	5.9014e-03
10.000	21.750	5.8287e-03
10.000	22.000	5.7912e-03
10.000	22.250	5.7704e-03
10.000	22.500	5.7620e-03
10.000	22.750	5.7585e-03
10.000	23.000	5.7571e-03
10.000	23.250	5.7565e-03
10.000	23.500	5.7560e-03
10.000	23.750	5.7559e-03
10.000	24.000	5.7558e-03
10.250	17.000	2.2177e-02
10.250	17.250	2.4402e-02
10.250	17.500	2.7649e-02
10.250	17.750	3.1734e-02
10.250	18.000	3.6624e-02
10.250	18.250	4.1459e-02
10.250	18.500	4.5592e-02
10.250	18.750	4.8985e-02
10.250	19.000	5.1675e-02
10.250	19.250	5.0424e-02
10.250	19.500	3.3756e-02
10.250	19.750	2.3874e-02
10.250	20.000	1.8335e-02
10.250	20.250	1.2973e-02
10.250	20.500	9.7428e-03
10.250	20.750	7.8677e-03
10.250	21.000	6.8644e-03
10.250	21.250	6.3525e-03
10.250	21.500	6.0654e-03
10.250	21.750	5.9014e-03
10.250	22.000	5.8287e-03
10.250	22.250	5.7912e-03
10.250	22.500	5.7705e-03
10.250	22.750	5.7620e-03
10.250	23.000	5.7586e-03
10.250	23.250	5.7571e-03
10.250	23.500	5.7564e-03
10.250	23.750	5.7560e-03
10.250	24.000	5.7559e-03
10.500	17.000	2.1337e-02
10.500	17.250	2.3570e-02
10.500	17.500	2.7201e-02
10.500	17.750	3.2458e-02
10.500	18.000	3.8409e-02
10.500	18.250	4.4181e-02
10.500	18.500	4.9063e-02
10.500	18.750	5.3102e-02
10.500	19.000	5.6224e-02
10.500	19.250	5.8817e-02
10.500	19.500	5.1031e-02
10.500	19.750	3.3756e-02
10.500	20.000	2.3852e-02
10.500	20.250	1.8287e-02
10.500	20.500	1.2972e-02
10.500	20.750	9.7439e-03
10.500	21.000	7.8685e-03
10.500	21.250	6.8644e-03
10.500	21.500	6.3528e-03
10.500	21.750	6.0654e-03
10.500	22.000	5.9016e-03
10.500	22.250	5.8288e-03
10.500	22.500	5.7912e-03
10.500	22.750	5.7705e-03
10.500	23.000	5.7621e-03
10.500	23.250	5.7585e-03
10.500	23.500	5.7571e-03
10.500	23.750	5.7565e-03
10.500	24.000	5.7560e-03
10.750	17.000	2.0933e-02
10.750	17.250	2.3181e-02
10.750	17.500	2.7290e-02
10.750	17.750	3.3274e-02
10.750	18.000	4.0025e-02
10.750	18.250	4.6303e-02
10.750	18.500	5.1702e-02
10.750	18.750	5.6244e-02
10.750	19.000	5.9865e-02
10.750	19.250	6.2734e-02
10.750	19.500	6.4796e-02
10.750	19.750	5.0910e-02
10.750	20.000	3.3840e-02
10.750	20.250	2.3907e-02
10.750	20.500	1.8259e-02
10.750	20.750	1.2970e-02
10.750	21.000	9.7441e-03
10.750	21.250	7.8700e-03
10.750	21.500	6.8647e-03
10.750	21.750	6.3532e-03
10.750	22.000	6.0655e-03
10.750	22.250	5.9016e-03
10.750	22.500	5.8289e-03
10.750	22.750	5.7913e-03
10.750	23.000	5.7705e-03
10.750	23.250	5.7621e-03
10.750	23.500	5.7586e-03
10.750	23.750	5.7571e-03
10.750	24.000	5.7564e-03
11.000	17.000	2.0870e-02
11.000	17.250	2.3191e-02
11.000	17.500	2.7660e-02
11.000	17.750	3.4088e-02
11.000	18.000	4.1036e-02
11.000	18.250	4.7491e-02
11.000	18.500	5.3264e-02
11.000	18.750	5.8280e-02
11.000	19.000	6.2468e-02
11.000	19.250	6.5861e-02
11.000	19.500	6.8556e-02
11.000	19.750	7.0027e-02
11.000	20.000	5.1091e-02
11.000	20.250	3.4290e-02
11.000	20.500	2.4034e-02
11.000	20.750	1.8267e-02
11.000	21.000	1.2968e-02
11.000	21.250	9.7425e-03
11.000	21.500	7.8718e-03
11.000	21.750	6.8654e-03
11.000	22.000	6.3537e-03
11.000	22.250	6.0656e-03
11.000	22.500	5.9016e-03
11.000	22.750	5.8290e-03
11.000	23.000	5.7914e-03
11.000	23.250	5.7705e-03
11.000	23.500	5.7621e-03
11.000	23.750	5.7587e-03
11.000	24.000	5.7571e-03
11.250	17.000	2.1049e-02
11.250	17.250	2.3422e-02
11.250	17.500	2.8085e-02
11.250	17.750	3.4569e-02
11.250	18.000	4.1451e-02
11.250	18.250	4.7881e-02
11.250	18.500	5.3884e-02
11.250	18.750	5.9419e-02
11.250	19.000	6.4046e-02
11.250	19.250	6.7948e-02
11.250	19.500	7.1003e-02
11.250	19.750	7.3423e-02
11.250	20.000	7.2524e-02
11.250	20.250	5.1187e-02
11.250	20.500	3.4403e-02
11.250	20.750	2.4265e-02
11.250	21.000	1.8361e-02
11.250	21.250	1.2962e-02
11.250	21.500	9.7374e-03
11.250	21.750	7.8737e-03
11.250	22.000	6.8665e-03
11.250	22.250	6.3543e-03
11.250	22.500	6.0658e-03
11.250	22.750	5.9015e-03
11.250	23.000	5.8291e-03
11.250	23.250	5.7915e-03
11.250	23.500	5.7705e-03
11.250	23.750	5.7621e-03
11.250	24.000	5.7588e-03
11.500	17.000	2.1452e-02
11.500	17.250	2.3802e-02
11.500	17.500	2.8434e-02
11.500	17.750	3.4718e-02
11.500	18.000	4.1391e-02
11.500	18.250	4.7799e-02
11.500	18.500	5.3951e-02
11.500	18.750	5.9803e-02
11.500	19.000	6.4990e-02
11.500	19.250	6.9269e-02
11.500	19.500	7.2623e-02
11.500	19.750	7.5435e-02
11.500	20.000	7.7763e-02
11.500	20.250	7.3016e-02
11.500	20.500	5.1620e-02
11.500	20.750	3.4884e-02
11.500	21.000	2.4663e-02
11.500	21.250	1.8489e-02
11.500	21.500	1.2953e-02
11.500	21.750	9.7277e-03
11.500	22.000	7.8748e-03
11.500	22.250	6.8679e-03
11.500	22.500	6.3551e-03
11.500	22.750	6.0660e-03
11.500	23.000	5.9014e-03
11.500	23.250	5.8290e-03
11.500	23.500	5.7915e-03
11.500	23.750	5.7706e-03
11.500	24.000	5.7622e-03
11.750	17.000	2.2055e-02
11.750	17.250	2.4285e-02
11.750	17.500	2.8683e-02
11.750	17.750	3.4622e-02
11.750	18.000	4.1026e-02
11.750	18.250	4.7475e-02
11.750	18.500	5.3854e-02
11.750	18.750	6.0009e-02
11.750	19.000	6.5716e-02
11.750	19.250	7.0453e-02
11.750	19.500	7.4150e-02
11.750	19.750	7.7025e-02
11.750	20.000	7.9668e-02
11.750	20.250	8.2099e-02
11.750	20.500	7.4659e-02
11.750	20.750	5.2084e-02
11.750	21.000	3.5483e-02
11.750	21.250	2.5375e-02
11.750	21.500	1.8534e-02
11.750	21.750	1.2935e-02
11.750	22.000	9.7117e-03
11.750	22.250	7.8742e-03
11.750	22.500	6.8693e-03
11.750	22.750	6.3558e-03
11.750	23.000	6.0662e-03
11.750	23.250	5.9013e-03
11.750	23.500	5.8290e-03
11.750	23.750	5.7916e-03
11.750	24.000	5.7708e-03
12.000	17.000	2.2840e-02
12.000	17.250	2.4833e-02
12.000	17.500	2.8773e-02
12.000	17.750	3.4248e-02
12.000	18.000	4.0479e-02
12.000	18.250	4.7092e-02
12.000	18.500	5.3888e-02
12.000	18.750	6.0510e-02
12.000	19.000	6.6576e-02
12.000	19.250	7.1881e-02
12.000	19.500	7.5983e-02
12.000	19.750	7.8945e-02
12.000	20.000	8.1556e-02
12.000	20.250	8.4024e-02
12.000	20.500	8.6429e-02
12.000	20.750	7.4802e-02
12.000	21.000	5.2661e-02
12.000	21.250	3.6703e-02
12.000	21.500	2.6514e-02
12.000	21.750	1.8538e-02
12.000	22.000	1.2907e-02
12.000	22.250	9.6902e-03
12.000	22.500	7.8710e-03
12.000	22.750	6.8706e-03
12.000	23.000	6.3565e-03
12.000	23.250	6.0664e-03
12.000	23.500	5.9012e-03
12.000	23.750	5.8290e-03
12.000	24.000	5.7916e-03
12.250	17.000	2.3609e-02
12.250	17.250	2.5279e-02
12.250	17.500	2.8565e-02
12.250	17.750	3.3508e-02
12.250	18.000	3.9721e-02
12.250	18.250	4.6750e-02
12.250	18.500	5.4213e-02
12.250	18.750	6.1472e-02
12.250	19.000	6.7933e-02
12.250	19.250	7.3602e-02
12.250	19.500	7.8193e-02
12.250	19.750	8.1640e-02
12.250	20.000	8.3963e-02
12.250	20.250	8.6321e-02
12.250	20.500	8.8900e-02
12.250	20.750	9.1466e-02
12.250	21.000	7.5766e-02
12.250	21.250	5.4060e-02
12.250	21.500	3.8362e-02
12.250	21.750	2.7792e-02
12.250	22.000	1.8523e-02
12.250	22.250	1.2876e-02
12.250	22.500	9.6760e-03
12.250	22.750	7.8642e-03
12.250	23.000	6.8716e-03
12.250	23.250	6.3572e-03
12.250	23.500	6.0667e-03
12.250	23.750	5.9009e-03
12.250	24.000	5.8289e-03
12.500	17.000	2.3729e-02
12.500	17.250	2.5014e-02
12.500	17.500	2.7823e-02
12.500	17.750	3.2466e-02
12.500	18.000	3.8850e-02
12.500	18.250	4.6334e-02
12.500	18.500	5.4542e-02
12.500	18.750	6.2699e-02
12.500	19.000	6.9822e-02
12.500	19.250	7.5771e-02
12.500	19.500	8.0621e-02
12.500	19.750	8.4475e-02
12.500	20.000	8.7241e-02
12.500	20.250	8.9300e-02
12.500	20.500	9.1779e-02
12.500	20.750	9.4810e-02
12.500	21.000	9.8287e-02
12.500	21.250	7.8245e-02
12.500	21.500	5.6081e-02
12.500	21.750	4.0264e-02
12.500	22.000	2.8372e-02
12.500	22.250	1.8487e-02
12.500	22.500	1.2833e-02
12.500	22.750	9.6434e-03
12.500	23.000	7.8537e-03
12.500	23.250	6.8720e-03
12.500	23.500	6.3575e-03
12.500	23.750	6.0667e-03
12.500	24.000	5.9006e-03
12.750	17.000	2.0601e-02
12.750	17.250	2.3101e-02
12.750	17.500	2.6532e-02
12.750	17.750	3.1612e-02
12.750	18.000	3.8170e-02
12.750	18.250	4.5967e-02
12.750	18.500	5.4615e-02
12.750	18.750	6.3596e-02
12.750	19.000	7.1731e-02
12.750	19.250	7.8282e-02
12.750	19.500	8.3355e-02
12.750	19.750	8.7453e-02
12.750	20.000	9.0654e-02
12.750	20.250	9.3165e-02
12.750	20.500	9.5420e-02
12.750	20.750	9.8391e-02
12.750	21.000	1.0310e-01
12.750	21.250	1.0761e-01
12.750	21.500	8.1449e-02
12.750	21.750	5.9071e-02
12.750	22.000	4.2208e-02
12.750	22.250	2.8378e-02
12.750	22.500	1.8433e-02
12.750	22.750	1.2775e-02
12.750	23.000	9.6091e-03
12.750	23.250	7.8398e-03
12.750	23.500	6.8712e-03
12.750	23.750	6.3574e-03
12.750	24.000	6.0665e-03
13.000	17.000	1.8350e-02
13.000	17.250	2.1826e-02
13.000	17.500	2.5961e-02
13.000	17.750	3.1291e-02
13.000	18.000	3.7905e-02
13.000	18.250	4.5862e-02
13.000	18.500	5.4735e-02
13.000	18.750	6.4032e-02
13.000	19.000	7.2817e-02
13.000	19.250	8.0323e-02
13.000	19.500	8.5712e-02
13.000	19.750	9.0237e-02
13.000	20.000	9.3848e-02
13.000	20.250	9.6946e-02
13.000	20.500	9.9908e-02
13.000	20.750	1.0277e-01
13.000	21.000	1.0679e-01
13.000	21.250	1.1346e-01
13.000	21.500	1.1679e-01
13.000	21.750	8.5861e-02
13.000	22.000	6.1780e-02
13.000	22.250	4.3566e-02
13.000	22.500	2.8326e-02
13.000	22.750	1.8359e-02
13.000	23.000	1.2723e-02
13.000	23.250	9.5717e-03
13.000	23.500	7.8216e-03
13.000	23.750	6.8686e-03
13.000	24.000	6.3563e-03
13.250	17.000	1.7835e-02
13.250	17.250	2.1108e-02
13.250	17.500	2.6201e-02
13.250	17.750	3.1574e-02
13.250	18.000	3.8174e-02
13.250	18.250	4.6185e-02
13.250	18.500	5.5150e-02
13.250	18.750	6.4491e-02
13.250	19.000	7.3548e-02
13.250	19.250	8.1426e-02
13.250	19.500	8.7577e-02
13.250	19.750	9.2764e-02
13.250	20.000	9.6836e-02
13.250	20.250	1.0034e-01
13.250	20.500	1.0387e-01
13.250	20.750	1.0742e-01
13.250	21.000	1.1173e-01
13.250	21.250	1.1747e-01
13.250	21.500	1.2216e-01
13.250	21.750	1.2407e-01
13.250	22.000	8.8719e-02
13.250	22.250	6.3665e-02
13.250	22.500	4.3976e-02
13.250	22.750	2.8230e-02
13.250	23.000	1.8263e-02
13.250	23.250	1.2676e-02
13.250	23.500	9.5435e-03
13.250	23.750	7.8015e-03
13.250	24.000	6.8634e-03
13.500	17.000	1.7551e-02
13.500	17.250	2.0677e-02
13.500	17.500	2.5747e-02
13.500	17.750	3.1874e-02
13.500	18.000	3.8956e-02
13.500	18.250	4.7018e-02
13.500	18.500	5.6025e-02
13.500	18.750	6.5364e-02
13.500	19.000	7.4464e-02
13.500	19.250	8.2622e-02
13.500	19.500	8.9346e-02
13.500	19.750	9.4762e-02
13.500	20.000	9.9465e-02
13.500	20.250	1.0396e-01
13.500	20.500	1.0770e-01
13.500	20.750	1.1134e-01
13.500	21.000	1.1495e-01
13.500	21.250	1.2073e-01
13.500	21.500	1.2394e-01
13.500	21.750	1.3052e-01
13.500	22.000	1.2915e-01
13.500	22.250	9.0532e-02
13.500	22.500	6.3687e-02
13.500	22.750	4.3663e-02
13.500	23.000	2.8076e-02
13.500	23.250	1.8142e-02
13.500	23.500	1.2591e-02
13.500	23.750	9.4828e-03
13.500	24.000	7.7796e-03
13.750	17.000	1.7596e-02
13.750	17.250	2.0448e-02
13.750	17.500	2.5514e-02
13.750	17.750	3.2089e-02
13.750	18.000	4.0167e-02
13.750	18.250	4.8342e-02
13.750	18.500	5.7400e-02
13.750	18.750	6.6757e-02
13.750	19.000	7.5948e-02
13.750	19.250	8.4419e-02
13.750	19.500	9.1691e-02
13.750	19.750	9.7603e-02
13.750	20.000	1.0260e-01
13.750	20.250	1.0736e-01
13.750	20.500	1.1196e-01
13.750	20.750	1.1609e-01
13.750	21.000	1.1995e-01
13.750	21.250	1.2391e-01
13.750	21.500	1.2720e-01
13.750	21.750	1.3370e-01
13.750	22.000	1.4047e-01
13.750	22.250	1.3449e-01
13.750	22.500	9.1003e-02
13.750	22.750	6.3656e-02
13.750	23.000	4.3382e-02
13.750	23.250	2.7856e-02
13.750	23.500	1.8009e-02
13.750	23.750	1.2503e-02
13.750	24.000	9.4250e-03
14.000	17.000	1.7850e-02
14.000	17.250	2.0548e-02
14.000	17.500	2.5348e-02
14.000	17.750	3.2260e-02
14.000	18.000	4.1014e-02
14.000	18.250	5.0239e-02
14.000	18.500	5.9290e-02
14.000	18.750	6.8640e-02
14.000	19.000	7.7947e-02
14.000	19.250	8.6756e-02
14.000	19.500	9.4658e-02
14.000	19.750	1.0137e-01
14.000	20.000	1.0677e-01
14.000	20.250	1.1158e-01
14.000	20.500	1.1649e-01
14.000	20.750	1.2122e-01
14.000	21.000	1.2569e-01
14.000	21.250	1.3032e-01
14.000	21.500	1.3280e-01
14.000	21.750	1.3880e-01
14.000	22.000	1.4688e-01
14.000	22.250	1.5491e-01
14.000	22.500	1.3932e-01
14.000	22.750	9.2200e-02
14.000	23.000	6.3411e-02
14.000	23.250	4.3303e-02
14.000	23.500	2.7562e-02
14.000	23.750	1.7846e-02
14.000	24.000	1.2391e-02
