nFnu 1000.00A  relative to Inci 1215.00A scaled to 1215A.
Hden   Phi(H)  Eq_Width (A)
 7.000	17.000	1.9693e-02
 7.000	17.250	1.7301e-02
 7.000	17.500	1.4901e-02
 7.000	17.750	1.2465e-02
 7.000	18.000	1.0611e-02
 7.000	18.250	9.4756e-03
 7.000	18.500	8.7500e-03
 7.000	18.750	8.3830e-03
 7.000	19.000	8.1878e-03
 7.000	19.250	8.0775e-03
 7.000	19.500	8.0303e-03
 7.000	19.750	8.0103e-03
 7.000	20.000	8.0015e-03
 7.000	20.250	7.9974e-03
 7.000	20.500	7.9953e-03
 7.000	20.750	7.9942e-03
 7.000	21.000	7.9936e-03
 7.000	21.250	7.9933e-03
 7.000	21.500	7.9933e-03
 7.000	21.750	7.9930e-03
 7.000	22.000	7.9929e-03
 7.000	22.250	7.9929e-03
 7.000	22.500	7.9929e-03
 7.000	22.750	7.9931e-03
 7.000	23.000	7.9931e-03
 7.000	23.250	7.9928e-03
 7.000	23.500	7.9928e-03
 7.000	23.750	7.9928e-03
 7.000	24.000	7.9928e-03
 7.250	17.000	2.1758e-02
 7.250	17.250	1.9409e-02
 7.250	17.500	1.7162e-02
 7.250	17.750	1.4837e-02
 7.250	18.000	1.2429e-02
 7.250	18.250	1.0591e-02
 7.250	18.500	9.4658e-03
 7.250	18.750	8.7467e-03
 7.250	19.000	8.3817e-03
 7.250	19.250	8.1874e-03
 7.250	19.500	8.0774e-03
 7.250	19.750	8.0303e-03
 7.250	20.000	8.0103e-03
 7.250	20.250	8.0015e-03
 7.250	20.500	7.9974e-03
 7.250	20.750	7.9953e-03
 7.250	21.000	7.9942e-03
 7.250	21.250	7.9936e-03
 7.250	21.500	7.9933e-03
 7.250	21.750	7.9947e-03
 7.250	22.000	7.9930e-03
 7.250	22.250	7.9929e-03
 7.250	22.500	7.9929e-03
 7.250	22.750	7.9937e-03
 7.250	23.000	7.9937e-03
 7.250	23.250	7.9928e-03
 7.250	23.500	7.9928e-03
 7.250	23.750	7.9928e-03
 7.250	24.000	7.9928e-03
 7.500	17.000	2.4492e-02
 7.500	17.250	2.1451e-02
 7.500	17.500	1.9244e-02
 7.500	17.750	1.7087e-02
 7.500	18.000	1.4807e-02
 7.500	18.250	1.2408e-02
 7.500	18.500	1.0579e-02
 7.500	18.750	9.4597e-03
 7.500	19.000	8.7444e-03
 7.500	19.250	8.3809e-03
 7.500	19.500	8.1872e-03
 7.500	19.750	8.0774e-03
 7.500	20.000	8.0303e-03
 7.500	20.250	8.0103e-03
 7.500	20.500	8.0015e-03
 7.500	20.750	7.9974e-03
 7.500	21.000	7.9952e-03
 7.500	21.250	7.9942e-03
 7.500	21.500	7.9936e-03
 7.500	21.750	7.9933e-03
 7.500	22.000	7.9931e-03
 7.500	22.250	7.9930e-03
 7.500	22.500	7.9929e-03
 7.500	22.750	7.9929e-03
 7.500	23.000	7.9933e-03
 7.500	23.250	7.9937e-03
 7.500	23.500	7.9928e-03
 7.500	23.750	7.9938e-03
 7.500	24.000	7.9928e-03
 7.750	17.000	2.7452e-02
 7.750	17.250	2.2630e-02
 7.750	17.500	2.1277e-02
 7.750	17.750	1.9147e-02
 7.750	18.000	1.7049e-02
 7.750	18.250	1.4799e-02
 7.750	18.500	1.2399e-02
 7.750	18.750	1.0572e-02
 7.750	19.000	9.4559e-03
 7.750	19.250	8.7430e-03
 7.750	19.500	8.3803e-03
 7.750	19.750	8.1870e-03
 7.750	20.000	8.0774e-03
 7.750	20.250	8.0303e-03
 7.750	20.500	8.0103e-03
 7.750	20.750	8.0015e-03
 7.750	21.000	7.9973e-03
 7.750	21.250	7.9952e-03
 7.750	21.500	7.9942e-03
 7.750	21.750	7.9936e-03
 7.750	22.000	7.9933e-03
 7.750	22.250	7.9931e-03
 7.750	22.500	7.9930e-03
 7.750	22.750	7.9932e-03
 7.750	23.000	7.9932e-03
 7.750	23.250	7.9929e-03
 7.750	23.500	7.9937e-03
 7.750	23.750	7.9937e-03
 7.750	24.000	7.9928e-03
 8.000	17.000	2.0908e-02
 8.000	17.250	2.3457e-02
 8.000	17.500	2.1226e-02
 8.000	17.750	2.1172e-02
 8.000	18.000	1.9089e-02
 8.000	18.250	1.7034e-02
 8.000	18.500	1.4805e-02
 8.000	18.750	1.2396e-02
 8.000	19.000	1.0568e-02
 8.000	19.250	9.4537e-03
 8.000	19.500	8.7421e-03
 8.000	19.750	8.3800e-03
 8.000	20.000	8.1868e-03
 8.000	20.250	8.0774e-03
 8.000	20.500	8.0303e-03
 8.000	20.750	8.0103e-03
 8.000	21.000	8.0015e-03
 8.000	21.250	7.9973e-03
 8.000	21.500	7.9952e-03
 8.000	21.750	7.9942e-03
 8.000	22.000	7.9935e-03
 8.000	22.250	7.9933e-03
 8.000	22.500	7.9930e-03
 8.000	22.750	7.9932e-03
 8.000	23.000	7.9929e-03
 8.000	23.250	7.9933e-03
 8.000	23.500	7.9928e-03
 8.000	23.750	7.9928e-03
 8.000	24.000	7.9928e-03
 8.250	17.000	1.5755e-02
 8.250	17.250	1.7893e-02
 8.250	17.500	2.0821e-02
 8.250	17.750	2.0123e-02
 8.250	18.000	2.1104e-02
 8.250	18.250	1.9049e-02
 8.250	18.500	1.7033e-02
 8.250	18.750	1.4820e-02
 8.250	19.000	1.2398e-02
 8.250	19.250	1.0566e-02
 8.250	19.500	9.4523e-03
 8.250	19.750	8.7416e-03
 8.250	20.000	8.3798e-03
 8.250	20.250	8.1867e-03
 8.250	20.500	8.0773e-03
 8.250	20.750	8.0303e-03
 8.250	21.000	8.0103e-03
 8.250	21.250	8.0015e-03
 8.250	21.500	7.9973e-03
 8.250	21.750	7.9952e-03
 8.250	22.000	7.9942e-03
 8.250	22.250	7.9935e-03
 8.250	22.500	7.9932e-03
 8.250	22.750	7.9933e-03
 8.250	23.000	7.9929e-03
 8.250	23.250	7.9950e-03
 8.250	23.500	7.9928e-03
 8.250	23.750	7.9928e-03
 8.250	24.000	7.9934e-03
 8.500	17.000	1.2187e-02
 8.500	17.250	1.3497e-02
 8.500	17.500	1.5909e-02
 8.500	17.750	1.9107e-02
 8.500	18.000	1.9466e-02
 8.500	18.250	2.1045e-02
 8.500	18.500	1.9019e-02
 8.500	18.750	1.7040e-02
 8.500	19.000	1.4843e-02
 8.500	19.250	1.2402e-02
 8.500	19.500	1.0565e-02
 8.500	19.750	9.4514e-03
 8.500	20.000	8.7412e-03
 8.500	20.250	8.3797e-03
 8.500	20.500	8.1867e-03
 8.500	20.750	8.0773e-03
 8.500	21.000	8.0302e-03
 8.500	21.250	8.0103e-03
 8.500	21.500	8.0015e-03
 8.500	21.750	7.9973e-03
 8.500	22.000	7.9952e-03
 8.500	22.250	7.9942e-03
 8.500	22.500	7.9935e-03
 8.500	22.750	7.9932e-03
 8.500	23.000	7.9930e-03
 8.500	23.250	7.9931e-03
 8.500	23.500	7.9928e-03
 8.500	23.750	7.9928e-03
 8.500	24.000	7.9928e-03
 8.750	17.000	9.8560e-03
 8.750	17.250	1.0590e-02
 8.750	17.500	1.2112e-02
 8.750	17.750	1.4708e-02
 8.750	18.000	1.8056e-02
 8.750	18.250	1.9079e-02
 8.750	18.500	2.0988e-02
 8.750	18.750	1.8989e-02
 8.750	19.000	1.7051e-02
 8.750	19.250	1.4869e-02
 8.750	19.500	1.2408e-02
 8.750	19.750	1.0565e-02
 8.750	20.000	9.4509e-03
 8.750	20.250	8.7410e-03
 8.750	20.500	8.3797e-03
 8.750	20.750	8.1867e-03
 8.750	21.000	8.0773e-03
 8.750	21.250	8.0303e-03
 8.750	21.500	8.0103e-03
 8.750	21.750	8.0015e-03
 8.750	22.000	7.9973e-03
 8.750	22.250	7.9952e-03
 8.750	22.500	7.9941e-03
 8.750	22.750	7.9935e-03
 8.750	23.000	7.9940e-03
 8.750	23.250	7.9930e-03
 8.750	23.500	7.9931e-03
 8.750	23.750	7.9928e-03
 8.750	24.000	7.9928e-03
 9.000	17.000	8.3311e-03
 9.000	17.250	8.7485e-03
 9.000	17.500	9.6551e-03
 9.000	17.750	1.1314e-02
 9.000	18.000	1.4030e-02
 9.000	18.250	1.7477e-02
 9.000	18.500	1.8823e-02
 9.000	18.750	2.0926e-02
 9.000	19.000	1.8955e-02
 9.000	19.250	1.7061e-02
 9.000	19.500	1.4897e-02
 9.000	19.750	1.2414e-02
 9.000	20.000	1.0565e-02
 9.000	20.250	9.4505e-03
 9.000	20.500	8.7408e-03
 9.000	20.750	8.3796e-03
 9.000	21.000	8.1867e-03
 9.000	21.250	8.0773e-03
 9.000	21.500	8.0302e-03
 9.000	21.750	8.0102e-03
 9.000	22.000	8.0014e-03
 9.000	22.250	7.9973e-03
 9.000	22.500	7.9952e-03
 9.000	22.750	7.9941e-03
 9.000	23.000	7.9935e-03
 9.000	23.250	7.9932e-03
 9.000	23.500	7.9930e-03
 9.000	23.750	7.9929e-03
 9.000	24.000	7.9929e-03
 9.250	17.000	7.3056e-03
 9.250	17.250	7.5550e-03
 9.250	17.500	8.1373e-03
 9.250	17.750	9.1821e-03
 9.250	18.000	1.0981e-02
 9.250	18.250	1.3820e-02
 9.250	18.500	1.7203e-02
 9.250	18.750	1.8649e-02
 9.250	19.000	2.0858e-02
 9.250	19.250	1.8914e-02
 9.250	19.500	1.7064e-02
 9.250	19.750	1.4922e-02
 9.250	20.000	1.2421e-02
 9.250	20.250	1.0566e-02
 9.250	20.500	9.4502e-03
 9.250	20.750	8.7407e-03
 9.250	21.000	8.3796e-03
 9.250	21.250	8.1867e-03
 9.250	21.500	8.0769e-03
 9.250	21.750	8.0297e-03
 9.250	22.000	8.0095e-03
 9.250	22.250	8.0009e-03
 9.250	22.500	7.9970e-03
 9.250	22.750	7.9948e-03
 9.250	23.000	7.9938e-03
 9.250	23.250	7.9933e-03
 9.250	23.500	7.9930e-03
 9.250	23.750	7.9928e-03
 9.250	24.000	7.9928e-03
 9.500	17.000	6.5993e-03
 9.500	17.250	6.7383e-03
 9.500	17.500	7.1681e-03
 9.500	17.750	7.9076e-03
 9.500	18.000	9.0921e-03
 9.500	18.250	1.1053e-02
 9.500	18.500	1.4064e-02
 9.500	18.750	1.7070e-02
 9.500	19.000	1.8524e-02
 9.500	19.250	2.0786e-02
 9.500	19.500	1.8866e-02
 9.500	19.750	1.7055e-02
 9.500	20.000	1.4942e-02
 9.500	20.250	1.2427e-02
 9.500	20.500	1.0566e-02
 9.500	20.750	9.4496e-03
 9.500	21.000	8.7400e-03
 9.500	21.250	8.3791e-03
 9.500	21.500	8.1861e-03
 9.500	21.750	8.0765e-03
 9.500	22.000	8.0295e-03
 9.500	22.250	8.0095e-03
 9.500	22.500	8.0007e-03
 9.500	22.750	7.9965e-03
 9.500	23.000	7.9944e-03
 9.500	23.250	7.9933e-03
 9.500	23.500	7.9928e-03
 9.500	23.750	7.9924e-03
 9.500	24.000	7.9923e-03
 9.750	17.000	6.1776e-03
 9.750	17.250	6.1553e-03
 9.750	17.500	6.4760e-03
 9.750	17.750	7.0785e-03
 9.750	18.000	7.9984e-03
 9.750	18.250	9.4072e-03
 9.750	18.500	1.1591e-02
 9.750	18.750	1.4649e-02
 9.750	19.000	1.6887e-02
 9.750	19.250	1.8426e-02
 9.750	19.500	2.0713e-02
 9.750	19.750	1.8812e-02
 9.750	20.000	1.7036e-02
 9.750	20.250	1.4953e-02
 9.750	20.500	1.2431e-02
 9.750	20.750	1.0566e-02
 9.750	21.000	9.4495e-03
 9.750	21.250	8.7399e-03
 9.750	21.500	8.3791e-03
 9.750	21.750	8.1862e-03
 9.750	22.000	8.0765e-03
 9.750	22.250	8.0295e-03
 9.750	22.500	8.0095e-03
 9.750	22.750	8.0007e-03
 9.750	23.000	7.9965e-03
 9.750	23.250	7.9944e-03
 9.750	23.500	7.9933e-03
 9.750	23.750	7.9927e-03
 9.750	24.000	7.9923e-03
10.000	17.000	6.0430e-03
10.000	17.250	5.7894e-03
10.000	17.500	5.9440e-03
10.000	17.750	6.4681e-03
10.000	18.000	7.3222e-03
10.000	18.250	8.4701e-03
10.000	18.500	1.0072e-02
10.000	18.750	1.2380e-02
10.000	19.000	1.5071e-02
10.000	19.250	1.6717e-02
10.000	19.500	1.8341e-02
10.000	19.750	2.0645e-02
10.000	20.000	1.8759e-02
10.000	20.250	1.7007e-02
10.000	20.500	1.4959e-02
10.000	20.750	1.2434e-02
10.000	21.000	1.0567e-02
10.000	21.250	9.4496e-03
10.000	21.500	8.7398e-03
10.000	21.750	8.3791e-03
10.000	22.000	8.1863e-03
10.000	22.250	8.0766e-03
10.000	22.500	8.0295e-03
10.000	22.750	8.0095e-03
10.000	23.000	8.0007e-03
10.000	23.250	7.9965e-03
10.000	23.500	7.9945e-03
10.000	23.750	7.9933e-03
10.000	24.000	7.9928e-03
10.250	17.000	6.2439e-03
10.250	17.250	5.7063e-03
10.250	17.500	5.6282e-03
10.250	17.750	6.0170e-03
10.250	18.000	6.8229e-03
10.250	18.250	7.8682e-03
10.250	18.500	9.1719e-03
10.250	18.750	1.0906e-02
10.250	19.000	1.3211e-02
10.250	19.250	1.5393e-02
10.250	19.500	1.6661e-02
10.250	19.750	1.8282e-02
10.250	20.000	2.0628e-02
10.250	20.250	1.8727e-02
10.250	20.500	1.6976e-02
10.250	20.750	1.4958e-02
10.250	21.000	1.2436e-02
10.250	21.250	1.0567e-02
10.250	21.500	9.4496e-03
10.250	21.750	8.7398e-03
10.250	22.000	8.3791e-03
10.250	22.250	8.1863e-03
10.250	22.500	8.0767e-03
10.250	22.750	8.0295e-03
10.250	23.000	8.0095e-03
10.250	23.250	8.0007e-03
10.250	23.500	7.9965e-03
10.250	23.750	7.9944e-03
10.250	24.000	7.9933e-03
10.500	17.000	6.7329e-03
10.500	17.250	5.9591e-03
10.500	17.500	5.6122e-03
10.500	17.750	5.8028e-03
10.500	18.000	6.4712e-03
10.500	18.250	7.4368e-03
10.500	18.500	8.5498e-03
10.500	18.750	9.8820e-03
10.500	19.000	1.1592e-02
10.500	19.250	1.3790e-02
10.500	19.500	1.5744e-02
10.500	19.750	1.6832e-02
10.500	20.000	1.8401e-02
10.500	20.250	2.0675e-02
10.500	20.500	1.8731e-02
10.500	20.750	1.6948e-02
10.500	21.000	1.4950e-02
10.500	21.250	1.2437e-02
10.500	21.500	1.0567e-02
10.500	21.750	9.4497e-03
10.500	22.000	8.7398e-03
10.500	22.250	8.3792e-03
10.500	22.500	8.1863e-03
10.500	22.750	8.0768e-03
10.500	23.000	8.0295e-03
10.500	23.250	8.0095e-03
10.500	23.500	8.0007e-03
10.500	23.750	7.9965e-03
10.500	24.000	7.9945e-03
10.750	17.000	7.4512e-03
10.750	17.250	6.5109e-03
10.750	17.500	5.9651e-03
10.750	17.750	5.9293e-03
10.750	18.000	6.3542e-03
10.750	18.250	7.0832e-03
10.750	18.500	7.9919e-03
10.750	18.750	9.0154e-03
10.750	19.000	1.0320e-02
10.750	19.250	1.2119e-02
10.750	19.500	1.4151e-02
10.750	19.750	1.5973e-02
10.750	20.000	1.7244e-02
10.750	20.250	1.8794e-02
10.750	20.500	2.0933e-02
10.750	20.750	1.8793e-02
10.750	21.000	1.6934e-02
10.750	21.250	1.4937e-02
10.750	21.500	1.2435e-02
10.750	21.750	1.0566e-02
10.750	22.000	9.4498e-03
10.750	22.250	8.7398e-03
10.750	22.500	8.3794e-03
10.750	22.750	8.1864e-03
10.750	23.000	8.0769e-03
10.750	23.250	8.0297e-03
10.750	23.500	8.0095e-03
10.750	23.750	8.0007e-03
10.750	24.000	7.9965e-03
11.000	17.000	8.3568e-03
11.000	17.250	7.3012e-03
11.000	17.500	6.6370e-03
11.000	17.750	6.4303e-03
11.000	18.000	6.5681e-03
11.000	18.250	6.9294e-03
11.000	18.500	7.5142e-03
11.000	18.750	8.2981e-03
11.000	19.000	9.3071e-03
11.000	19.250	1.0697e-02
11.000	19.500	1.2651e-02
11.000	19.750	1.4758e-02
11.000	20.000	1.6610e-02
11.000	20.250	1.8217e-02
11.000	20.500	1.9535e-02
11.000	20.750	2.1461e-02
11.000	21.000	1.9023e-02
11.000	21.250	1.6948e-02
11.000	21.500	1.4920e-02
11.000	21.750	1.2433e-02
11.000	22.000	1.0565e-02
11.000	22.250	9.4499e-03
11.000	22.500	8.7397e-03
11.000	22.750	8.3795e-03
11.000	23.000	8.1866e-03
11.000	23.250	8.0769e-03
11.000	23.500	8.0297e-03
11.000	23.750	8.0096e-03
11.000	24.000	8.0007e-03
11.250	17.000	9.4202e-03
11.250	17.250	8.2769e-03
11.250	17.500	7.5453e-03
11.250	17.750	7.2333e-03
11.250	18.000	7.1320e-03
11.250	18.250	7.0915e-03
11.250	18.500	7.2614e-03
11.250	18.750	7.7834e-03
11.250	19.000	8.5189e-03
11.250	19.250	9.5466e-03
11.250	19.500	1.1075e-02
11.250	19.750	1.3242e-02
11.250	20.000	1.5296e-02
11.250	20.250	1.7442e-02
11.250	20.500	1.9163e-02
11.250	20.750	2.0747e-02
11.250	21.000	2.2524e-02
11.250	21.250	1.9429e-02
11.250	21.500	1.7030e-02
11.250	21.750	1.4901e-02
11.250	22.000	1.2428e-02
11.250	22.250	1.0565e-02
11.250	22.500	9.4500e-03
11.250	22.750	8.7396e-03
11.250	23.000	8.3796e-03
11.250	23.250	8.1868e-03
11.250	23.500	8.0769e-03
11.250	23.750	8.0298e-03
11.250	24.000	8.0097e-03
11.500	17.000	1.0612e-02
11.500	17.250	9.4079e-03
11.500	17.500	8.6295e-03
11.500	17.750	8.2379e-03
11.500	18.000	7.9516e-03
11.500	18.250	7.6279e-03
11.500	18.500	7.4141e-03
11.500	18.750	7.5295e-03
11.500	19.000	7.9615e-03
11.500	19.250	8.6842e-03
11.500	19.500	9.8123e-03
11.500	19.750	1.1550e-02
11.500	20.000	1.4000e-02
11.500	20.250	1.6144e-02
11.500	20.500	1.8716e-02
11.500	20.750	2.0791e-02
11.500	21.000	2.2582e-02
11.500	21.250	2.3912e-02
11.500	21.500	2.0059e-02
11.500	21.750	1.7189e-02
11.500	22.000	1.4887e-02
11.500	22.250	1.2422e-02
11.500	22.500	1.0563e-02
11.500	22.750	9.4504e-03
11.500	23.000	8.7393e-03
11.500	23.250	8.3796e-03
11.500	23.500	8.1869e-03
11.500	23.750	8.0770e-03
11.500	24.000	8.0298e-03
11.750	17.000	1.1813e-02
11.750	17.250	1.0625e-02
11.750	17.500	9.8243e-03
11.750	17.750	9.3545e-03
11.750	18.000	8.9184e-03
11.750	18.250	8.4475e-03
11.750	18.500	7.9693e-03
11.750	18.750	7.6410e-03
11.750	19.000	7.6979e-03
11.750	19.250	8.0968e-03
11.750	19.500	8.8620e-03
11.750	19.750	1.0121e-02
11.750	20.000	1.2137e-02
11.750	20.250	1.4945e-02
11.750	20.500	1.7321e-02
11.750	20.750	2.0333e-02
11.750	21.000	2.2972e-02
11.750	21.250	2.5293e-02
11.750	21.500	2.5394e-02
11.750	21.750	2.0860e-02
11.750	22.000	1.7481e-02
11.750	22.250	1.4886e-02
11.750	22.500	1.2415e-02
11.750	22.750	1.0562e-02
11.750	23.000	9.4507e-03
11.750	23.250	8.7391e-03
11.750	23.500	8.3795e-03
11.750	23.750	8.1870e-03
11.750	24.000	8.0772e-03
12.000	17.000	1.2800e-02
12.000	17.250	1.1758e-02
12.000	17.500	1.0997e-02
12.000	17.750	1.0474e-02
12.000	18.000	9.9721e-03
12.000	18.250	9.4281e-03
12.000	18.500	8.8156e-03
12.000	18.750	8.2250e-03
12.000	19.000	7.8426e-03
12.000	19.250	7.8088e-03
12.000	19.500	8.2214e-03
12.000	19.750	9.0571e-03
12.000	20.000	1.0525e-02
12.000	20.250	1.2885e-02
12.000	20.500	1.6136e-02
12.000	20.750	1.8867e-02
12.000	21.000	2.2596e-02
12.000	21.250	2.6454e-02
12.000	21.500	2.9153e-02
12.000	21.750	2.6879e-02
12.000	22.000	2.1814e-02
12.000	22.250	1.7880e-02
12.000	22.500	1.4908e-02
12.000	22.750	1.2408e-02
12.000	23.000	1.0560e-02
12.000	23.250	9.4511e-03
12.000	23.500	8.7388e-03
12.000	23.750	8.3794e-03
12.000	24.000	8.1871e-03
12.250	17.000	1.3115e-02
12.250	17.250	1.2497e-02
12.250	17.500	1.1906e-02
12.250	17.750	1.1443e-02
12.250	18.000	1.0996e-02
12.250	18.250	1.0471e-02
12.250	18.500	9.8091e-03
12.250	18.750	9.1100e-03
12.250	19.000	8.4226e-03
12.250	19.250	7.9496e-03
12.250	19.500	7.9059e-03
12.250	19.750	8.3548e-03
12.250	20.000	9.3116e-03
12.250	20.250	1.1048e-02
12.250	20.500	1.3855e-02
12.250	20.750	1.7696e-02
12.250	21.000	2.1240e-02
12.250	21.250	2.6178e-02
12.250	21.500	3.1142e-02
12.250	21.750	3.3706e-02
12.250	22.000	2.8484e-02
12.250	22.250	2.2440e-02
12.250	22.500	1.8079e-02
12.250	22.750	1.4956e-02
12.250	23.000	1.2400e-02
12.250	23.250	1.0559e-02
12.250	23.500	9.4516e-03
12.250	23.750	8.7384e-03
12.250	24.000	8.3793e-03
12.500	17.000	1.1982e-02
12.500	17.250	1.2427e-02
12.500	17.500	1.2278e-02
12.500	17.750	1.2087e-02
12.500	18.000	1.1838e-02
12.500	18.250	1.1427e-02
12.500	18.500	1.0854e-02
12.500	18.750	1.0113e-02
12.500	19.000	9.2745e-03
12.500	19.250	8.5226e-03
12.500	19.500	8.0031e-03
12.500	19.750	7.9953e-03
12.500	20.000	8.5086e-03
12.500	20.250	9.6435e-03
12.500	20.500	1.1735e-02
12.500	20.750	1.5202e-02
12.500	21.000	2.0088e-02
12.500	21.250	2.5006e-02
12.500	21.500	3.1170e-02
12.500	21.750	3.6871e-02
12.500	22.000	3.7321e-02
12.500	22.250	2.9823e-02
12.500	22.500	2.3362e-02
12.500	22.750	1.8608e-02
12.500	23.000	1.5029e-02
12.500	23.250	1.2394e-02
12.500	23.500	1.0557e-02
12.500	23.750	9.4519e-03
12.500	24.000	8.7376e-03
12.750	17.000	9.9555e-03
12.750	17.250	1.0973e-02
12.750	17.500	1.1891e-02
12.750	17.750	1.2216e-02
12.750	18.000	1.2291e-02
12.750	18.250	1.2157e-02
12.750	18.500	1.1758e-02
12.750	18.750	1.1124e-02
12.750	19.000	1.0294e-02
12.750	19.250	9.3745e-03
12.750	19.500	8.5444e-03
12.750	19.750	8.0247e-03
12.750	20.000	8.0565e-03
12.750	20.250	8.7102e-03
12.750	20.500	1.0095e-02
12.750	20.750	1.2729e-02
12.750	21.000	1.7323e-02
12.750	21.250	2.3770e-02
12.750	21.500	2.9914e-02
12.750	21.750	3.7971e-02
12.750	22.000	4.3359e-02
12.750	22.250	4.0575e-02
12.750	22.500	3.1605e-02
12.750	22.750	2.4482e-02
12.750	23.000	1.9064e-02
12.750	23.250	1.5115e-02
12.750	23.500	1.2391e-02
12.750	23.750	1.0555e-02
12.750	24.000	9.4523e-03
13.000	17.000	9.6327e-03
13.000	17.250	9.2237e-03
13.000	17.500	1.0140e-02
13.000	17.750	1.1320e-02
13.000	18.000	1.1994e-02
13.000	18.250	1.2312e-02
13.000	18.500	1.2293e-02
13.000	18.750	1.1911e-02
13.000	19.000	1.1234e-02
13.000	19.250	1.0344e-02
13.000	19.500	9.3801e-03
13.000	19.750	8.5347e-03
13.000	20.000	8.0368e-03
13.000	20.250	8.1182e-03
13.000	20.500	8.9636e-03
13.000	20.750	1.0721e-02
13.000	21.000	1.4014e-02
13.000	21.250	2.0025e-02
13.000	21.500	2.8120e-02
13.000	21.750	3.6715e-02
13.000	22.000	4.4732e-02
13.000	22.250	4.9505e-02
13.000	22.500	4.3673e-02
13.000	22.750	3.3242e-02
13.000	23.000	2.5358e-02
13.000	23.250	1.9475e-02
13.000	23.500	1.5218e-02
13.000	23.750	1.2391e-02
13.000	24.000	1.0553e-02
13.250	17.000	9.0462e-03
13.250	17.250	8.4356e-03
13.250	17.500	6.0275e-03
13.250	17.750	7.7852e-03
13.250	18.000	1.0048e-02
13.250	18.250	1.1275e-02
13.250	18.500	1.1961e-02
13.250	18.750	1.2150e-02
13.250	19.000	1.1853e-02
13.250	19.250	1.1178e-02
13.250	19.500	1.0275e-02
13.250	19.750	9.3537e-03
13.250	20.000	8.5162e-03
13.250	20.250	8.0348e-03
13.250	20.500	8.1858e-03
13.250	20.750	9.1867e-03
13.250	21.000	1.1451e-02
13.250	21.250	1.5563e-02
13.250	21.500	2.2235e-02
13.250	21.750	3.1504e-02
13.250	22.000	4.1813e-02
13.250	22.250	5.1333e-02
13.250	22.500	5.5025e-02
13.250	22.750	4.6923e-02
13.250	23.000	3.4973e-02
13.250	23.250	2.5740e-02
13.250	23.500	1.9609e-02
13.250	23.750	1.5328e-02
13.250	24.000	1.2398e-02
13.500	17.000	8.5460e-03
13.500	17.250	7.9221e-03
13.500	17.500	5.3430e-03
13.500	17.750	5.5666e-03
13.500	18.000	5.9350e-03
13.500	18.250	7.1615e-03
13.500	18.500	9.6185e-03
13.500	18.750	1.1074e-02
13.500	19.000	1.1671e-02
13.500	19.250	1.1570e-02
13.500	19.500	1.0992e-02
13.500	19.750	1.0153e-02
13.500	20.000	9.2544e-03
13.500	20.250	8.4966e-03
13.500	20.500	8.0760e-03
13.500	20.750	8.2569e-03
13.500	21.000	9.2615e-03
13.500	21.250	1.1879e-02
13.500	21.500	1.5876e-02
13.500	21.750	2.3102e-02
13.500	22.000	3.3688e-02
13.500	22.250	4.5854e-02
13.500	22.500	5.6926e-02
13.500	22.750	6.0420e-02
13.500	23.000	5.0300e-02
13.500	23.250	3.6946e-02
13.500	23.500	2.7033e-02
13.500	23.750	2.0186e-02
13.500	24.000	1.5429e-02
13.750	17.000	7.9988e-03
13.750	17.250	7.6942e-03
13.750	17.500	5.0433e-03
13.750	17.750	5.1262e-03
13.750	18.000	5.4728e-03
13.750	18.250	5.8458e-03
13.750	18.500	6.1808e-03
13.750	18.750	6.7523e-03
13.750	19.000	9.5525e-03
13.750	19.250	1.0880e-02
13.750	19.500	1.1108e-02
13.750	19.750	1.0686e-02
13.750	20.000	9.9667e-03
13.750	20.250	9.1921e-03
13.750	20.500	8.5416e-03
13.750	20.750	8.2214e-03
13.750	21.000	8.4621e-03
13.750	21.250	9.5291e-03
13.750	21.500	1.1987e-02
13.750	21.750	1.6571e-02
13.750	22.000	2.4419e-02
13.750	22.250	3.7064e-02
13.750	22.500	5.0686e-02
13.750	22.750	6.3486e-02
13.750	23.000	6.6295e-02
13.750	23.250	5.3683e-02
13.750	23.500	3.8536e-02
13.750	23.750	2.7840e-02
13.750	24.000	2.0524e-02
14.000	17.000	7.2997e-03
14.000	17.250	7.4384e-03
14.000	17.500	5.2578e-03
14.000	17.750	4.7198e-03
14.000	18.000	5.0463e-03
14.000	18.250	5.4156e-03
14.000	18.500	5.7604e-03
14.000	18.750	6.0351e-03
14.000	19.000	6.2204e-03
14.000	19.250	7.4021e-03
14.000	19.500	9.8412e-03
14.000	19.750	1.0513e-02
14.000	20.000	1.0338e-02
14.000	20.250	9.7903e-03
14.000	20.500	9.1708e-03
14.000	20.750	8.6990e-03
14.000	21.000	8.5530e-03
14.000	21.250	9.0060e-03
14.000	21.500	1.0229e-02
14.000	21.750	1.3010e-02
14.000	22.000	1.8179e-02
14.000	22.250	2.8046e-02
14.000	22.500	4.2760e-02
14.000	22.750	5.6983e-02
14.000	23.000	7.0726e-02
14.000	23.250	7.2678e-02
14.000	23.500	5.7067e-02
14.000	23.750	4.0042e-02
14.000	24.000	2.8666e-02
