InwT 9000.00A  relative to Inci 1215.00A scaled to 1215A.
Hden   Phi(H)  Eq_Width (A)
 7.000	17.000	6.0388e-03
 7.000	17.250	3.9964e-03
 7.000	17.500	2.9111e-03
 7.000	17.750	2.3557e-03
 7.000	18.000	2.0813e-03
 7.000	18.250	1.9302e-03
 7.000	18.500	1.8451e-03
 7.000	18.750	1.8083e-03
 7.000	19.000	1.7895e-03
 7.000	19.250	1.7793e-03
 7.000	19.500	1.7753e-03
 7.000	19.750	1.7737e-03
 7.000	20.000	1.7731e-03
 7.000	20.250	1.7728e-03
 7.000	20.500	1.7726e-03
 7.000	20.750	1.7725e-03
 7.000	21.000	1.7725e-03
 7.000	21.250	1.7724e-03
 7.000	21.500	1.7725e-03
 7.000	21.750	1.7724e-03
 7.000	22.000	1.7724e-03
 7.000	22.250	1.7724e-03
 7.000	22.500	1.7724e-03
 7.000	22.750	1.7725e-03
 7.000	23.000	1.7725e-03
 7.000	23.250	1.7724e-03
 7.000	23.500	1.7724e-03
 7.000	23.750	1.7724e-03
 7.000	24.000	1.7724e-03
 7.250	17.000	9.7567e-03
 7.250	17.250	6.0351e-03
 7.250	17.500	3.9942e-03
 7.250	17.750	2.9097e-03
 7.250	18.000	2.3553e-03
 7.250	18.250	2.0812e-03
 7.250	18.500	1.9301e-03
 7.250	18.750	1.8451e-03
 7.250	19.000	1.8083e-03
 7.250	19.250	1.7895e-03
 7.250	19.500	1.7793e-03
 7.250	19.750	1.7753e-03
 7.250	20.000	1.7737e-03
 7.250	20.250	1.7731e-03
 7.250	20.500	1.7728e-03
 7.250	20.750	1.7726e-03
 7.250	21.000	1.7725e-03
 7.250	21.250	1.7725e-03
 7.250	21.500	1.7724e-03
 7.250	21.750	1.7728e-03
 7.250	22.000	1.7724e-03
 7.250	22.250	1.7724e-03
 7.250	22.500	1.7724e-03
 7.250	22.750	1.7726e-03
 7.250	23.000	1.7726e-03
 7.250	23.250	1.7724e-03
 7.250	23.500	1.7724e-03
 7.250	23.750	1.7724e-03
 7.250	24.000	1.7724e-03
 7.500	17.000	1.4776e-02
 7.500	17.250	9.7506e-03
 7.500	17.500	6.0323e-03
 7.500	17.750	3.9923e-03
 7.500	18.000	2.9081e-03
 7.500	18.250	2.3547e-03
 7.500	18.500	2.0811e-03
 7.500	18.750	1.9301e-03
 7.500	19.000	1.8451e-03
 7.500	19.250	1.8083e-03
 7.500	19.500	1.7895e-03
 7.500	19.750	1.7793e-03
 7.500	20.000	1.7753e-03
 7.500	20.250	1.7737e-03
 7.500	20.500	1.7731e-03
 7.500	20.750	1.7728e-03
 7.500	21.000	1.7726e-03
 7.500	21.250	1.7725e-03
 7.500	21.500	1.7725e-03
 7.500	21.750	1.7724e-03
 7.500	22.000	1.7724e-03
 7.500	22.250	1.7724e-03
 7.500	22.500	1.7724e-03
 7.500	22.750	1.7724e-03
 7.500	23.000	1.7725e-03
 7.500	23.250	1.7726e-03
 7.500	23.500	1.7724e-03
 7.500	23.750	1.7727e-03
 7.500	24.000	1.7724e-03
 7.750	17.000	2.1962e-02
 7.750	17.250	1.4765e-02
 7.750	17.500	9.7466e-03
 7.750	17.750	6.0307e-03
 7.750	18.000	3.9907e-03
 7.750	18.250	2.9064e-03
 7.750	18.500	2.3542e-03
 7.750	18.750	2.0809e-03
 7.750	19.000	1.9300e-03
 7.750	19.250	1.8451e-03
 7.750	19.500	1.8083e-03
 7.750	19.750	1.7895e-03
 7.750	20.000	1.7793e-03
 7.750	20.250	1.7753e-03
 7.750	20.500	1.7737e-03
 7.750	20.750	1.7731e-03
 7.750	21.000	1.7728e-03
 7.750	21.250	1.7726e-03
 7.750	21.500	1.7725e-03
 7.750	21.750	1.7725e-03
 7.750	22.000	1.7724e-03
 7.750	22.250	1.7724e-03
 7.750	22.500	1.7724e-03
 7.750	22.750	1.7725e-03
 7.750	23.000	1.7725e-03
 7.750	23.250	1.7724e-03
 7.750	23.500	1.7726e-03
 7.750	23.750	1.7726e-03
 7.750	24.000	1.7724e-03
 8.000	17.000	2.3052e-02
 8.000	17.250	2.1737e-02
 8.000	17.500	1.4736e-02
 8.000	17.750	9.7379e-03
 8.000	18.000	6.0299e-03
 8.000	18.250	3.9893e-03
 8.000	18.500	2.9045e-03
 8.000	18.750	2.3533e-03
 8.000	19.000	2.0807e-03
 8.000	19.250	1.9300e-03
 8.000	19.500	1.8450e-03
 8.000	19.750	1.8083e-03
 8.000	20.000	1.7895e-03
 8.000	20.250	1.7793e-03
 8.000	20.500	1.7753e-03
 8.000	20.750	1.7737e-03
 8.000	21.000	1.7731e-03
 8.000	21.250	1.7728e-03
 8.000	21.500	1.7726e-03
 8.000	21.750	1.7725e-03
 8.000	22.000	1.7725e-03
 8.000	22.250	1.7724e-03
 8.000	22.500	1.7724e-03
 8.000	22.750	1.7725e-03
 8.000	23.000	1.7724e-03
 8.000	23.250	1.7725e-03
 8.000	23.500	1.7724e-03
 8.000	23.750	1.7724e-03
 8.000	24.000	1.7724e-03
 8.250	17.000	2.3948e-02
 8.250	17.250	2.3125e-02
 8.250	17.500	2.1749e-02
 8.250	17.750	1.4733e-02
 8.250	18.000	9.7382e-03
 8.250	18.250	6.0298e-03
 8.250	18.500	3.9880e-03
 8.250	18.750	2.9024e-03
 8.250	19.000	2.3525e-03
 8.250	19.250	2.0804e-03
 8.250	19.500	1.9300e-03
 8.250	19.750	1.8450e-03
 8.250	20.000	1.8083e-03
 8.250	20.250	1.7895e-03
 8.250	20.500	1.7793e-03
 8.250	20.750	1.7753e-03
 8.250	21.000	1.7737e-03
 8.250	21.250	1.7731e-03
 8.250	21.500	1.7728e-03
 8.250	21.750	1.7726e-03
 8.250	22.000	1.7725e-03
 8.250	22.250	1.7724e-03
 8.250	22.500	1.7724e-03
 8.250	22.750	1.7725e-03
 8.250	23.000	1.7724e-03
 8.250	23.250	1.7729e-03
 8.250	23.500	1.7724e-03
 8.250	23.750	1.7724e-03
 8.250	24.000	1.7725e-03
 8.500	17.000	2.4661e-02
 8.500	17.250	2.4095e-02
 8.500	17.500	2.3214e-02
 8.500	17.750	2.1774e-02
 8.500	18.000	1.4733e-02
 8.500	18.250	9.7402e-03
 8.500	18.500	6.0302e-03
 8.500	18.750	3.9867e-03
 8.500	19.000	2.9000e-03
 8.500	19.250	2.3516e-03
 8.500	19.500	2.0802e-03
 8.500	19.750	1.9300e-03
 8.500	20.000	1.8450e-03
 8.500	20.250	1.8083e-03
 8.500	20.500	1.7895e-03
 8.500	20.750	1.7793e-03
 8.500	21.000	1.7753e-03
 8.500	21.250	1.7737e-03
 8.500	21.500	1.7731e-03
 8.500	21.750	1.7728e-03
 8.500	22.000	1.7726e-03
 8.500	22.250	1.7725e-03
 8.500	22.500	1.7724e-03
 8.500	22.750	1.7724e-03
 8.500	23.000	1.7724e-03
 8.500	23.250	1.7724e-03
 8.500	23.500	1.7724e-03
 8.500	23.750	1.7724e-03
 8.500	24.000	1.7724e-03
 8.750	17.000	2.5220e-02
 8.750	17.250	2.4894e-02
 8.750	17.500	2.4322e-02
 8.750	17.750	2.3309e-02
 8.750	18.000	2.1835e-02
 8.750	18.250	1.4733e-02
 8.750	18.500	9.7433e-03
 8.750	18.750	6.0313e-03
 8.750	19.000	3.9853e-03
 8.750	19.250	2.8975e-03
 8.750	19.500	2.3505e-03
 8.750	19.750	2.0798e-03
 8.750	20.000	1.9299e-03
 8.750	20.250	1.8450e-03
 8.750	20.500	1.8083e-03
 8.750	20.750	1.7895e-03
 8.750	21.000	1.7793e-03
 8.750	21.250	1.7753e-03
 8.750	21.500	1.7737e-03
 8.750	21.750	1.7731e-03
 8.750	22.000	1.7728e-03
 8.750	22.250	1.7726e-03
 8.750	22.500	1.7725e-03
 8.750	22.750	1.7724e-03
 8.750	23.000	1.7726e-03
 8.750	23.250	1.7724e-03
 8.750	23.500	1.7724e-03
 8.750	23.750	1.7724e-03
 8.750	24.000	1.7724e-03
 9.000	17.000	2.5610e-02
 9.000	17.250	2.5542e-02
 9.000	17.500	2.5297e-02
 9.000	17.750	2.4771e-02
 9.000	18.000	2.3696e-02
 9.000	18.250	2.2067e-02
 9.000	18.500	1.4733e-02
 9.000	18.750	9.7466e-03
 9.000	19.000	6.0329e-03
 9.000	19.250	3.9844e-03
 9.000	19.500	2.8950e-03
 9.000	19.750	2.3495e-03
 9.000	20.000	2.0796e-03
 9.000	20.250	1.9298e-03
 9.000	20.500	1.8450e-03
 9.000	20.750	1.8083e-03
 9.000	21.000	1.7895e-03
 9.000	21.250	1.7793e-03
 9.000	21.500	1.7753e-03
 9.000	21.750	1.7737e-03
 9.000	22.000	1.7731e-03
 9.000	22.250	1.7728e-03
 9.000	22.500	1.7726e-03
 9.000	22.750	1.7725e-03
 9.000	23.000	1.7724e-03
 9.000	23.250	1.7724e-03
 9.000	23.500	1.7724e-03
 9.000	23.750	1.7724e-03
 9.000	24.000	1.7724e-03
 9.250	17.000	2.5842e-02
 9.250	17.250	2.6039e-02
 9.250	17.500	2.6186e-02
 9.250	17.750	2.6188e-02
 9.250	18.000	2.5743e-02
 9.250	18.250	2.4638e-02
 9.250	18.500	2.2639e-02
 9.250	18.750	1.4728e-02
 9.250	19.000	9.7494e-03
 9.250	19.250	6.0352e-03
 9.250	19.500	3.9841e-03
 9.250	19.750	2.8927e-03
 9.250	20.000	2.3484e-03
 9.250	20.250	2.0793e-03
 9.250	20.500	1.9297e-03
 9.250	20.750	1.8449e-03
 9.250	21.000	1.8083e-03
 9.250	21.250	1.7895e-03
 9.250	21.500	1.7793e-03
 9.250	21.750	1.7752e-03
 9.250	22.000	1.7736e-03
 9.250	22.250	1.7729e-03
 9.250	22.500	1.7727e-03
 9.250	22.750	1.7725e-03
 9.250	23.000	1.7724e-03
 9.250	23.250	1.7724e-03
 9.250	23.500	1.7724e-03
 9.250	23.750	1.7724e-03
 9.250	24.000	1.7724e-03
 9.500	17.000	2.6012e-02
 9.500	17.250	2.6448e-02
 9.500	17.500	2.7009e-02
 9.500	17.750	2.7646e-02
 9.500	18.000	2.8040e-02
 9.500	18.250	2.7948e-02
 9.500	18.500	2.6874e-02
 9.500	18.750	2.3561e-02
 9.500	19.000	1.4717e-02
 9.500	19.250	9.7500e-03
 9.500	19.500	6.0381e-03
 9.500	19.750	3.9846e-03
 9.500	20.000	2.8909e-03
 9.500	20.250	2.3475e-03
 9.500	20.500	2.0791e-03
 9.500	20.750	1.9296e-03
 9.500	21.000	1.8449e-03
 9.500	21.250	1.8081e-03
 9.500	21.500	1.7894e-03
 9.500	21.750	1.7792e-03
 9.500	22.000	1.7751e-03
 9.500	22.250	1.7736e-03
 9.500	22.500	1.7728e-03
 9.500	22.750	1.7726e-03
 9.500	23.000	1.7724e-03
 9.500	23.250	1.7723e-03
 9.500	23.500	1.7723e-03
 9.500	23.750	1.7723e-03
 9.500	24.000	1.7723e-03
 9.750	17.000	2.6036e-02
 9.750	17.250	2.6757e-02
 9.750	17.500	2.7755e-02
 9.750	17.750	2.9175e-02
 9.750	18.000	3.0876e-02
 9.750	18.250	3.2095e-02
 9.750	18.500	3.2330e-02
 9.750	18.750	3.1096e-02
 9.750	19.000	2.3567e-02
 9.750	19.250	1.4698e-02
 9.750	19.500	9.7459e-03
 9.750	19.750	6.0414e-03
 9.750	20.000	3.9858e-03
 9.750	20.250	2.8899e-03
 9.750	20.500	2.3468e-03
 9.750	20.750	2.0789e-03
 9.750	21.000	1.9296e-03
 9.750	21.250	1.8449e-03
 9.750	21.500	1.8082e-03
 9.750	21.750	1.7894e-03
 9.750	22.000	1.7792e-03
 9.750	22.250	1.7751e-03
 9.750	22.500	1.7736e-03
 9.750	22.750	1.7729e-03
 9.750	23.000	1.7726e-03
 9.750	23.250	1.7724e-03
 9.750	23.500	1.7723e-03
 9.750	23.750	1.7723e-03
 9.750	24.000	1.7723e-03
10.000	17.000	2.5920e-02
10.000	17.250	2.7012e-02
10.000	17.500	2.8575e-02
10.000	17.750	3.0939e-02
10.000	18.000	3.4214e-02
10.000	18.250	3.7135e-02
10.000	18.500	3.8738e-02
10.000	18.750	3.8396e-02
10.000	19.000	3.4869e-02
10.000	19.250	2.3579e-02
10.000	19.500	1.4671e-02
10.000	19.750	9.7331e-03
10.000	20.000	6.0444e-03
10.000	20.250	3.9877e-03
10.000	20.500	2.8893e-03
10.000	20.750	2.3463e-03
10.000	21.000	2.0788e-03
10.000	21.250	1.9296e-03
10.000	21.500	1.8449e-03
10.000	21.750	1.8082e-03
10.000	22.000	1.7895e-03
10.000	22.250	1.7792e-03
10.000	22.500	1.7751e-03
10.000	22.750	1.7736e-03
10.000	23.000	1.7729e-03
10.000	23.250	1.7726e-03
10.000	23.500	1.7724e-03
10.000	23.750	1.7723e-03
10.000	24.000	1.7723e-03
10.250	17.000	2.6121e-02
10.250	17.250	2.7295e-02
10.250	17.500	2.9635e-02
10.250	17.750	3.3267e-02
10.250	18.000	3.8128e-02
10.250	18.250	4.2646e-02
10.250	18.500	4.5756e-02
10.250	18.750	4.6876e-02
10.250	19.000	4.5690e-02
10.250	19.250	3.9582e-02
10.250	19.500	2.3560e-02
10.250	19.750	1.4638e-02
10.250	20.000	9.7067e-03
10.250	20.250	6.0459e-03
10.250	20.500	3.9896e-03
10.250	20.750	2.8893e-03
10.250	21.000	2.3460e-03
10.250	21.250	2.0789e-03
10.250	21.500	1.9296e-03
10.250	21.750	1.8449e-03
10.250	22.000	1.8082e-03
10.250	22.250	1.7895e-03
10.250	22.500	1.7792e-03
10.250	22.750	1.7751e-03
10.250	23.000	1.7736e-03
10.250	23.250	1.7729e-03
10.250	23.500	1.7726e-03
10.250	23.750	1.7724e-03
10.250	24.000	1.7723e-03
10.500	17.000	2.6793e-02
10.500	17.250	2.8106e-02
10.500	17.500	3.1153e-02
10.500	17.750	3.6405e-02
10.500	18.000	4.2826e-02
10.500	18.250	4.8798e-02
10.500	18.500	5.2960e-02
10.500	18.750	5.5398e-02
10.500	19.000	5.5302e-02
10.500	19.250	5.2812e-02
10.500	19.500	3.9563e-02
10.500	19.750	2.3487e-02
10.500	20.000	1.4579e-02
10.500	20.250	9.6675e-03
10.500	20.500	6.0448e-03
10.500	20.750	3.9912e-03
10.500	21.000	2.8900e-03
10.500	21.250	2.3459e-03
10.500	21.500	2.0790e-03
10.500	21.750	1.9296e-03
10.500	22.000	1.8449e-03
10.500	22.250	1.8082e-03
10.500	22.500	1.7895e-03
10.500	22.750	1.7792e-03
10.500	23.000	1.7751e-03
10.500	23.250	1.7736e-03
10.500	23.500	1.7729e-03
10.500	23.750	1.7726e-03
10.500	24.000	1.7724e-03
10.750	17.000	2.8098e-02
10.750	17.250	2.9557e-02
10.750	17.500	3.3672e-02
10.750	17.750	4.0433e-02
10.750	18.000	4.8206e-02
10.750	18.250	5.5060e-02
10.750	18.500	6.0241e-02
10.750	18.750	6.3411e-02
10.750	19.000	6.4407e-02
10.750	19.250	6.3200e-02
10.750	19.500	5.8668e-02
10.750	19.750	3.9511e-02
10.750	20.000	2.3380e-02
10.750	20.250	1.4495e-02
10.750	20.500	9.6176e-03
10.750	20.750	6.0393e-03
10.750	21.000	3.9918e-03
10.750	21.250	2.8909e-03
10.750	21.500	2.3462e-03
10.750	21.750	2.0792e-03
10.750	22.000	1.9296e-03
10.750	22.250	1.8449e-03
10.750	22.500	1.8082e-03
10.750	22.750	1.7895e-03
10.750	23.000	1.7792e-03
10.750	23.250	1.7752e-03
10.750	23.500	1.7736e-03
10.750	23.750	1.7729e-03
10.750	24.000	1.7726e-03
11.000	17.000	3.0094e-02
11.000	17.250	3.1703e-02
11.000	17.500	3.6912e-02
11.000	17.750	4.5139e-02
11.000	18.000	5.3759e-02
11.000	18.250	6.1216e-02
11.000	18.500	6.7001e-02
11.000	18.750	7.0955e-02
11.000	19.000	7.3016e-02
11.000	19.250	7.3077e-02
11.000	19.500	7.0914e-02
11.000	19.750	6.5187e-02
11.000	20.000	3.9357e-02
11.000	20.250	2.3162e-02
11.000	20.500	1.4401e-02
11.000	20.750	9.5671e-03
11.000	21.000	6.0223e-03
11.000	21.250	3.9900e-03
11.000	21.500	2.8924e-03
11.000	21.750	2.3466e-03
11.000	22.000	2.0795e-03
11.000	22.250	1.9297e-03
11.000	22.500	1.8448e-03
11.000	22.750	1.8083e-03
11.000	23.000	1.7895e-03
11.000	23.250	1.7793e-03
11.000	23.500	1.7752e-03
11.000	23.750	1.7736e-03
11.000	24.000	1.7729e-03
11.250	17.000	3.2893e-02
11.250	17.250	3.4486e-02
11.250	17.500	4.0578e-02
11.250	17.750	4.9908e-02
11.250	18.000	5.9262e-02
11.250	18.250	6.6995e-02
11.250	18.500	7.3202e-02
11.250	18.750	7.8109e-02
11.250	19.000	8.0881e-02
11.250	19.250	8.1914e-02
11.250	19.500	8.1010e-02
11.250	19.750	7.8087e-02
11.250	20.000	6.7223e-02
11.250	20.250	3.9225e-02
11.250	20.500	2.3070e-02
11.250	20.750	1.4313e-02
11.250	21.000	9.5252e-03
11.250	21.250	5.9933e-03
11.250	21.500	3.9838e-03
11.250	21.750	2.8937e-03
11.250	22.000	2.3472e-03
11.250	22.250	2.0798e-03
11.250	22.500	1.9297e-03
11.250	22.750	1.8448e-03
11.250	23.000	1.8083e-03
11.250	23.250	1.7895e-03
11.250	23.500	1.7793e-03
11.250	23.750	1.7752e-03
11.250	24.000	1.7736e-03
11.500	17.000	3.6800e-02
11.500	17.250	3.8052e-02
11.500	17.500	4.4524e-02
11.500	17.750	5.4483e-02
11.500	18.000	6.4343e-02
11.500	18.250	7.2464e-02
11.500	18.500	7.9079e-02
11.500	18.750	8.4446e-02
11.500	19.000	8.8015e-02
11.500	19.250	8.9815e-02
11.500	19.500	8.9816e-02
11.500	19.750	8.8243e-02
11.500	20.000	8.4756e-02
11.500	20.250	6.8129e-02
11.500	20.500	3.9013e-02
11.500	20.750	2.2905e-02
11.500	21.000	1.4276e-02
11.500	21.250	9.4905e-03
11.500	21.500	5.9508e-03
11.500	21.750	3.9713e-03
11.500	22.000	2.8946e-03
11.500	22.250	2.3479e-03
11.500	22.500	2.0802e-03
11.500	22.750	1.9298e-03
11.500	23.000	1.8447e-03
11.500	23.250	1.8082e-03
11.500	23.500	1.7895e-03
11.500	23.750	1.7793e-03
11.500	24.000	1.7752e-03
11.750	17.000	4.2211e-02
11.750	17.250	4.2624e-02
11.750	17.500	4.8816e-02
11.750	17.750	5.8799e-02
11.750	18.000	6.8835e-02
11.750	18.250	7.7484e-02
11.750	18.500	8.4634e-02
11.750	18.750	9.0288e-02
11.750	19.000	9.4687e-02
11.750	19.250	9.7080e-02
11.750	19.500	9.7816e-02
11.750	19.750	9.6838e-02
11.750	20.000	9.4710e-02
11.750	20.250	9.0755e-02
11.750	20.500	6.8473e-02
11.750	20.750	3.8833e-02
11.750	21.000	2.2854e-02
11.750	21.250	1.4407e-02
11.750	21.500	9.4095e-03
11.750	21.750	5.8952e-03
11.750	22.000	3.9501e-03
11.750	22.250	2.8939e-03
11.750	22.500	2.3486e-03
11.750	22.750	2.0805e-03
11.750	23.000	1.9299e-03
11.750	23.250	1.8446e-03
11.750	23.500	1.8082e-03
11.750	23.750	1.7895e-03
11.750	24.000	1.7793e-03
12.000	17.000	4.9790e-02
12.000	17.250	4.8548e-02
12.000	17.500	5.3582e-02
12.000	17.750	6.2808e-02
12.000	18.000	7.2862e-02
12.000	18.250	8.2072e-02
12.000	18.500	8.9950e-02
12.000	18.750	9.6332e-02
12.000	19.000	1.0105e-01
12.000	19.250	1.0401e-01
12.000	19.500	1.0518e-01
12.000	19.750	1.0464e-01
12.000	20.000	1.0306e-01
12.000	20.250	1.0031e-01
12.000	20.500	9.5894e-02
12.000	20.750	6.8159e-02
12.000	21.000	3.8785e-02
12.000	21.250	2.3048e-02
12.000	21.500	1.4771e-02
12.000	21.750	9.3090e-03
12.000	22.000	5.8281e-03
12.000	22.250	3.9226e-03
12.000	22.500	2.8909e-03
12.000	22.750	2.3491e-03
12.000	23.000	2.0807e-03
12.000	23.250	1.9298e-03
12.000	23.500	1.8444e-03
12.000	23.750	1.8081e-03
12.000	24.000	1.7895e-03
12.250	17.000	6.0143e-02
12.250	17.250	5.6237e-02
12.250	17.500	5.8994e-02
12.250	17.750	6.6643e-02
12.250	18.000	7.6503e-02
12.250	18.250	8.6402e-02
12.250	18.500	9.5120e-02
12.250	18.750	1.0236e-01
12.250	19.000	1.0744e-01
12.250	19.250	1.1062e-01
12.250	19.500	1.1206e-01
12.250	19.750	1.1206e-01
12.250	20.000	1.1041e-01
12.250	20.250	1.0820e-01
12.250	20.500	1.0523e-01
12.250	20.750	1.0059e-01
12.250	21.000	6.7841e-02
12.250	21.250	3.8894e-02
12.250	21.500	2.3479e-02
12.250	21.750	1.5217e-02
12.250	22.000	9.1947e-03
12.250	22.250	5.7797e-03
12.250	22.500	3.9077e-03
12.250	22.750	2.8849e-03
12.250	23.000	2.3493e-03
12.250	23.250	2.0807e-03
12.250	23.500	1.9297e-03
12.250	23.750	1.8443e-03
12.250	24.000	1.8081e-03
12.500	17.000	7.3267e-02
12.500	17.250	6.5527e-02
12.500	17.500	6.5279e-02
12.500	17.750	7.0860e-02
12.500	18.000	8.0160e-02
12.500	18.250	9.0396e-02
12.500	18.500	1.0010e-01
12.500	18.750	1.0810e-01
12.500	19.000	1.1369e-01
12.500	19.250	1.1705e-01
12.500	19.500	1.1838e-01
12.500	19.750	1.1851e-01
12.500	20.000	1.1736e-01
12.500	20.250	1.1512e-01
12.500	20.500	1.1272e-01
12.500	20.750	1.0963e-01
12.500	21.000	1.0446e-01
12.500	21.250	6.7572e-02
12.500	21.500	3.9304e-02
12.500	21.750	2.4008e-02
12.500	22.000	1.5315e-02
12.500	22.250	9.0919e-03
12.500	22.500	5.7078e-03
12.500	22.750	3.8688e-03
12.500	23.000	2.8754e-03
12.500	23.250	2.3486e-03
12.500	23.500	2.0802e-03
12.500	23.750	1.9294e-03
12.500	24.000	1.8440e-03
12.750	17.000	7.6705e-02
12.750	17.250	7.4611e-02
12.750	17.500	7.2448e-02
12.750	17.750	7.6606e-02
12.750	18.000	8.4749e-02
12.750	18.250	9.4752e-02
12.750	18.500	1.0469e-01
12.750	18.750	1.1342e-01
12.750	19.000	1.1977e-01
12.750	19.250	1.2337e-01
12.750	19.500	1.2462e-01
12.750	19.750	1.2450e-01
12.750	20.000	1.2349e-01
12.750	20.250	1.2164e-01
12.750	20.500	1.1932e-01
12.750	20.750	1.1685e-01
12.750	21.000	1.1452e-01
12.750	21.250	1.0915e-01
12.750	21.500	6.7605e-02
12.750	21.750	3.9744e-02
12.750	22.000	2.4550e-02
12.750	22.250	1.5051e-02
12.750	22.500	8.9502e-03
12.750	22.750	5.6186e-03
12.750	23.000	3.8312e-03
12.750	23.250	2.8627e-03
12.750	23.500	2.3464e-03
12.750	23.750	2.0788e-03
12.750	24.000	1.9286e-03
13.000	17.000	6.8786e-02
13.000	17.250	7.7991e-02
13.000	17.500	8.1415e-02
13.000	17.750	8.4870e-02
13.000	18.000	9.1155e-02
13.000	18.250	1.0010e-01
13.000	18.500	1.0969e-01
13.000	18.750	1.1839e-01
13.000	19.000	1.2502e-01
13.000	19.250	1.2915e-01
13.000	19.500	1.3032e-01
13.000	19.750	1.3017e-01
13.000	20.000	1.2900e-01
13.000	20.250	1.2741e-01
13.000	20.500	1.2559e-01
13.000	20.750	1.2334e-01
13.000	21.000	1.2121e-01
13.000	21.250	1.1938e-01
13.000	21.500	1.1215e-01
13.000	21.750	6.7441e-02
13.000	22.000	3.9929e-02
13.000	22.250	2.4808e-02
13.000	22.500	1.4779e-02
13.000	22.750	8.8040e-03
13.000	23.000	5.5442e-03
13.000	23.250	3.7914e-03
13.000	23.500	2.8457e-03
13.000	23.750	2.3421e-03
13.000	24.000	2.0763e-03
13.250	17.000	6.9055e-02
13.250	17.250	7.8807e-02
13.250	17.500	9.3588e-02
13.250	17.750	9.6748e-02
13.250	18.000	1.0033e-01
13.250	18.250	1.0742e-01
13.250	18.500	1.1595e-01
13.250	18.750	1.2394e-01
13.250	19.000	1.3031e-01
13.250	19.250	1.3423e-01
13.250	19.500	1.3561e-01
13.250	19.750	1.3575e-01
13.250	20.000	1.3450e-01
13.250	20.250	1.3273e-01
13.250	20.500	1.3106e-01
13.250	20.750	1.2920e-01
13.250	21.000	1.2759e-01
13.250	21.250	1.2583e-01
13.250	21.500	1.2201e-01
13.250	21.750	1.1056e-01
13.250	22.000	6.6170e-02
13.250	22.250	3.9766e-02
13.250	22.500	2.4480e-02
13.250	22.750	1.4458e-02
13.250	23.000	8.6323e-03
13.250	23.250	5.4921e-03
13.250	23.500	3.7625e-03
13.250	23.750	2.8251e-03
13.250	24.000	2.3342e-03
13.500	17.000	6.8966e-02
13.500	17.250	7.9439e-02
13.500	17.500	9.6168e-02
13.500	17.750	1.0703e-01
13.500	18.000	1.1235e-01
13.500	18.250	1.1742e-01
13.500	18.500	1.2408e-01
13.500	18.750	1.3081e-01
13.500	19.000	1.3645e-01
13.500	19.250	1.3999e-01
13.500	19.500	1.4143e-01
13.500	19.750	1.4110e-01
13.500	20.000	1.3991e-01
13.500	20.250	1.3849e-01
13.500	20.500	1.3643e-01
13.500	20.750	1.3426e-01
13.500	21.000	1.3182e-01
13.500	21.250	1.3059e-01
13.500	21.500	1.2677e-01
13.500	21.750	1.2261e-01
13.500	22.000	1.0662e-01
13.500	22.250	6.4034e-02
13.500	22.500	3.8451e-02
13.500	22.750	2.3657e-02
13.500	23.000	1.4080e-02
13.500	23.250	8.4207e-03
13.500	23.500	5.3677e-03
13.500	23.750	3.6951e-03
13.500	24.000	2.8002e-03
13.750	17.000	6.9408e-02
13.750	17.250	7.9395e-02
13.750	17.500	9.8172e-02
13.750	17.750	1.1357e-01
13.750	18.000	1.2697e-01
13.750	18.250	1.2993e-01
13.750	18.500	1.3435e-01
13.750	18.750	1.3947e-01
13.750	19.000	1.4410e-01
13.750	19.250	1.4717e-01
13.750	19.500	1.4839e-01
13.750	19.750	1.4788e-01
13.750	20.000	1.4633e-01
13.750	20.250	1.4456e-01
13.750	20.500	1.4260e-01
13.750	20.750	1.4027e-01
13.750	21.000	1.3762e-01
13.750	21.250	1.3475e-01
13.750	21.500	1.3145e-01
13.750	21.750	1.2868e-01
13.750	22.000	1.2271e-01
13.750	22.250	1.0143e-01
13.750	22.500	6.0533e-02
13.750	22.750	3.6872e-02
13.750	23.000	2.2784e-02
13.750	23.250	1.3632e-02
13.750	23.500	8.2047e-03
13.750	23.750	5.2518e-03
13.750	24.000	3.6299e-03
14.000	17.000	6.9515e-02
14.000	17.250	7.9713e-02
14.000	17.500	9.8407e-02
14.000	17.750	1.1805e-01
14.000	18.000	1.3742e-01
14.000	18.250	1.4668e-01
14.000	18.500	1.4807e-01
14.000	18.750	1.5046e-01
14.000	19.000	1.5341e-01
14.000	19.250	1.5569e-01
14.000	19.500	1.5664e-01
14.000	19.750	1.5622e-01
14.000	20.000	1.5437e-01
14.000	20.250	1.5193e-01
14.000	20.500	1.4967e-01
14.000	20.750	1.4725e-01
14.000	21.000	1.4447e-01
14.000	21.250	1.4174e-01
14.000	21.500	1.3766e-01
14.000	21.750	1.3507e-01
14.000	22.000	1.3186e-01
14.000	22.250	1.2364e-01
14.000	22.500	9.4885e-02
14.000	22.750	5.6897e-02
14.000	23.000	3.4996e-02
14.000	23.250	2.1940e-02
14.000	23.500	1.3089e-02
14.000	23.750	7.9460e-03
14.000	24.000	5.1049e-03
