nFnu 1356.96A  relative to Inci 1215.00A scaled to 1215A.
Hden   Phi(H)  Eq_Width (A)
 7.000	17.000	2.8948e-02
 7.000	17.250	2.1166e-02
 7.000	17.500	1.5868e-02
 7.000	17.750	1.2400e-02
 7.000	18.000	1.0402e-02
 7.000	18.250	9.2581e-03
 7.000	18.500	8.5910e-03
 7.000	18.750	8.2853e-03
 7.000	19.000	8.1258e-03
 7.000	19.250	8.0369e-03
 7.000	19.500	7.9996e-03
 7.000	19.750	7.9840e-03
 7.000	20.000	7.9771e-03
 7.000	20.250	7.9739e-03
 7.000	20.500	7.9723e-03
 7.000	20.750	7.9715e-03
 7.000	21.000	7.9710e-03
 7.000	21.250	7.9708e-03
 7.000	21.500	7.9709e-03
 7.000	21.750	7.9705e-03
 7.000	22.000	7.9705e-03
 7.000	22.250	7.9705e-03
 7.000	22.500	7.9705e-03
 7.000	22.750	7.9707e-03
 7.000	23.000	7.9707e-03
 7.000	23.250	7.9705e-03
 7.000	23.500	7.9705e-03
 7.000	23.750	7.9705e-03
 7.000	24.000	7.9705e-03
 7.250	17.000	3.9990e-02
 7.250	17.250	2.8813e-02
 7.250	17.500	2.1095e-02
 7.250	17.750	1.5830e-02
 7.250	18.000	1.2380e-02
 7.250	18.250	1.0392e-02
 7.250	18.500	9.2532e-03
 7.250	18.750	8.5893e-03
 7.250	19.000	8.2846e-03
 7.250	19.250	8.1257e-03
 7.250	19.500	8.0369e-03
 7.250	19.750	7.9996e-03
 7.250	20.000	7.9839e-03
 7.250	20.250	7.9771e-03
 7.250	20.500	7.9739e-03
 7.250	20.750	7.9723e-03
 7.250	21.000	7.9715e-03
 7.250	21.250	7.9710e-03
 7.250	21.500	7.9708e-03
 7.250	21.750	7.9723e-03
 7.250	22.000	7.9705e-03
 7.250	22.250	7.9705e-03
 7.250	22.500	7.9705e-03
 7.250	22.750	7.9713e-03
 7.250	23.000	7.9713e-03
 7.250	23.250	7.9705e-03
 7.250	23.500	7.9705e-03
 7.250	23.750	7.9705e-03
 7.250	24.000	7.9705e-03
 7.500	17.000	4.3270e-02
 7.500	17.250	3.9892e-02
 7.500	17.500	2.8737e-02
 7.500	17.750	2.1055e-02
 7.500	18.000	1.5808e-02
 7.500	18.250	1.2367e-02
 7.500	18.500	1.0385e-02
 7.500	18.750	9.2500e-03
 7.500	19.000	8.5881e-03
 7.500	19.250	8.2842e-03
 7.500	19.500	8.1255e-03
 7.500	19.750	8.0368e-03
 7.500	20.000	7.9995e-03
 7.500	20.250	7.9839e-03
 7.500	20.500	7.9771e-03
 7.500	20.750	7.9739e-03
 7.500	21.000	7.9723e-03
 7.500	21.250	7.9714e-03
 7.500	21.500	7.9710e-03
 7.500	21.750	7.9708e-03
 7.500	22.000	7.9706e-03
 7.500	22.250	7.9705e-03
 7.500	22.500	7.9705e-03
 7.500	22.750	7.9705e-03
 7.500	23.000	7.9709e-03
 7.500	23.250	7.9713e-03
 7.500	23.500	7.9705e-03
 7.500	23.750	7.9714e-03
 7.500	24.000	7.9705e-03
 7.750	17.000	4.9717e-02
 7.750	17.250	4.2446e-02
 7.750	17.500	3.9845e-02
 7.750	17.750	2.8692e-02
 7.750	18.000	2.1034e-02
 7.750	18.250	1.5797e-02
 7.750	18.500	1.2359e-02
 7.750	18.750	1.0381e-02
 7.750	19.000	9.2480e-03
 7.750	19.250	8.5874e-03
 7.750	19.500	8.2840e-03
 7.750	19.750	8.1254e-03
 7.750	20.000	8.0368e-03
 7.750	20.250	7.9995e-03
 7.750	20.500	7.9839e-03
 7.750	20.750	7.9771e-03
 7.750	21.000	7.9739e-03
 7.750	21.250	7.9723e-03
 7.750	21.500	7.9714e-03
 7.750	21.750	7.9710e-03
 7.750	22.000	7.9708e-03
 7.750	22.250	7.9706e-03
 7.750	22.500	7.9705e-03
 7.750	22.750	7.9707e-03
 7.750	23.000	7.9708e-03
 7.750	23.250	7.9705e-03
 7.750	23.500	7.9713e-03
 7.750	23.750	7.9713e-03
 7.750	24.000	7.9705e-03
 8.000	17.000	5.0390e-02
 8.000	17.250	4.7518e-02
 8.000	17.500	4.1653e-02
 8.000	17.750	3.9786e-02
 8.000	18.000	2.8665e-02
 8.000	18.250	2.1024e-02
 8.000	18.500	1.5791e-02
 8.000	18.750	1.2353e-02
 8.000	19.000	1.0377e-02
 8.000	19.250	9.2467e-03
 8.000	19.500	8.5870e-03
 8.000	19.750	8.2838e-03
 8.000	20.000	8.1253e-03
 8.000	20.250	8.0368e-03
 8.000	20.500	7.9995e-03
 8.000	20.750	7.9839e-03
 8.000	21.000	7.9771e-03
 8.000	21.250	7.9739e-03
 8.000	21.500	7.9723e-03
 8.000	21.750	7.9714e-03
 8.000	22.000	7.9709e-03
 8.000	22.250	7.9707e-03
 8.000	22.500	7.9706e-03
 8.000	22.750	7.9707e-03
 8.000	23.000	7.9705e-03
 8.000	23.250	7.9709e-03
 8.000	23.500	7.9705e-03
 8.000	23.750	7.9705e-03
 8.000	24.000	7.9705e-03
 8.250	17.000	5.0730e-02
 8.250	17.250	4.8753e-02
 8.250	17.500	4.6232e-02
 8.250	17.750	4.1162e-02
 8.250	18.000	3.9768e-02
 8.250	18.250	2.8645e-02
 8.250	18.500	2.1022e-02
 8.250	18.750	1.5789e-02
 8.250	19.000	1.2349e-02
 8.250	19.250	1.0375e-02
 8.250	19.500	9.2458e-03
 8.250	19.750	8.5867e-03
 8.250	20.000	8.2836e-03
 8.250	20.250	8.1253e-03
 8.250	20.500	8.0368e-03
 8.250	20.750	7.9995e-03
 8.250	21.000	7.9839e-03
 8.250	21.250	7.9771e-03
 8.250	21.500	7.9739e-03
 8.250	21.750	7.9723e-03
 8.250	22.000	7.9714e-03
 8.250	22.250	7.9709e-03
 8.250	22.500	7.9707e-03
 8.250	22.750	7.9708e-03
 8.250	23.000	7.9705e-03
 8.250	23.250	7.9725e-03
 8.250	23.500	7.9705e-03
 8.250	23.750	7.9705e-03
 8.250	24.000	7.9710e-03
 8.500	17.000	5.0665e-02
 8.500	17.250	4.9410e-02
 8.500	17.500	4.7653e-02
 8.500	17.750	4.5394e-02
 8.500	18.000	4.0882e-02
 8.500	18.250	3.9743e-02
 8.500	18.500	2.8629e-02
 8.500	18.750	2.1023e-02
 8.500	19.000	1.5790e-02
 8.500	19.250	1.2345e-02
 8.500	19.500	1.0373e-02
 8.500	19.750	9.2451e-03
 8.500	20.000	8.5864e-03
 8.500	20.250	8.2836e-03
 8.500	20.500	8.1253e-03
 8.500	20.750	8.0368e-03
 8.500	21.000	7.9995e-03
 8.500	21.250	7.9839e-03
 8.500	21.500	7.9770e-03
 8.500	21.750	7.9739e-03
 8.500	22.000	7.9723e-03
 8.500	22.250	7.9714e-03
 8.500	22.500	7.9709e-03
 8.500	22.750	7.9707e-03
 8.500	23.000	7.9705e-03
 8.500	23.250	7.9707e-03
 8.500	23.500	7.9705e-03
 8.500	23.750	7.9705e-03
 8.500	24.000	7.9704e-03
 8.750	17.000	5.0400e-02
 8.750	17.250	4.9731e-02
 8.750	17.500	4.8590e-02
 8.750	17.750	4.6966e-02
 8.750	18.000	4.4869e-02
 8.750	18.250	4.0721e-02
 8.750	18.500	3.9706e-02
 8.750	18.750	2.8611e-02
 8.750	19.000	2.1027e-02
 8.750	19.250	1.5791e-02
 8.750	19.500	1.2342e-02
 8.750	19.750	1.0372e-02
 8.750	20.000	9.2445e-03
 8.750	20.250	8.5863e-03
 8.750	20.500	8.2835e-03
 8.750	20.750	8.1253e-03
 8.750	21.000	8.0368e-03
 8.750	21.250	7.9995e-03
 8.750	21.500	7.9839e-03
 8.750	21.750	7.9770e-03
 8.750	22.000	7.9739e-03
 8.750	22.250	7.9723e-03
 8.750	22.500	7.9714e-03
 8.750	22.750	7.9709e-03
 8.750	23.000	7.9715e-03
 8.750	23.250	7.9705e-03
 8.750	23.500	7.9707e-03
 8.750	23.750	7.9705e-03
 8.750	24.000	7.9705e-03
 9.000	17.000	4.9885e-02
 9.000	17.250	4.9798e-02
 9.000	17.500	4.9187e-02
 9.000	17.750	4.8064e-02
 9.000	18.000	4.6478e-02
 9.000	18.250	4.4520e-02
 9.000	18.500	4.0604e-02
 9.000	18.750	3.9656e-02
 9.000	19.000	2.8590e-02
 9.000	19.250	2.1031e-02
 9.000	19.500	1.5793e-02
 9.000	19.750	1.2339e-02
 9.000	20.000	1.0370e-02
 9.000	20.250	9.2440e-03
 9.000	20.500	8.5861e-03
 9.000	20.750	8.2835e-03
 9.000	21.000	8.1253e-03
 9.000	21.250	8.0368e-03
 9.000	21.500	7.9995e-03
 9.000	21.750	7.9839e-03
 9.000	22.000	7.9770e-03
 9.000	22.250	7.9738e-03
 9.000	22.500	7.9723e-03
 9.000	22.750	7.9714e-03
 9.000	23.000	7.9709e-03
 9.000	23.250	7.9707e-03
 9.000	23.500	7.9705e-03
 9.000	23.750	7.9705e-03
 9.000	24.000	7.9705e-03
 9.250	17.000	4.8994e-02
 9.250	17.250	4.9501e-02
 9.250	17.500	4.9501e-02
 9.250	17.750	4.8879e-02
 9.250	18.000	4.7690e-02
 9.250	18.250	4.6125e-02
 9.250	18.500	4.4237e-02
 9.250	18.750	4.0495e-02
 9.250	19.000	3.9589e-02
 9.250	19.250	2.8563e-02
 9.250	19.500	2.1031e-02
 9.250	19.750	1.5795e-02
 9.250	20.000	1.2336e-02
 9.250	20.250	1.0369e-02
 9.250	20.500	9.2436e-03
 9.250	20.750	8.5859e-03
 9.250	21.000	8.2835e-03
 9.250	21.250	8.1253e-03
 9.250	21.500	8.0363e-03
 9.250	21.750	7.9990e-03
 9.250	22.000	7.9832e-03
 9.250	22.250	7.9765e-03
 9.250	22.500	7.9735e-03
 9.250	22.750	7.9719e-03
 9.250	23.000	7.9712e-03
 9.250	23.250	7.9708e-03
 9.250	23.500	7.9705e-03
 9.250	23.750	7.9704e-03
 9.250	24.000	7.9704e-03
 9.500	17.000	4.7627e-02
 9.500	17.250	4.8681e-02
 9.500	17.500	4.9372e-02
 9.500	17.750	4.9428e-02
 9.500	18.000	4.8689e-02
 9.500	18.250	4.7369e-02
 9.500	18.500	4.5876e-02
 9.500	18.750	4.3755e-02
 9.500	19.000	4.0378e-02
 9.500	19.250	3.9503e-02
 9.500	19.500	2.8531e-02
 9.500	19.750	2.1027e-02
 9.500	20.000	1.5796e-02
 9.500	20.250	1.2334e-02
 9.500	20.500	1.0368e-02
 9.500	20.750	9.2430e-03
 9.500	21.000	8.5853e-03
 9.500	21.250	8.2830e-03
 9.500	21.500	8.1247e-03
 9.500	21.750	8.0360e-03
 9.500	22.000	7.9988e-03
 9.500	22.250	7.9831e-03
 9.500	22.500	7.9763e-03
 9.500	22.750	7.9731e-03
 9.500	23.000	7.9714e-03
 9.500	23.250	7.9706e-03
 9.500	23.500	7.9702e-03
 9.500	23.750	7.9700e-03
 9.500	24.000	7.9698e-03
 9.750	17.000	4.5751e-02
 9.750	17.250	4.7226e-02
 9.750	17.500	4.8574e-02
 9.750	17.750	4.9408e-02
 9.750	18.000	4.9406e-02
 9.750	18.250	4.8576e-02
 9.750	18.500	4.7195e-02
 9.750	18.750	4.5671e-02
 9.750	19.000	4.3220e-02
 9.750	19.250	4.0232e-02
 9.750	19.500	3.9395e-02
 9.750	19.750	2.8494e-02
 9.750	20.000	2.1019e-02
 9.750	20.250	1.5797e-02
 9.750	20.500	1.2332e-02
 9.750	20.750	1.0367e-02
 9.750	21.000	9.2428e-03
 9.750	21.250	8.5852e-03
 9.750	21.500	8.2830e-03
 9.750	21.750	8.1248e-03
 9.750	22.000	8.0360e-03
 9.750	22.250	7.9988e-03
 9.750	22.500	7.9831e-03
 9.750	22.750	7.9763e-03
 9.750	23.000	7.9731e-03
 9.750	23.250	7.9714e-03
 9.750	23.500	7.9706e-03
 9.750	23.750	7.9701e-03
 9.750	24.000	7.9699e-03
10.000	17.000	4.3483e-02
10.000	17.250	4.5118e-02
10.000	17.500	4.6909e-02
10.000	17.750	4.8583e-02
10.000	18.000	4.9534e-02
10.000	18.250	4.9573e-02
10.000	18.500	4.8571e-02
10.000	18.750	4.7123e-02
10.000	19.000	4.5872e-02
10.000	19.250	4.2542e-02
10.000	19.500	4.0026e-02
10.000	19.750	3.9255e-02
10.000	20.000	2.8458e-02
10.000	20.250	2.1007e-02
10.000	20.500	1.5797e-02
10.000	20.750	1.2330e-02
10.000	21.000	1.0367e-02
10.000	21.250	9.2427e-03
10.000	21.500	8.5851e-03
10.000	21.750	8.2830e-03
10.000	22.000	8.1248e-03
10.000	22.250	8.0361e-03
10.000	22.500	7.9988e-03
10.000	22.750	7.9831e-03
10.000	23.000	7.9763e-03
10.000	23.250	7.9731e-03
10.000	23.500	7.9715e-03
10.000	23.750	7.9706e-03
10.000	24.000	7.9702e-03
10.250	17.000	4.1489e-02
10.250	17.250	4.2641e-02
10.250	17.500	4.4615e-02
10.250	17.750	4.6810e-02
10.250	18.000	4.8763e-02
10.250	18.250	4.9800e-02
10.250	18.500	4.9597e-02
10.250	18.750	4.8480e-02
10.250	19.000	4.7078e-02
10.250	19.250	4.5752e-02
10.250	19.500	4.2121e-02
10.250	19.750	3.9763e-02
10.250	20.000	3.9127e-02
10.250	20.250	2.8436e-02
10.250	20.500	2.0994e-02
10.250	20.750	1.5797e-02
10.250	21.000	1.2330e-02
10.250	21.250	1.0367e-02
10.250	21.500	9.2427e-03
10.250	21.750	8.5851e-03
10.250	22.000	8.2830e-03
10.250	22.250	8.1249e-03
10.250	22.500	8.0362e-03
10.250	22.750	7.9988e-03
10.250	23.000	7.9831e-03
10.250	23.250	7.9763e-03
10.250	23.500	7.9731e-03
10.250	23.750	7.9715e-03
10.250	24.000	7.9706e-03
10.500	17.000	3.9991e-02
10.500	17.250	4.0549e-02
10.500	17.500	4.2031e-02
10.500	17.750	4.4457e-02
10.500	18.000	4.6926e-02
10.500	18.250	4.8705e-02
10.500	18.500	4.9422e-02
10.500	18.750	4.8905e-02
10.500	19.000	4.7800e-02
10.500	19.250	4.6787e-02
10.500	19.500	4.7108e-02
10.500	19.750	4.2359e-02
10.500	20.000	3.9862e-02
10.500	20.250	3.9035e-02
10.500	20.500	2.8437e-02
10.500	20.750	2.0982e-02
10.500	21.000	1.5796e-02
10.500	21.250	1.2330e-02
10.500	21.500	1.0368e-02
10.500	21.750	9.2428e-03
10.500	22.000	8.5852e-03
10.500	22.250	8.2831e-03
10.500	22.500	8.1249e-03
10.500	22.750	8.0363e-03
10.500	23.000	7.9988e-03
10.500	23.250	7.9831e-03
10.500	23.500	7.9763e-03
10.500	23.750	7.9732e-03
10.500	24.000	7.9715e-03
10.750	17.000	3.9036e-02
10.750	17.250	3.9128e-02
10.750	17.500	3.9992e-02
10.750	17.750	4.1894e-02
10.750	18.000	4.4161e-02
10.750	18.250	4.6130e-02
10.750	18.500	4.7413e-02
10.750	18.750	4.7954e-02
10.750	19.000	4.7805e-02
10.750	19.250	4.7178e-02
10.750	19.500	4.6719e-02
10.750	19.750	4.7142e-02
10.750	20.000	4.3142e-02
10.750	20.250	4.0497e-02
10.750	20.500	3.9177e-02
10.750	20.750	2.8476e-02
10.750	21.000	2.0975e-02
10.750	21.250	1.5795e-02
10.750	21.500	1.2330e-02
10.750	21.750	1.0369e-02
10.750	22.000	9.2430e-03
10.750	22.250	8.5851e-03
10.750	22.500	8.2834e-03
10.750	22.750	8.1249e-03
10.750	23.000	8.0363e-03
10.750	23.250	7.9989e-03
10.750	23.500	7.9832e-03
10.750	23.750	7.9763e-03
10.750	24.000	7.9731e-03
11.000	17.000	3.8565e-02
11.000	17.250	3.8420e-02
11.000	17.500	3.8722e-02
11.000	17.750	3.9531e-02
11.000	18.000	4.0845e-02
11.000	18.250	4.2408e-02
11.000	18.500	4.4110e-02
11.000	18.750	4.5646e-02
11.000	19.000	4.6601e-02
11.000	19.250	4.6861e-02
11.000	19.500	4.6613e-02
11.000	19.750	4.6231e-02
11.000	20.000	4.8504e-02
11.000	20.250	4.5632e-02
11.000	20.500	4.1699e-02
11.000	20.750	3.9643e-02
11.000	21.000	2.8626e-02
11.000	21.250	2.0980e-02
11.000	21.500	1.5793e-02
11.000	21.750	1.2332e-02
11.000	22.000	1.0370e-02
11.000	22.250	9.2434e-03
11.000	22.500	8.5850e-03
11.000	22.750	8.2835e-03
11.000	23.000	8.1252e-03
11.000	23.250	8.0364e-03
11.000	23.500	7.9990e-03
11.000	23.750	7.9833e-03
11.000	24.000	7.9764e-03
11.250	17.000	3.8503e-02
11.250	17.250	3.8278e-02
11.250	17.500	3.7960e-02
11.250	17.750	3.7648e-02
11.250	18.000	3.7682e-02
11.250	18.250	3.8428e-02
11.250	18.500	4.0117e-02
11.250	18.750	4.2256e-02
11.250	19.000	4.4246e-02
11.250	19.250	4.5546e-02
11.250	19.500	4.6107e-02
11.250	19.750	4.6110e-02
11.250	20.000	4.6724e-02
11.250	20.250	4.9945e-02
11.250	20.500	4.7095e-02
11.250	20.750	4.3669e-02
11.250	21.000	4.0772e-02
11.250	21.250	2.8883e-02
11.250	21.500	2.1012e-02
11.250	21.750	1.5791e-02
11.250	22.000	1.2334e-02
11.250	22.250	1.0372e-02
11.250	22.500	9.2440e-03
11.250	22.750	8.5849e-03
11.250	23.000	8.2835e-03
11.250	23.250	8.1253e-03
11.250	23.500	8.0364e-03
11.250	23.750	7.9991e-03
11.250	24.000	7.9834e-03
11.500	17.000	3.8821e-02
11.500	17.250	3.8387e-02
11.500	17.500	3.7467e-02
11.500	17.750	3.6241e-02
11.500	18.000	3.5170e-02
11.500	18.250	3.5004e-02
11.500	18.500	3.6107e-02
11.500	18.750	3.8342e-02
11.500	19.000	4.1065e-02
11.500	19.250	4.3267e-02
11.500	19.500	4.4748e-02
11.500	19.750	4.5677e-02
11.500	20.000	4.6109e-02
11.500	20.250	4.7793e-02
11.500	20.500	5.2731e-02
11.500	20.750	5.0375e-02
11.500	21.000	4.6685e-02
11.500	21.250	4.2190e-02
11.500	21.500	2.9263e-02
11.500	21.750	2.1073e-02
11.500	22.000	1.5789e-02
11.500	22.250	1.2336e-02
11.500	22.500	1.0374e-02
11.500	22.750	9.2449e-03
11.500	23.000	8.5846e-03
11.500	23.250	8.2835e-03
11.500	23.500	8.1255e-03
11.500	23.750	8.0365e-03
11.500	24.000	7.9991e-03
11.750	17.000	3.9420e-02
11.750	17.250	3.8516e-02
11.750	17.500	3.7015e-02
11.750	17.750	3.5104e-02
11.750	18.000	3.3428e-02
11.750	18.250	3.2561e-02
11.750	18.500	3.2916e-02
11.750	18.750	3.4646e-02
11.750	19.000	3.7378e-02
11.750	19.250	4.0345e-02
11.750	19.500	4.2681e-02
11.750	19.750	4.4496e-02
11.750	20.000	4.5918e-02
11.750	20.250	4.6988e-02
11.750	20.500	5.0546e-02
11.750	20.750	5.6032e-02
11.750	21.000	5.4529e-02
11.750	21.250	5.1315e-02
11.750	21.500	4.3371e-02
11.750	21.750	2.9711e-02
11.750	22.000	2.1181e-02
11.750	22.250	1.5788e-02
11.750	22.500	1.2339e-02
11.750	22.750	1.0376e-02
11.750	23.000	9.2458e-03
11.750	23.250	8.5844e-03
11.750	23.500	8.2835e-03
11.750	23.750	8.1255e-03
11.750	24.000	8.0366e-03
12.000	17.000	4.0027e-02
12.000	17.250	3.8514e-02
12.000	17.500	3.6408e-02
12.000	17.750	3.4077e-02
12.000	18.000	3.2186e-02
12.000	18.250	3.1028e-02
12.000	18.500	3.0889e-02
12.000	18.750	3.1809e-02
12.000	19.000	3.3904e-02
12.000	19.250	3.6971e-02
12.000	19.500	4.0117e-02
12.000	19.750	4.2689e-02
12.000	20.000	4.4993e-02
12.000	20.250	4.7034e-02
12.000	20.500	4.8756e-02
12.000	20.750	5.3665e-02
12.000	21.000	6.0520e-02
12.000	21.250	6.1779e-02
12.000	21.500	5.8028e-02
12.000	21.750	4.4392e-02
12.000	22.000	3.0208e-02
12.000	22.250	2.1323e-02
12.000	22.500	1.5789e-02
12.000	22.750	1.2341e-02
12.000	23.000	1.0379e-02
12.000	23.250	9.2472e-03
12.000	23.500	8.5840e-03
12.000	23.750	8.2834e-03
12.000	24.000	8.1256e-03
12.250	17.000	4.0339e-02
12.250	17.250	3.8121e-02
12.250	17.500	3.5479e-02
12.250	17.750	3.3004e-02
12.250	18.000	3.1150e-02
12.250	18.250	3.0128e-02
12.250	18.500	2.9853e-02
12.250	18.750	3.0208e-02
12.250	19.000	3.1417e-02
12.250	19.250	3.3805e-02
12.250	19.500	3.7123e-02
12.250	19.750	4.0512e-02
12.250	20.000	4.3472e-02
12.250	20.250	4.6390e-02
12.250	20.500	4.9212e-02
12.250	20.750	5.1911e-02
12.250	21.000	5.9307e-02
12.250	21.250	6.8649e-02
12.250	21.500	7.1353e-02
12.250	21.750	6.5486e-02
12.250	22.000	4.5399e-02
12.250	22.250	3.0469e-02
12.250	22.500	2.1368e-02
12.250	22.750	1.5792e-02
12.250	23.000	1.2343e-02
12.250	23.250	1.0381e-02
12.250	23.500	9.2486e-03
12.250	23.750	8.5835e-03
12.250	24.000	8.2833e-03
12.500	17.000	3.9650e-02
12.500	17.250	3.6863e-02
12.500	17.500	3.4067e-02
12.500	17.750	3.1784e-02
12.500	18.000	3.0308e-02
12.500	18.250	2.9556e-02
12.500	18.500	2.9351e-02
12.500	18.750	2.9573e-02
12.500	19.000	3.0233e-02
12.500	19.250	3.1687e-02
12.500	19.500	3.4318e-02
12.500	19.750	3.7944e-02
12.500	20.000	4.1621e-02
12.500	20.250	4.5101e-02
12.500	20.500	4.8818e-02
12.500	20.750	5.3099e-02
12.500	21.000	5.8514e-02
12.500	21.250	6.9359e-02
12.500	21.500	7.9940e-02
12.500	21.750	8.2438e-02
12.500	22.000	6.9857e-02
12.500	22.250	4.6120e-02
12.500	22.500	3.0872e-02
12.500	22.750	2.1533e-02
12.500	23.000	1.5795e-02
12.500	23.250	1.2345e-02
12.500	23.500	1.0383e-02
12.500	23.750	9.2499e-03
12.500	24.000	8.5827e-03
12.750	17.000	3.0653e-02
12.750	17.250	3.4203e-02
12.750	17.500	3.2349e-02
12.750	17.750	3.0679e-02
12.750	18.000	2.9612e-02
12.750	18.250	2.9107e-02
12.750	18.500	2.9062e-02
12.750	18.750	2.9370e-02
12.750	19.000	2.9936e-02
12.750	19.250	3.0867e-02
12.750	19.500	3.2584e-02
12.750	19.750	3.5488e-02
12.750	20.000	3.9362e-02
12.750	20.250	4.3607e-02
12.750	20.500	4.7838e-02
12.750	20.750	5.3048e-02
12.750	21.000	6.0447e-02
12.750	21.250	6.9033e-02
12.750	21.500	8.2298e-02
12.750	21.750	9.5602e-02
12.750	22.000	9.4096e-02
12.750	22.250	7.2186e-02
12.750	22.500	4.7061e-02
12.750	22.750	3.1335e-02
12.750	23.000	2.1648e-02
12.750	23.250	1.5795e-02
12.750	23.500	1.2345e-02
12.750	23.750	1.0385e-02
12.750	24.000	9.2510e-03
13.000	17.000	1.7834e-02
13.000	17.250	2.5297e-02
13.000	17.500	2.9451e-02
13.000	17.750	2.9823e-02
13.000	18.000	2.9054e-02
13.000	18.250	2.8746e-02
13.000	18.500	2.8838e-02
13.000	18.750	2.9260e-02
13.000	19.000	2.9933e-02
13.000	19.250	3.0837e-02
13.000	19.500	3.2033e-02
13.000	19.750	3.4059e-02
13.000	20.000	3.7216e-02
13.000	20.250	4.1443e-02
13.000	20.500	4.6752e-02
13.000	20.750	5.2235e-02
13.000	21.000	5.9471e-02
13.000	21.250	7.0782e-02
13.000	21.500	8.2375e-02
13.000	21.750	1.0053e-01
13.000	22.000	1.1025e-01
13.000	22.250	1.0332e-01
13.000	22.500	7.4114e-02
13.000	22.750	4.7827e-02
13.000	23.000	3.1637e-02
13.000	23.250	2.1731e-02
13.000	23.500	1.5792e-02
13.000	23.750	1.2344e-02
13.000	24.000	1.0386e-02
13.250	17.000	1.2598e-02
13.250	17.250	1.7680e-02
13.250	17.500	2.6877e-02
13.250	17.750	2.9209e-02
13.250	18.000	2.8642e-02
13.250	18.250	2.8453e-02
13.250	18.500	2.8637e-02
13.250	18.750	2.9146e-02
13.250	19.000	2.9932e-02
13.250	19.250	3.0954e-02
13.250	19.500	3.2181e-02
13.250	19.750	3.3853e-02
13.250	20.000	3.6224e-02
13.250	20.250	3.9605e-02
13.250	20.500	4.4430e-02
13.250	20.750	5.0641e-02
13.250	21.000	5.8418e-02
13.250	21.250	6.8560e-02
13.250	21.500	8.0049e-02
13.250	21.750	9.3566e-02
13.250	22.000	1.1243e-01
13.250	22.250	1.2230e-01
13.250	22.500	1.0895e-01
13.250	22.750	7.5988e-02
13.250	23.000	4.8577e-02
13.250	23.250	3.1662e-02
13.250	23.500	2.1710e-02
13.250	23.750	1.5788e-02
13.250	24.000	1.2341e-02
13.500	17.000	9.3600e-03
13.500	17.250	1.2903e-02
13.500	17.500	1.9972e-02
13.500	17.750	2.6441e-02
13.500	18.000	2.8354e-02
13.500	18.250	2.8243e-02
13.500	18.500	2.8465e-02
13.500	18.750	2.9020e-02
13.500	19.000	2.9878e-02
13.500	19.250	3.1010e-02
13.500	19.500	3.2404e-02
13.500	19.750	3.4123e-02
13.500	20.000	3.6319e-02
13.500	20.250	3.9331e-02
13.500	20.500	4.3235e-02
13.500	20.750	4.8423e-02
13.500	21.000	5.4643e-02
13.500	21.250	6.4345e-02
13.500	21.500	7.2567e-02
13.500	21.750	8.4989e-02
13.500	22.000	1.0088e-01
13.500	22.250	1.2059e-01
13.500	22.500	1.2791e-01
13.500	22.750	1.1220e-01
13.500	23.000	7.7743e-02
13.500	23.250	4.9405e-02
13.500	23.500	3.2113e-02
13.500	23.750	2.1824e-02
13.500	24.000	1.5780e-02
13.750	17.000	7.4746e-03
13.750	17.250	9.8467e-03
13.750	17.500	1.5155e-02
13.750	17.750	2.1350e-02
13.750	18.000	2.7747e-02
13.750	18.250	2.8006e-02
13.750	18.500	2.8280e-02
13.750	18.750	2.8879e-02
13.750	19.000	2.9782e-02
13.750	19.250	3.1003e-02
13.750	19.500	3.2541e-02
13.750	19.750	3.4425e-02
13.750	20.000	3.6789e-02
13.750	20.250	3.9822e-02
13.750	20.500	4.3667e-02
13.750	20.750	4.8378e-02
13.750	21.000	5.4040e-02
13.750	21.250	6.0566e-02
13.750	21.500	6.8720e-02
13.750	21.750	7.9352e-02
13.750	22.000	9.2992e-02
13.750	22.250	1.1373e-01
13.750	22.500	1.2737e-01
13.750	22.750	1.3467e-01
13.750	23.000	1.1594e-01
13.750	23.250	7.9320e-02
13.750	23.500	4.9951e-02
13.750	23.750	3.2290e-02
13.750	24.000	2.1842e-02
14.000	17.000	6.3223e-03
14.000	17.250	8.0417e-03
14.000	17.500	1.1751e-02
14.000	17.750	1.7118e-02
14.000	18.000	2.3564e-02
14.000	18.250	2.7797e-02
14.000	18.500	2.8042e-02
14.000	18.750	2.8636e-02
14.000	19.000	2.9601e-02
14.000	19.250	3.0917e-02
14.000	19.500	3.2592e-02
14.000	19.750	3.4669e-02
14.000	20.000	3.7205e-02
14.000	20.250	4.0412e-02
14.000	20.500	4.4496e-02
14.000	20.750	4.9459e-02
14.000	21.000	5.5373e-02
14.000	21.250	6.2293e-02
14.000	21.500	6.9188e-02
14.000	21.750	7.8680e-02
14.000	22.000	9.1107e-02
14.000	22.250	1.1062e-01
14.000	22.500	1.3401e-01
14.000	22.750	1.3993e-01
14.000	23.000	1.4172e-01
14.000	23.250	1.2067e-01
14.000	23.500	8.0735e-02
14.000	23.750	5.0391e-02
14.000	24.000	3.2433e-02
