InwT 1.11867m  relative to Inci 1215.00A scaled to 1215A.
Hden   Phi(H)  Eq_Width (A)
 7.000	17.000	4.7435e-03
 7.000	17.250	2.9532e-03
 7.000	17.500	2.0138e-03
 7.000	17.750	1.5382e-03
 7.000	18.000	1.3048e-03
 7.000	18.250	1.1762e-03
 7.000	18.500	1.1040e-03
 7.000	18.750	1.0730e-03
 7.000	19.000	1.0571e-03
 7.000	19.250	1.0486e-03
 7.000	19.500	1.0453e-03
 7.000	19.750	1.0440e-03
 7.000	20.000	1.0434e-03
 7.000	20.250	1.0431e-03
 7.000	20.500	1.0430e-03
 7.000	20.750	1.0429e-03
 7.000	21.000	1.0429e-03
 7.000	21.250	1.0429e-03
 7.000	21.500	1.0429e-03
 7.000	21.750	1.0429e-03
 7.000	22.000	1.0428e-03
 7.000	22.250	1.0428e-03
 7.000	22.500	1.0428e-03
 7.000	22.750	1.0429e-03
 7.000	23.000	1.0429e-03
 7.000	23.250	1.0428e-03
 7.000	23.500	1.0428e-03
 7.000	23.750	1.0428e-03
 7.000	24.000	1.0428e-03
 7.250	17.000	8.0490e-03
 7.250	17.250	4.7400e-03
 7.250	17.500	2.9512e-03
 7.250	17.750	2.0126e-03
 7.250	18.000	1.5379e-03
 7.250	18.250	1.3047e-03
 7.250	18.500	1.1762e-03
 7.250	18.750	1.1040e-03
 7.250	19.000	1.0730e-03
 7.250	19.250	1.0571e-03
 7.250	19.500	1.0486e-03
 7.250	19.750	1.0453e-03
 7.250	20.000	1.0440e-03
 7.250	20.250	1.0434e-03
 7.250	20.500	1.0431e-03
 7.250	20.750	1.0430e-03
 7.250	21.000	1.0429e-03
 7.250	21.250	1.0429e-03
 7.250	21.500	1.0429e-03
 7.250	21.750	1.0430e-03
 7.250	22.000	1.0429e-03
 7.250	22.250	1.0428e-03
 7.250	22.500	1.0428e-03
 7.250	22.750	1.0430e-03
 7.250	23.000	1.0430e-03
 7.250	23.250	1.0428e-03
 7.250	23.500	1.0428e-03
 7.250	23.750	1.0428e-03
 7.250	24.000	1.0428e-03
 7.500	17.000	1.3002e-02
 7.500	17.250	8.0421e-03
 7.500	17.500	4.7374e-03
 7.500	17.750	2.9495e-03
 7.500	18.000	2.0112e-03
 7.500	18.250	1.5374e-03
 7.500	18.500	1.3046e-03
 7.500	18.750	1.1762e-03
 7.500	19.000	1.1040e-03
 7.500	19.250	1.0730e-03
 7.500	19.500	1.0571e-03
 7.500	19.750	1.0486e-03
 7.500	20.000	1.0453e-03
 7.500	20.250	1.0440e-03
 7.500	20.500	1.0434e-03
 7.500	20.750	1.0431e-03
 7.500	21.000	1.0430e-03
 7.500	21.250	1.0429e-03
 7.500	21.500	1.0429e-03
 7.500	21.750	1.0429e-03
 7.500	22.000	1.0429e-03
 7.500	22.250	1.0429e-03
 7.500	22.500	1.0428e-03
 7.500	22.750	1.0428e-03
 7.500	23.000	1.0429e-03
 7.500	23.250	1.0430e-03
 7.500	23.500	1.0428e-03
 7.500	23.750	1.0430e-03
 7.500	24.000	1.0428e-03
 7.750	17.000	2.0160e-02
 7.750	17.250	1.2982e-02
 7.750	17.500	8.0373e-03
 7.750	17.750	4.7359e-03
 7.750	18.000	2.9480e-03
 7.750	18.250	2.0096e-03
 7.750	18.500	1.5369e-03
 7.750	18.750	1.3044e-03
 7.750	19.000	1.1762e-03
 7.750	19.250	1.1040e-03
 7.750	19.500	1.0730e-03
 7.750	19.750	1.0571e-03
 7.750	20.000	1.0486e-03
 7.750	20.250	1.0453e-03
 7.750	20.500	1.0440e-03
 7.750	20.750	1.0434e-03
 7.750	21.000	1.0431e-03
 7.750	21.250	1.0430e-03
 7.750	21.500	1.0429e-03
 7.750	21.750	1.0429e-03
 7.750	22.000	1.0429e-03
 7.750	22.250	1.0429e-03
 7.750	22.500	1.0428e-03
 7.750	22.750	1.0429e-03
 7.750	23.000	1.0429e-03
 7.750	23.250	1.0429e-03
 7.750	23.500	1.0430e-03
 7.750	23.750	1.0430e-03
 7.750	24.000	1.0428e-03
 8.000	17.000	2.1753e-02
 8.000	17.250	1.9946e-02
 8.000	17.500	1.2954e-02
 8.000	17.750	8.0294e-03
 8.000	18.000	4.7351e-03
 8.000	18.250	2.9467e-03
 8.000	18.500	2.0080e-03
 8.000	18.750	1.5362e-03
 8.000	19.000	1.3043e-03
 8.000	19.250	1.1761e-03
 8.000	19.500	1.1040e-03
 8.000	19.750	1.0730e-03
 8.000	20.000	1.0571e-03
 8.000	20.250	1.0486e-03
 8.000	20.500	1.0453e-03
 8.000	20.750	1.0440e-03
 8.000	21.000	1.0434e-03
 8.000	21.250	1.0431e-03
 8.000	21.500	1.0430e-03
 8.000	21.750	1.0429e-03
 8.000	22.000	1.0429e-03
 8.000	22.250	1.0429e-03
 8.000	22.500	1.0428e-03
 8.000	22.750	1.0429e-03
 8.000	23.000	1.0428e-03
 8.000	23.250	1.0429e-03
 8.000	23.500	1.0428e-03
 8.000	23.750	1.0428e-03
 8.000	24.000	1.0428e-03
 8.250	17.000	2.3027e-02
 8.250	17.250	2.1818e-02
 8.250	17.500	1.9946e-02
 8.250	17.750	1.2945e-02
 8.250	18.000	8.0293e-03
 8.250	18.250	4.7350e-03
 8.250	18.500	2.9454e-03
 8.250	18.750	2.0061e-03
 8.250	19.000	1.5355e-03
 8.250	19.250	1.3040e-03
 8.250	19.500	1.1761e-03
 8.250	19.750	1.1040e-03
 8.250	20.000	1.0730e-03
 8.250	20.250	1.0571e-03
 8.250	20.500	1.0486e-03
 8.250	20.750	1.0453e-03
 8.250	21.000	1.0440e-03
 8.250	21.250	1.0434e-03
 8.250	21.500	1.0431e-03
 8.250	21.750	1.0430e-03
 8.250	22.000	1.0429e-03
 8.250	22.250	1.0429e-03
 8.250	22.500	1.0429e-03
 8.250	22.750	1.0429e-03
 8.250	23.000	1.0428e-03
 8.250	23.250	1.0431e-03
 8.250	23.500	1.0428e-03
 8.250	23.750	1.0428e-03
 8.250	24.000	1.0429e-03
 8.500	17.000	2.4035e-02
 8.500	17.250	2.3174e-02
 8.500	17.500	2.1903e-02
 8.500	17.750	1.9964e-02
 8.500	18.000	1.2940e-02
 8.500	18.250	8.0312e-03
 8.500	18.500	4.7355e-03
 8.500	18.750	2.9442e-03
 8.500	19.000	2.0040e-03
 8.500	19.250	1.5347e-03
 8.500	19.500	1.3038e-03
 8.500	19.750	1.1760e-03
 8.500	20.000	1.1040e-03
 8.500	20.250	1.0730e-03
 8.500	20.500	1.0571e-03
 8.500	20.750	1.0486e-03
 8.500	21.000	1.0453e-03
 8.500	21.250	1.0440e-03
 8.500	21.500	1.0434e-03
 8.500	21.750	1.0431e-03
 8.500	22.000	1.0430e-03
 8.500	22.250	1.0429e-03
 8.500	22.500	1.0429e-03
 8.500	22.750	1.0429e-03
 8.500	23.000	1.0428e-03
 8.500	23.250	1.0429e-03
 8.500	23.500	1.0428e-03
 8.500	23.750	1.0428e-03
 8.500	24.000	1.0428e-03
 8.750	17.000	2.4812e-02
 8.750	17.250	2.4274e-02
 8.750	17.500	2.3406e-02
 8.750	17.750	2.1992e-02
 8.750	18.000	2.0017e-02
 8.750	18.250	1.2938e-02
 8.750	18.500	8.0342e-03
 8.750	18.750	4.7365e-03
 8.750	19.000	2.9430e-03
 8.750	19.250	2.0016e-03
 8.750	19.500	1.5337e-03
 8.750	19.750	1.3035e-03
 8.750	20.000	1.1760e-03
 8.750	20.250	1.1040e-03
 8.750	20.500	1.0729e-03
 8.750	20.750	1.0571e-03
 8.750	21.000	1.0486e-03
 8.750	21.250	1.0453e-03
 8.750	21.500	1.0440e-03
 8.750	21.750	1.0434e-03
 8.750	22.000	1.0431e-03
 8.750	22.250	1.0430e-03
 8.750	22.500	1.0429e-03
 8.750	22.750	1.0429e-03
 8.750	23.000	1.0430e-03
 8.750	23.250	1.0428e-03
 8.750	23.500	1.0429e-03
 8.750	23.750	1.0428e-03
 8.750	24.000	1.0428e-03
 9.000	17.000	2.5349e-02
 9.000	17.250	2.5142e-02
 9.000	17.500	2.4692e-02
 9.000	17.750	2.3869e-02
 9.000	18.000	2.2381e-02
 9.000	18.250	2.0235e-02
 9.000	18.500	1.2934e-02
 9.000	18.750	8.0379e-03
 9.000	19.000	4.7382e-03
 9.000	19.250	2.9421e-03
 9.000	19.500	1.9994e-03
 9.000	19.750	1.5328e-03
 9.000	20.000	1.3033e-03
 9.000	20.250	1.1760e-03
 9.000	20.500	1.1040e-03
 9.000	20.750	1.0729e-03
 9.000	21.000	1.0571e-03
 9.000	21.250	1.0486e-03
 9.000	21.500	1.0453e-03
 9.000	21.750	1.0439e-03
 9.000	22.000	1.0434e-03
 9.000	22.250	1.0431e-03
 9.000	22.500	1.0430e-03
 9.000	22.750	1.0429e-03
 9.000	23.000	1.0429e-03
 9.000	23.250	1.0429e-03
 9.000	23.500	1.0428e-03
 9.000	23.750	1.0428e-03
 9.000	24.000	1.0428e-03
 9.250	17.000	2.5665e-02
 9.250	17.250	2.5789e-02
 9.250	17.500	2.5812e-02
 9.250	17.750	2.5620e-02
 9.250	18.000	2.4871e-02
 9.250	18.250	2.3320e-02
 9.250	18.500	2.0776e-02
 9.250	18.750	1.2929e-02
 9.250	19.000	8.0413e-03
 9.250	19.250	4.7406e-03
 9.250	19.500	2.9418e-03
 9.250	19.750	1.9974e-03
 9.250	20.000	1.5319e-03
 9.250	20.250	1.3030e-03
 9.250	20.500	1.1759e-03
 9.250	20.750	1.1039e-03
 9.250	21.000	1.0729e-03
 9.250	21.250	1.0571e-03
 9.250	21.500	1.0485e-03
 9.250	21.750	1.0452e-03
 9.250	22.000	1.0438e-03
 9.250	22.250	1.0433e-03
 9.250	22.500	1.0430e-03
 9.250	22.750	1.0429e-03
 9.250	23.000	1.0429e-03
 9.250	23.250	1.0429e-03
 9.250	23.500	1.0428e-03
 9.250	23.750	1.0428e-03
 9.250	24.000	1.0428e-03
 9.500	17.000	2.5862e-02
 9.500	17.250	2.6291e-02
 9.500	17.500	2.6800e-02
 9.500	17.750	2.7340e-02
 9.500	18.000	2.7559e-02
 9.500	18.250	2.7143e-02
 9.500	18.500	2.5537e-02
 9.500	18.750	2.1645e-02
 9.500	19.000	1.2918e-02
 9.500	19.250	8.0432e-03
 9.500	19.500	4.7435e-03
 9.500	19.750	2.9423e-03
 9.500	20.000	1.9957e-03
 9.500	20.250	1.5310e-03
 9.500	20.500	1.3029e-03
 9.500	20.750	1.1758e-03
 9.500	21.000	1.1038e-03
 9.500	21.250	1.0729e-03
 9.500	21.500	1.0570e-03
 9.500	21.750	1.0485e-03
 9.500	22.000	1.0451e-03
 9.500	22.250	1.0438e-03
 9.500	22.500	1.0432e-03
 9.500	22.750	1.0430e-03
 9.500	23.000	1.0429e-03
 9.500	23.250	1.0428e-03
 9.500	23.500	1.0428e-03
 9.500	23.750	1.0427e-03
 9.500	24.000	1.0427e-03
 9.750	17.000	2.5849e-02
 9.750	17.250	2.6634e-02
 9.750	17.500	2.7652e-02
 9.750	17.750	2.9079e-02
 9.750	18.000	3.0770e-02
 9.750	18.250	3.1840e-02
 9.750	18.500	3.1677e-02
 9.750	18.750	2.9743e-02
 9.750	19.000	2.1669e-02
 9.750	19.250	1.2901e-02
 9.750	19.500	8.0412e-03
 9.750	19.750	4.7467e-03
 9.750	20.000	2.9435e-03
 9.750	20.250	1.9948e-03
 9.750	20.500	1.5305e-03
 9.750	20.750	1.3027e-03
 9.750	21.000	1.1758e-03
 9.750	21.250	1.1038e-03
 9.750	21.500	1.0729e-03
 9.750	21.750	1.0571e-03
 9.750	22.000	1.0485e-03
 9.750	22.250	1.0451e-03
 9.750	22.500	1.0438e-03
 9.750	22.750	1.0433e-03
 9.750	23.000	1.0430e-03
 9.750	23.250	1.0429e-03
 9.750	23.500	1.0428e-03
 9.750	23.750	1.0428e-03
 9.750	24.000	1.0427e-03
10.000	17.000	2.5622e-02
10.000	17.250	2.6873e-02
10.000	17.500	2.8547e-02
10.000	17.750	3.1037e-02
10.000	18.000	3.4500e-02
10.000	18.250	3.7503e-02
10.000	18.500	3.8926e-02
10.000	18.750	3.7978e-02
10.000	19.000	3.3407e-02
10.000	19.250	2.1724e-02
10.000	19.500	1.2879e-02
10.000	19.750	8.0319e-03
10.000	20.000	4.7499e-03
10.000	20.250	2.9451e-03
10.000	20.500	1.9943e-03
10.000	20.750	1.5300e-03
10.000	21.000	1.3026e-03
10.000	21.250	1.1758e-03
10.000	21.500	1.1038e-03
10.000	21.750	1.0729e-03
10.000	22.000	1.0571e-03
10.000	22.250	1.0485e-03
10.000	22.500	1.0451e-03
10.000	22.750	1.0438e-03
10.000	23.000	1.0433e-03
10.000	23.250	1.0430e-03
10.000	23.500	1.0429e-03
10.000	23.750	1.0428e-03
10.000	24.000	1.0428e-03
10.250	17.000	2.5604e-02
10.250	17.250	2.7084e-02
10.250	17.500	2.9666e-02
10.250	17.750	3.3599e-02
10.250	18.000	3.8872e-02
10.250	18.250	4.3721e-02
10.250	18.500	4.6927e-02
10.250	18.750	4.7716e-02
10.250	19.000	4.5621e-02
10.250	19.250	3.8054e-02
10.250	19.500	2.1738e-02
10.250	19.750	1.2857e-02
10.250	20.000	8.0101e-03
10.250	20.250	4.7513e-03
10.250	20.500	2.9470e-03
10.250	20.750	1.9943e-03
10.250	21.000	1.5297e-03
10.250	21.250	1.3026e-03
10.250	21.500	1.1758e-03
10.250	21.750	1.1038e-03
10.250	22.000	1.0729e-03
10.250	22.250	1.0571e-03
10.250	22.500	1.0485e-03
10.250	22.750	1.0451e-03
10.250	23.000	1.0438e-03
10.250	23.250	1.0433e-03
10.250	23.500	1.0430e-03
10.250	23.750	1.0429e-03
10.250	24.000	1.0428e-03
10.500	17.000	2.5905e-02
10.500	17.250	2.7742e-02
10.500	17.500	3.1254e-02
10.500	17.750	3.7053e-02
10.500	18.000	4.4155e-02
10.500	18.250	5.0757e-02
10.500	18.500	5.5237e-02
10.500	18.750	5.7633e-02
10.500	19.000	5.6877e-02
10.500	19.250	5.3043e-02
10.500	19.500	3.7857e-02
10.500	19.750	2.1651e-02
10.500	20.000	1.2795e-02
10.500	20.250	7.9760e-03
10.500	20.500	4.7500e-03
10.500	20.750	2.9485e-03
10.500	21.000	1.9948e-03
10.500	21.250	1.5296e-03
10.500	21.500	1.3028e-03
10.500	21.750	1.1758e-03
10.500	22.000	1.1038e-03
10.500	22.250	1.0729e-03
10.500	22.500	1.0571e-03
10.500	22.750	1.0485e-03
10.500	23.000	1.0452e-03
10.500	23.250	1.0438e-03
10.500	23.500	1.0433e-03
10.500	23.750	1.0430e-03
10.500	24.000	1.0429e-03
10.750	17.000	2.6645e-02
10.750	17.250	2.8915e-02
10.750	17.500	3.3840e-02
10.750	17.750	4.1499e-02
10.750	18.000	5.0235e-02
10.750	18.250	5.7947e-02
10.750	18.500	6.3721e-02
10.750	18.750	6.7035e-02
10.750	19.000	6.7673e-02
10.750	19.250	6.5554e-02
10.750	19.500	5.9117e-02
10.750	19.750	3.7838e-02
10.750	20.000	2.1507e-02
10.750	20.250	1.2686e-02
10.750	20.500	7.9280e-03
10.750	20.750	4.7441e-03
10.750	21.000	2.9489e-03
10.750	21.250	1.9958e-03
10.750	21.500	1.5298e-03
10.750	21.750	1.3030e-03
10.750	22.000	1.1758e-03
10.750	22.250	1.1038e-03
10.750	22.500	1.0729e-03
10.750	22.750	1.0571e-03
10.750	23.000	1.0485e-03
10.750	23.250	1.0452e-03
10.750	23.500	1.0438e-03
10.750	23.750	1.0432e-03
10.750	24.000	1.0430e-03
11.000	17.000	2.7856e-02
11.000	17.250	3.0602e-02
11.000	17.500	3.7067e-02
11.000	17.750	4.6636e-02
11.000	18.000	5.6511e-02
11.000	18.250	6.5071e-02
11.000	18.500	7.1671e-02
11.000	18.750	7.6040e-02
11.000	19.000	7.8067e-02
11.000	19.250	7.7598e-02
11.000	19.500	7.4321e-02
11.000	19.750	6.6448e-02
11.000	20.000	3.7611e-02
11.000	20.250	2.1133e-02
11.000	20.500	1.2554e-02
11.000	20.750	7.8740e-03
11.000	21.000	4.7267e-03
11.000	21.250	2.9471e-03
11.000	21.500	1.9970e-03
11.000	21.750	1.5302e-03
11.000	22.000	1.3031e-03
11.000	22.250	1.1758e-03
11.000	22.500	1.1038e-03
11.000	22.750	1.0729e-03
11.000	23.000	1.0571e-03
11.000	23.250	1.0485e-03
11.000	23.500	1.0452e-03
11.000	23.750	1.0439e-03
11.000	24.000	1.0433e-03
11.250	17.000	2.9620e-02
11.250	17.250	3.2697e-02
11.250	17.500	4.0505e-02
11.250	17.750	5.1669e-02
11.250	18.000	6.2653e-02
11.250	18.250	7.1742e-02
11.250	18.500	7.9009e-02
11.250	18.750	8.4679e-02
11.250	19.000	8.7725e-02
11.250	19.250	8.8555e-02
11.250	19.500	8.6987e-02
11.250	19.750	8.2878e-02
11.250	20.000	6.8590e-02
11.250	20.250	3.7444e-02
11.250	20.500	2.1010e-02
11.250	20.750	1.2409e-02
11.250	21.000	7.8169e-03
11.250	21.250	4.6970e-03
11.250	21.500	2.9411e-03
11.250	21.750	1.9982e-03
11.250	22.000	1.5307e-03
11.250	22.250	1.3035e-03
11.250	22.500	1.1759e-03
11.250	22.750	1.1037e-03
11.250	23.000	1.0729e-03
11.250	23.250	1.0571e-03
11.250	23.500	1.0485e-03
11.250	23.750	1.0452e-03
11.250	24.000	1.0439e-03
11.500	17.000	3.2171e-02
11.500	17.250	3.5279e-02
11.500	17.500	4.3872e-02
11.500	17.750	5.6134e-02
11.500	18.000	6.8084e-02
11.500	18.250	7.7912e-02
11.500	18.500	8.5895e-02
11.500	18.750	9.2311e-02
11.500	19.000	9.6491e-02
11.500	19.250	9.8447e-02
11.500	19.500	9.8156e-02
11.500	19.750	9.5831e-02
11.500	20.000	9.1065e-02
11.500	20.250	7.0073e-02
11.500	20.500	3.7077e-02
11.500	20.750	2.0706e-02
11.500	21.000	1.2292e-02
11.500	21.250	7.7632e-03
11.500	21.500	4.6548e-03
11.500	21.750	2.9291e-03
11.500	22.000	1.9988e-03
11.500	22.250	1.5313e-03
11.500	22.500	1.3037e-03
11.500	22.750	1.1759e-03
11.500	23.000	1.1036e-03
11.500	23.250	1.0729e-03
11.500	23.500	1.0571e-03
11.500	23.750	1.0485e-03
11.500	24.000	1.0452e-03
11.750	17.000	3.5798e-02
11.750	17.250	3.8473e-02
11.750	17.500	4.7136e-02
11.750	17.750	5.9819e-02
11.750	18.000	7.2436e-02
11.750	18.250	8.3256e-02
11.750	18.500	9.2157e-02
11.750	18.750	9.9139e-02
11.750	19.000	1.0451e-01
11.750	19.250	1.0737e-01
11.750	19.500	1.0814e-01
11.750	19.750	1.0671e-01
11.750	20.000	1.0370e-01
11.750	20.250	9.8274e-02
11.750	20.500	7.0255e-02
11.750	20.750	3.6741e-02
11.750	21.000	2.0519e-02
11.750	21.250	1.2304e-02
11.750	21.500	7.6755e-03
11.750	21.750	4.5997e-03
11.750	22.000	2.9091e-03
11.750	22.250	1.9981e-03
11.750	22.500	1.5319e-03
11.750	22.750	1.3040e-03
11.750	23.000	1.1759e-03
11.750	23.250	1.1035e-03
11.750	23.500	1.0729e-03
11.750	23.750	1.0571e-03
11.750	24.000	1.0486e-03
12.000	17.000	4.0998e-02
12.000	17.250	4.2517e-02
12.000	17.500	5.0356e-02
12.000	17.750	6.2629e-02
12.000	18.000	7.5708e-02
12.000	18.250	8.7580e-02
12.000	18.500	9.7686e-02
12.000	18.750	1.0581e-01
12.000	19.000	1.1177e-01
12.000	19.250	1.1550e-01
12.000	19.500	1.1696e-01
12.000	19.750	1.1624e-01
12.000	20.000	1.1402e-01
12.000	20.250	1.1016e-01
12.000	20.500	1.0405e-01
12.000	20.750	6.9830e-02
12.000	21.000	3.6552e-02
12.000	21.250	2.0478e-02
12.000	21.500	1.2506e-02
12.000	21.750	7.5709e-03
12.000	22.000	4.5337e-03
12.000	22.250	2.8830e-03
12.000	22.500	1.9952e-03
12.000	22.750	1.5323e-03
12.000	23.000	1.3041e-03
12.000	23.250	1.1759e-03
12.000	23.500	1.1035e-03
12.000	23.750	1.0728e-03
12.000	24.000	1.0571e-03
12.250	17.000	4.8265e-02
12.250	17.250	4.7738e-02
12.250	17.500	5.3712e-02
12.250	17.750	6.4735e-02
12.250	18.000	7.7942e-02
12.250	18.250	9.0917e-02
12.250	18.500	1.0233e-01
12.250	18.750	1.1180e-01
12.250	19.000	1.1851e-01
12.250	19.250	1.2272e-01
12.250	19.500	1.2467e-01
12.250	19.750	1.2473e-01
12.250	20.000	1.2261e-01
12.250	20.250	1.1951e-01
12.250	20.500	1.1516e-01
12.250	20.750	1.0853e-01
12.250	21.000	6.8995e-02
12.250	21.250	3.6324e-02
12.250	21.500	2.0640e-02
12.250	21.750	1.2775e-02
12.250	22.000	7.4538e-03
12.250	22.250	4.4866e-03
12.250	22.500	2.8687e-03
12.250	22.750	1.9895e-03
12.250	23.000	1.5322e-03
12.250	23.250	1.3040e-03
12.250	23.500	1.1757e-03
12.250	23.750	1.1032e-03
12.250	24.000	1.0728e-03
12.500	17.000	5.7725e-02
12.500	17.250	5.4172e-02
12.500	17.500	5.7679e-02
12.500	17.750	6.6775e-02
12.500	18.000	7.9552e-02
12.500	18.250	9.3128e-02
12.500	18.500	1.0590e-01
12.500	18.750	1.1661e-01
12.500	19.000	1.2428e-01
12.500	19.250	1.2902e-01
12.500	19.500	1.3108e-01
12.500	19.750	1.3147e-01
12.500	20.000	1.3008e-01
12.500	20.250	1.2711e-01
12.500	20.500	1.2354e-01
12.500	20.750	1.1870e-01
12.500	21.000	1.1089e-01
12.500	21.250	6.7535e-02
12.500	21.500	3.6369e-02
12.500	21.750	2.0855e-02
12.500	22.000	1.2788e-02
12.500	22.250	7.3496e-03
12.500	22.500	4.4166e-03
12.500	22.750	2.8318e-03
12.500	23.000	1.9807e-03
12.500	23.250	1.5314e-03
12.500	23.500	1.3035e-03
12.500	23.750	1.1754e-03
12.500	24.000	1.1030e-03
12.750	17.000	6.0974e-02
12.750	17.250	6.1086e-02
12.750	17.500	6.2381e-02
12.750	17.750	6.9877e-02
12.750	18.000	8.1445e-02
12.750	18.250	9.4896e-02
12.750	18.500	1.0819e-01
12.750	18.750	1.2002e-01
12.750	19.000	1.2896e-01
12.750	19.250	1.3439e-01
12.750	19.500	1.3667e-01
12.750	19.750	1.3700e-01
12.750	20.000	1.3595e-01
12.750	20.250	1.3362e-01
12.750	20.500	1.3029e-01
12.750	20.750	1.2626e-01
12.750	21.000	1.2169e-01
12.750	21.250	1.1315e-01
12.750	21.500	6.6486e-02
12.750	21.750	3.6134e-02
12.750	22.000	2.1079e-02
12.750	22.250	1.2507e-02
12.750	22.500	7.2062e-03
12.750	22.750	4.3298e-03
12.750	23.000	2.7961e-03
12.750	23.250	1.9689e-03
12.750	23.500	1.5292e-03
12.750	23.750	1.3022e-03
12.750	24.000	1.1747e-03
13.000	17.000	5.4999e-02
13.000	17.250	6.3501e-02
13.000	17.500	6.8412e-02
13.000	17.750	7.4681e-02
13.000	18.000	8.4384e-02
13.000	18.250	9.6875e-02
13.000	18.500	1.1005e-01
13.000	18.750	1.2218e-01
13.000	19.000	1.3184e-01
13.000	19.250	1.3833e-01
13.000	19.500	1.4096e-01
13.000	19.750	1.4156e-01
13.000	20.000	1.4058e-01
13.000	20.250	1.3871e-01
13.000	20.500	1.3607e-01
13.000	20.750	1.3247e-01
13.000	21.000	1.2829e-01
13.000	21.250	1.2353e-01
13.000	21.500	1.1388e-01
13.000	21.750	6.4671e-02
13.000	22.000	3.5643e-02
13.000	22.250	2.1101e-02
13.000	22.500	1.2218e-02
13.000	22.750	7.0578e-03
13.000	23.000	4.2565e-03
13.000	23.250	2.7583e-03
13.000	23.500	1.9529e-03
13.000	23.750	1.5249e-03
13.000	24.000	1.2998e-03
13.250	17.000	5.4668e-02
13.250	17.250	6.3398e-02
13.250	17.500	7.6776e-02
13.250	17.750	8.2197e-02
13.250	18.000	8.9249e-02
13.250	18.250	1.0001e-01
13.250	18.500	1.1234e-01
13.250	18.750	1.2412e-01
13.250	19.000	1.3395e-01
13.250	19.250	1.4071e-01
13.250	19.500	1.4410e-01
13.250	19.750	1.4548e-01
13.250	20.000	1.4470e-01
13.250	20.250	1.4285e-01
13.250	20.500	1.4059e-01
13.250	20.750	1.3755e-01
13.250	21.000	1.3412e-01
13.250	21.250	1.2968e-01
13.250	21.500	1.2389e-01
13.250	21.750	1.0861e-01
13.250	22.000	6.1916e-02
13.250	22.250	3.4947e-02
13.250	22.500	2.0648e-02
13.250	22.750	1.1879e-02
13.250	23.000	6.8830e-03
13.250	23.250	4.2035e-03
13.250	23.500	2.7298e-03
13.250	23.750	1.9334e-03
13.250	24.000	1.5174e-03
13.500	17.000	5.3996e-02
13.500	17.250	6.3090e-02
13.500	17.500	7.7623e-02
13.500	17.750	8.8454e-02
13.500	18.000	9.6194e-02
13.500	18.250	1.0496e-01
13.500	18.500	1.1568e-01
13.500	18.750	1.2656e-01
13.500	19.000	1.3614e-01
13.500	19.250	1.4310e-01
13.500	19.500	1.4714e-01
13.500	19.750	1.4856e-01
13.500	20.000	1.4833e-01
13.500	20.250	1.4712e-01
13.500	20.500	1.4466e-01
13.500	20.750	1.4152e-01
13.500	21.000	1.3750e-01
13.500	21.250	1.3387e-01
13.500	21.500	1.2855e-01
13.500	21.750	1.2080e-01
13.500	22.000	1.0116e-01
13.500	22.250	5.8414e-02
13.500	22.500	3.3354e-02
13.500	22.750	1.9773e-02
13.500	23.000	1.1479e-02
13.500	23.250	6.6666e-03
13.500	23.500	4.0800e-03
13.500	23.750	2.6653e-03
13.500	24.000	1.9094e-03
13.750	17.000	5.3697e-02
13.750	17.250	6.2227e-02
13.750	17.500	7.8022e-02
13.750	17.750	9.1792e-02
13.750	18.000	1.0518e-01
13.750	18.250	1.1177e-01
13.750	18.500	1.2043e-01
13.750	18.750	1.3001e-01
13.750	19.000	1.3903e-01
13.750	19.250	1.4614e-01
13.750	19.500	1.5066e-01
13.750	19.750	1.5256e-01
13.750	20.000	1.5253e-01
13.750	20.250	1.5143e-01
13.750	20.500	1.4937e-01
13.750	20.750	1.4626e-01
13.750	21.000	1.4221e-01
13.750	21.250	1.3724e-01
13.750	21.500	1.3273e-01
13.750	21.750	1.2669e-01
13.750	22.000	1.1665e-01
13.750	22.250	9.2528e-02
13.750	22.500	5.3764e-02
13.750	22.750	3.1452e-02
13.750	23.000	1.8819e-02
13.750	23.250	1.1003e-02
13.750	23.500	6.4415e-03
13.750	23.750	3.9632e-03
13.750	24.000	2.6017e-03
14.000	17.000	5.3102e-02
14.000	17.250	6.1660e-02
14.000	17.500	7.7035e-02
14.000	17.750	9.3653e-02
14.000	18.000	1.1102e-01
14.000	18.250	1.2182e-01
14.000	18.500	1.2776e-01
14.000	18.750	1.3508e-01
14.000	19.000	1.4291e-01
14.000	19.250	1.4978e-01
14.000	19.500	1.5474e-01
14.000	19.750	1.5744e-01
14.000	20.000	1.5780e-01
14.000	20.250	1.5661e-01
14.000	20.500	1.5471e-01
14.000	20.750	1.5183e-01
14.000	21.000	1.4782e-01
14.000	21.250	1.4313e-01
14.000	21.500	1.3814e-01
14.000	21.750	1.3250e-01
14.000	22.000	1.2520e-01
14.000	22.250	1.1239e-01
14.000	22.500	8.2875e-02
14.000	22.750	4.8909e-02
14.000	23.000	2.9252e-02
14.000	23.250	1.7842e-02
14.000	23.500	1.0428e-02
14.000	23.750	6.1705e-03
14.000	24.000	3.8155e-03
