InwT 3704.34A  relative to Inci 1215.00A scaled to 1215A.
Hden   Phi(H)  Eq_Width (A)
 7.000	17.000	1.2937e-02
 7.000	17.250	9.6830e-03
 7.000	17.500	7.8244e-03
 7.000	17.750	6.8109e-03
 7.000	18.000	6.2913e-03
 7.000	18.250	6.0031e-03
 7.000	18.500	5.8400e-03
 7.000	18.750	5.7677e-03
 7.000	19.000	5.7306e-03
 7.000	19.250	5.7101e-03
 7.000	19.500	5.7019e-03
 7.000	19.750	5.6985e-03
 7.000	20.000	5.6971e-03
 7.000	20.250	5.6965e-03
 7.000	20.500	5.6961e-03
 7.000	20.750	5.6960e-03
 7.000	21.000	5.6959e-03
 7.000	21.250	5.6958e-03
 7.000	21.500	5.6959e-03
 7.000	21.750	5.6958e-03
 7.000	22.000	5.6958e-03
 7.000	22.250	5.6958e-03
 7.000	22.500	5.6958e-03
 7.000	22.750	5.6960e-03
 7.000	23.000	5.6960e-03
 7.000	23.250	5.6958e-03
 7.000	23.500	5.6958e-03
 7.000	23.750	5.6958e-03
 7.000	24.000	5.6957e-03
 7.250	17.000	1.8442e-02
 7.250	17.250	1.2930e-02
 7.250	17.500	9.6782e-03
 7.250	17.750	7.8211e-03
 7.250	18.000	6.8095e-03
 7.250	18.250	6.2907e-03
 7.250	18.500	6.0029e-03
 7.250	18.750	5.8399e-03
 7.250	19.000	5.7677e-03
 7.250	19.250	5.7305e-03
 7.250	19.500	5.7101e-03
 7.250	19.750	5.7019e-03
 7.250	20.000	5.6985e-03
 7.250	20.250	5.6971e-03
 7.250	20.500	5.6965e-03
 7.250	20.750	5.6961e-03
 7.250	21.000	5.6960e-03
 7.250	21.250	5.6959e-03
 7.250	21.500	5.6958e-03
 7.250	21.750	5.6970e-03
 7.250	22.000	5.6958e-03
 7.250	22.250	5.6958e-03
 7.250	22.500	5.6958e-03
 7.250	22.750	5.6963e-03
 7.250	23.000	5.6963e-03
 7.250	23.250	5.6958e-03
 7.250	23.500	5.6958e-03
 7.250	23.750	5.6957e-03
 7.250	24.000	5.6958e-03
 7.500	17.000	2.3745e-02
 7.500	17.250	1.8441e-02
 7.500	17.500	1.2925e-02
 7.500	17.750	9.6748e-03
 7.500	18.000	7.8182e-03
 7.500	18.250	6.8083e-03
 7.500	18.500	6.2902e-03
 7.500	18.750	6.0027e-03
 7.500	19.000	5.8398e-03
 7.500	19.250	5.7677e-03
 7.500	19.500	5.7305e-03
 7.500	19.750	5.7101e-03
 7.500	20.000	5.7019e-03
 7.500	20.250	5.6985e-03
 7.500	20.500	5.6971e-03
 7.500	20.750	5.6965e-03
 7.500	21.000	5.6961e-03
 7.500	21.250	5.6960e-03
 7.500	21.500	5.6959e-03
 7.500	21.750	5.6958e-03
 7.500	22.000	5.6958e-03
 7.500	22.250	5.6958e-03
 7.500	22.500	5.6958e-03
 7.500	22.750	5.6958e-03
 7.500	23.000	5.6960e-03
 7.500	23.250	5.6963e-03
 7.500	23.500	5.6957e-03
 7.500	23.750	5.6965e-03
 7.500	24.000	5.6957e-03
 7.750	17.000	3.1226e-02
 7.750	17.250	2.3749e-02
 7.750	17.500	1.8441e-02
 7.750	17.750	1.2923e-02
 7.750	18.000	9.6724e-03
 7.750	18.250	7.8155e-03
 7.750	18.500	6.8071e-03
 7.750	18.750	6.2898e-03
 7.750	19.000	6.0026e-03
 7.750	19.250	5.8398e-03
 7.750	19.500	5.7677e-03
 7.750	19.750	5.7305e-03
 7.750	20.000	5.7101e-03
 7.750	20.250	5.7019e-03
 7.750	20.500	5.6985e-03
 7.750	20.750	5.6971e-03
 7.750	21.000	5.6965e-03
 7.750	21.250	5.6961e-03
 7.750	21.500	5.6959e-03
 7.750	21.750	5.6958e-03
 7.750	22.000	5.6958e-03
 7.750	22.250	5.6958e-03
 7.750	22.500	5.6958e-03
 7.750	22.750	5.6959e-03
 7.750	23.000	5.6960e-03
 7.750	23.250	5.6958e-03
 7.750	23.500	5.6963e-03
 7.750	23.750	5.6963e-03
 7.750	24.000	5.6957e-03
 8.000	17.000	2.9997e-02
 8.000	17.250	3.0890e-02
 8.000	17.500	2.3700e-02
 8.000	17.750	1.8431e-02
 8.000	18.000	1.2921e-02
 8.000	18.250	9.6706e-03
 8.000	18.500	7.8127e-03
 8.000	18.750	6.8058e-03
 8.000	19.000	6.2894e-03
 8.000	19.250	6.0025e-03
 8.000	19.500	5.8398e-03
 8.000	19.750	5.7677e-03
 8.000	20.000	5.7305e-03
 8.000	20.250	5.7101e-03
 8.000	20.500	5.7019e-03
 8.000	20.750	5.6985e-03
 8.000	21.000	5.6971e-03
 8.000	21.250	5.6965e-03
 8.000	21.500	5.6960e-03
 8.000	21.750	5.6959e-03
 8.000	22.000	5.6958e-03
 8.000	22.250	5.6958e-03
 8.000	22.500	5.6957e-03
 8.000	22.750	5.6959e-03
 8.000	23.000	5.6957e-03
 8.000	23.250	5.6961e-03
 8.000	23.500	5.6957e-03
 8.000	23.750	5.6957e-03
 8.000	24.000	5.6957e-03
 8.250	17.000	2.9050e-02
 8.250	17.250	3.0062e-02
 8.250	17.500	3.0908e-02
 8.250	17.750	2.3705e-02
 8.250	18.000	1.8433e-02
 8.250	18.250	1.2920e-02
 8.250	18.500	9.6692e-03
 8.250	18.750	7.8098e-03
 8.250	19.000	6.8044e-03
 8.250	19.250	6.2889e-03
 8.250	19.500	6.0024e-03
 8.250	19.750	5.8398e-03
 8.250	20.000	5.7677e-03
 8.250	20.250	5.7305e-03
 8.250	20.500	5.7101e-03
 8.250	20.750	5.7019e-03
 8.250	21.000	5.6985e-03
 8.250	21.250	5.6971e-03
 8.250	21.500	5.6965e-03
 8.250	21.750	5.6960e-03
 8.250	22.000	5.6959e-03
 8.250	22.250	5.6958e-03
 8.250	22.500	5.6958e-03
 8.250	22.750	5.6959e-03
 8.250	23.000	5.6957e-03
 8.250	23.250	5.6972e-03
 8.250	23.500	5.6957e-03
 8.250	23.750	5.6957e-03
 8.250	24.000	5.6961e-03
 8.500	17.000	2.8214e-02
 8.500	17.250	2.9170e-02
 8.500	17.500	3.0144e-02
 8.500	17.750	3.0941e-02
 8.500	18.000	2.3713e-02
 8.500	18.250	1.8434e-02
 8.500	18.500	1.2920e-02
 8.500	18.750	9.6679e-03
 8.500	19.000	7.8067e-03
 8.500	19.250	6.8028e-03
 8.500	19.500	6.2884e-03
 8.500	19.750	6.0023e-03
 8.500	20.000	5.8398e-03
 8.500	20.250	5.7677e-03
 8.500	20.500	5.7305e-03
 8.500	20.750	5.7101e-03
 8.500	21.000	5.7019e-03
 8.500	21.250	5.6985e-03
 8.500	21.500	5.6971e-03
 8.500	21.750	5.6965e-03
 8.500	22.000	5.6960e-03
 8.500	22.250	5.6959e-03
 8.500	22.500	5.6958e-03
 8.500	22.750	5.6958e-03
 8.500	23.000	5.6957e-03
 8.500	23.250	5.6959e-03
 8.500	23.500	5.6957e-03
 8.500	23.750	5.6957e-03
 8.500	24.000	5.6957e-03
 8.750	17.000	2.7440e-02
 8.750	17.250	2.8413e-02
 8.750	17.500	2.9375e-02
 8.750	17.750	3.0241e-02
 8.750	18.000	3.1020e-02
 8.750	18.250	2.3720e-02
 8.750	18.500	1.8434e-02
 8.750	18.750	1.2920e-02
 8.750	19.000	9.6668e-03
 8.750	19.250	7.8033e-03
 8.750	19.500	6.8012e-03
 8.750	19.750	6.2879e-03
 8.750	20.000	6.0021e-03
 8.750	20.250	5.8397e-03
 8.750	20.500	5.7677e-03
 8.750	20.750	5.7305e-03
 8.750	21.000	5.7101e-03
 8.750	21.250	5.7019e-03
 8.750	21.500	5.6985e-03
 8.750	21.750	5.6971e-03
 8.750	22.000	5.6965e-03
 8.750	22.250	5.6960e-03
 8.750	22.500	5.6959e-03
 8.750	22.750	5.6958e-03
 8.750	23.000	5.6963e-03
 8.750	23.250	5.6957e-03
 8.750	23.500	5.6959e-03
 8.750	23.750	5.6957e-03
 8.750	24.000	5.6957e-03
 9.000	17.000	2.6618e-02
 9.000	17.250	2.7729e-02
 9.000	17.500	2.8774e-02
 9.000	17.750	2.9792e-02
 9.000	18.000	3.0638e-02
 9.000	18.250	3.1307e-02
 9.000	18.500	2.3723e-02
 9.000	18.750	1.8432e-02
 9.000	19.000	1.2920e-02
 9.000	19.250	9.6659e-03
 9.000	19.500	7.7999e-03
 9.000	19.750	6.7994e-03
 9.000	20.000	6.2874e-03
 9.000	20.250	6.0021e-03
 9.000	20.500	5.8397e-03
 9.000	20.750	5.7677e-03
 9.000	21.000	5.7305e-03
 9.000	21.250	5.7101e-03
 9.000	21.500	5.7019e-03
 9.000	21.750	5.6985e-03
 9.000	22.000	5.6970e-03
 9.000	22.250	5.6964e-03
 9.000	22.500	5.6960e-03
 9.000	22.750	5.6959e-03
 9.000	23.000	5.6958e-03
 9.000	23.250	5.6958e-03
 9.000	23.500	5.6957e-03
 9.000	23.750	5.6957e-03
 9.000	24.000	5.6958e-03
 9.250	17.000	2.5663e-02
 9.250	17.250	2.7011e-02
 9.250	17.500	2.8306e-02
 9.250	17.750	2.9577e-02
 9.250	18.000	3.0708e-02
 9.250	18.250	3.1636e-02
 9.250	18.500	3.2012e-02
 9.250	18.750	2.3718e-02
 9.250	19.000	1.8428e-02
 9.250	19.250	1.2920e-02
 9.250	19.500	9.6657e-03
 9.250	19.750	7.7969e-03
 9.250	20.000	6.7978e-03
 9.250	20.250	6.2870e-03
 9.250	20.500	6.0019e-03
 9.250	20.750	5.8396e-03
 9.250	21.000	5.7677e-03
 9.250	21.250	5.7305e-03
 9.250	21.500	5.7098e-03
 9.250	21.750	5.7015e-03
 9.250	22.000	5.6980e-03
 9.250	22.250	5.6967e-03
 9.250	22.500	5.6961e-03
 9.250	22.750	5.6958e-03
 9.250	23.000	5.6957e-03
 9.250	23.250	5.6957e-03
 9.250	23.500	5.6956e-03
 9.250	23.750	5.6956e-03
 9.250	24.000	5.6956e-03
 9.500	17.000	2.4565e-02
 9.500	17.250	2.6201e-02
 9.500	17.500	2.7868e-02
 9.500	17.750	2.9590e-02
 9.500	18.000	3.1220e-02
 9.500	18.250	3.2792e-02
 9.500	18.500	3.4043e-02
 9.500	18.750	3.3141e-02
 9.500	19.000	2.3703e-02
 9.500	19.250	1.8418e-02
 9.500	19.500	1.2920e-02
 9.500	19.750	9.6660e-03
 9.500	20.000	7.7945e-03
 9.500	20.250	6.7964e-03
 9.500	20.500	6.2866e-03
 9.500	20.750	6.0016e-03
 9.500	21.000	5.8393e-03
 9.500	21.250	5.7673e-03
 9.500	21.500	5.7301e-03
 9.500	21.750	5.7095e-03
 9.500	22.000	5.7013e-03
 9.500	22.250	5.6979e-03
 9.500	22.500	5.6965e-03
 9.500	22.750	5.6959e-03
 9.500	23.000	5.6956e-03
 9.500	23.250	5.6953e-03
 9.500	23.500	5.6953e-03
 9.500	23.750	5.6952e-03
 9.500	24.000	5.6952e-03
 9.750	17.000	2.3206e-02
 9.750	17.250	2.5193e-02
 9.750	17.500	2.7324e-02
 9.750	17.750	2.9701e-02
 9.750	18.000	3.2271e-02
 9.750	18.250	3.4710e-02
 9.750	18.500	3.6887e-02
 9.750	18.750	3.8508e-02
 9.750	19.000	3.3043e-02
 9.750	19.250	2.3674e-02
 9.750	19.500	1.8400e-02
 9.750	19.750	1.2921e-02
 9.750	20.000	9.6669e-03
 9.750	20.250	7.7932e-03
 9.750	20.500	6.7953e-03
 9.750	20.750	6.2863e-03
 9.750	21.000	6.0016e-03
 9.750	21.250	5.8393e-03
 9.750	21.500	5.7673e-03
 9.750	21.750	5.7302e-03
 9.750	22.000	5.7095e-03
 9.750	22.250	5.7013e-03
 9.750	22.500	5.6979e-03
 9.750	22.750	5.6965e-03
 9.750	23.000	5.6959e-03
 9.750	23.250	5.6955e-03
 9.750	23.500	5.6953e-03
 9.750	23.750	5.6952e-03
 9.750	24.000	5.6952e-03
10.000	17.000	2.1556e-02
10.000	17.250	2.3961e-02
10.000	17.500	2.6659e-02
10.000	17.750	2.9853e-02
10.000	18.000	3.3606e-02
10.000	18.250	3.7237e-02
10.000	18.500	4.0243e-02
10.000	18.750	4.2475e-02
10.000	19.000	4.2746e-02
10.000	19.250	3.2850e-02
10.000	19.500	2.3622e-02
10.000	19.750	1.8369e-02
10.000	20.000	1.2920e-02
10.000	20.250	9.6683e-03
10.000	20.500	7.7924e-03
10.000	20.750	6.7945e-03
10.000	21.000	6.2863e-03
10.000	21.250	6.0016e-03
10.000	21.500	5.8393e-03
10.000	21.750	5.7673e-03
10.000	22.000	5.7302e-03
10.000	22.250	5.7096e-03
10.000	22.500	5.7013e-03
10.000	22.750	5.6979e-03
10.000	23.000	5.6965e-03
10.000	23.250	5.6959e-03
10.000	23.500	5.6956e-03
10.000	23.750	5.6954e-03
10.000	24.000	5.6953e-03
10.250	17.000	2.0137e-02
10.250	17.250	2.2537e-02
10.250	17.500	2.5920e-02
10.250	17.750	3.0105e-02
10.250	18.000	3.5030e-02
10.250	18.250	3.9782e-02
10.250	18.500	4.3718e-02
10.250	18.750	4.6771e-02
10.250	19.000	4.9019e-02
10.250	19.250	4.7785e-02
10.250	19.500	3.2691e-02
10.250	19.750	2.3535e-02
10.250	20.000	1.8326e-02
10.250	20.250	1.2920e-02
10.250	20.500	9.6698e-03
10.250	20.750	7.7925e-03
10.250	21.000	6.7941e-03
10.250	21.250	6.2863e-03
10.250	21.500	6.0016e-03
10.250	21.750	5.8393e-03
10.250	22.000	5.7673e-03
10.250	22.250	5.7303e-03
10.250	22.500	5.7097e-03
10.250	22.750	5.7013e-03
10.250	23.000	5.6979e-03
10.250	23.250	5.6965e-03
10.250	23.500	5.6959e-03
10.250	23.750	5.6956e-03
10.250	24.000	5.6954e-03
10.500	17.000	1.9119e-02
10.500	17.250	2.1465e-02
10.500	17.500	2.5193e-02
10.500	17.750	3.0502e-02
10.500	18.000	3.6440e-02
10.500	18.250	4.2090e-02
10.500	18.500	4.6766e-02
10.500	18.750	5.0537e-02
10.500	19.000	5.3271e-02
10.500	19.250	5.5331e-02
10.500	19.500	4.8487e-02
10.500	19.750	3.2693e-02
10.500	20.000	2.3511e-02
10.500	20.250	1.8273e-02
10.500	20.500	1.2919e-02
10.500	20.750	9.6710e-03
10.500	21.000	7.7934e-03
10.500	21.250	6.7941e-03
10.500	21.500	6.2866e-03
10.500	21.750	6.0017e-03
10.500	22.000	5.8393e-03
10.500	22.250	5.7674e-03
10.500	22.500	5.7303e-03
10.500	22.750	5.7098e-03
10.500	23.000	5.7014e-03
10.500	23.250	5.6979e-03
10.500	23.500	5.6965e-03
10.500	23.750	5.6959e-03
10.500	24.000	5.6956e-03
10.750	17.000	1.8608e-02
10.750	17.250	2.0873e-02
10.750	17.500	2.4999e-02
10.750	17.750	3.0984e-02
10.750	18.000	3.7667e-02
10.750	18.250	4.3843e-02
10.750	18.500	4.9104e-02
10.750	18.750	5.3411e-02
10.750	19.000	5.6667e-02
10.750	19.250	5.9021e-02
10.750	19.500	6.0420e-02
10.750	19.750	4.8333e-02
10.750	20.000	3.2794e-02
10.750	20.250	2.3575e-02
10.750	20.500	1.8239e-02
10.750	20.750	1.2916e-02
10.750	21.000	9.6713e-03
10.750	21.250	7.7949e-03
10.750	21.500	6.7944e-03
10.750	21.750	6.2869e-03
10.750	22.000	6.0018e-03
10.750	22.250	5.8394e-03
10.750	22.500	5.7676e-03
10.750	22.750	5.7303e-03
10.750	23.000	5.7098e-03
10.750	23.250	5.7015e-03
10.750	23.500	5.6980e-03
10.750	23.750	5.6965e-03
10.750	24.000	5.6959e-03
11.000	17.000	1.8540e-02
11.000	17.250	2.0789e-02
11.000	17.500	2.5186e-02
11.000	17.750	3.1521e-02
11.000	18.000	3.8384e-02
11.000	18.250	4.4788e-02
11.000	18.500	5.0449e-02
11.000	18.750	5.5231e-02
11.000	19.000	5.9045e-02
11.000	19.250	6.1905e-02
11.000	19.500	6.3891e-02
11.000	19.750	6.4781e-02
11.000	20.000	4.8551e-02
11.000	20.250	3.3339e-02
11.000	20.500	2.3718e-02
11.000	20.750	1.8241e-02
11.000	21.000	1.2912e-02
11.000	21.250	9.6695e-03
11.000	21.500	7.7968e-03
11.000	21.750	6.7951e-03
11.000	22.000	6.2875e-03
11.000	22.250	6.0019e-03
11.000	22.500	5.8393e-03
11.000	22.750	5.7677e-03
11.000	23.000	5.7305e-03
11.000	23.250	5.7098e-03
11.000	23.500	5.7015e-03
11.000	23.750	5.6981e-03
11.000	24.000	5.6965e-03
11.250	17.000	1.8819e-02
11.250	17.250	2.1076e-02
11.250	17.500	2.5606e-02
11.250	17.750	3.1908e-02
11.250	18.000	3.8643e-02
11.250	18.250	4.5004e-02
11.250	18.500	5.0878e-02
11.250	18.750	5.6143e-02
11.250	19.000	6.0342e-02
11.250	19.250	6.3661e-02
11.250	19.500	6.5976e-02
11.250	19.750	6.7491e-02
11.250	20.000	6.6322e-02
11.250	20.250	4.8652e-02
11.250	20.500	3.3457e-02
11.250	20.750	2.3973e-02
11.250	21.000	1.8333e-02
11.250	21.250	1.2904e-02
11.250	21.500	9.6641e-03
11.250	21.750	7.7987e-03
11.250	22.000	6.7963e-03
11.250	22.250	6.2881e-03
11.250	22.500	6.0021e-03
11.250	22.750	5.8393e-03
11.250	23.000	5.7677e-03
11.250	23.250	5.7305e-03
11.250	23.500	5.7098e-03
11.250	23.750	5.7016e-03
11.250	24.000	5.6982e-03
11.500	17.000	1.9409e-02
11.500	17.250	2.1637e-02
11.500	17.500	2.6136e-02
11.500	17.750	3.2209e-02
11.500	18.000	3.8610e-02
11.500	18.250	4.4797e-02
11.500	18.500	5.0713e-02
11.500	18.750	5.6212e-02
11.500	19.000	6.0893e-02
11.500	19.250	6.4533e-02
11.500	19.500	6.7141e-02
11.500	19.750	6.9097e-02
11.500	20.000	7.0394e-02
11.500	20.250	6.5920e-02
11.500	20.500	4.9173e-02
11.500	20.750	3.4014e-02
11.500	21.000	2.4407e-02
11.500	21.250	1.8459e-02
11.500	21.500	1.2891e-02
11.500	21.750	9.6535e-03
11.500	22.000	7.7999e-03
11.500	22.250	6.7976e-03
11.500	22.500	6.2889e-03
11.500	22.750	6.0022e-03
11.500	23.000	5.8393e-03
11.500	23.250	5.7677e-03
11.500	23.500	5.7306e-03
11.500	23.750	5.7099e-03
11.500	24.000	5.7016e-03
11.750	17.000	2.0265e-02
11.750	17.250	2.2387e-02
11.750	17.500	2.6692e-02
11.750	17.750	3.2459e-02
11.750	18.000	3.8509e-02
11.750	18.250	4.4479e-02
11.750	18.500	5.0360e-02
11.750	18.750	5.5992e-02
11.750	19.000	6.1082e-02
11.750	19.250	6.5131e-02
11.750	19.500	6.8089e-02
11.750	19.750	7.0193e-02
11.750	20.000	7.1980e-02
11.750	20.250	7.3330e-02
11.750	20.500	6.6810e-02
11.750	20.750	4.9715e-02
11.750	21.000	3.4684e-02
11.750	21.250	2.5175e-02
11.750	21.500	1.8494e-02
11.750	21.750	1.2868e-02
11.750	22.000	9.6361e-03
11.750	22.250	7.7993e-03
11.750	22.500	6.7990e-03
11.750	22.750	6.2896e-03
11.750	23.000	6.0025e-03
11.750	23.250	5.8391e-03
11.750	23.500	5.7676e-03
11.750	23.750	5.7306e-03
11.750	24.000	5.7100e-03
12.000	17.000	2.1344e-02
12.000	17.250	2.3246e-02
12.000	17.500	2.7140e-02
12.000	17.750	3.2512e-02
12.000	18.000	3.8415e-02
12.000	18.250	4.4369e-02
12.000	18.500	5.0269e-02
12.000	18.750	5.6018e-02
12.000	19.000	6.1276e-02
12.000	19.250	6.5808e-02
12.000	19.500	6.9173e-02
12.000	19.750	7.1481e-02
12.000	20.000	7.3425e-02
12.000	20.250	7.5137e-02
12.000	20.500	7.6519e-02
12.000	20.750	6.6903e-02
12.000	21.000	5.0347e-02
12.000	21.250	3.6034e-02
12.000	21.500	2.6395e-02
12.000	21.750	1.8488e-02
12.000	22.000	1.2834e-02
12.000	22.250	9.6128e-03
12.000	22.500	7.7960e-03
12.000	22.750	6.8003e-03
12.000	23.000	6.2904e-03
12.000	23.250	6.0027e-03
12.000	23.500	5.8389e-03
12.000	23.750	5.7676e-03
12.000	24.000	5.7306e-03
12.250	17.000	2.2430e-02
12.250	17.250	2.4015e-02
12.250	17.500	2.7280e-02
12.250	17.750	3.2188e-02
12.250	18.000	3.8178e-02
12.250	18.250	4.4557e-02
12.250	18.500	5.0822e-02
12.250	18.750	5.6698e-02
12.250	19.000	6.1986e-02
12.250	19.250	6.6708e-02
12.250	19.500	7.0529e-02
12.250	19.750	7.3380e-02
12.250	20.000	7.5246e-02
12.250	20.250	7.7135e-02
12.250	20.500	7.9105e-02
12.250	20.750	8.0832e-02
12.250	21.000	6.8072e-02
12.250	21.250	5.1921e-02
12.250	21.500	3.7851e-02
12.250	21.750	2.7755e-02
12.250	22.000	1.8462e-02
12.250	22.250	1.2800e-02
12.250	22.500	9.5979e-03
12.250	22.750	7.7890e-03
12.250	23.000	6.8014e-03
12.250	23.250	6.2909e-03
12.250	23.500	6.0029e-03
12.250	23.750	5.8388e-03
12.250	24.000	5.7675e-03
12.500	17.000	2.2856e-02
12.500	17.250	2.4045e-02
12.500	17.500	2.6836e-02
12.500	17.750	3.1504e-02
12.500	18.000	3.7794e-02
12.500	18.250	4.4786e-02
12.500	18.500	5.1785e-02
12.500	18.750	5.8152e-02
12.500	19.000	6.3585e-02
12.500	19.250	6.8256e-02
12.500	19.500	7.2200e-02
12.500	19.750	7.5458e-02
12.500	20.000	7.7837e-02
12.500	20.250	7.9659e-02
12.500	20.500	8.1871e-02
12.500	20.750	8.4433e-02
12.500	21.000	8.7129e-02
12.500	21.250	7.1227e-02
12.500	21.500	5.4175e-02
12.500	21.750	3.9918e-02
12.500	22.000	2.8356e-02
12.500	22.250	1.8419e-02
12.500	22.500	1.2752e-02
12.500	22.750	9.5629e-03
12.500	23.000	7.7782e-03
12.500	23.250	6.8017e-03
12.500	23.500	6.2913e-03
12.500	23.750	6.0030e-03
12.500	24.000	5.8384e-03
12.750	17.000	1.9821e-02
12.750	17.250	2.2321e-02
12.750	17.500	2.5787e-02
12.750	17.750	3.0949e-02
12.750	18.000	3.7526e-02
12.750	18.250	4.5027e-02
12.750	18.500	5.2690e-02
12.750	18.750	5.9848e-02
12.750	19.000	6.5868e-02
12.750	19.250	7.0709e-02
12.750	19.500	7.4657e-02
12.750	19.750	7.8028e-02
12.750	20.000	8.0825e-02
12.750	20.250	8.3081e-02
12.750	20.500	8.5292e-02
12.750	20.750	8.8147e-02
12.750	21.000	9.2504e-02
12.750	21.250	9.6279e-02
12.750	21.500	7.5246e-02
12.750	21.750	5.7551e-02
12.750	22.000	4.2018e-02
12.750	22.250	2.8339e-02
12.750	22.500	1.8354e-02
12.750	22.750	1.2689e-02
12.750	23.000	9.5267e-03
12.750	23.250	7.7640e-03
12.750	23.500	6.8009e-03
12.750	23.750	6.2911e-03
12.750	24.000	6.0027e-03
13.000	17.000	1.7663e-02
13.000	17.250	2.1227e-02
13.000	17.500	2.5463e-02
13.000	17.750	3.0912e-02
13.000	18.000	3.7600e-02
13.000	18.250	4.5419e-02
13.000	18.500	5.3584e-02
13.000	18.750	6.1337e-02
13.000	19.000	6.8002e-02
13.000	19.250	7.3453e-02
13.000	19.500	7.7419e-02
13.000	19.750	8.0997e-02
13.000	20.000	8.4030e-02
13.000	20.250	8.6820e-02
13.000	20.500	8.9723e-02
13.000	20.750	9.2600e-02
13.000	21.000	9.6724e-02
13.000	21.250	1.0314e-01
13.000	21.500	1.0576e-01
13.000	21.750	8.0625e-02
13.000	22.000	6.0639e-02
13.000	22.250	4.3465e-02
13.000	22.500	2.8266e-02
13.000	22.750	1.8271e-02
13.000	23.000	1.2632e-02
13.000	23.250	9.4877e-03
13.000	23.500	7.7453e-03
13.000	23.750	6.7983e-03
13.000	24.000	6.2900e-03
13.250	17.000	1.7343e-02
13.250	17.250	2.0696e-02
13.250	17.500	2.5975e-02
13.250	17.750	3.1478e-02
13.250	18.000	3.8164e-02
13.250	18.250	4.6122e-02
13.250	18.500	5.4613e-02
13.250	18.750	6.2750e-02
13.250	19.000	6.9948e-02
13.250	19.250	7.5803e-02
13.250	19.500	8.0293e-02
13.250	19.750	8.4269e-02
13.250	20.000	8.7652e-02
13.250	20.250	9.0725e-02
13.250	20.500	9.4023e-02
13.250	20.750	9.7567e-02
13.250	21.000	1.0199e-01
13.250	21.250	1.0785e-01
13.250	21.500	1.1240e-01
13.250	21.750	1.1365e-01
13.250	22.000	8.4282e-02
13.250	22.250	6.2770e-02
13.250	22.500	4.3877e-02
13.250	22.750	2.8148e-02
13.250	23.000	1.8165e-02
13.250	23.250	1.2584e-02
13.250	23.500	9.4591e-03
13.250	23.750	7.7249e-03
13.250	24.000	6.7929e-03
13.500	17.000	1.7245e-02
13.500	17.250	2.0446e-02
13.500	17.500	2.5706e-02
13.500	17.750	3.2026e-02
13.500	18.000	3.9227e-02
13.500	18.250	4.7244e-02
13.500	18.500	5.5913e-02
13.500	18.750	6.4352e-02
13.500	19.000	7.1911e-02
13.500	19.250	7.8224e-02
13.500	19.500	8.3245e-02
13.500	19.750	8.7357e-02
13.500	20.000	9.1168e-02
13.500	20.250	9.5108e-02
13.500	20.500	9.8600e-02
13.500	20.750	1.0216e-01
13.500	21.000	1.0583e-01
13.500	21.250	1.1178e-01
13.500	21.500	1.1511e-01
13.500	21.750	1.2157e-01
13.500	22.000	1.1962e-01
13.500	22.250	8.6747e-02
13.500	22.500	6.2811e-02
13.500	22.750	4.3514e-02
13.500	23.000	2.7972e-02
13.500	23.250	1.8033e-02
13.500	23.500	1.2493e-02
13.500	23.750	9.3960e-03
13.500	24.000	7.7025e-03
13.750	17.000	1.7478e-02
13.750	17.250	2.0390e-02
13.750	17.500	2.5648e-02
13.750	17.750	3.2449e-02
13.750	18.000	4.0713e-02
13.750	18.250	4.8839e-02
13.750	18.500	5.7577e-02
13.750	18.750	6.6213e-02
13.750	19.000	7.4190e-02
13.750	19.250	8.1040e-02
13.750	19.500	8.6663e-02
13.750	19.750	9.1200e-02
13.750	20.000	9.5191e-02
13.750	20.250	9.9294e-02
13.750	20.500	1.0355e-01
13.750	20.750	1.0761e-01
13.750	21.000	1.1154e-01
13.750	21.250	1.1569e-01
13.750	21.500	1.1923e-01
13.750	21.750	1.2589e-01
13.750	22.000	1.3254e-01
13.750	22.250	1.2606e-01
13.750	22.500	8.7678e-02
13.750	22.750	6.2823e-02
13.750	23.000	4.3196e-02
13.750	23.250	2.7732e-02
13.750	23.500	1.7892e-02
13.750	23.750	1.2401e-02
13.750	24.000	9.3366e-03
14.000	17.000	1.7913e-02
14.000	17.250	2.0663e-02
14.000	17.500	2.5639e-02
14.000	17.750	3.2795e-02
14.000	18.000	4.1780e-02
14.000	18.250	5.1019e-02
14.000	18.500	5.9756e-02
14.000	18.750	6.8453e-02
14.000	19.000	7.6738e-02
14.000	19.250	8.4203e-02
14.000	19.500	9.0581e-02
14.000	19.750	9.5887e-02
14.000	20.000	1.0019e-01
14.000	20.250	1.0424e-01
14.000	20.500	1.0871e-01
14.000	20.750	1.1328e-01
14.000	21.000	1.1784e-01
14.000	21.250	1.2271e-01
14.000	21.500	1.2552e-01
14.000	21.750	1.3188e-01
14.000	22.000	1.4021e-01
14.000	22.250	1.4808e-01
14.000	22.500	1.3217e-01
14.000	22.750	8.9396e-02
14.000	23.000	6.2604e-02
14.000	23.250	4.3101e-02
14.000	23.500	2.7418e-02
14.000	23.750	1.7721e-02
14.000	24.000	1.2285e-02
