InwT 1900.00A  relative to Inci 1215.00A scaled to 1215A.
Hden   Phi(H)  Eq_Width (A)
 7.000	17.000	2.3930e-02
 7.000	17.250	1.5926e-02
 7.000	17.500	1.1730e-02
 7.000	17.750	9.6602e-03
 7.000	18.000	8.6820e-03
 7.000	18.250	8.1530e-03
 7.000	18.500	7.8656e-03
 7.000	18.750	7.7430e-03
 7.000	19.000	7.6803e-03
 7.000	19.250	7.6458e-03
 7.000	19.500	7.6315e-03
 7.000	19.750	7.6257e-03
 7.000	20.000	7.6231e-03
 7.000	20.250	7.6220e-03
 7.000	20.500	7.6213e-03
 7.000	20.750	7.6211e-03
 7.000	21.000	7.6209e-03
 7.000	21.250	7.6207e-03
 7.000	21.500	7.6209e-03
 7.000	21.750	7.6207e-03
 7.000	22.000	7.6207e-03
 7.000	22.250	7.6207e-03
 7.000	22.500	7.6207e-03
 7.000	22.750	7.6209e-03
 7.000	23.000	7.6209e-03
 7.000	23.250	7.6207e-03
 7.000	23.500	7.6207e-03
 7.000	23.750	7.6207e-03
 7.000	24.000	7.6207e-03
 7.250	17.000	3.8588e-02
 7.250	17.250	2.3876e-02
 7.250	17.500	1.5899e-02
 7.250	17.750	1.1715e-02
 7.250	18.000	9.6541e-03
 7.250	18.250	8.6794e-03
 7.250	18.500	8.1519e-03
 7.250	18.750	7.8652e-03
 7.250	19.000	7.7429e-03
 7.250	19.250	7.6803e-03
 7.250	19.500	7.6458e-03
 7.250	19.750	7.6315e-03
 7.250	20.000	7.6256e-03
 7.250	20.250	7.6230e-03
 7.250	20.500	7.6219e-03
 7.250	20.750	7.6213e-03
 7.250	21.000	7.6211e-03
 7.250	21.250	7.6209e-03
 7.250	21.500	7.6207e-03
 7.250	21.750	7.6222e-03
 7.250	22.000	7.6207e-03
 7.250	22.250	7.6207e-03
 7.250	22.500	7.6207e-03
 7.250	22.750	7.6214e-03
 7.250	23.000	7.6214e-03
 7.250	23.250	7.6207e-03
 7.250	23.500	7.6207e-03
 7.250	23.750	7.6207e-03
 7.250	24.000	7.6207e-03
 7.500	17.000	4.7836e-02
 7.500	17.250	3.8522e-02
 7.500	17.500	2.3841e-02
 7.500	17.750	1.5880e-02
 7.500	18.000	1.1703e-02
 7.500	18.250	9.6492e-03
 7.500	18.500	8.6774e-03
 7.500	18.750	8.1511e-03
 7.500	19.000	7.8649e-03
 7.500	19.250	7.7428e-03
 7.500	19.500	7.6802e-03
 7.500	19.750	7.6458e-03
 7.500	20.000	7.6315e-03
 7.500	20.250	7.6256e-03
 7.500	20.500	7.6230e-03
 7.500	20.750	7.6219e-03
 7.500	21.000	7.6213e-03
 7.500	21.250	7.6210e-03
 7.500	21.500	7.6208e-03
 7.500	21.750	7.6207e-03
 7.500	22.000	7.6207e-03
 7.500	22.250	7.6207e-03
 7.500	22.500	7.6207e-03
 7.500	22.750	7.6207e-03
 7.500	23.000	7.6211e-03
 7.500	23.250	7.6214e-03
 7.500	23.500	7.6207e-03
 7.500	23.750	7.6216e-03
 7.500	24.000	7.6207e-03
 7.750	17.000	5.9685e-02
 7.750	17.250	4.7695e-02
 7.750	17.500	3.8482e-02
 7.750	17.750	2.3820e-02
 7.750	18.000	1.5866e-02
 7.750	18.250	1.1691e-02
 7.750	18.500	9.6448e-03
 7.750	18.750	8.6760e-03
 7.750	19.000	8.1506e-03
 7.750	19.250	7.8648e-03
 7.750	19.500	7.7428e-03
 7.750	19.750	7.6802e-03
 7.750	20.000	7.6458e-03
 7.750	20.250	7.6315e-03
 7.750	20.500	7.6256e-03
 7.750	20.750	7.6230e-03
 7.750	21.000	7.6219e-03
 7.750	21.250	7.6213e-03
 7.750	21.500	7.6210e-03
 7.750	21.750	7.6208e-03
 7.750	22.000	7.6207e-03
 7.750	22.250	7.6207e-03
 7.750	22.500	7.6207e-03
 7.750	22.750	7.6209e-03
 7.750	23.000	7.6209e-03
 7.750	23.250	7.6207e-03
 7.750	23.500	7.6214e-03
 7.750	23.750	7.6214e-03
 7.750	24.000	7.6207e-03
 8.000	17.000	5.7222e-02
 8.000	17.250	5.8687e-02
 8.000	17.500	4.7378e-02
 8.000	17.750	3.8413e-02
 8.000	18.000	2.3809e-02
 8.000	18.250	1.5856e-02
 8.000	18.500	1.1680e-02
 8.000	18.750	9.6403e-03
 8.000	19.000	8.6746e-03
 8.000	19.250	8.1503e-03
 8.000	19.500	7.8647e-03
 8.000	19.750	7.7427e-03
 8.000	20.000	7.6802e-03
 8.000	20.250	7.6458e-03
 8.000	20.500	7.6315e-03
 8.000	20.750	7.6256e-03
 8.000	21.000	7.6230e-03
 8.000	21.250	7.6219e-03
 8.000	21.500	7.6212e-03
 8.000	21.750	7.6210e-03
 8.000	22.000	7.6208e-03
 8.000	22.250	7.6207e-03
 8.000	22.500	7.6207e-03
 8.000	22.750	7.6208e-03
 8.000	23.000	7.6207e-03
 8.000	23.250	7.6212e-03
 8.000	23.500	7.6207e-03
 8.000	23.750	7.6207e-03
 8.000	24.000	7.6207e-03
 8.250	17.000	5.5319e-02
 8.250	17.250	5.7039e-02
 8.250	17.500	5.8515e-02
 8.250	17.750	4.7318e-02
 8.250	18.000	3.8410e-02
 8.250	18.250	2.3804e-02
 8.250	18.500	1.5847e-02
 8.250	18.750	1.1670e-02
 8.250	19.000	9.6359e-03
 8.250	19.250	8.6733e-03
 8.250	19.500	8.1499e-03
 8.250	19.750	7.8645e-03
 8.250	20.000	7.7427e-03
 8.250	20.250	7.6802e-03
 8.250	20.500	7.6458e-03
 8.250	20.750	7.6315e-03
 8.250	21.000	7.6256e-03
 8.250	21.250	7.6230e-03
 8.250	21.500	7.6219e-03
 8.250	21.750	7.6213e-03
 8.250	22.000	7.6210e-03
 8.250	22.250	7.6208e-03
 8.250	22.500	7.6207e-03
 8.250	22.750	7.6208e-03
 8.250	23.000	7.6207e-03
 8.250	23.250	7.6226e-03
 8.250	23.500	7.6206e-03
 8.250	23.750	7.6206e-03
 8.250	24.000	7.6212e-03
 8.500	17.000	5.3491e-02
 8.500	17.250	5.5244e-02
 8.500	17.500	5.6968e-02
 8.500	17.750	5.8444e-02
 8.500	18.000	4.7307e-02
 8.500	18.250	3.8417e-02
 8.500	18.500	2.3803e-02
 8.500	18.750	1.5840e-02
 8.500	19.000	1.1658e-02
 8.500	19.250	9.6312e-03
 8.500	19.500	8.6719e-03
 8.500	19.750	8.1496e-03
 8.500	20.000	7.8644e-03
 8.500	20.250	7.7427e-03
 8.500	20.500	7.6802e-03
 8.500	20.750	7.6458e-03
 8.500	21.000	7.6315e-03
 8.500	21.250	7.6256e-03
 8.500	21.500	7.6230e-03
 8.500	21.750	7.6219e-03
 8.500	22.000	7.6212e-03
 8.500	22.250	7.6210e-03
 8.500	22.500	7.6208e-03
 8.500	22.750	7.6207e-03
 8.500	23.000	7.6207e-03
 8.500	23.250	7.6208e-03
 8.500	23.500	7.6206e-03
 8.500	23.750	7.6206e-03
 8.500	24.000	7.6206e-03
 8.750	17.000	5.1659e-02
 8.750	17.250	5.3551e-02
 8.750	17.500	5.5347e-02
 8.750	17.750	5.6994e-02
 8.750	18.000	5.8486e-02
 8.750	18.250	4.7317e-02
 8.750	18.500	3.8429e-02
 8.750	18.750	2.3807e-02
 8.750	19.000	1.5833e-02
 8.750	19.250	1.1646e-02
 8.750	19.500	9.6263e-03
 8.750	19.750	8.6706e-03
 8.750	20.000	8.1494e-03
 8.750	20.250	7.8644e-03
 8.750	20.500	7.7426e-03
 8.750	20.750	7.6802e-03
 8.750	21.000	7.6458e-03
 8.750	21.250	7.6315e-03
 8.750	21.500	7.6256e-03
 8.750	21.750	7.6230e-03
 8.750	22.000	7.6219e-03
 8.750	22.250	7.6212e-03
 8.750	22.500	7.6210e-03
 8.750	22.750	7.6208e-03
 8.750	23.000	7.6215e-03
 8.750	23.250	7.6207e-03
 8.750	23.500	7.6208e-03
 8.750	23.750	7.6206e-03
 8.750	24.000	7.6206e-03
 9.000	17.000	4.9652e-02
 9.000	17.250	5.1843e-02
 9.000	17.500	5.3842e-02
 9.000	17.750	5.5735e-02
 9.000	18.000	5.7411e-02
 9.000	18.250	5.8834e-02
 9.000	18.500	4.7321e-02
 9.000	18.750	3.8441e-02
 9.000	19.000	2.3814e-02
 9.000	19.250	1.5828e-02
 9.000	19.500	1.1634e-02
 9.000	19.750	9.6212e-03
 9.000	20.000	8.6694e-03
 9.000	20.250	8.1491e-03
 9.000	20.500	7.8644e-03
 9.000	20.750	7.7426e-03
 9.000	21.000	7.6802e-03
 9.000	21.250	7.6458e-03
 9.000	21.500	7.6315e-03
 9.000	21.750	7.6256e-03
 9.000	22.000	7.6230e-03
 9.000	22.250	7.6218e-03
 9.000	22.500	7.6212e-03
 9.000	22.750	7.6210e-03
 9.000	23.000	7.6208e-03
 9.000	23.250	7.6207e-03
 9.000	23.500	7.6207e-03
 9.000	23.750	7.6206e-03
 9.000	24.000	7.6207e-03
 9.250	17.000	4.7288e-02
 9.250	17.250	4.9933e-02
 9.250	17.500	5.2366e-02
 9.250	17.750	5.4651e-02
 9.250	18.000	5.6732e-02
 9.250	18.250	5.8628e-02
 9.250	18.500	5.9753e-02
 9.250	18.750	4.7294e-02
 9.250	19.000	3.8446e-02
 9.250	19.250	2.3825e-02
 9.250	19.500	1.5826e-02
 9.250	19.750	1.1623e-02
 9.250	20.000	9.6164e-03
 9.250	20.250	8.6683e-03
 9.250	20.500	8.1489e-03
 9.250	20.750	7.8643e-03
 9.250	21.000	7.7426e-03
 9.250	21.250	7.6802e-03
 9.250	21.500	7.6453e-03
 9.250	21.750	7.6310e-03
 9.250	22.000	7.6249e-03
 9.250	22.250	7.6226e-03
 9.250	22.500	7.6215e-03
 9.250	22.750	7.6209e-03
 9.250	23.000	7.6207e-03
 9.250	23.250	7.6207e-03
 9.250	23.500	7.6205e-03
 9.250	23.750	7.6205e-03
 9.250	24.000	7.6205e-03
 9.500	17.000	4.4405e-02
 9.500	17.250	4.7660e-02
 9.500	17.500	5.0722e-02
 9.500	17.750	5.3689e-02
 9.500	18.000	5.6433e-02
 9.500	18.250	5.9165e-02
 9.500	18.500	6.1731e-02
 9.500	18.750	6.1174e-02
 9.500	19.000	4.7222e-02
 9.500	19.250	3.8433e-02
 9.500	19.500	2.3838e-02
 9.500	19.750	1.5828e-02
 9.500	20.000	1.1614e-02
 9.500	20.250	9.6122e-03
 9.500	20.500	8.6673e-03
 9.500	20.750	8.1484e-03
 9.500	21.000	7.8638e-03
 9.500	21.250	7.7422e-03
 9.500	21.500	7.6797e-03
 9.500	21.750	7.6450e-03
 9.500	22.000	7.6308e-03
 9.500	22.250	7.6249e-03
 9.500	22.500	7.6223e-03
 9.500	22.750	7.6211e-03
 9.500	23.000	7.6205e-03
 9.500	23.250	7.6202e-03
 9.500	23.500	7.6201e-03
 9.500	23.750	7.6200e-03
 9.500	24.000	7.6199e-03
 9.750	17.000	4.0660e-02
 9.750	17.250	4.4761e-02
 9.750	17.500	4.8661e-02
 9.750	17.750	5.2580e-02
 9.750	18.000	5.6528e-02
 9.750	18.250	6.0366e-02
 9.750	18.500	6.4114e-02
 9.750	18.750	6.7498e-02
 9.750	19.000	6.0806e-02
 9.750	19.250	4.7084e-02
 9.750	19.500	3.8383e-02
 9.750	19.750	2.3852e-02
 9.750	20.000	1.5833e-02
 9.750	20.250	1.1610e-02
 9.750	20.500	9.6091e-03
 9.750	20.750	8.6667e-03
 9.750	21.000	8.1483e-03
 9.750	21.250	7.8638e-03
 9.750	21.500	7.7422e-03
 9.750	21.750	7.6798e-03
 9.750	22.000	7.6450e-03
 9.750	22.250	7.6308e-03
 9.750	22.500	7.6249e-03
 9.750	22.750	7.6223e-03
 9.750	23.000	7.6212e-03
 9.750	23.250	7.6205e-03
 9.750	23.500	7.6202e-03
 9.750	23.750	7.6200e-03
 9.750	24.000	7.6199e-03
10.000	17.000	3.5731e-02
10.000	17.250	4.0983e-02
10.000	17.500	4.5978e-02
10.000	17.750	5.1128e-02
10.000	18.000	5.6597e-02
10.000	18.250	6.1940e-02
10.000	18.500	6.6698e-02
10.000	18.750	7.0934e-02
10.000	19.000	7.3067e-02
10.000	19.250	6.0181e-02
10.000	19.500	4.6850e-02
10.000	19.750	3.8268e-02
10.000	20.000	2.3865e-02
10.000	20.250	1.5841e-02
10.000	20.500	1.1607e-02
10.000	20.750	9.6067e-03
10.000	21.000	8.6664e-03
10.000	21.250	8.1483e-03
10.000	21.500	7.8637e-03
10.000	21.750	7.7422e-03
10.000	22.000	7.6798e-03
10.000	22.250	7.6451e-03
10.000	22.500	7.6308e-03
10.000	22.750	7.6249e-03
10.000	23.000	7.6223e-03
10.000	23.250	7.6212e-03
10.000	23.500	7.6206e-03
10.000	23.750	7.6202e-03
10.000	24.000	7.6201e-03
10.250	17.000	3.0585e-02
10.250	17.250	3.6107e-02
10.250	17.500	4.2515e-02
10.250	17.750	4.9164e-02
10.250	18.000	5.6247e-02
10.250	18.250	6.3072e-02
10.250	18.500	6.8989e-02
10.250	18.750	7.4156e-02
10.250	19.000	7.8788e-02
10.250	19.250	7.9390e-02
10.250	19.500	5.9615e-02
10.250	19.750	4.6486e-02
10.250	20.000	3.8064e-02
10.250	20.250	2.3867e-02
10.250	20.500	1.5850e-02
10.250	20.750	1.1607e-02
10.250	21.000	9.6053e-03
10.250	21.250	8.6665e-03
10.250	21.500	8.1483e-03
10.250	21.750	7.8638e-03
10.250	22.000	7.7422e-03
10.250	22.250	7.6798e-03
10.250	22.500	7.6452e-03
10.250	22.750	7.6308e-03
10.250	23.000	7.6249e-03
10.250	23.250	7.6223e-03
10.250	23.500	7.6212e-03
10.250	23.750	7.6205e-03
10.250	24.000	7.6202e-03
10.500	17.000	2.5751e-02
10.500	17.250	3.1099e-02
10.500	17.500	3.8080e-02
10.500	17.750	4.6524e-02
10.500	18.000	5.5076e-02
10.500	18.250	6.3107e-02
10.500	18.500	7.0086e-02
10.500	18.750	7.5997e-02
10.500	19.000	8.1053e-02
10.500	19.250	8.5914e-02
10.500	19.500	8.0706e-02
10.500	19.750	5.9414e-02
10.500	20.000	4.6234e-02
10.500	20.250	3.7782e-02
10.500	20.500	2.3856e-02
10.500	20.750	1.5856e-02
10.500	21.000	1.1610e-02
10.500	21.250	9.6052e-03
10.500	21.500	8.6670e-03
10.500	21.750	8.1484e-03
10.500	22.000	7.8639e-03
10.500	22.250	7.7423e-03
10.500	22.500	7.6798e-03
10.500	22.750	7.6453e-03
10.500	23.000	7.6309e-03
10.500	23.250	7.6249e-03
10.500	23.500	7.6224e-03
10.500	23.750	7.6212e-03
10.500	24.000	7.6206e-03
10.750	17.000	2.1809e-02
10.750	17.250	2.6457e-02
10.750	17.500	3.3573e-02
10.750	17.750	4.2876e-02
10.750	18.000	5.2620e-02
10.750	18.250	6.1492e-02
10.750	18.500	6.9173e-02
10.750	18.750	7.5852e-02
10.750	19.000	8.1550e-02
10.750	19.250	8.6563e-02
10.750	19.500	9.1226e-02
10.750	19.750	8.0058e-02
10.750	20.000	5.9422e-02
10.750	20.250	4.6168e-02
10.750	20.500	3.7480e-02
10.750	20.750	2.3824e-02
10.750	21.000	1.5857e-02
10.750	21.250	1.1614e-02
10.750	21.500	9.6061e-03
10.750	21.750	8.6679e-03
10.750	22.000	8.1485e-03
10.750	22.250	7.8639e-03
10.750	22.500	7.7426e-03
10.750	22.750	7.6799e-03
10.750	23.000	7.6453e-03
10.750	23.250	7.6309e-03
10.750	23.500	7.6249e-03
10.750	23.750	7.6223e-03
10.750	24.000	7.6212e-03
11.000	17.000	1.8835e-02
11.000	17.250	2.2716e-02
11.000	17.500	2.9197e-02
11.000	17.750	3.8341e-02
11.000	18.000	4.8342e-02
11.000	18.250	5.7683e-02
11.000	18.500	6.6092e-02
11.000	18.750	7.3553e-02
11.000	19.000	8.0030e-02
11.000	19.250	8.5620e-02
11.000	19.500	9.0558e-02
11.000	19.750	9.4814e-02
11.000	20.000	8.0288e-02
11.000	20.250	6.0521e-02
11.000	20.500	4.6275e-02
11.000	20.750	3.7239e-02
11.000	21.000	2.3734e-02
11.000	21.250	1.5848e-02
11.000	21.500	1.1620e-02
11.000	21.750	9.6080e-03
11.000	22.000	8.6691e-03
11.000	22.250	8.1487e-03
11.000	22.500	7.8639e-03
11.000	22.750	7.7426e-03
11.000	23.000	7.6801e-03
11.000	23.250	7.6453e-03
11.000	23.500	7.6310e-03
11.000	23.750	7.6250e-03
11.000	24.000	7.6224e-03
11.250	17.000	1.6632e-02
11.250	17.250	1.9935e-02
11.250	17.500	2.5388e-02
11.250	17.750	3.3250e-02
11.250	18.000	4.2606e-02
11.250	18.250	5.2037e-02
11.250	18.500	6.1068e-02
11.250	18.750	6.9403e-02
11.250	19.000	7.6616e-02
11.250	19.250	8.2857e-02
11.250	19.500	8.8081e-02
11.250	19.750	9.2644e-02
11.250	20.000	9.5694e-02
11.250	20.250	8.0254e-02
11.250	20.500	6.0577e-02
11.250	20.750	4.6693e-02
11.250	21.000	3.7149e-02
11.250	21.250	2.3590e-02
11.250	21.500	1.5818e-02
11.250	21.750	1.1627e-02
11.250	22.000	9.6108e-03
11.250	22.250	8.6706e-03
11.250	22.500	8.1491e-03
11.250	22.750	7.8638e-03
11.250	23.000	7.7426e-03
11.250	23.250	7.6802e-03
11.250	23.500	7.6453e-03
11.250	23.750	7.6311e-03
11.250	24.000	7.6251e-03
11.500	17.000	1.5031e-02
11.500	17.250	1.7871e-02
11.500	17.500	2.2345e-02
11.500	17.750	2.8581e-02
11.500	18.000	3.6440e-02
11.500	18.250	4.5394e-02
11.500	18.500	5.4694e-02
11.500	18.750	6.3751e-02
11.500	19.000	7.1926e-02
11.500	19.250	7.8729e-02
11.500	19.500	8.4368e-02
11.500	19.750	8.9387e-02
11.500	20.000	9.3949e-02
11.500	20.250	9.4503e-02
11.500	20.500	8.1287e-02
11.500	20.750	6.1801e-02
11.500	21.000	4.7696e-02
11.500	21.250	3.7099e-02
11.500	21.500	2.3372e-02
11.500	21.750	1.5762e-02
11.500	22.000	1.1631e-02
11.500	22.250	9.6146e-03
11.500	22.500	8.6724e-03
11.500	22.750	8.1495e-03
11.500	23.000	7.8636e-03
11.500	23.250	7.7426e-03
11.500	23.500	7.6802e-03
11.500	23.750	7.6454e-03
11.500	24.000	7.6311e-03
11.750	17.000	1.3854e-02
11.750	17.250	1.6232e-02
11.750	17.500	1.9913e-02
11.750	17.750	2.4883e-02
11.750	18.000	3.1136e-02
11.750	18.250	3.8937e-02
11.750	18.500	4.7951e-02
11.750	18.750	5.7383e-02
11.750	19.000	6.6386e-02
11.750	19.250	7.4116e-02
11.750	19.500	8.0360e-02
11.750	19.750	8.5676e-02
11.750	20.000	9.0733e-02
11.750	20.250	9.5708e-02
11.750	20.500	9.6027e-02
11.750	20.750	8.2569e-02
11.750	21.000	6.3612e-02
11.750	21.250	4.9930e-02
11.750	21.500	3.6689e-02
11.750	21.750	2.3102e-02
11.750	22.000	1.5663e-02
11.750	22.250	1.1630e-02
11.750	22.500	9.6188e-03
11.750	22.750	8.6745e-03
11.750	23.000	8.1500e-03
11.750	23.250	7.8635e-03
11.750	23.500	7.7426e-03
11.750	23.750	7.6803e-03
11.750	24.000	7.6456e-03
12.000	17.000	1.2895e-02
12.000	17.250	1.4823e-02
12.000	17.500	1.7813e-02
12.000	17.750	2.1973e-02
12.000	18.000	2.7232e-02
12.000	18.250	3.3801e-02
12.000	18.500	4.1955e-02
12.000	18.750	5.1157e-02
12.000	19.000	6.0544e-02
12.000	19.250	6.9297e-02
12.000	19.500	7.6555e-02
12.000	19.750	8.2346e-02
12.000	20.000	8.7736e-02
12.000	20.250	9.3006e-02
12.000	20.500	9.8346e-02
12.000	20.750	9.6594e-02
12.000	21.000	8.4577e-02
12.000	21.250	6.7984e-02
12.000	21.500	5.3744e-02
12.000	21.750	3.6191e-02
12.000	22.000	2.2790e-02
12.000	22.250	1.5533e-02
12.000	22.500	1.1619e-02
12.000	22.750	9.6233e-03
12.000	23.000	8.6767e-03
12.000	23.250	8.1508e-03
12.000	23.500	7.8633e-03
12.000	23.750	7.7426e-03
12.000	24.000	7.6803e-03
12.250	17.000	1.2020e-02
12.250	17.250	1.3487e-02
12.250	17.500	1.5863e-02
12.250	17.750	1.9476e-02
12.250	18.000	2.4256e-02
12.250	18.250	3.0287e-02
12.250	18.500	3.7685e-02
12.250	18.750	4.6187e-02
12.250	19.000	5.5244e-02
12.250	19.250	6.4494e-02
12.250	19.500	7.2905e-02
12.250	19.750	7.9901e-02
12.250	20.000	8.5520e-02
12.250	20.250	9.1134e-02
12.250	20.500	9.7006e-02
12.250	20.750	1.0321e-01
12.250	21.000	1.0015e-01
12.250	21.250	8.9845e-02
12.250	21.500	7.4077e-02
12.250	21.750	5.7979e-02
12.250	22.000	3.5645e-02
12.250	22.250	2.2574e-02
12.250	22.500	1.5461e-02
12.250	22.750	1.1597e-02
12.250	23.000	9.6275e-03
12.250	23.250	8.6788e-03
12.250	23.500	8.1514e-03
12.250	23.750	7.8630e-03
12.250	24.000	7.7425e-03
12.500	17.000	1.0991e-02
12.500	17.250	1.2085e-02
12.500	17.500	1.4060e-02
12.500	17.750	1.7189e-02
12.500	18.000	2.1769e-02
12.500	18.250	2.7652e-02
12.500	18.500	3.4820e-02
12.500	18.750	4.2974e-02
12.500	19.000	5.1538e-02
12.500	19.250	6.0499e-02
12.500	19.500	6.9412e-02
12.500	19.750	7.7689e-02
12.500	20.000	8.4487e-02
12.500	20.250	9.0328e-02
12.500	20.500	9.6594e-02
12.500	20.750	1.0399e-01
12.500	21.000	1.1317e-01
12.500	21.250	1.0903e-01
12.500	21.500	9.7620e-02
12.500	21.750	8.1039e-02
12.500	22.000	5.9316e-02
12.500	22.250	3.5200e-02
12.500	22.500	2.2266e-02
12.500	22.750	1.5282e-02
12.500	23.000	1.1563e-02
12.500	23.250	9.6304e-03
12.500	23.500	8.6808e-03
12.500	23.750	8.1522e-03
12.500	24.000	7.8626e-03
12.750	17.000	9.0482e-03
12.750	17.250	1.0470e-02
12.750	17.500	1.2227e-02
12.750	17.750	1.5198e-02
12.750	18.000	1.9567e-02
12.750	18.250	2.5333e-02
12.750	18.500	3.2436e-02
12.750	18.750	4.0720e-02
12.750	19.000	4.9426e-02
12.750	19.250	5.8133e-02
12.750	19.500	6.6938e-02
12.750	19.750	7.5689e-02
12.750	20.000	8.3801e-02
12.750	20.250	9.1042e-02
12.750	20.500	9.7658e-02
12.750	20.750	1.0554e-01
12.750	21.000	1.1696e-01
12.750	21.250	1.2919e-01
12.750	21.500	1.2066e-01
12.750	21.750	1.0899e-01
12.750	22.000	8.8018e-02
12.750	22.250	5.8233e-02
12.750	22.500	3.4613e-02
12.750	22.750	2.1897e-02
12.750	23.000	1.5122e-02
12.750	23.250	1.1521e-02
12.750	23.500	9.6308e-03
12.750	23.750	8.6823e-03
12.750	24.000	8.1527e-03
13.000	17.000	6.5503e-03
13.000	17.250	8.3744e-03
13.000	17.500	1.0494e-02
13.000	17.750	1.3400e-02
13.000	18.000	1.7537e-02
13.000	18.250	2.3145e-02
13.000	18.500	3.0186e-02
13.000	18.750	3.8483e-02
13.000	19.000	4.7489e-02
13.000	19.250	5.6691e-02
13.000	19.500	6.5250e-02
13.000	19.750	7.4288e-02
13.000	20.000	8.3090e-02
13.000	20.250	9.1633e-02
13.000	20.500	1.0046e-01
13.000	20.750	1.0864e-01
13.000	21.000	1.1912e-01
13.000	21.250	1.3534e-01
13.000	21.500	1.4817e-01
13.000	21.750	1.3721e-01
13.000	22.000	1.1953e-01
13.000	22.250	9.2457e-02
13.000	22.500	5.7219e-02
13.000	22.750	3.4084e-02
13.000	23.000	2.1613e-02
13.000	23.250	1.4972e-02
13.000	23.500	1.1470e-02
13.000	23.750	9.6281e-03
13.000	24.000	8.6828e-03
13.250	17.000	5.0527e-03
13.250	17.250	6.6040e-03
13.250	17.500	9.0495e-03
13.250	17.750	1.1840e-02
13.250	18.000	1.5704e-02
13.250	18.250	2.1074e-02
13.250	18.500	2.7955e-02
13.250	18.750	3.6180e-02
13.250	19.000	4.5357e-02
13.250	19.250	5.4830e-02
13.250	19.500	6.3942e-02
13.250	19.750	7.3462e-02
13.250	20.000	8.2752e-02
13.250	20.250	9.1891e-02
13.250	20.500	1.0174e-01
13.250	20.750	1.1213e-01
13.250	21.000	1.2371e-01
13.250	21.250	1.3814e-01
13.250	21.500	1.5176e-01
13.250	21.750	1.6442e-01
13.250	22.000	1.4691e-01
13.250	22.250	1.2675e-01
13.250	22.500	9.2736e-02
13.250	22.750	5.6152e-02
13.250	23.000	3.3524e-02
13.250	23.250	2.1481e-02
13.250	23.500	1.4908e-02
13.250	23.750	1.1416e-02
13.250	24.000	9.6212e-03
13.500	17.000	3.9797e-03
13.500	17.250	5.2950e-03
13.500	17.500	7.4537e-03
13.500	17.750	1.0343e-02
13.500	18.000	1.4086e-02
13.500	18.250	1.9151e-02
13.500	18.500	2.5798e-02
13.500	18.750	3.3881e-02
13.500	19.000	4.3091e-02
13.500	19.250	5.2849e-02
13.500	19.500	6.2564e-02
13.500	19.750	7.2241e-02
13.500	20.000	8.2152e-02
13.500	20.250	9.2761e-02
13.500	20.500	1.0288e-01
13.500	20.750	1.1337e-01
13.500	21.000	1.2376e-01
13.500	21.250	1.3872e-01
13.500	21.500	1.4837e-01
13.500	21.750	1.6437e-01
13.500	22.000	1.7480e-01
13.500	22.250	1.5235e-01
13.500	22.500	1.2494e-01
13.500	22.750	9.0095e-02
13.500	23.000	5.5052e-02
13.500	23.250	3.2879e-02
13.500	23.500	2.1055e-02
13.500	23.750	1.4692e-02
13.500	24.000	1.1364e-02
13.750	17.000	3.2300e-03
13.750	17.250	4.3049e-03
13.750	17.500	6.1821e-03
13.750	17.750	8.8610e-03
13.750	18.000	1.2666e-02
13.750	18.250	1.7431e-02
13.750	18.500	2.3768e-02
13.750	18.750	3.1638e-02
13.750	19.000	4.0828e-02
13.750	19.250	5.0906e-02
13.750	19.500	6.1234e-02
13.750	19.750	7.1487e-02
13.750	20.000	8.1927e-02
13.750	20.250	9.2955e-02
13.750	20.500	1.0444e-01
13.750	20.750	1.1573e-01
13.750	21.000	1.2675e-01
13.750	21.250	1.3759e-01
13.750	21.500	1.4853e-01
13.750	21.750	1.6345e-01
13.750	22.000	1.8056e-01
13.750	22.250	1.8883e-01
13.750	22.500	1.5193e-01
13.750	22.750	1.2370e-01
13.750	23.000	8.8081e-02
13.750	23.250	5.3939e-02
13.750	23.500	3.2360e-02
13.750	23.750	2.0771e-02
13.750	24.000	1.4545e-02
14.000	17.000	2.6792e-03
14.000	17.250	3.5850e-03
14.000	17.500	5.1210e-03
14.000	17.750	7.5719e-03
14.000	18.000	1.1153e-02
14.000	18.250	1.5916e-02
14.000	18.500	2.1938e-02
14.000	18.750	2.9548e-02
14.000	19.000	3.8641e-02
14.000	19.250	4.8937e-02
14.000	19.500	5.9960e-02
14.000	19.750	7.1118e-02
14.000	20.000	8.2189e-02
14.000	20.250	9.3612e-02
14.000	20.500	1.0581e-01
14.000	20.750	1.1826e-01
14.000	21.000	1.3072e-01
14.000	21.250	1.4323e-01
14.000	21.500	1.5282e-01
14.000	21.750	1.6696e-01
14.000	22.000	1.8466e-01
14.000	22.250	2.0712e-01
14.000	22.500	2.0555e-01
14.000	22.750	1.5667e-01
14.000	23.000	1.2212e-01
14.000	23.250	8.7362e-02
14.000	23.500	5.2803e-02
14.000	23.750	3.1846e-02
14.000	24.000	2.0460e-02
