InwC 840.000A  relative to Inci 1215.00A scaled to 1215A.
Hden   Phi(H)  Eq_Width (A)
 7.000	17.000	4.2283e-03
 7.000	17.250	5.7870e-03
 7.000	17.500	6.8181e-03
 7.000	17.750	7.3201e-03
 7.000	18.000	7.5804e-03
 7.000	18.250	7.7611e-03
 7.000	18.500	7.8611e-03
 7.000	18.750	7.8868e-03
 7.000	19.000	7.8979e-03
 7.000	19.250	7.9027e-03
 7.000	19.500	7.9036e-03
 7.000	19.750	7.9040e-03
 7.000	20.000	7.9040e-03
 7.000	20.250	7.9041e-03
 7.000	20.500	7.9041e-03
 7.000	20.750	7.9041e-03
 7.000	21.000	7.9041e-03
 7.000	21.250	7.9041e-03
 7.000	21.500	7.9043e-03
 7.000	21.750	7.9041e-03
 7.000	22.000	7.9041e-03
 7.000	22.250	7.9041e-03
 7.000	22.500	7.9041e-03
 7.000	22.750	7.9044e-03
 7.000	23.000	7.9044e-03
 7.000	23.250	7.9041e-03
 7.000	23.500	7.9041e-03
 7.000	23.750	7.9041e-03
 7.000	24.000	7.9041e-03
 7.250	17.000	2.7313e-03
 7.250	17.250	4.2395e-03
 7.250	17.500	5.7985e-03
 7.250	17.750	6.8251e-03
 7.250	18.000	7.3223e-03
 7.250	18.250	7.5812e-03
 7.250	18.500	7.7612e-03
 7.250	18.750	7.8612e-03
 7.250	19.000	7.8868e-03
 7.250	19.250	7.8979e-03
 7.250	19.500	7.9027e-03
 7.250	19.750	7.9036e-03
 7.250	20.000	7.9040e-03
 7.250	20.250	7.9040e-03
 7.250	20.500	7.9040e-03
 7.250	20.750	7.9041e-03
 7.250	21.000	7.9041e-03
 7.250	21.250	7.9041e-03
 7.250	21.500	7.9041e-03
 7.250	21.750	7.9057e-03
 7.250	22.000	7.9041e-03
 7.250	22.250	7.9041e-03
 7.250	22.500	7.9041e-03
 7.250	22.750	7.9049e-03
 7.250	23.000	7.9049e-03
 7.250	23.250	7.9041e-03
 7.250	23.500	7.9041e-03
 7.250	23.750	7.9041e-03
 7.250	24.000	7.9041e-03
 7.500	17.000	1.5054e-03
 7.500	17.250	2.7376e-03
 7.500	17.500	4.2491e-03
 7.500	17.750	5.8103e-03
 7.500	18.000	6.8335e-03
 7.500	18.250	7.3253e-03
 7.500	18.500	7.5822e-03
 7.500	18.750	7.7616e-03
 7.500	19.000	7.8612e-03
 7.500	19.250	7.8868e-03
 7.500	19.500	7.8979e-03
 7.500	19.750	7.9027e-03
 7.500	20.000	7.9036e-03
 7.500	20.250	7.9040e-03
 7.500	20.500	7.9040e-03
 7.500	20.750	7.9040e-03
 7.500	21.000	7.9040e-03
 7.500	21.250	7.9041e-03
 7.500	21.500	7.9041e-03
 7.500	21.750	7.9041e-03
 7.500	22.000	7.9041e-03
 7.500	22.250	7.9041e-03
 7.500	22.500	7.9041e-03
 7.500	22.750	7.9041e-03
 7.500	23.000	7.9045e-03
 7.500	23.250	7.9049e-03
 7.500	23.500	7.9041e-03
 7.500	23.750	7.9051e-03
 7.500	24.000	7.9041e-03
 7.750	17.000	7.8436e-04
 7.750	17.250	1.5100e-03
 7.750	17.500	2.7417e-03
 7.750	17.750	4.2570e-03
 7.750	18.000	5.8222e-03
 7.750	18.250	6.8433e-03
 7.750	18.500	7.3293e-03
 7.750	18.750	7.5837e-03
 7.750	19.000	7.7620e-03
 7.750	19.250	7.8613e-03
 7.750	19.500	7.8869e-03
 7.750	19.750	7.8979e-03
 7.750	20.000	7.9027e-03
 7.750	20.250	7.9036e-03
 7.750	20.500	7.9040e-03
 7.750	20.750	7.9040e-03
 7.750	21.000	7.9040e-03
 7.750	21.250	7.9040e-03
 7.750	21.500	7.9040e-03
 7.750	21.750	7.9041e-03
 7.750	22.000	7.9041e-03
 7.750	22.250	7.9041e-03
 7.750	22.500	7.9041e-03
 7.750	22.750	7.9044e-03
 7.750	23.000	7.9044e-03
 7.750	23.250	7.9042e-03
 7.750	23.500	7.9049e-03
 7.750	23.750	7.9049e-03
 7.750	24.000	7.9041e-03
 8.000	17.000	4.1062e-04
 8.000	17.250	7.8346e-04
 8.000	17.500	1.5078e-03
 8.000	17.750	2.7433e-03
 8.000	18.000	4.2636e-03
 8.000	18.250	5.8346e-03
 8.000	18.500	6.8544e-03
 8.000	18.750	7.3342e-03
 8.000	19.000	7.5856e-03
 8.000	19.250	7.7626e-03
 8.000	19.500	7.8614e-03
 8.000	19.750	7.8869e-03
 8.000	20.000	7.8979e-03
 8.000	20.250	7.9027e-03
 8.000	20.500	7.9036e-03
 8.000	20.750	7.9039e-03
 8.000	21.000	7.9040e-03
 8.000	21.250	7.9040e-03
 8.000	21.500	7.9040e-03
 8.000	21.750	7.9040e-03
 8.000	22.000	7.9040e-03
 8.000	22.250	7.9040e-03
 8.000	22.500	7.9040e-03
 8.000	22.750	7.9043e-03
 8.000	23.000	7.9041e-03
 8.000	23.250	7.9046e-03
 8.000	23.500	7.9041e-03
 8.000	23.750	7.9041e-03
 8.000	24.000	7.9041e-03
 8.250	17.000	2.1572e-04
 8.250	17.250	4.1070e-04
 8.250	17.500	7.8362e-04
 8.250	17.750	1.5073e-03
 8.250	18.000	2.7433e-03
 8.250	18.250	4.2688e-03
 8.250	18.500	5.8476e-03
 8.250	18.750	6.8670e-03
 8.250	19.000	7.3401e-03
 8.250	19.250	7.5880e-03
 8.250	19.500	7.7634e-03
 8.250	19.750	7.8616e-03
 8.250	20.000	7.8870e-03
 8.250	20.250	7.8979e-03
 8.250	20.500	7.9027e-03
 8.250	20.750	7.9036e-03
 8.250	21.000	7.9039e-03
 8.250	21.250	7.9040e-03
 8.250	21.500	7.9040e-03
 8.250	21.750	7.9040e-03
 8.250	22.000	7.9040e-03
 8.250	22.250	7.9040e-03
 8.250	22.500	7.9040e-03
 8.250	22.750	7.9043e-03
 8.250	23.000	7.9040e-03
 8.250	23.250	7.9062e-03
 8.250	23.500	7.9040e-03
 8.250	23.750	7.9041e-03
 8.250	24.000	7.9047e-03
 8.500	17.000	1.1366e-04
 8.500	17.250	2.1539e-04
 8.500	17.500	4.1021e-04
 8.500	17.750	7.8272e-04
 8.500	18.000	1.5053e-03
 8.500	18.250	2.7405e-03
 8.500	18.500	4.2728e-03
 8.500	18.750	5.8612e-03
 8.500	19.000	6.8812e-03
 8.500	19.250	7.3466e-03
 8.500	19.500	7.5908e-03
 8.500	19.750	7.7644e-03
 8.500	20.000	7.8618e-03
 8.500	20.250	7.8871e-03
 8.500	20.500	7.8980e-03
 8.500	20.750	7.9027e-03
 8.500	21.000	7.9036e-03
 8.500	21.250	7.9039e-03
 8.500	21.500	7.9040e-03
 8.500	21.750	7.9040e-03
 8.500	22.000	7.9040e-03
 8.500	22.250	7.9040e-03
 8.500	22.500	7.9040e-03
 8.500	22.750	7.9040e-03
 8.500	23.000	7.9040e-03
 8.500	23.250	7.9043e-03
 8.500	23.500	7.9040e-03
 8.500	23.750	7.9040e-03
 8.500	24.000	7.9040e-03
 8.750	17.000	6.0576e-05
 8.750	17.250	1.1342e-04
 8.750	17.500	2.1514e-04
 8.750	17.750	4.0971e-04
 8.750	18.000	7.8165e-04
 8.750	18.250	1.5014e-03
 8.750	18.500	2.7354e-03
 8.750	18.750	4.2750e-03
 8.750	19.000	5.8755e-03
 8.750	19.250	6.8962e-03
 8.750	19.500	7.3539e-03
 8.750	19.750	7.5938e-03
 8.750	20.000	7.7654e-03
 8.750	20.250	7.8621e-03
 8.750	20.500	7.8872e-03
 8.750	20.750	7.8980e-03
 8.750	21.000	7.9027e-03
 8.750	21.250	7.9036e-03
 8.750	21.500	7.9039e-03
 8.750	21.750	7.9040e-03
 8.750	22.000	7.9040e-03
 8.750	22.250	7.9040e-03
 8.750	22.500	7.9040e-03
 8.750	22.750	7.9040e-03
 8.750	23.000	7.9049e-03
 8.750	23.250	7.9040e-03
 8.750	23.500	7.9043e-03
 8.750	23.750	7.9040e-03
 8.750	24.000	7.9040e-03
 9.000	17.000	3.2428e-05
 9.000	17.250	6.0494e-05
 9.000	17.500	1.1333e-04
 9.000	17.750	2.1506e-04
 9.000	18.000	4.1004e-04
 9.000	18.250	7.8173e-04
 9.000	18.500	1.4985e-03
 9.000	18.750	2.7305e-03
 9.000	19.000	4.2760e-03
 9.000	19.250	5.8891e-03
 9.000	19.500	6.9119e-03
 9.000	19.750	7.3615e-03
 9.000	20.000	7.5970e-03
 9.000	20.250	7.7667e-03
 9.000	20.500	7.8625e-03
 9.000	20.750	7.8872e-03
 9.000	21.000	7.8980e-03
 9.000	21.250	7.9027e-03
 9.000	21.500	7.9036e-03
 9.000	21.750	7.9039e-03
 9.000	22.000	7.9040e-03
 9.000	22.250	7.9040e-03
 9.000	22.500	7.9040e-03
 9.000	22.750	7.9040e-03
 9.000	23.000	7.9040e-03
 9.000	23.250	7.9040e-03
 9.000	23.500	7.9040e-03
 9.000	23.750	7.9040e-03
 9.000	24.000	7.9041e-03
 9.250	17.000	1.7366e-05
 9.250	17.250	3.2428e-05
 9.250	17.500	6.0658e-05
 9.250	17.750	1.1383e-04
 9.250	18.000	2.1638e-04
 9.250	18.250	4.1267e-04
 9.250	18.500	7.8551e-04
 9.250	18.750	1.4999e-03
 9.250	19.000	2.7275e-03
 9.250	19.250	4.2759e-03
 9.250	19.500	5.9008e-03
 9.250	19.750	6.9269e-03
 9.250	20.000	7.3692e-03
 9.250	20.250	7.6004e-03
 9.250	20.500	7.7681e-03
 9.250	20.750	7.8629e-03
 9.250	21.000	7.8874e-03
 9.250	21.250	7.8981e-03
 9.250	21.500	7.9023e-03
 9.250	21.750	7.9031e-03
 9.250	22.000	7.9032e-03
 9.250	22.250	7.9035e-03
 9.250	22.500	7.9036e-03
 9.250	22.750	7.9037e-03
 9.250	23.000	7.9038e-03
 9.250	23.250	7.9039e-03
 9.250	23.500	7.9039e-03
 9.250	23.750	7.9039e-03
 9.250	24.000	7.9040e-03
 9.500	17.000	9.1358e-06
 9.500	17.250	1.7449e-05
 9.500	17.500	3.2840e-05
 9.500	17.750	6.1481e-05
 9.500	18.000	1.1547e-04
 9.500	18.250	2.1942e-04
 9.500	18.500	4.1860e-04
 9.500	18.750	7.9753e-04
 9.500	19.000	1.5114e-03
 9.500	19.250	2.7311e-03
 9.500	19.500	4.2762e-03
 9.500	19.750	5.9093e-03
 9.500	20.000	6.9409e-03
 9.500	20.250	7.3768e-03
 9.500	20.500	7.6039e-03
 9.500	20.750	7.7669e-03
 9.500	21.000	7.8623e-03
 9.500	21.250	7.8868e-03
 9.500	21.500	7.8974e-03
 9.500	21.750	7.9020e-03
 9.500	22.000	7.9029e-03
 9.500	22.250	7.9031e-03
 9.500	22.500	7.9032e-03
 9.500	22.750	7.9032e-03
 9.500	23.000	7.9033e-03
 9.500	23.250	7.9033e-03
 9.500	23.500	7.9033e-03
 9.500	23.750	7.9033e-03
 9.500	24.000	7.9033e-03
 9.750	17.000	4.6091e-06
 9.750	17.250	9.2181e-06
 9.750	17.500	1.7778e-05
 9.750	17.750	3.3663e-05
 9.750	18.000	6.3128e-05
 9.750	18.250	1.1835e-04
 9.750	18.500	2.2494e-04
 9.750	18.750	4.3029e-04
 9.750	19.000	8.1942e-04
 9.750	19.250	1.5441e-03
 9.750	19.500	2.7515e-03
 9.750	19.750	4.2819e-03
 9.750	20.000	5.9172e-03
 9.750	20.250	6.9502e-03
 9.750	20.500	7.3817e-03
 9.750	20.750	7.6056e-03
 9.750	21.000	7.7691e-03
 9.750	21.250	7.8628e-03
 9.750	21.500	7.8871e-03
 9.750	21.750	7.8976e-03
 9.750	22.000	7.9020e-03
 9.750	22.250	7.9029e-03
 9.750	22.500	7.9031e-03
 9.750	22.750	7.9032e-03
 9.750	23.000	7.9032e-03
 9.750	23.250	7.9032e-03
 9.750	23.500	7.9032e-03
 9.750	23.750	7.9033e-03
 9.750	24.000	7.9033e-03
10.000	17.000	2.0576e-06
10.000	17.250	4.6914e-06
10.000	17.500	9.4650e-06
10.000	17.750	1.8519e-05
10.000	18.000	3.4979e-05
10.000	18.250	6.5432e-05
10.000	18.500	1.2305e-04
10.000	18.750	2.3539e-04
10.000	19.000	4.5449e-04
10.000	19.250	8.7160e-04
10.000	19.500	1.6271e-03
10.000	19.750	2.8075e-03
10.000	20.000	4.3025e-03
10.000	20.250	5.9250e-03
10.000	20.500	6.9635e-03
10.000	20.750	7.3904e-03
10.000	21.000	7.6102e-03
10.000	21.250	7.7719e-03
10.000	21.500	7.8634e-03
10.000	21.750	7.8872e-03
10.000	22.000	7.8978e-03
10.000	22.250	7.9021e-03
10.000	22.500	7.9029e-03
10.000	22.750	7.9031e-03
10.000	23.000	7.9032e-03
10.000	23.250	7.9033e-03
10.000	23.500	7.9033e-03
10.000	23.750	7.9033e-03
10.000	24.000	7.9033e-03
10.250	17.000	1.0700e-06
10.250	17.250	2.1399e-06
10.250	17.500	4.9383e-06
10.250	17.750	9.9588e-06
10.250	18.000	1.9424e-05
10.250	18.250	3.6872e-05
10.250	18.500	6.9630e-05
10.250	18.750	1.3276e-04
10.250	19.000	2.5868e-04
10.250	19.250	5.0741e-04
10.250	19.500	9.7185e-04
10.250	19.750	1.7812e-03
10.250	20.000	2.9119e-03
10.250	20.250	4.3484e-03
10.250	20.500	5.9397e-03
10.250	20.750	6.9766e-03
10.250	21.000	7.3979e-03
10.250	21.250	7.6142e-03
10.250	21.500	7.7742e-03
10.250	21.750	7.8642e-03
10.250	22.000	7.8875e-03
10.250	22.250	7.8979e-03
10.250	22.500	7.9022e-03
10.250	22.750	7.9029e-03
10.250	23.000	7.9031e-03
10.250	23.250	7.9032e-03
10.250	23.500	7.9032e-03
10.250	23.750	7.9033e-03
10.250	24.000	7.9033e-03
10.500	17.000	1.0000e-07
10.500	17.250	1.0700e-06
10.500	17.500	2.3045e-06
10.500	17.750	5.2675e-06
10.500	18.000	1.0700e-05
10.500	18.250	2.1070e-05
10.500	18.500	4.0658e-05
10.500	18.750	7.8519e-05
10.500	19.000	1.5358e-04
10.500	19.250	3.0469e-04
10.500	19.500	5.8856e-04
10.500	19.750	1.1263e-03
10.500	20.000	2.0030e-03
10.500	20.250	3.0982e-03
10.500	20.500	4.4448e-03
10.500	20.750	5.9691e-03
10.500	21.000	6.9885e-03
10.500	21.250	7.4052e-03
10.500	21.500	7.6182e-03
10.500	21.750	7.7764e-03
10.500	22.000	7.8653e-03
10.500	22.250	7.8879e-03
10.500	22.500	7.8980e-03
10.500	22.750	7.9023e-03
10.500	23.000	7.9030e-03
10.500	23.250	7.9031e-03
10.500	23.500	7.9032e-03
10.500	23.750	7.9033e-03
10.500	24.000	7.9033e-03
10.750	17.000	1.0000e-07
10.750	17.250	1.0000e-07
10.750	17.500	1.1523e-06
10.750	17.750	2.5514e-06
10.750	18.000	5.7613e-06
10.750	18.250	1.2099e-05
10.750	18.500	2.4527e-05
10.750	18.750	4.8971e-05
10.750	19.000	9.6626e-05
10.750	19.250	1.9103e-04
10.750	19.500	3.7893e-04
10.750	19.750	7.1663e-04
10.750	20.000	1.3362e-03
10.750	20.250	2.2573e-03
10.750	20.500	3.3450e-03
10.750	20.750	4.6271e-03
10.750	21.000	6.0225e-03
10.750	21.250	7.0028e-03
10.750	21.500	7.4129e-03
10.750	21.750	7.6228e-03
10.750	22.000	7.7788e-03
10.750	22.250	7.8663e-03
10.750	22.500	7.8886e-03
10.750	22.750	7.8982e-03
10.750	23.000	7.9024e-03
10.750	23.250	7.9031e-03
10.750	23.500	7.9032e-03
10.750	23.750	7.9032e-03
10.750	24.000	7.9033e-03
11.000	17.000	1.0000e-07
11.000	17.250	1.0000e-07
11.000	17.500	1.0000e-07
11.000	17.750	1.3169e-06
11.000	18.000	3.0453e-06
11.000	18.250	6.9136e-06
11.000	18.500	1.5226e-05
11.000	18.750	3.1852e-05
11.000	19.000	6.3786e-05
11.000	19.250	1.2535e-04
11.000	19.500	2.4551e-04
11.000	19.750	4.8247e-04
11.000	20.000	8.8477e-04
11.000	20.250	1.5474e-03
11.000	20.500	2.5432e-03
11.000	20.750	3.6755e-03
11.000	21.000	4.8175e-03
11.000	21.250	6.1213e-03
11.000	21.500	7.0235e-03
11.000	21.750	7.4226e-03
11.000	22.000	7.6283e-03
11.000	22.250	7.7817e-03
11.000	22.500	7.8673e-03
11.000	22.750	7.8891e-03
11.000	23.000	7.8985e-03
11.000	23.250	7.9025e-03
11.000	23.500	7.9032e-03
11.000	23.750	7.9033e-03
11.000	24.000	7.9033e-03
11.250	17.000	1.0000e-07
11.250	17.250	1.0000e-07
11.250	17.500	1.0000e-07
11.250	17.750	1.0000e-07
11.250	18.000	1.5638e-06
11.250	18.250	3.8683e-06
11.250	18.500	9.3004e-06
11.250	18.750	2.0741e-05
11.250	19.000	4.2634e-05
11.250	19.250	8.3868e-05
11.250	19.500	1.6206e-04
11.250	19.750	3.1317e-04
11.250	20.000	6.0774e-04
11.250	20.250	1.0854e-03
11.250	20.500	1.8420e-03
11.250	20.750	2.8365e-03
11.250	21.000	3.9381e-03
11.250	21.250	5.0738e-03
11.250	21.500	6.2397e-03
11.250	21.750	7.0550e-03
11.250	22.000	7.4360e-03
11.250	22.250	7.6358e-03
11.250	22.500	7.7856e-03
11.250	22.750	7.8686e-03
11.250	23.000	7.8898e-03
11.250	23.250	7.8990e-03
11.250	23.500	7.9026e-03
11.250	23.750	7.9033e-03
11.250	24.000	7.9034e-03
11.500	17.000	1.0000e-07
11.500	17.250	1.0000e-07
11.500	17.500	1.0000e-07
11.500	17.750	1.0000e-07
11.500	18.000	8.2305e-07
11.500	18.250	2.1399e-06
11.500	18.500	5.4321e-06
11.500	18.750	1.2757e-05
11.500	19.000	2.7654e-05
11.500	19.250	5.5144e-05
11.500	19.500	1.0634e-04
11.500	19.750	2.0337e-04
11.500	20.000	3.8897e-04
11.500	20.250	7.3646e-04
11.500	20.500	1.2976e-03
11.500	20.750	2.1232e-03
11.500	21.000	3.1318e-03
11.500	21.250	4.2268e-03
11.500	21.500	5.3086e-03
11.500	21.750	6.3811e-03
11.500	22.000	7.1002e-03
11.500	22.250	7.4547e-03
11.500	22.500	7.6466e-03
11.500	22.750	7.7909e-03
11.500	23.000	7.8705e-03
11.500	23.250	7.8906e-03
11.500	23.500	7.8994e-03
11.500	23.750	7.9027e-03
11.500	24.000	7.9033e-03
11.750	17.000	1.0000e-07
11.750	17.250	1.0000e-07
11.750	17.500	1.0000e-07
11.750	17.750	1.0000e-07
11.750	18.000	1.0000e-07
11.750	18.250	1.1523e-06
11.750	18.500	2.9630e-06
11.750	18.750	7.3251e-06
11.750	19.000	1.6543e-05
11.750	19.250	3.4650e-05
11.750	19.500	6.7654e-05
11.750	19.750	1.2889e-04
11.750	20.000	2.4486e-04
11.750	20.250	4.6700e-04
11.750	20.500	8.6272e-04
11.750	20.750	1.5117e-03
11.750	21.000	2.4104e-03
11.750	21.250	3.4449e-03
11.750	21.500	4.4687e-03
11.750	21.750	5.5671e-03
11.750	22.000	6.5188e-03
11.750	22.250	7.1547e-03
11.750	22.500	7.4800e-03
11.750	22.750	7.6625e-03
11.750	23.000	7.7984e-03
11.750	23.250	7.8730e-03
11.750	23.500	7.8918e-03
11.750	23.750	7.8999e-03
11.750	24.000	7.9030e-03
12.000	17.000	1.0000e-07
12.000	17.250	1.0000e-07
12.000	17.500	1.0000e-07
12.000	17.750	1.0000e-07
12.000	18.000	1.0000e-07
12.000	18.250	1.0000e-07
12.000	18.500	1.5638e-06
12.000	18.750	3.8683e-06
12.000	19.000	9.1358e-06
12.000	19.250	2.0082e-05
12.000	19.500	4.1070e-05
12.000	19.750	7.8930e-05
12.000	20.000	1.4971e-04
12.000	20.250	2.8453e-04
12.000	20.500	5.4165e-04
12.000	20.750	9.9654e-04
12.000	21.000	1.7326e-03
12.000	21.250	2.6984e-03
12.000	21.500	3.7519e-03
12.000	21.750	4.7584e-03
12.000	22.000	5.7917e-03
12.000	22.250	6.6411e-03
12.000	22.500	7.2090e-03
12.000	22.750	7.5105e-03
12.000	23.000	7.6809e-03
12.000	23.250	7.8082e-03
12.000	23.500	7.8763e-03
12.000	23.750	7.8932e-03
12.000	24.000	7.9004e-03
12.250	17.000	1.0000e-07
12.250	17.250	1.0000e-07
12.250	17.500	1.0000e-07
12.250	17.750	1.0000e-07
12.250	18.000	1.0000e-07
12.250	18.250	1.0000e-07
12.250	18.500	1.0000e-07
12.250	18.750	1.8930e-06
12.250	19.000	4.6091e-06
12.250	19.250	1.0700e-05
12.250	19.500	2.3045e-05
12.250	19.750	4.6502e-05
12.250	20.000	8.8971e-05
12.250	20.250	1.6889e-04
12.250	20.500	3.2206e-04
12.250	20.750	6.1276e-04
12.250	21.000	1.1312e-03
12.250	21.250	1.9492e-03
12.250	21.500	2.9700e-03
12.250	21.750	4.0386e-03
12.250	22.000	5.0026e-03
12.250	22.250	5.9741e-03
12.250	22.500	6.7453e-03
12.250	22.750	7.2595e-03
12.250	23.000	7.5417e-03
12.250	23.250	7.7016e-03
12.250	23.500	7.8195e-03
12.250	23.750	7.8799e-03
12.250	24.000	7.8947e-03
12.500	17.000	1.0000e-07
12.500	17.250	1.0000e-07
12.500	17.500	1.0000e-07
12.500	17.750	1.0000e-07
12.500	18.000	1.0000e-07
12.500	18.250	1.0000e-07
12.500	18.500	1.0000e-07
12.500	18.750	9.0535e-07
12.500	19.000	2.2222e-06
12.500	19.250	5.1852e-06
12.500	19.500	1.1770e-05
12.500	19.750	2.5432e-05
12.500	20.000	5.0947e-05
12.500	20.250	9.7695e-05
12.500	20.500	1.8675e-04
12.500	20.750	3.5877e-04
12.500	21.000	6.8584e-04
12.500	21.250	1.2667e-03
12.500	21.500	2.1539e-03
12.500	21.750	3.2141e-03
12.500	22.000	4.2851e-03
12.500	22.250	5.2165e-03
12.500	22.500	6.1342e-03
12.500	22.750	6.8526e-03
12.500	23.000	7.3034e-03
12.500	23.250	7.5684e-03
12.500	23.500	7.7213e-03
12.500	23.750	7.8308e-03
12.500	24.000	7.8835e-03
12.750	17.000	1.0000e-07
12.750	17.250	1.0000e-07
12.750	17.500	1.0000e-07
12.750	17.750	1.0000e-07
12.750	18.000	1.0000e-07
12.750	18.250	1.0000e-07
12.750	18.500	1.0000e-07
12.750	18.750	1.0000e-07
12.750	19.000	1.0700e-06
12.750	19.250	2.3868e-06
12.750	19.500	5.5144e-06
12.750	19.750	1.2593e-05
12.750	20.000	2.7078e-05
12.750	20.250	5.4733e-05
12.750	20.500	1.0584e-04
12.750	20.750	2.0502e-04
12.750	21.000	3.9860e-04
12.750	21.250	7.6115e-04
12.750	21.500	1.3895e-03
12.750	21.750	2.3425e-03
12.750	22.000	3.4247e-03
12.750	22.250	4.4857e-03
12.750	22.500	5.4025e-03
12.750	22.750	6.2779e-03
12.750	23.000	6.9261e-03
12.750	23.250	7.3403e-03
12.750	23.500	7.5906e-03
12.750	23.750	7.7383e-03
12.750	24.000	7.8405e-03
13.000	17.000	1.0000e-07
13.000	17.250	1.0000e-07
13.000	17.500	1.0000e-07
13.000	17.750	1.0000e-07
13.000	18.000	1.0000e-07
13.000	18.250	1.0000e-07
13.000	18.500	1.0000e-07
13.000	18.750	1.0000e-07
13.000	19.000	1.0000e-07
13.000	19.250	1.1523e-06
13.000	19.500	2.4691e-06
13.000	19.750	5.6790e-06
13.000	20.000	1.3004e-05
13.000	20.250	2.8230e-05
13.000	20.500	5.8107e-05
13.000	20.750	1.1399e-04
13.000	21.000	2.2305e-04
13.000	21.250	4.3770e-04
13.000	21.500	8.2807e-04
13.000	21.750	1.5200e-03
13.000	22.000	2.5016e-03
13.000	22.250	3.6113e-03
13.000	22.500	4.6661e-03
13.000	22.750	5.5578e-03
13.000	23.000	6.3718e-03
13.000	23.250	6.9835e-03
13.000	23.500	7.3701e-03
13.000	23.750	7.6088e-03
13.000	24.000	7.7519e-03
13.250	17.000	1.0000e-07
13.250	17.250	1.0000e-07
13.250	17.500	1.0000e-07
13.250	17.750	1.0000e-07
13.250	18.000	1.0000e-07
13.250	18.250	1.0000e-07
13.250	18.500	1.0000e-07
13.250	18.750	1.0000e-07
13.250	19.000	1.0000e-07
13.250	19.250	1.0000e-07
13.250	19.500	1.1523e-06
13.250	19.750	2.5514e-06
13.250	20.000	5.6790e-06
13.250	20.250	1.3004e-05
13.250	20.500	2.8807e-05
13.250	20.750	6.0247e-05
13.250	21.000	1.2132e-04
13.250	21.250	2.4016e-04
13.250	21.500	4.6601e-04
13.250	21.750	8.7984e-04
13.250	22.000	1.6265e-03
13.250	22.250	2.6599e-03
13.250	22.500	3.7793e-03
13.250	22.750	4.8245e-03
13.250	23.000	5.6846e-03
13.250	23.250	6.4304e-03
13.250	23.500	7.0147e-03
13.250	23.750	7.3961e-03
13.250	24.000	7.6235e-03
13.500	17.000	1.0000e-07
13.500	17.250	1.0000e-07
13.500	17.500	1.0000e-07
13.500	17.750	1.0000e-07
13.500	18.000	1.0000e-07
13.500	18.250	1.0000e-07
13.500	18.500	1.0000e-07
13.500	18.750	1.0000e-07
13.500	19.000	1.0000e-07
13.500	19.250	1.0000e-07
13.500	19.500	1.0000e-07
13.500	19.750	1.1523e-06
13.500	20.000	2.5514e-06
13.500	20.250	5.6790e-06
13.500	20.500	1.3086e-05
13.500	20.750	2.9053e-05
13.500	21.000	6.0494e-05
13.500	21.250	1.2444e-04
13.500	21.500	2.4486e-04
13.500	21.750	4.8066e-04
13.500	22.000	9.2412e-04
13.500	22.250	1.7275e-03
13.500	22.500	2.8212e-03
13.500	22.750	3.9640e-03
13.500	23.000	4.9639e-03
13.500	23.250	5.7909e-03
13.500	23.500	6.5148e-03
13.500	23.750	7.0640e-03
13.500	24.000	7.4172e-03
13.750	17.000	1.0000e-07
13.750	17.250	1.0000e-07
13.750	17.500	1.0000e-07
13.750	17.750	1.0000e-07
13.750	18.000	1.0000e-07
13.750	18.250	1.0000e-07
13.750	18.500	1.0000e-07
13.750	18.750	1.0000e-07
13.750	19.000	1.0000e-07
13.750	19.250	1.0000e-07
13.750	19.500	1.0000e-07
13.750	19.750	1.0000e-07
13.750	20.000	1.2346e-06
13.750	20.250	2.6337e-06
13.750	20.500	5.8436e-06
13.750	20.750	1.3251e-05
13.750	21.000	2.9300e-05
13.750	21.250	6.1152e-05
13.750	21.500	1.2420e-04
13.750	21.750	2.4955e-04
13.750	22.000	4.9259e-04
13.750	22.250	9.7407e-04
13.750	22.500	1.8452e-03
13.750	22.750	3.0058e-03
13.750	23.000	4.1603e-03
13.750	23.250	5.0910e-03
13.750	23.500	5.8832e-03
13.750	23.750	6.5797e-03
13.750	24.000	7.1043e-03
14.000	17.000	1.0000e-07
14.000	17.250	1.0000e-07
14.000	17.500	1.0000e-07
14.000	17.750	1.0000e-07
14.000	18.000	1.0000e-07
14.000	18.250	1.0000e-07
14.000	18.500	1.0000e-07
14.000	18.750	1.0000e-07
14.000	19.000	1.0000e-07
14.000	19.250	1.0000e-07
14.000	19.500	1.0000e-07
14.000	19.750	1.0000e-07
14.000	20.000	1.0000e-07
14.000	20.250	1.3169e-06
14.000	20.500	2.7160e-06
14.000	20.750	6.0905e-06
14.000	21.000	1.3745e-05
14.000	21.250	3.0370e-05
14.000	21.500	6.2881e-05
14.000	21.750	1.2667e-04
14.000	22.000	2.5235e-04
14.000	22.250	5.0848e-04
14.000	22.500	1.0249e-03
14.000	22.750	1.9380e-03
14.000	23.000	3.1747e-03
14.000	23.250	4.3474e-03
14.000	23.500	5.2219e-03
14.000	23.750	5.9782e-03
14.000	24.000	6.6540e-03
