InwT 2052.68A  relative to Inci 1215.00A scaled to 1215A.
Hden   Phi(H)  Eq_Width (A)
 7.000	17.000	2.4898e-02
 7.000	17.250	1.6021e-02
 7.000	17.500	1.1569e-02
 7.000	17.750	9.4709e-03
 7.000	18.000	8.5107e-03
 7.000	18.250	7.9965e-03
 7.000	18.500	7.7203e-03
 7.000	18.750	7.6040e-03
 7.000	19.000	7.5446e-03
 7.000	19.250	7.5119e-03
 7.000	19.500	7.4984e-03
 7.000	19.750	7.4929e-03
 7.000	20.000	7.4905e-03
 7.000	20.250	7.4895e-03
 7.000	20.500	7.4890e-03
 7.000	20.750	7.4886e-03
 7.000	21.000	7.4885e-03
 7.000	21.250	7.4884e-03
 7.000	21.500	7.4885e-03
 7.000	21.750	7.4883e-03
 7.000	22.000	7.4883e-03
 7.000	22.250	7.4883e-03
 7.000	22.500	7.4883e-03
 7.000	22.750	7.4885e-03
 7.000	23.000	7.4885e-03
 7.000	23.250	7.4883e-03
 7.000	23.500	7.4883e-03
 7.000	23.750	7.4883e-03
 7.000	24.000	7.4883e-03
 7.250	17.000	4.1887e-02
 7.250	17.250	2.4842e-02
 7.250	17.500	1.5994e-02
 7.250	17.750	1.1555e-02
 7.250	18.000	9.4653e-03
 7.250	18.250	8.5085e-03
 7.250	18.500	7.9956e-03
 7.250	18.750	7.7200e-03
 7.250	19.000	7.6039e-03
 7.250	19.250	7.5445e-03
 7.250	19.500	7.5119e-03
 7.250	19.750	7.4984e-03
 7.250	20.000	7.4929e-03
 7.250	20.250	7.4905e-03
 7.250	20.500	7.4895e-03
 7.250	20.750	7.4889e-03
 7.250	21.000	7.4886e-03
 7.250	21.250	7.4885e-03
 7.250	21.500	7.4884e-03
 7.250	21.750	7.4898e-03
 7.250	22.000	7.4883e-03
 7.250	22.250	7.4883e-03
 7.250	22.500	7.4883e-03
 7.250	22.750	7.4891e-03
 7.250	23.000	7.4891e-03
 7.250	23.250	7.4883e-03
 7.250	23.500	7.4883e-03
 7.250	23.750	7.4883e-03
 7.250	24.000	7.4883e-03
 7.500	17.000	5.4238e-02
 7.500	17.250	4.1801e-02
 7.500	17.500	2.4804e-02
 7.500	17.750	1.5973e-02
 7.500	18.000	1.1541e-02
 7.500	18.250	9.4607e-03
 7.500	18.500	8.5067e-03
 7.500	18.750	7.9949e-03
 7.500	19.000	7.7198e-03
 7.500	19.250	7.6038e-03
 7.500	19.500	7.5445e-03
 7.500	19.750	7.5119e-03
 7.500	20.000	7.4984e-03
 7.500	20.250	7.4929e-03
 7.500	20.500	7.4905e-03
 7.500	20.750	7.4895e-03
 7.500	21.000	7.4889e-03
 7.500	21.250	7.4886e-03
 7.500	21.500	7.4885e-03
 7.500	21.750	7.4884e-03
 7.500	22.000	7.4883e-03
 7.500	22.250	7.4883e-03
 7.500	22.500	7.4883e-03
 7.500	22.750	7.4883e-03
 7.500	23.000	7.4886e-03
 7.500	23.250	7.4891e-03
 7.500	23.500	7.4883e-03
 7.500	23.750	7.4892e-03
 7.500	24.000	7.4883e-03
 7.750	17.000	7.0002e-02
 7.750	17.250	5.4101e-02
 7.750	17.500	4.1745e-02
 7.750	17.750	2.4782e-02
 7.750	18.000	1.5958e-02
 7.750	18.250	1.1529e-02
 7.750	18.500	9.4562e-03
 7.750	18.750	8.5053e-03
 7.750	19.000	7.9945e-03
 7.750	19.250	7.7197e-03
 7.750	19.500	7.6037e-03
 7.750	19.750	7.5445e-03
 7.750	20.000	7.5119e-03
 7.750	20.250	7.4984e-03
 7.750	20.500	7.4929e-03
 7.750	20.750	7.4905e-03
 7.750	21.000	7.4894e-03
 7.750	21.250	7.4889e-03
 7.750	21.500	7.4886e-03
 7.750	21.750	7.4884e-03
 7.750	22.000	7.4883e-03
 7.750	22.250	7.4883e-03
 7.750	22.500	7.4883e-03
 7.750	22.750	7.4885e-03
 7.750	23.000	7.4886e-03
 7.750	23.250	7.4883e-03
 7.750	23.500	7.4891e-03
 7.750	23.750	7.4891e-03
 7.750	24.000	7.4883e-03
 8.000	17.000	6.8514e-02
 8.000	17.250	6.8918e-02
 8.000	17.500	5.3763e-02
 8.000	17.750	4.1661e-02
 8.000	18.000	2.4769e-02
 8.000	18.250	1.5947e-02
 8.000	18.500	1.1517e-02
 8.000	18.750	9.4516e-03
 8.000	19.000	8.5040e-03
 8.000	19.250	7.9942e-03
 8.000	19.500	7.7195e-03
 8.000	19.750	7.6037e-03
 8.000	20.000	7.5444e-03
 8.000	20.250	7.5119e-03
 8.000	20.500	7.4984e-03
 8.000	20.750	7.4929e-03
 8.000	21.000	7.4905e-03
 8.000	21.250	7.4894e-03
 8.000	21.500	7.4889e-03
 8.000	21.750	7.4886e-03
 8.000	22.000	7.4884e-03
 8.000	22.250	7.4883e-03
 8.000	22.500	7.4883e-03
 8.000	22.750	7.4885e-03
 8.000	23.000	7.4882e-03
 8.000	23.250	7.4887e-03
 8.000	23.500	7.4882e-03
 8.000	23.750	7.4882e-03
 8.000	24.000	7.4882e-03
 8.250	17.000	6.7452e-02
 8.250	17.250	6.8405e-02
 8.250	17.500	6.8787e-02
 8.250	17.750	5.3714e-02
 8.250	18.000	4.1655e-02
 8.250	18.250	2.4765e-02
 8.250	18.500	1.5936e-02
 8.250	18.750	1.1504e-02
 8.250	19.000	9.4468e-03
 8.250	19.250	8.5026e-03
 8.250	19.500	7.9938e-03
 8.250	19.750	7.7194e-03
 8.250	20.000	7.6037e-03
 8.250	20.250	7.5444e-03
 8.250	20.500	7.5119e-03
 8.250	20.750	7.4984e-03
 8.250	21.000	7.4929e-03
 8.250	21.250	7.4905e-03
 8.250	21.500	7.4894e-03
 8.250	21.750	7.4889e-03
 8.250	22.000	7.4886e-03
 8.250	22.250	7.4884e-03
 8.250	22.500	7.4883e-03
 8.250	22.750	7.4885e-03
 8.250	23.000	7.4882e-03
 8.250	23.250	7.4902e-03
 8.250	23.500	7.4882e-03
 8.250	23.750	7.4882e-03
 8.250	24.000	7.4888e-03
 8.500	17.000	6.6269e-02
 8.500	17.250	6.7472e-02
 8.500	17.500	6.8402e-02
 8.500	17.750	6.8752e-02
 8.500	18.000	5.3714e-02
 8.500	18.250	4.1667e-02
 8.500	18.500	2.4766e-02
 8.500	18.750	1.5927e-02
 8.500	19.000	1.1490e-02
 8.500	19.250	9.4417e-03
 8.500	19.500	8.5013e-03
 8.500	19.750	7.9936e-03
 8.500	20.000	7.7194e-03
 8.500	20.250	7.6036e-03
 8.500	20.500	7.5444e-03
 8.500	20.750	7.5119e-03
 8.500	21.000	7.4984e-03
 8.500	21.250	7.4929e-03
 8.500	21.500	7.4905e-03
 8.500	21.750	7.4894e-03
 8.500	22.000	7.4889e-03
 8.500	22.250	7.4886e-03
 8.500	22.500	7.4884e-03
 8.500	22.750	7.4883e-03
 8.500	23.000	7.4882e-03
 8.500	23.250	7.4884e-03
 8.500	23.500	7.4882e-03
 8.500	23.750	7.4882e-03
 8.500	24.000	7.4882e-03
 8.750	17.000	6.4885e-02
 8.750	17.250	6.6436e-02
 8.750	17.500	6.7681e-02
 8.750	17.750	6.8490e-02
 8.750	18.000	6.8838e-02
 8.750	18.250	5.3734e-02
 8.750	18.500	4.1689e-02
 8.750	18.750	2.4773e-02
 8.750	19.000	1.5919e-02
 8.750	19.250	1.1476e-02
 8.750	19.500	9.4363e-03
 8.750	19.750	8.4999e-03
 8.750	20.000	7.9933e-03
 8.750	20.250	7.7193e-03
 8.750	20.500	7.6036e-03
 8.750	20.750	7.5444e-03
 8.750	21.000	7.5119e-03
 8.750	21.250	7.4984e-03
 8.750	21.500	7.4929e-03
 8.750	21.750	7.4905e-03
 8.750	22.000	7.4894e-03
 8.750	22.250	7.4889e-03
 8.750	22.500	7.4886e-03
 8.750	22.750	7.4884e-03
 8.750	23.000	7.4891e-03
 8.750	23.250	7.4882e-03
 8.750	23.500	7.4884e-03
 8.750	23.750	7.4882e-03
 8.750	24.000	7.4882e-03
 9.000	17.000	6.3152e-02
 9.000	17.250	6.5182e-02
 9.000	17.500	6.6879e-02
 9.000	17.750	6.8250e-02
 9.000	18.000	6.9076e-02
 9.000	18.250	6.9303e-02
 9.000	18.500	5.3745e-02
 9.000	18.750	4.1714e-02
 9.000	19.000	2.4785e-02
 9.000	19.250	1.5912e-02
 9.000	19.500	1.1462e-02
 9.000	19.750	9.4308e-03
 9.000	20.000	8.4987e-03
 9.000	20.250	7.9930e-03
 9.000	20.500	7.7193e-03
 9.000	20.750	7.6036e-03
 9.000	21.000	7.5444e-03
 9.000	21.250	7.5119e-03
 9.000	21.500	7.4984e-03
 9.000	21.750	7.4929e-03
 9.000	22.000	7.4905e-03
 9.000	22.250	7.4894e-03
 9.000	22.500	7.4888e-03
 9.000	22.750	7.4886e-03
 9.000	23.000	7.4884e-03
 9.000	23.250	7.4883e-03
 9.000	23.500	7.4882e-03
 9.000	23.750	7.4882e-03
 9.000	24.000	7.4883e-03
 9.250	17.000	6.0924e-02
 9.250	17.250	6.3554e-02
 9.250	17.500	6.5916e-02
 9.250	17.750	6.8015e-02
 9.250	18.000	6.9637e-02
 9.250	18.250	7.0719e-02
 9.250	18.500	7.0501e-02
 9.250	18.750	5.3719e-02
 9.250	19.000	4.1734e-02
 9.250	19.250	2.4802e-02
 9.250	19.500	1.5910e-02
 9.250	19.750	1.1449e-02
 9.250	20.000	9.4255e-03
 9.250	20.250	8.4975e-03
 9.250	20.500	7.9928e-03
 9.250	20.750	7.7193e-03
 9.250	21.000	7.6036e-03
 9.250	21.250	7.5444e-03
 9.250	21.500	7.5114e-03
 9.250	21.750	7.4979e-03
 9.250	22.000	7.4923e-03
 9.250	22.250	7.4900e-03
 9.250	22.500	7.4891e-03
 9.250	22.750	7.4885e-03
 9.250	23.000	7.4883e-03
 9.250	23.250	7.4882e-03
 9.250	23.500	7.4881e-03
 9.250	23.750	7.4881e-03
 9.250	24.000	7.4881e-03
 9.500	17.000	5.8074e-02
 9.500	17.250	6.1460e-02
 9.500	17.500	6.4650e-02
 9.500	17.750	6.7760e-02
 9.500	18.000	7.0508e-02
 9.500	18.250	7.3001e-02
 9.500	18.500	7.4877e-02
 9.500	18.750	7.2388e-02
 9.500	19.000	5.3638e-02
 9.500	19.250	4.1733e-02
 9.500	19.500	2.4824e-02
 9.500	19.750	1.5912e-02
 9.500	20.000	1.1439e-02
 9.500	20.250	9.4210e-03
 9.500	20.500	8.4965e-03
 9.500	20.750	7.9923e-03
 9.500	21.000	7.7188e-03
 9.500	21.250	7.6031e-03
 9.500	21.500	7.5439e-03
 9.500	21.750	7.5111e-03
 9.500	22.000	7.4977e-03
 9.500	22.250	7.4922e-03
 9.500	22.500	7.4898e-03
 9.500	22.750	7.4886e-03
 9.500	23.000	7.4881e-03
 9.500	23.250	7.4878e-03
 9.500	23.500	7.4877e-03
 9.500	23.750	7.4876e-03
 9.500	24.000	7.4876e-03
 9.750	17.000	5.4140e-02
 9.750	17.250	5.8633e-02
 9.750	17.500	6.2885e-02
 9.750	17.750	6.7286e-02
 9.750	18.000	7.1817e-02
 9.750	18.250	7.6073e-02
 9.750	18.500	7.9861e-02
 9.750	18.750	8.2665e-02
 9.750	19.000	7.2026e-02
 9.750	19.250	5.3476e-02
 9.750	19.500	4.1689e-02
 9.750	19.750	2.4847e-02
 9.750	20.000	1.5919e-02
 9.750	20.250	1.1434e-02
 9.750	20.500	9.4176e-03
 9.750	20.750	8.4958e-03
 9.750	21.000	7.9923e-03
 9.750	21.250	7.7187e-03
 9.750	21.500	7.6032e-03
 9.750	21.750	7.5440e-03
 9.750	22.000	7.5112e-03
 9.750	22.250	7.4978e-03
 9.750	22.500	7.4922e-03
 9.750	22.750	7.4898e-03
 9.750	23.000	7.4886e-03
 9.750	23.250	7.4881e-03
 9.750	23.500	7.4878e-03
 9.750	23.750	7.4877e-03
 9.750	24.000	7.4876e-03
10.000	17.000	4.8582e-02
10.000	17.250	5.4760e-02
10.000	17.500	6.0488e-02
10.000	17.750	6.6513e-02
10.000	18.000	7.3182e-02
10.000	18.250	7.9659e-02
10.000	18.500	8.5122e-02
10.000	18.750	8.9405e-02
10.000	19.000	9.0122e-02
10.000	19.250	7.1403e-02
10.000	19.500	5.3204e-02
10.000	19.750	4.1565e-02
10.000	20.000	2.4868e-02
10.000	20.250	1.5930e-02
10.000	20.500	1.1431e-02
10.000	20.750	9.4149e-03
10.000	21.000	8.4956e-03
10.000	21.250	7.9923e-03
10.000	21.500	7.7187e-03
10.000	21.750	7.6032e-03
10.000	22.000	7.5440e-03
10.000	22.250	7.5113e-03
10.000	22.500	7.4978e-03
10.000	22.750	7.4922e-03
10.000	23.000	7.4898e-03
10.000	23.250	7.4887e-03
10.000	23.500	7.4881e-03
10.000	23.750	7.4878e-03
10.000	24.000	7.4877e-03
10.250	17.000	4.2433e-02
10.250	17.250	4.9409e-02
10.250	17.500	5.7244e-02
10.250	17.750	6.5393e-02
10.250	18.000	7.4268e-02
10.250	18.250	8.2837e-02
10.250	18.500	9.0060e-02
10.250	18.750	9.5928e-02
10.250	19.000	1.0051e-01
10.250	19.250	9.8744e-02
10.250	19.500	7.0779e-02
10.250	19.750	5.2785e-02
10.250	20.000	4.1322e-02
10.250	20.250	2.4874e-02
10.250	20.500	1.5942e-02
10.250	20.750	1.1431e-02
10.250	21.000	9.4135e-03
10.250	21.250	8.4956e-03
10.250	21.500	7.9923e-03
10.250	21.750	7.7187e-03
10.250	22.000	7.6032e-03
10.250	22.250	7.5440e-03
10.250	22.500	7.5114e-03
10.250	22.750	7.4978e-03
10.250	23.000	7.4922e-03
10.250	23.250	7.4898e-03
10.250	23.500	7.4886e-03
10.250	23.750	7.4881e-03
10.250	24.000	7.4878e-03
10.500	17.000	3.6260e-02
10.500	17.250	4.3593e-02
10.500	17.500	5.2771e-02
10.500	17.750	6.3678e-02
10.500	18.000	7.4689e-02
10.500	18.250	8.4952e-02
10.500	18.500	9.3666e-02
10.500	18.750	1.0079e-01
10.500	19.000	1.0631e-01
10.500	19.250	1.1086e-01
10.500	19.500	9.9929e-02
10.500	19.750	7.0414e-02
10.500	20.000	5.2406e-02
10.500	20.250	4.0970e-02
10.500	20.500	2.4859e-02
10.500	20.750	1.5950e-02
10.500	21.000	1.1434e-02
10.500	21.250	9.4133e-03
10.500	21.500	8.4961e-03
10.500	21.750	7.9923e-03
10.500	22.000	7.7188e-03
10.500	22.250	7.6033e-03
10.500	22.500	7.5441e-03
10.500	22.750	7.5114e-03
10.500	23.000	7.4979e-03
10.500	23.250	7.4922e-03
10.500	23.500	7.4898e-03
10.500	23.750	7.4887e-03
10.500	24.000	7.4881e-03
10.750	17.000	3.0944e-02
10.750	17.250	3.7802e-02
10.750	17.500	4.7961e-02
10.750	17.750	6.0747e-02
10.750	18.000	7.3760e-02
10.750	18.250	8.5301e-02
10.750	18.500	9.5050e-02
10.750	18.750	1.0325e-01
10.750	19.000	1.0981e-01
10.750	19.250	1.1493e-01
10.750	19.500	1.1877e-01
10.750	19.750	9.9073e-02
10.750	20.000	7.0165e-02
10.750	20.250	5.2127e-02
10.750	20.500	4.0545e-02
10.750	20.750	2.4813e-02
10.750	21.000	1.5952e-02
10.750	21.250	1.1439e-02
10.750	21.500	9.4142e-03
10.750	21.750	8.4970e-03
10.750	22.000	7.9924e-03
10.750	22.250	7.7188e-03
10.750	22.500	7.6035e-03
10.750	22.750	7.5441e-03
10.750	23.000	7.5114e-03
10.750	23.250	7.4979e-03
10.750	23.500	7.4923e-03
10.750	23.750	7.4898e-03
10.750	24.000	7.4887e-03
11.000	17.000	2.6752e-02
11.000	17.250	3.2826e-02
11.000	17.500	4.2797e-02
11.000	17.750	5.6377e-02
11.000	18.000	7.0445e-02
11.000	18.250	8.2966e-02
11.000	18.500	9.3785e-02
11.000	18.750	1.0304e-01
11.000	19.000	1.1073e-01
11.000	19.250	1.1687e-01
11.000	19.500	1.2159e-01
11.000	19.750	1.2446e-01
11.000	20.000	9.8918e-02
11.000	20.250	7.0792e-02
11.000	20.500	5.1950e-02
11.000	20.750	4.0142e-02
11.000	21.000	2.4676e-02
11.000	21.250	1.5941e-02
11.000	21.500	1.1446e-02
11.000	21.750	9.4162e-03
11.000	22.000	8.4983e-03
11.000	22.250	7.9927e-03
11.000	22.500	7.7188e-03
11.000	22.750	7.6036e-03
11.000	23.000	7.5443e-03
11.000	23.250	7.5114e-03
11.000	23.500	7.4980e-03
11.000	23.750	7.4923e-03
11.000	24.000	7.4899e-03
11.250	17.000	2.3529e-02
11.250	17.250	2.8920e-02
11.250	17.500	3.7920e-02
11.250	17.750	5.0577e-02
11.250	18.000	6.4738e-02
11.250	18.250	7.8017e-02
11.250	18.500	8.9935e-02
11.250	18.750	1.0045e-01
11.250	19.000	1.0914e-01
11.250	19.250	1.1631e-01
11.250	19.500	1.2169e-01
11.250	19.750	1.2561e-01
11.250	20.000	1.2594e-01
11.250	20.250	9.8466e-02
11.250	20.500	7.0514e-02
11.250	20.750	5.2019e-02
11.250	21.000	3.9812e-02
11.250	21.250	2.4457e-02
11.250	21.500	1.5900e-02
11.250	21.750	1.1454e-02
11.250	22.000	9.4193e-03
11.250	22.250	8.4998e-03
11.250	22.500	7.9930e-03
11.250	22.750	7.7187e-03
11.250	23.000	7.6036e-03
11.250	23.250	7.5444e-03
11.250	23.500	7.5114e-03
11.250	23.750	7.4980e-03
11.250	24.000	7.4924e-03
11.500	17.000	2.1091e-02
11.500	17.250	2.5923e-02
11.500	17.500	3.3809e-02
11.500	17.750	4.4672e-02
11.500	18.000	5.7594e-02
11.500	18.250	7.1123e-02
11.500	18.500	8.4032e-02
11.500	18.750	9.5764e-02
11.500	19.000	1.0580e-01
11.500	19.250	1.1379e-01
11.500	19.500	1.1989e-01
11.500	19.750	1.2469e-01
11.500	20.000	1.2827e-01
11.500	20.250	1.2426e-01
11.500	20.500	9.8985e-02
11.500	20.750	7.1225e-02
11.500	21.000	5.2650e-02
11.500	21.250	3.9495e-02
11.500	21.500	2.4129e-02
11.500	21.750	1.5826e-02
11.500	22.000	1.1459e-02
11.500	22.250	9.4233e-03
11.500	22.500	8.5017e-03
11.500	22.750	7.9934e-03
11.500	23.000	7.7185e-03
11.500	23.250	7.6036e-03
11.500	23.500	7.5445e-03
11.500	23.750	7.5115e-03
11.500	24.000	7.4980e-03
11.750	17.000	1.9224e-02
11.750	17.250	2.3510e-02
11.750	17.500	3.0412e-02
11.750	17.750	3.9697e-02
11.750	18.000	5.0785e-02
11.750	18.250	6.3530e-02
11.750	18.500	7.6980e-02
11.750	18.750	8.9848e-02
11.750	19.000	1.0129e-01
11.750	19.250	1.1052e-01
11.750	19.500	1.1752e-01
11.750	19.750	1.2287e-01
11.750	20.000	1.2738e-01
11.750	20.250	1.3115e-01
11.750	20.500	1.2567e-01
11.750	20.750	9.9778e-02
11.750	21.000	7.2603e-02
11.750	21.250	5.4601e-02
11.750	21.500	3.8775e-02
11.750	21.750	2.3732e-02
11.750	22.000	1.5695e-02
11.750	22.250	1.1458e-02
11.750	22.500	9.4278e-03
11.750	22.750	8.5039e-03
11.750	23.000	7.9939e-03
11.750	23.250	7.7184e-03
11.750	23.500	7.6035e-03
11.750	23.750	7.5445e-03
11.750	24.000	7.5118e-03
12.000	17.000	1.7710e-02
12.000	17.250	2.1442e-02
12.000	17.500	2.7415e-02
12.000	17.750	3.5592e-02
12.000	18.000	4.5421e-02
12.000	18.250	5.6876e-02
12.000	18.500	6.9987e-02
12.000	18.750	8.3539e-02
12.000	19.000	9.6140e-02
12.000	19.250	1.0698e-01
12.000	19.500	1.1531e-01
12.000	19.750	1.2137e-01
12.000	20.000	1.2649e-01
12.000	20.250	1.3094e-01
12.000	20.500	1.3487e-01
12.000	20.750	1.2552e-01
12.000	21.000	1.0136e-01
12.000	21.250	7.6682e-02
12.000	21.500	5.8237e-02
12.000	21.750	3.7986e-02
12.000	22.000	2.3281e-02
12.000	22.250	1.5523e-02
12.000	22.500	1.1445e-02
12.000	22.750	9.4328e-03
12.000	23.000	8.5061e-03
12.000	23.250	7.9946e-03
12.000	23.500	7.7182e-03
12.000	23.750	7.6035e-03
12.000	24.000	7.5446e-03
12.250	17.000	1.6405e-02
12.250	17.250	1.9533e-02
12.250	17.500	2.4601e-02
12.250	17.750	3.1933e-02
12.250	18.000	4.1110e-02
12.250	18.250	5.1960e-02
12.250	18.500	6.4487e-02
12.250	18.750	7.7978e-02
12.250	19.000	9.1096e-02
12.250	19.250	1.0322e-01
12.250	19.500	1.1327e-01
12.250	19.750	1.2097e-01
12.250	20.000	1.2644e-01
12.250	20.250	1.3153e-01
12.250	20.500	1.3648e-01
12.250	20.750	1.4120e-01
12.250	21.000	1.2866e-01
12.250	21.250	1.0633e-01
12.250	21.500	8.2576e-02
12.250	21.750	6.2331e-02
12.250	22.000	3.7153e-02
12.250	22.250	2.2988e-02
12.250	22.500	1.5433e-02
12.250	22.750	1.1418e-02
12.250	23.000	9.4372e-03
12.250	23.250	8.5084e-03
12.250	23.500	7.9953e-03
12.250	23.750	7.7179e-03
12.250	24.000	7.6035e-03
12.500	17.000	1.5051e-02
12.500	17.250	1.7642e-02
12.500	17.500	2.2046e-02
12.500	17.750	2.8524e-02
12.500	18.000	3.7322e-02
12.500	18.250	4.7988e-02
12.500	18.500	6.0389e-02
12.500	18.750	7.3889e-02
12.500	19.000	8.7193e-02
12.500	19.250	9.9839e-02
12.500	19.500	1.1112e-01
12.500	19.750	1.2069e-01
12.500	20.000	1.2783e-01
12.500	20.250	1.3334e-01
12.500	20.500	1.3902e-01
12.500	20.750	1.4557e-01
12.500	21.000	1.5346e-01
12.500	21.250	1.3772e-01
12.500	21.500	1.1393e-01
12.500	21.750	8.9368e-02
12.500	22.000	6.3307e-02
12.500	22.250	3.6505e-02
12.500	22.500	2.2563e-02
12.500	22.750	1.5202e-02
12.500	23.000	1.1379e-02
12.500	23.250	9.4402e-03
12.500	23.500	8.5104e-03
12.500	23.750	7.9960e-03
12.500	24.000	7.7174e-03
12.750	17.000	1.2905e-02
12.750	17.250	1.5617e-02
12.750	17.500	1.9499e-02
12.750	17.750	2.5539e-02
12.750	18.000	3.3853e-02
12.750	18.250	4.4299e-02
12.750	18.500	5.6645e-02
12.750	18.750	7.0521e-02
12.750	19.000	8.4524e-02
12.750	19.250	9.7624e-02
12.750	19.500	1.0961e-01
12.750	19.750	1.2034e-01
12.750	20.000	1.2944e-01
12.750	20.250	1.3691e-01
12.750	20.500	1.4323e-01
12.750	20.750	1.5065e-01
12.750	21.000	1.6182e-01
12.750	21.250	1.7282e-01
12.750	21.500	1.4966e-01
12.750	21.750	1.2516e-01
12.750	22.000	9.6146e-02
12.750	22.250	6.1558e-02
12.750	22.500	3.5653e-02
12.750	22.750	2.2060e-02
12.750	23.000	1.5001e-02
12.750	23.250	1.1330e-02
12.750	23.500	9.4407e-03
12.750	23.750	8.5119e-03
12.750	24.000	7.9964e-03
13.000	17.000	1.0174e-02
13.000	17.250	1.3233e-02
13.000	17.500	1.7178e-02
13.000	17.750	2.2797e-02
13.000	18.000	3.0580e-02
13.000	18.250	4.0702e-02
13.000	18.500	5.2941e-02
13.000	18.750	6.6851e-02
13.000	19.000	8.1411e-02
13.000	19.250	9.5652e-02
13.000	19.500	1.0797e-01
13.000	19.750	1.1993e-01
13.000	20.000	1.3050e-01
13.000	20.250	1.4002e-01
13.000	20.500	1.4934e-01
13.000	20.750	1.5743e-01
13.000	21.000	1.6779e-01
13.000	21.250	1.8435e-01
13.000	21.500	1.9494e-01
13.000	21.750	1.6673e-01
13.000	22.000	1.3561e-01
13.000	22.250	1.0021e-01
13.000	22.500	6.0007e-02
13.000	22.750	3.4909e-02
13.000	23.000	2.1686e-02
13.000	23.250	1.4817e-02
13.000	23.500	1.1271e-02
13.000	23.750	9.4376e-03
13.000	24.000	8.5123e-03
13.250	17.000	8.4077e-03
13.250	17.250	1.1082e-02
13.250	17.500	1.5254e-02
13.250	17.750	2.0417e-02
13.250	18.000	2.7590e-02
13.250	18.250	3.7238e-02
13.250	18.500	4.9190e-02
13.250	18.750	6.2977e-02
13.250	19.000	7.7807e-02
13.250	19.250	9.2496e-02
13.250	19.500	1.0592e-01
13.250	19.750	1.1919e-01
13.250	20.000	1.3113e-01
13.250	20.250	1.4198e-01
13.250	20.500	1.5309e-01
13.250	20.750	1.6427e-01
13.250	21.000	1.7634e-01
13.250	21.250	1.9124e-01
13.250	21.500	2.0380e-01
13.250	21.750	2.1313e-01
13.250	22.000	1.7611e-01
13.250	22.250	1.4244e-01
13.250	22.500	9.9610e-02
13.250	22.750	5.8413e-02
13.250	23.000	3.4136e-02
13.250	23.250	2.1539e-02
13.250	23.500	1.4747e-02
13.250	23.750	1.1209e-02
13.250	24.000	9.4298e-03
13.500	17.000	7.0401e-03
13.500	17.250	9.3702e-03
13.500	17.500	1.3120e-02
13.500	17.750	1.8176e-02
13.500	18.000	2.4932e-02
13.500	18.250	3.3990e-02
13.500	18.500	4.5516e-02
13.500	18.750	5.9071e-02
13.500	19.000	7.3965e-02
13.500	19.250	8.9122e-02
13.500	19.500	1.0353e-01
13.500	19.750	1.1716e-01
13.500	20.000	1.3039e-01
13.500	20.250	1.4382e-01
13.500	20.500	1.5573e-01
13.500	20.750	1.6747e-01
13.500	21.000	1.7850e-01
13.500	21.250	1.9461e-01
13.500	21.500	2.0314e-01
13.500	21.750	2.1864e-01
13.500	22.000	2.2365e-01
13.500	22.250	1.8059e-01
13.500	22.500	1.3875e-01
13.500	22.750	9.5738e-02
13.500	23.000	5.6823e-02
13.500	23.250	3.3252e-02
13.500	23.500	2.0973e-02
13.500	23.750	1.4481e-02
13.500	24.000	1.1150e-02
13.750	17.000	6.0213e-03
13.750	17.250	7.9760e-03
13.750	17.500	1.1323e-02
13.750	17.750	1.6006e-02
13.750	18.000	2.2617e-02
13.750	18.250	3.1068e-02
13.750	18.500	4.2033e-02
13.750	18.750	5.5235e-02
13.750	19.000	7.0125e-02
13.750	19.250	8.5841e-02
13.750	19.500	1.0126e-01
13.750	19.750	1.1583e-01
13.750	20.000	1.2991e-01
13.750	20.250	1.4410e-01
13.750	20.500	1.5816e-01
13.750	20.750	1.7126e-01
13.750	21.000	1.8336e-01
13.750	21.250	1.9474e-01
13.750	21.500	2.0535e-01
13.750	21.750	2.2048e-01
13.750	22.000	2.3679e-01
13.750	22.250	2.3681e-01
13.750	22.500	1.7744e-01
13.750	22.750	1.3566e-01
13.750	23.000	9.2635e-02
13.750	23.250	5.5262e-02
13.750	23.500	3.2569e-02
13.750	23.750	2.0622e-02
13.750	24.000	1.4307e-02
14.000	17.000	5.2156e-03
14.000	17.250	6.9036e-03
14.000	17.500	9.7189e-03
14.000	17.750	1.4064e-02
14.000	18.000	2.0297e-02
14.000	18.250	2.8522e-02
14.000	18.500	3.8897e-02
14.000	18.750	5.1646e-02
14.000	19.000	6.6402e-02
14.000	19.250	8.2519e-02
14.000	19.500	9.9104e-02
14.000	19.750	1.1515e-01
14.000	20.000	1.3026e-01
14.000	20.250	1.4507e-01
14.000	20.500	1.6022e-01
14.000	20.750	1.7495e-01
14.000	21.000	1.8901e-01
14.000	21.250	2.0258e-01
14.000	21.500	2.1168e-01
14.000	21.750	2.2629e-01
14.000	22.000	2.4445e-01
14.000	22.250	2.6587e-01
14.000	22.500	2.5123e-01
14.000	22.750	1.7971e-01
14.000	23.000	1.3217e-01
14.000	23.250	9.1065e-02
14.000	23.500	5.3712e-02
14.000	23.750	3.1911e-02
14.000	24.000	2.0244e-02
