InwT 2200.00A  relative to Inci 1215.00A scaled to 1215A.
Hden   Phi(H)  Eq_Width (A)
 7.000	17.000	1.9990e-02
 7.000	17.250	1.4119e-02
 7.000	17.500	1.0830e-02
 7.000	17.750	9.1145e-03
 7.000	18.000	8.2751e-03
 7.000	18.250	7.8167e-03
 7.000	18.500	7.5642e-03
 7.000	18.750	7.4551e-03
 7.000	19.000	7.3991e-03
 7.000	19.250	7.3682e-03
 7.000	19.500	7.3556e-03
 7.000	19.750	7.3504e-03
 7.000	20.000	7.3481e-03
 7.000	20.250	7.3471e-03
 7.000	20.500	7.3466e-03
 7.000	20.750	7.3463e-03
 7.000	21.000	7.3462e-03
 7.000	21.250	7.3461e-03
 7.000	21.500	7.3462e-03
 7.000	21.750	7.3460e-03
 7.000	22.000	7.3460e-03
 7.000	22.250	7.3460e-03
 7.000	22.500	7.3460e-03
 7.000	22.750	7.3462e-03
 7.000	23.000	7.3462e-03
 7.000	23.250	7.3460e-03
 7.000	23.500	7.3459e-03
 7.000	23.750	7.3459e-03
 7.000	24.000	7.3460e-03
 7.250	17.000	3.0047e-02
 7.250	17.250	1.9960e-02
 7.250	17.500	1.4102e-02
 7.250	17.750	1.0820e-02
 7.250	18.000	9.1102e-03
 7.250	18.250	8.2733e-03
 7.250	18.500	7.8160e-03
 7.250	18.750	7.5640e-03
 7.250	19.000	7.4550e-03
 7.250	19.250	7.3991e-03
 7.250	19.500	7.3682e-03
 7.250	19.750	7.3556e-03
 7.250	20.000	7.3504e-03
 7.250	20.250	7.3481e-03
 7.250	20.500	7.3471e-03
 7.250	20.750	7.3466e-03
 7.250	21.000	7.3463e-03
 7.250	21.250	7.3462e-03
 7.250	21.500	7.3461e-03
 7.250	21.750	7.3475e-03
 7.250	22.000	7.3460e-03
 7.250	22.250	7.3460e-03
 7.250	22.500	7.3460e-03
 7.250	22.750	7.3467e-03
 7.250	23.000	7.3467e-03
 7.250	23.250	7.3460e-03
 7.250	23.500	7.3460e-03
 7.250	23.750	7.3460e-03
 7.250	24.000	7.3460e-03
 7.500	17.000	4.3369e-02
 7.500	17.250	3.0019e-02
 7.500	17.500	1.9941e-02
 7.500	17.750	1.4090e-02
 7.500	18.000	1.0811e-02
 7.500	18.250	9.1067e-03
 7.500	18.500	8.2719e-03
 7.500	18.750	7.8154e-03
 7.500	19.000	7.5637e-03
 7.500	19.250	7.4549e-03
 7.500	19.500	7.3991e-03
 7.500	19.750	7.3682e-03
 7.500	20.000	7.3556e-03
 7.500	20.250	7.3504e-03
 7.500	20.500	7.3481e-03
 7.500	20.750	7.3471e-03
 7.500	21.000	7.3465e-03
 7.500	21.250	7.3463e-03
 7.500	21.500	7.3462e-03
 7.500	21.750	7.3461e-03
 7.500	22.000	7.3460e-03
 7.500	22.250	7.3460e-03
 7.500	22.500	7.3460e-03
 7.500	22.750	7.3460e-03
 7.500	23.000	7.3463e-03
 7.500	23.250	7.3467e-03
 7.500	23.500	7.3459e-03
 7.500	23.750	7.3468e-03
 7.500	24.000	7.3460e-03
 7.750	17.000	6.1981e-02
 7.750	17.250	4.3254e-02
 7.750	17.500	3.0004e-02
 7.750	17.750	1.9930e-02
 7.750	18.000	1.4081e-02
 7.750	18.250	1.0803e-02
 7.750	18.500	9.1035e-03
 7.750	18.750	8.2708e-03
 7.750	19.000	7.8150e-03
 7.750	19.250	7.5636e-03
 7.750	19.500	7.4549e-03
 7.750	19.750	7.3990e-03
 7.750	20.000	7.3682e-03
 7.750	20.250	7.3556e-03
 7.750	20.500	7.3504e-03
 7.750	20.750	7.3481e-03
 7.750	21.000	7.3470e-03
 7.750	21.250	7.3465e-03
 7.750	21.500	7.3463e-03
 7.750	21.750	7.3461e-03
 7.750	22.000	7.3460e-03
 7.750	22.250	7.3460e-03
 7.750	22.500	7.3460e-03
 7.750	22.750	7.3462e-03
 7.750	23.000	7.3462e-03
 7.750	23.250	7.3460e-03
 7.750	23.500	7.3467e-03
 7.750	23.750	7.3467e-03
 7.750	24.000	7.3459e-03
 8.000	17.000	6.1062e-02
 8.000	17.250	6.1086e-02
 8.000	17.500	4.3116e-02
 8.000	17.750	2.9984e-02
 8.000	18.000	1.9923e-02
 8.000	18.250	1.4075e-02
 8.000	18.500	1.0796e-02
 8.000	18.750	9.1002e-03
 8.000	19.000	8.2697e-03
 8.000	19.250	7.8147e-03
 8.000	19.500	7.5635e-03
 8.000	19.750	7.4548e-03
 8.000	20.000	7.3990e-03
 8.000	20.250	7.3682e-03
 8.000	20.500	7.3556e-03
 8.000	20.750	7.3504e-03
 8.000	21.000	7.3481e-03
 8.000	21.250	7.3471e-03
 8.000	21.500	7.3465e-03
 8.000	21.750	7.3463e-03
 8.000	22.000	7.3461e-03
 8.000	22.250	7.3460e-03
 8.000	22.500	7.3459e-03
 8.000	22.750	7.3462e-03
 8.000	23.000	7.3459e-03
 8.000	23.250	7.3464e-03
 8.000	23.500	7.3459e-03
 8.000	23.750	7.3459e-03
 8.000	24.000	7.3459e-03
 8.250	17.000	6.0205e-02
 8.250	17.250	6.0999e-02
 8.250	17.500	6.0959e-02
 8.250	17.750	4.3050e-02
 8.250	18.000	2.9980e-02
 8.250	18.250	1.9920e-02
 8.250	18.500	1.4071e-02
 8.250	18.750	1.0789e-02
 8.250	19.000	9.0970e-03
 8.250	19.250	8.2687e-03
 8.250	19.500	7.8145e-03
 8.250	19.750	7.5635e-03
 8.250	20.000	7.4548e-03
 8.250	20.250	7.3990e-03
 8.250	20.500	7.3682e-03
 8.250	20.750	7.3556e-03
 8.250	21.000	7.3504e-03
 8.250	21.250	7.3481e-03
 8.250	21.500	7.3470e-03
 8.250	21.750	7.3465e-03
 8.250	22.000	7.3463e-03
 8.250	22.250	7.3461e-03
 8.250	22.500	7.3460e-03
 8.250	22.750	7.3462e-03
 8.250	23.000	7.3459e-03
 8.250	23.250	7.3478e-03
 8.250	23.500	7.3459e-03
 8.250	23.750	7.3459e-03
 8.250	24.000	7.3464e-03
 8.500	17.000	5.9149e-02
 8.500	17.250	6.0279e-02
 8.500	17.500	6.1016e-02
 8.500	17.750	6.0908e-02
 8.500	18.000	4.3015e-02
 8.500	18.250	2.9978e-02
 8.500	18.500	1.9918e-02
 8.500	18.750	1.4067e-02
 8.500	19.000	1.0781e-02
 8.500	19.250	9.0936e-03
 8.500	19.500	8.2677e-03
 8.500	19.750	7.8142e-03
 8.500	20.000	7.5634e-03
 8.500	20.250	7.4548e-03
 8.500	20.500	7.3990e-03
 8.500	20.750	7.3682e-03
 8.500	21.000	7.3556e-03
 8.500	21.250	7.3504e-03
 8.500	21.500	7.3481e-03
 8.500	21.750	7.3470e-03
 8.500	22.000	7.3465e-03
 8.500	22.250	7.3463e-03
 8.500	22.500	7.3461e-03
 8.500	22.750	7.3460e-03
 8.500	23.000	7.3459e-03
 8.500	23.250	7.3461e-03
 8.500	23.500	7.3459e-03
 8.500	23.750	7.3459e-03
 8.500	24.000	7.3459e-03
 8.750	17.000	5.7861e-02
 8.750	17.250	5.9402e-02
 8.750	17.500	6.0566e-02
 8.750	17.750	6.1113e-02
 8.750	18.000	6.0984e-02
 8.750	18.250	4.2998e-02
 8.750	18.500	2.9975e-02
 8.750	18.750	1.9918e-02
 8.750	19.000	1.4063e-02
 8.750	19.250	1.0773e-02
 8.750	19.500	9.0898e-03
 8.750	19.750	8.2667e-03
 8.750	20.000	7.8141e-03
 8.750	20.250	7.5633e-03
 8.750	20.500	7.4548e-03
 8.750	20.750	7.3990e-03
 8.750	21.000	7.3682e-03
 8.750	21.250	7.3556e-03
 8.750	21.500	7.3504e-03
 8.750	21.750	7.3481e-03
 8.750	22.000	7.3470e-03
 8.750	22.250	7.3465e-03
 8.750	22.500	7.3463e-03
 8.750	22.750	7.3461e-03
 8.750	23.000	7.3467e-03
 8.750	23.250	7.3459e-03
 8.750	23.500	7.3461e-03
 8.750	23.750	7.3459e-03
 8.750	24.000	7.3459e-03
 9.000	17.000	5.6181e-02
 9.000	17.250	5.8306e-02
 9.000	17.500	6.0016e-02
 9.000	17.750	6.1319e-02
 9.000	18.000	6.1853e-02
 9.000	18.250	6.1531e-02
 9.000	18.500	4.2982e-02
 9.000	18.750	2.9971e-02
 9.000	19.000	1.9919e-02
 9.000	19.250	1.4060e-02
 9.000	19.500	1.0765e-02
 9.000	19.750	9.0861e-03
 9.000	20.000	8.2657e-03
 9.000	20.250	7.8138e-03
 9.000	20.500	7.5633e-03
 9.000	20.750	7.4548e-03
 9.000	21.000	7.3990e-03
 9.000	21.250	7.3682e-03
 9.000	21.500	7.3556e-03
 9.000	21.750	7.3503e-03
 9.000	22.000	7.3481e-03
 9.000	22.250	7.3470e-03
 9.000	22.500	7.3465e-03
 9.000	22.750	7.3462e-03
 9.000	23.000	7.3461e-03
 9.000	23.250	7.3460e-03
 9.000	23.500	7.3459e-03
 9.000	23.750	7.3459e-03
 9.000	24.000	7.3460e-03
 9.250	17.000	5.3974e-02
 9.250	17.250	5.6847e-02
 9.250	17.500	5.9380e-02
 9.250	17.750	6.1589e-02
 9.250	18.000	6.3170e-02
 9.250	18.250	6.3955e-02
 9.250	18.500	6.3006e-02
 9.250	18.750	4.2959e-02
 9.250	19.000	2.9963e-02
 9.250	19.250	1.9920e-02
 9.250	19.500	1.4059e-02
 9.250	19.750	1.0757e-02
 9.250	20.000	9.0825e-03
 9.250	20.250	8.2649e-03
 9.250	20.500	7.8137e-03
 9.250	20.750	7.5632e-03
 9.250	21.000	7.4548e-03
 9.250	21.250	7.3990e-03
 9.250	21.500	7.3678e-03
 9.250	21.750	7.3551e-03
 9.250	22.000	7.3497e-03
 9.250	22.250	7.3476e-03
 9.250	22.500	7.3467e-03
 9.250	22.750	7.3462e-03
 9.250	23.000	7.3460e-03
 9.250	23.250	7.3459e-03
 9.250	23.500	7.3458e-03
 9.250	23.750	7.3458e-03
 9.250	24.000	7.3458e-03
 9.500	17.000	5.1246e-02
 9.500	17.250	5.4944e-02
 9.500	17.500	5.8522e-02
 9.500	17.750	6.2002e-02
 9.500	18.000	6.5032e-02
 9.500	18.250	6.7666e-02
 9.500	18.500	6.9294e-02
 9.500	18.750	6.5410e-02
 9.500	19.000	4.2923e-02
 9.500	19.250	2.9948e-02
 9.500	19.500	1.9922e-02
 9.500	19.750	1.4060e-02
 9.500	20.000	1.0752e-02
 9.500	20.250	9.0793e-03
 9.500	20.500	8.2641e-03
 9.500	20.750	7.8132e-03
 9.500	21.000	7.5628e-03
 9.500	21.250	7.4543e-03
 9.500	21.500	7.3984e-03
 9.500	21.750	7.3675e-03
 9.500	22.000	7.3548e-03
 9.500	22.250	7.3496e-03
 9.500	22.500	7.3473e-03
 9.500	22.750	7.3463e-03
 9.500	23.000	7.3458e-03
 9.500	23.250	7.3455e-03
 9.500	23.500	7.3453e-03
 9.500	23.750	7.3453e-03
 9.500	24.000	7.3453e-03
 9.750	17.000	4.7767e-02
 9.750	17.250	5.2414e-02
 9.750	17.500	5.7214e-02
 9.750	17.750	6.2376e-02
 9.750	18.000	6.7763e-02
 9.750	18.250	7.2710e-02
 9.750	18.500	7.6853e-02
 9.750	18.750	7.9415e-02
 9.750	19.000	6.5221e-02
 9.750	19.250	4.2866e-02
 9.750	19.500	2.9920e-02
 9.750	19.750	1.9923e-02
 9.750	20.000	1.4062e-02
 9.750	20.250	1.0748e-02
 9.750	20.500	9.0770e-03
 9.750	20.750	8.2635e-03
 9.750	21.000	7.8131e-03
 9.750	21.250	7.5627e-03
 9.750	21.500	7.4543e-03
 9.750	21.750	7.3985e-03
 9.750	22.000	7.3675e-03
 9.750	22.250	7.3549e-03
 9.750	22.500	7.3496e-03
 9.750	22.750	7.3474e-03
 9.750	23.000	7.3463e-03
 9.750	23.250	7.3458e-03
 9.750	23.500	7.3455e-03
 9.750	23.750	7.3453e-03
 9.750	24.000	7.3453e-03
10.000	17.000	4.3446e-02
10.000	17.250	4.9228e-02
10.000	17.500	5.5484e-02
10.000	17.750	6.2672e-02
10.000	18.000	7.0952e-02
10.000	18.250	7.8878e-02
10.000	18.500	8.5278e-02
10.000	18.750	8.9789e-02
10.000	19.000	8.9164e-02
10.000	19.250	6.4913e-02
10.000	19.500	4.2781e-02
10.000	19.750	2.9873e-02
10.000	20.000	1.9921e-02
10.000	20.250	1.4065e-02
10.000	20.500	1.0747e-02
10.000	20.750	9.0751e-03
10.000	21.000	8.2634e-03
10.000	21.250	7.8132e-03
10.000	21.500	7.5627e-03
10.000	21.750	7.4544e-03
10.000	22.000	7.3986e-03
10.000	22.250	7.3677e-03
10.000	22.500	7.3548e-03
10.000	22.750	7.3496e-03
10.000	23.000	7.3474e-03
10.000	23.250	7.3463e-03
10.000	23.500	7.3458e-03
10.000	23.750	7.3455e-03
10.000	24.000	7.3453e-03
10.250	17.000	3.9348e-02
10.250	17.250	4.5406e-02
10.250	17.500	5.3437e-02
10.250	17.750	6.3065e-02
10.250	18.000	7.4232e-02
10.250	18.250	8.5022e-02
10.250	18.500	9.3847e-02
10.250	18.750	1.0056e-01
10.250	19.000	1.0515e-01
10.250	19.250	1.0076e-01
10.250	19.500	6.4680e-02
10.250	19.750	4.2653e-02
10.250	20.000	2.9807e-02
10.250	20.250	1.9915e-02
10.250	20.500	1.4068e-02
10.250	20.750	1.0746e-02
10.250	21.000	9.0742e-03
10.250	21.250	8.2635e-03
10.250	21.500	7.8132e-03
10.250	21.750	7.5627e-03
10.250	22.000	7.4544e-03
10.250	22.250	7.3986e-03
10.250	22.500	7.3677e-03
10.250	22.750	7.3548e-03
10.250	23.000	7.3496e-03
10.250	23.250	7.3474e-03
10.250	23.500	7.3463e-03
10.250	23.750	7.3458e-03
10.250	24.000	7.3455e-03
10.500	17.000	3.5737e-02
10.500	17.250	4.2052e-02
10.500	17.500	5.1180e-02
10.500	17.750	6.3612e-02
10.500	18.000	7.7338e-02
10.500	18.250	9.0454e-02
10.500	18.500	1.0135e-01
10.500	18.750	1.0991e-01
10.500	19.000	1.1592e-01
10.500	19.250	1.2005e-01
10.500	19.500	1.0234e-01
10.500	19.750	6.4714e-02
10.500	20.000	4.2610e-02
10.500	20.250	2.9728e-02
10.500	20.500	1.9904e-02
10.500	20.750	1.4069e-02
10.500	21.000	1.0748e-02
10.500	21.250	9.0740e-03
10.500	21.500	8.2638e-03
10.500	21.750	7.8133e-03
10.500	22.000	7.5629e-03
10.500	22.250	7.4545e-03
10.500	22.500	7.3986e-03
10.500	22.750	7.3677e-03
10.500	23.000	7.3550e-03
10.500	23.250	7.3496e-03
10.500	23.500	7.3474e-03
10.500	23.750	7.3463e-03
10.500	24.000	7.3458e-03
10.750	17.000	3.2788e-02
10.750	17.250	3.9319e-02
10.750	17.500	4.9714e-02
10.750	17.750	6.4000e-02
10.750	18.000	7.9740e-02
10.750	18.250	9.4339e-02
10.750	18.500	1.0677e-01
10.750	18.750	1.1686e-01
10.750	19.000	1.2435e-01
10.750	19.250	1.2948e-01
10.750	19.500	1.3204e-01
10.750	19.750	1.0215e-01
10.750	20.000	6.4879e-02
10.750	20.250	4.2673e-02
10.750	20.500	2.9660e-02
10.750	20.750	1.9887e-02
10.750	21.000	1.4067e-02
10.750	21.250	1.0751e-02
10.750	21.500	9.0746e-03
10.750	21.750	8.2644e-03
10.750	22.000	7.8133e-03
10.750	22.250	7.5629e-03
10.750	22.500	7.4547e-03
10.750	22.750	7.3987e-03
10.750	23.000	7.3678e-03
10.750	23.250	7.3551e-03
10.750	23.500	7.3497e-03
10.750	23.750	7.3473e-03
10.750	24.000	7.3463e-03
11.000	17.000	3.0375e-02
11.000	17.250	3.7178e-02
11.000	17.500	4.8510e-02
11.000	17.750	6.3889e-02
11.000	18.000	8.0365e-02
11.000	18.250	9.5745e-02
11.000	18.500	1.0934e-01
11.000	18.750	1.2085e-01
11.000	19.000	1.2998e-01
11.000	19.250	1.3664e-01
11.000	19.500	1.4092e-01
11.000	19.750	1.4170e-01
11.000	20.000	1.0246e-01
11.000	20.250	6.5651e-02
11.000	20.500	4.2799e-02
11.000	20.750	2.9626e-02
11.000	21.000	1.9853e-02
11.000	21.250	1.4060e-02
11.000	21.500	1.0754e-02
11.000	21.750	9.0759e-03
11.000	22.000	8.2653e-03
11.000	22.250	7.8135e-03
11.000	22.500	7.5628e-03
11.000	22.750	7.4547e-03
11.000	23.000	7.3988e-03
11.000	23.250	7.3678e-03
11.000	23.500	7.3551e-03
11.000	23.750	7.3498e-03
11.000	24.000	7.3474e-03
11.250	17.000	2.8290e-02
11.250	17.250	3.5325e-02
11.250	17.500	4.7080e-02
11.250	17.750	6.2583e-02
11.250	18.000	7.9086e-02
11.250	18.250	9.4736e-02
11.250	18.500	1.0920e-01
11.250	18.750	1.2217e-01
11.250	19.000	1.3263e-01
11.250	19.250	1.4079e-01
11.250	19.500	1.4619e-01
11.250	19.750	1.4912e-01
11.250	20.000	1.4519e-01
11.250	20.250	1.0249e-01
11.250	20.500	6.5750e-02
11.250	20.750	4.3015e-02
11.250	21.000	2.9650e-02
11.250	21.250	1.9806e-02
11.250	21.500	1.4042e-02
11.250	21.750	1.0758e-02
11.250	22.000	9.0778e-03
11.250	22.250	8.2665e-03
11.250	22.500	7.8137e-03
11.250	22.750	7.5627e-03
11.250	23.000	7.4547e-03
11.250	23.250	7.3990e-03
11.250	23.500	7.3678e-03
11.250	23.750	7.3551e-03
11.250	24.000	7.3499e-03
11.500	17.000	2.6451e-02
11.500	17.250	3.3530e-02
11.500	17.500	4.5175e-02
11.500	17.750	6.0194e-02
11.500	18.000	7.6229e-02
11.500	18.250	9.1962e-02
11.500	18.500	1.0709e-01
11.500	18.750	1.2114e-01
11.500	19.000	1.3317e-01
11.500	19.250	1.4249e-01
11.500	19.500	1.4895e-01
11.500	19.750	1.5324e-01
11.500	20.000	1.5533e-01
11.500	20.250	1.4433e-01
11.500	20.500	1.0316e-01
11.500	20.750	6.6352e-02
11.500	21.000	4.3370e-02
11.500	21.250	2.9690e-02
11.500	21.500	1.9730e-02
11.500	21.750	1.4011e-02
11.500	22.000	1.0760e-02
11.500	22.250	9.0802e-03
11.500	22.500	8.2677e-03
11.500	22.750	7.8140e-03
11.500	23.000	7.5626e-03
11.500	23.250	7.4547e-03
11.500	23.500	7.3991e-03
11.500	23.750	7.3679e-03
11.500	24.000	7.3551e-03
11.750	17.000	2.4758e-02
11.750	17.250	3.1608e-02
11.750	17.500	4.2741e-02
11.750	17.750	5.7081e-02
11.750	18.000	7.2529e-02
11.750	18.250	8.8214e-02
11.750	18.500	1.0389e-01
11.750	18.750	1.1896e-01
11.750	19.000	1.3248e-01
11.750	19.250	1.4319e-01
11.750	19.500	1.5090e-01
11.750	19.750	1.5596e-01
11.750	20.000	1.5944e-01
11.750	20.250	1.6125e-01
11.750	20.500	1.4647e-01
11.750	20.750	1.0380e-01
11.750	21.000	6.6995e-02
11.750	21.250	4.4029e-02
11.750	21.500	2.9618e-02
11.750	21.750	1.9630e-02
11.750	22.000	1.3957e-02
11.750	22.250	1.0758e-02
11.750	22.500	9.0830e-03
11.750	22.750	8.2692e-03
11.750	23.000	7.8144e-03
11.750	23.250	7.5625e-03
11.750	23.500	7.4547e-03
11.750	23.750	7.3991e-03
11.750	24.000	7.3681e-03
12.000	17.000	2.3107e-02
12.000	17.250	2.9513e-02
12.000	17.500	3.9763e-02
12.000	17.750	5.3357e-02
12.000	18.000	6.8556e-02
12.000	18.250	8.4331e-02
12.000	18.500	1.0051e-01
12.000	18.750	1.1654e-01
12.000	19.000	1.3126e-01
12.000	19.250	1.4372e-01
12.000	19.500	1.5289e-01
12.000	19.750	1.5890e-01
12.000	20.000	1.6321e-01
12.000	20.250	1.6610e-01
12.000	20.500	1.6751e-01
12.000	20.750	1.4586e-01
12.000	21.000	1.0427e-01
12.000	21.250	6.8343e-02
12.000	21.500	4.5126e-02
12.000	21.750	2.9491e-02
12.000	22.000	1.9509e-02
12.000	22.250	1.3888e-02
12.000	22.500	1.0750e-02
12.000	22.750	9.0862e-03
12.000	23.000	8.2708e-03
12.000	23.250	7.8149e-03
12.000	23.500	7.5622e-03
12.000	23.750	7.4547e-03
12.000	24.000	7.3991e-03
12.250	17.000	2.1415e-02
12.250	17.250	2.7208e-02
12.250	17.500	3.6336e-02
12.250	17.750	4.9050e-02
12.250	18.000	6.4165e-02
12.250	18.250	8.0618e-02
12.250	18.500	9.7667e-02
12.250	18.750	1.1455e-01
12.250	19.000	1.3026e-01
12.250	19.250	1.4417e-01
12.250	19.500	1.5515e-01
12.250	19.750	1.6300e-01
12.250	20.000	1.6776e-01
12.250	20.250	1.7153e-01
12.250	20.500	1.7446e-01
12.250	20.750	1.7586e-01
12.250	21.000	1.4714e-01
12.250	21.250	1.0596e-01
12.250	21.500	7.0101e-02
12.250	21.750	4.6349e-02
12.250	22.000	2.9330e-02
12.250	22.250	1.9406e-02
12.250	22.500	1.3845e-02
12.250	22.750	1.0735e-02
12.250	23.000	9.0890e-03
12.250	23.250	8.2723e-03
12.250	23.500	7.8154e-03
12.250	23.750	7.5620e-03
12.250	24.000	7.4546e-03
12.500	17.000	1.9418e-02
12.500	17.250	2.4642e-02
12.500	17.500	3.2892e-02
12.500	17.750	4.4422e-02
12.500	18.000	5.9318e-02
12.500	18.250	7.6378e-02
12.500	18.500	9.4746e-02
12.500	18.750	1.1308e-01
12.500	19.000	1.2994e-01
12.500	19.250	1.4494e-01
12.500	19.500	1.5746e-01
12.500	19.750	1.6717e-01
12.500	20.000	1.7379e-01
12.500	20.250	1.7812e-01
12.500	20.500	1.8212e-01
12.500	20.750	1.8578e-01
12.500	21.000	1.8858e-01
12.500	21.250	1.5212e-01
12.500	21.500	1.0837e-01
12.500	21.750	7.2049e-02
12.500	22.000	4.6794e-02
12.500	22.250	2.9163e-02
12.500	22.500	1.9263e-02
12.500	22.750	1.3744e-02
12.500	23.000	1.0711e-02
12.500	23.250	9.0909e-03
12.500	23.500	8.2737e-03
12.500	23.750	7.8158e-03
12.500	24.000	7.5616e-03
12.750	17.000	1.6644e-02
12.750	17.250	2.1667e-02
12.750	17.500	2.9157e-02
12.750	17.750	4.0029e-02
12.750	18.000	5.4274e-02
12.750	18.250	7.1407e-02
12.750	18.500	9.0613e-02
12.750	18.750	1.1076e-01
12.750	19.000	1.2968e-01
12.750	19.250	1.4617e-01
12.750	19.500	1.6007e-01
12.750	19.750	1.7145e-01
12.750	20.000	1.8008e-01
12.750	20.250	1.8635e-01
12.750	20.500	1.9114e-01
12.750	20.750	1.9609e-01
12.750	21.000	2.0273e-01
12.750	21.250	2.0695e-01
12.750	21.500	1.5833e-01
12.750	21.750	1.1232e-01
12.750	22.000	7.3972e-02
12.750	22.250	4.6564e-02
12.750	22.500	2.8941e-02
12.750	22.750	1.9084e-02
12.750	23.000	1.3650e-02
12.750	23.250	1.0682e-02
12.750	23.500	9.0913e-03
12.750	23.750	8.2747e-03
12.750	24.000	7.8161e-03
13.000	17.000	1.3694e-02
13.000	17.250	1.8574e-02
13.000	17.500	2.5603e-02
13.000	17.750	3.5674e-02
13.000	18.000	4.9123e-02
13.000	18.250	6.5934e-02
13.000	18.500	8.5440e-02
13.000	18.750	1.0653e-01
13.000	19.000	1.2732e-01
13.000	19.250	1.4626e-01
13.000	19.500	1.6151e-01
13.000	19.750	1.7501e-01
13.000	20.000	1.8582e-01
13.000	20.250	1.9447e-01
13.000	20.500	2.0178e-01
13.000	20.750	2.0780e-01
13.000	21.000	2.1486e-01
13.000	21.250	2.2508e-01
13.000	21.500	2.2591e-01
13.000	21.750	1.6675e-01
13.000	22.000	1.1592e-01
13.000	22.250	7.5198e-02
13.000	22.500	4.6261e-02
13.000	22.750	2.8709e-02
13.000	23.000	1.8931e-02
13.000	23.250	1.3557e-02
13.000	23.500	1.0646e-02
13.000	23.750	9.0893e-03
13.000	24.000	8.2751e-03
13.250	17.000	1.1492e-02
13.250	17.250	1.5742e-02
13.250	17.500	2.2422e-02
13.250	17.750	3.1610e-02
13.250	18.000	4.4136e-02
13.250	18.250	6.0300e-02
13.250	18.500	7.9604e-02
13.250	18.750	1.0100e-01
13.250	19.000	1.2294e-01
13.250	19.250	1.4346e-01
13.250	19.500	1.6101e-01
13.250	19.750	1.7702e-01
13.250	20.000	1.9030e-01
13.250	20.250	2.0138e-01
13.250	20.500	2.1122e-01
13.250	20.750	2.1986e-01
13.250	21.000	2.2873e-01
13.250	21.250	2.3907e-01
13.250	21.500	2.4494e-01
13.250	21.750	2.4365e-01
13.250	22.000	1.7327e-01
13.250	22.250	1.1814e-01
13.250	22.500	7.5328e-02
13.250	22.750	4.5896e-02
13.250	23.000	2.8444e-02
13.250	23.250	1.8834e-02
13.250	23.500	1.3507e-02
13.250	23.750	1.0608e-02
13.250	24.000	9.0838e-03
13.500	17.000	9.6749e-03
13.500	17.250	1.3344e-02
13.500	17.500	1.9257e-02
13.500	17.750	2.7771e-02
13.500	18.000	3.9458e-02
13.500	18.250	5.4755e-02
13.500	18.500	7.3540e-02
13.500	18.750	9.4848e-02
13.500	19.000	1.1735e-01
13.500	19.250	1.3923e-01
13.500	19.500	1.5888e-01
13.500	19.750	1.7625e-01
13.500	20.000	1.9215e-01
13.500	20.250	2.0705e-01
13.500	20.500	2.1913e-01
13.500	20.750	2.2959e-01
13.500	21.000	2.3865e-01
13.500	21.250	2.5056e-01
13.500	21.500	2.5568e-01
13.500	21.750	2.6623e-01
13.500	22.000	2.5856e-01
13.500	22.250	1.7824e-01
13.500	22.500	1.1802e-01
13.500	22.750	7.4556e-02
13.500	23.000	4.5449e-02
13.500	23.250	2.8130e-02
13.500	23.500	1.8606e-02
13.500	23.750	1.3370e-02
13.500	24.000	1.0570e-02
13.750	17.000	8.2404e-03
13.750	17.250	1.1308e-02
13.750	17.500	1.6488e-02
13.750	17.750	2.4185e-02
13.750	18.000	3.5172e-02
13.750	18.250	4.9562e-02
13.750	18.500	6.7568e-02
13.750	18.750	8.8491e-02
13.750	19.000	1.1126e-01
13.750	19.250	1.3437e-01
13.750	19.500	1.5604e-01
13.750	19.750	1.7541e-01
13.750	20.000	1.9300e-01
13.750	20.250	2.0977e-01
13.750	20.500	2.2536e-01
13.750	20.750	2.3873e-01
13.750	21.000	2.5002e-01
13.750	21.250	2.6012e-01
13.750	21.500	2.6694e-01
13.750	21.750	2.7927e-01
13.750	22.000	2.9086e-01
13.750	22.250	2.7381e-01
13.750	22.500	1.8078e-01
13.750	22.750	1.1763e-01
13.750	23.000	7.3768e-02
13.750	23.250	4.4928e-02
13.750	23.500	2.7836e-02
13.750	23.750	1.8423e-02
13.750	24.000	1.3265e-02
14.000	17.000	7.0689e-03
14.000	17.250	9.6770e-03
14.000	17.500	1.3976e-02
14.000	17.750	2.0943e-02
14.000	18.000	3.1079e-02
14.000	18.250	4.4764e-02
14.000	18.500	6.1960e-02
14.000	18.750	8.2330e-02
14.000	19.000	1.0507e-01
14.000	19.250	1.2902e-01
14.000	19.500	1.5270e-01
14.000	19.750	1.7458e-01
14.000	20.000	1.9407e-01
14.000	20.250	2.1207e-01
14.000	20.500	2.2956e-01
14.000	20.750	2.4568e-01
14.000	21.000	2.5999e-01
14.000	21.250	2.7303e-01
14.000	21.500	2.7988e-01
14.000	21.750	2.9266e-01
14.000	22.000	3.0837e-01
14.000	22.250	3.2343e-01
14.000	22.500	2.8699e-01
14.000	22.750	1.8369e-01
14.000	23.000	1.1682e-01
14.000	23.250	7.3239e-02
14.000	23.500	4.4329e-02
14.000	23.750	2.7520e-02
14.000	24.000	1.8213e-02
