InwC 3400.00A  relative to Inci 1215.00A scaled to 1215A.
Hden   Phi(H)  Eq_Width (A)
 7.000	17.000	6.0309e-03
 7.000	17.250	6.0335e-03
 7.000	17.500	6.0360e-03
 7.000	17.750	6.0386e-03
 7.000	18.000	6.0412e-03
 7.000	18.250	6.0434e-03
 7.000	18.500	6.0449e-03
 7.000	18.750	6.0457e-03
 7.000	19.000	6.0464e-03
 7.000	19.250	6.0469e-03
 7.000	19.500	6.0471e-03
 7.000	19.750	6.0472e-03
 7.000	20.000	6.0472e-03
 7.000	20.250	6.0472e-03
 7.000	20.500	6.0473e-03
 7.000	20.750	6.0473e-03
 7.000	21.000	6.0473e-03
 7.000	21.250	6.0473e-03
 7.000	21.500	6.0474e-03
 7.000	21.750	6.0473e-03
 7.000	22.000	6.0473e-03
 7.000	22.250	6.0473e-03
 7.000	22.500	6.0473e-03
 7.000	22.750	6.0475e-03
 7.000	23.000	6.0475e-03
 7.000	23.250	6.0473e-03
 7.000	23.500	6.0473e-03
 7.000	23.750	6.0473e-03
 7.000	24.000	6.0473e-03
 7.250	17.000	6.0207e-03
 7.250	17.250	6.0309e-03
 7.250	17.500	6.0335e-03
 7.250	17.750	6.0360e-03
 7.250	18.000	6.0386e-03
 7.250	18.250	6.0412e-03
 7.250	18.500	6.0434e-03
 7.250	18.750	6.0449e-03
 7.250	19.000	6.0456e-03
 7.250	19.250	6.0463e-03
 7.250	19.500	6.0469e-03
 7.250	19.750	6.0471e-03
 7.250	20.000	6.0472e-03
 7.250	20.250	6.0472e-03
 7.250	20.500	6.0472e-03
 7.250	20.750	6.0472e-03
 7.250	21.000	6.0473e-03
 7.250	21.250	6.0473e-03
 7.250	21.500	6.0473e-03
 7.250	21.750	6.0485e-03
 7.250	22.000	6.0473e-03
 7.250	22.250	6.0473e-03
 7.250	22.500	6.0473e-03
 7.250	22.750	6.0479e-03
 7.250	23.000	6.0479e-03
 7.250	23.250	6.0473e-03
 7.250	23.500	6.0473e-03
 7.250	23.750	6.0473e-03
 7.250	24.000	6.0473e-03
 7.500	17.000	5.7844e-03
 7.500	17.250	6.0212e-03
 7.500	17.500	6.0309e-03
 7.500	17.750	6.0335e-03
 7.500	18.000	6.0360e-03
 7.500	18.250	6.0387e-03
 7.500	18.500	6.0412e-03
 7.500	18.750	6.0434e-03
 7.500	19.000	6.0449e-03
 7.500	19.250	6.0456e-03
 7.500	19.500	6.0463e-03
 7.500	19.750	6.0469e-03
 7.500	20.000	6.0471e-03
 7.500	20.250	6.0472e-03
 7.500	20.500	6.0472e-03
 7.500	20.750	6.0472e-03
 7.500	21.000	6.0472e-03
 7.500	21.250	6.0472e-03
 7.500	21.500	6.0473e-03
 7.500	21.750	6.0473e-03
 7.500	22.000	6.0473e-03
 7.500	22.250	6.0473e-03
 7.500	22.500	6.0473e-03
 7.500	22.750	6.0473e-03
 7.500	23.000	6.0476e-03
 7.500	23.250	6.0479e-03
 7.500	23.500	6.0473e-03
 7.500	23.750	6.0481e-03
 7.500	24.000	6.0473e-03
 7.750	17.000	5.3434e-03
 7.750	17.250	5.7849e-03
 7.750	17.500	6.0214e-03
 7.750	17.750	6.0308e-03
 7.750	18.000	6.0335e-03
 7.750	18.250	6.0360e-03
 7.750	18.500	6.0387e-03
 7.750	18.750	6.0412e-03
 7.750	19.000	6.0434e-03
 7.750	19.250	6.0449e-03
 7.750	19.500	6.0457e-03
 7.750	19.750	6.0464e-03
 7.750	20.000	6.0469e-03
 7.750	20.250	6.0471e-03
 7.750	20.500	6.0472e-03
 7.750	20.750	6.0472e-03
 7.750	21.000	6.0472e-03
 7.750	21.250	6.0472e-03
 7.750	21.500	6.0472e-03
 7.750	21.750	6.0472e-03
 7.750	22.000	6.0472e-03
 7.750	22.250	6.0472e-03
 7.750	22.500	6.0473e-03
 7.750	22.750	6.0475e-03
 7.750	23.000	6.0475e-03
 7.750	23.250	6.0473e-03
 7.750	23.500	6.0479e-03
 7.750	23.750	6.0479e-03
 7.750	24.000	6.0473e-03
 8.000	17.000	3.7821e-03
 8.000	17.250	5.3070e-03
 8.000	17.500	5.7819e-03
 8.000	17.750	6.0202e-03
 8.000	18.000	6.0307e-03
 8.000	18.250	6.0335e-03
 8.000	18.500	6.0361e-03
 8.000	18.750	6.0387e-03
 8.000	19.000	6.0412e-03
 8.000	19.250	6.0434e-03
 8.000	19.500	6.0449e-03
 8.000	19.750	6.0457e-03
 8.000	20.000	6.0464e-03
 8.000	20.250	6.0469e-03
 8.000	20.500	6.0471e-03
 8.000	20.750	6.0472e-03
 8.000	21.000	6.0472e-03
 8.000	21.250	6.0472e-03
 8.000	21.500	6.0472e-03
 8.000	21.750	6.0472e-03
 8.000	22.000	6.0472e-03
 8.000	22.250	6.0472e-03
 8.000	22.500	6.0472e-03
 8.000	22.750	6.0474e-03
 8.000	23.000	6.0472e-03
 8.000	23.250	6.0477e-03
 8.000	23.500	6.0472e-03
 8.000	23.750	6.0472e-03
 8.000	24.000	6.0472e-03
 8.250	17.000	2.6541e-03
 8.250	17.250	3.7886e-03
 8.250	17.500	5.3059e-03
 8.250	17.750	5.7810e-03
 8.250	18.000	6.0202e-03
 8.250	18.250	6.0305e-03
 8.250	18.500	6.0334e-03
 8.250	18.750	6.0361e-03
 8.250	19.000	6.0387e-03
 8.250	19.250	6.0412e-03
 8.250	19.500	6.0434e-03
 8.250	19.750	6.0449e-03
 8.250	20.000	6.0457e-03
 8.250	20.250	6.0463e-03
 8.250	20.500	6.0469e-03
 8.250	20.750	6.0471e-03
 8.250	21.000	6.0472e-03
 8.250	21.250	6.0472e-03
 8.250	21.500	6.0472e-03
 8.250	21.750	6.0472e-03
 8.250	22.000	6.0472e-03
 8.250	22.250	6.0472e-03
 8.250	22.500	6.0472e-03
 8.250	22.750	6.0474e-03
 8.250	23.000	6.0472e-03
 8.250	23.250	6.0488e-03
 8.250	23.500	6.0472e-03
 8.250	23.750	6.0472e-03
 8.250	24.000	6.0477e-03
 8.500	17.000	1.8598e-03
 8.500	17.250	2.6624e-03
 8.500	17.500	3.7914e-03
 8.500	17.750	5.3024e-03
 8.500	18.000	5.7789e-03
 8.500	18.250	6.0198e-03
 8.500	18.500	6.0303e-03
 8.500	18.750	6.0333e-03
 8.500	19.000	6.0361e-03
 8.500	19.250	6.0387e-03
 8.500	19.500	6.0412e-03
 8.500	19.750	6.0434e-03
 8.500	20.000	6.0449e-03
 8.500	20.250	6.0456e-03
 8.500	20.500	6.0463e-03
 8.500	20.750	6.0469e-03
 8.500	21.000	6.0471e-03
 8.500	21.250	6.0472e-03
 8.500	21.500	6.0472e-03
 8.500	21.750	6.0472e-03
 8.500	22.000	6.0472e-03
 8.500	22.250	6.0472e-03
 8.500	22.500	6.0472e-03
 8.500	22.750	6.0472e-03
 8.500	23.000	6.0472e-03
 8.500	23.250	6.0474e-03
 8.500	23.500	6.0472e-03
 8.500	23.750	6.0472e-03
 8.500	24.000	6.0472e-03
 8.750	17.000	1.3070e-03
 8.750	17.250	1.8691e-03
 8.750	17.500	2.6717e-03
 8.750	17.750	3.7813e-03
 8.750	18.000	5.2984e-03
 8.750	18.250	5.7748e-03
 8.750	18.500	6.0188e-03
 8.750	18.750	6.0299e-03
 8.750	19.000	6.0333e-03
 8.750	19.250	6.0361e-03
 8.750	19.500	6.0388e-03
 8.750	19.750	6.0412e-03
 8.750	20.000	6.0434e-03
 8.750	20.250	6.0449e-03
 8.750	20.500	6.0457e-03
 8.750	20.750	6.0463e-03
 8.750	21.000	6.0469e-03
 8.750	21.250	6.0471e-03
 8.750	21.500	6.0472e-03
 8.750	21.750	6.0472e-03
 8.750	22.000	6.0472e-03
 8.750	22.250	6.0472e-03
 8.750	22.500	6.0472e-03
 8.750	22.750	6.0472e-03
 8.750	23.000	6.0478e-03
 8.750	23.250	6.0472e-03
 8.750	23.500	6.0474e-03
 8.750	23.750	6.0472e-03
 8.750	24.000	6.0472e-03
 9.000	17.000	9.2189e-04
 9.000	17.250	1.3134e-03
 9.000	17.500	1.8804e-03
 9.000	17.750	2.6902e-03
 9.000	18.000	3.8015e-03
 9.000	18.250	5.3160e-03
 9.000	18.500	5.7677e-03
 9.000	18.750	6.0169e-03
 9.000	19.000	6.0291e-03
 9.000	19.250	6.0331e-03
 9.000	19.500	6.0361e-03
 9.000	19.750	6.0388e-03
 9.000	20.000	6.0412e-03
 9.000	20.250	6.0434e-03
 9.000	20.500	6.0449e-03
 9.000	20.750	6.0457e-03
 9.000	21.000	6.0463e-03
 9.000	21.250	6.0469e-03
 9.000	21.500	6.0471e-03
 9.000	21.750	6.0472e-03
 9.000	22.000	6.0472e-03
 9.000	22.250	6.0472e-03
 9.000	22.500	6.0472e-03
 9.000	22.750	6.0472e-03
 9.000	23.000	6.0472e-03
 9.000	23.250	6.0472e-03
 9.000	23.500	6.0472e-03
 9.000	23.750	6.0472e-03
 9.000	24.000	6.0473e-03
 9.250	17.000	6.5457e-04
 9.250	17.250	9.2650e-04
 9.250	17.500	1.3254e-03
 9.250	17.750	1.9087e-03
 9.250	18.000	2.7328e-03
 9.250	18.250	3.8690e-03
 9.250	18.500	5.3816e-03
 9.250	18.750	5.7556e-03
 9.250	19.000	6.0133e-03
 9.250	19.250	6.0279e-03
 9.250	19.500	6.0328e-03
 9.250	19.750	6.0360e-03
 9.250	20.000	6.0388e-03
 9.250	20.250	6.0413e-03
 9.250	20.500	6.0434e-03
 9.250	20.750	6.0449e-03
 9.250	21.000	6.0457e-03
 9.250	21.250	6.0463e-03
 9.250	21.500	6.0466e-03
 9.250	21.750	6.0467e-03
 9.250	22.000	6.0467e-03
 9.250	22.250	6.0468e-03
 9.250	22.500	6.0469e-03
 9.250	22.750	6.0469e-03
 9.250	23.000	6.0471e-03
 9.250	23.250	6.0471e-03
 9.250	23.500	6.0471e-03
 9.250	23.750	6.0471e-03
 9.250	24.000	6.0472e-03
 9.500	17.000	4.7045e-04
 9.500	17.250	6.5827e-04
 9.500	17.500	9.3819e-04
 9.500	17.750	1.3573e-03
 9.500	18.000	1.9699e-03
 9.500	18.250	2.8499e-03
 9.500	18.500	4.0630e-03
 9.500	18.750	5.5001e-03
 9.500	19.000	5.7378e-03
 9.500	19.250	6.0072e-03
 9.500	19.500	6.0258e-03
 9.500	19.750	6.0322e-03
 9.500	20.000	6.0360e-03
 9.500	20.250	6.0388e-03
 9.500	20.500	6.0413e-03
 9.500	20.750	6.0430e-03
 9.500	21.000	6.0445e-03
 9.500	21.250	6.0453e-03
 9.500	21.500	6.0459e-03
 9.500	21.750	6.0463e-03
 9.500	22.000	6.0465e-03
 9.500	22.250	6.0466e-03
 9.500	22.500	6.0466e-03
 9.500	22.750	6.0466e-03
 9.500	23.000	6.0466e-03
 9.500	23.250	6.0467e-03
 9.500	23.500	6.0467e-03
 9.500	23.750	6.0467e-03
 9.500	24.000	6.0467e-03
 9.750	17.000	3.4148e-04
 9.750	17.250	4.7243e-04
 9.750	17.500	6.6782e-04
 9.750	17.750	9.6905e-04
 9.750	18.000	1.4338e-03
 9.750	18.250	2.1160e-03
 9.750	18.500	3.0970e-03
 9.750	18.750	4.4577e-03
 9.750	19.000	5.4795e-03
 9.750	19.250	5.7145e-03
 9.750	19.500	5.9973e-03
 9.750	19.750	6.0223e-03
 9.750	20.000	6.0312e-03
 9.750	20.250	6.0357e-03
 9.750	20.500	6.0387e-03
 9.750	20.750	6.0412e-03
 9.750	21.000	6.0431e-03
 9.750	21.250	6.0445e-03
 9.750	21.500	6.0453e-03
 9.750	21.750	6.0460e-03
 9.750	22.000	6.0463e-03
 9.750	22.250	6.0465e-03
 9.750	22.500	6.0466e-03
 9.750	22.750	6.0466e-03
 9.750	23.000	6.0466e-03
 9.750	23.250	6.0466e-03
 9.750	23.500	6.0466e-03
 9.750	23.750	6.0466e-03
 9.750	24.000	6.0466e-03
10.000	17.000	2.5160e-04
10.000	17.250	3.4280e-04
10.000	17.500	4.8033e-04
10.000	17.750	6.9745e-04
10.000	18.000	1.0491e-03
10.000	18.250	1.5784e-03
10.000	18.500	2.3429e-03
10.000	18.750	3.4196e-03
10.000	19.000	4.7706e-03
10.000	19.250	5.4547e-03
10.000	19.500	5.6907e-03
10.000	19.750	5.9822e-03
10.000	20.000	6.0169e-03
10.000	20.250	6.0296e-03
10.000	20.500	6.0354e-03
10.000	20.750	6.0386e-03
10.000	21.000	6.0412e-03
10.000	21.250	6.0433e-03
10.000	21.500	6.0445e-03
10.000	21.750	6.0453e-03
10.000	22.000	6.0460e-03
10.000	22.250	6.0464e-03
10.000	22.500	6.0465e-03
10.000	22.750	6.0466e-03
10.000	23.000	6.0466e-03
10.000	23.250	6.0467e-03
10.000	23.500	6.0467e-03
10.000	23.750	6.0467e-03
10.000	24.000	6.0467e-03
10.250	17.000	1.8914e-04
10.250	17.250	2.5300e-04
10.250	17.500	3.5062e-04
10.250	17.750	5.0996e-04
10.250	18.000	7.7243e-04
10.250	18.250	1.1701e-03
10.250	18.500	1.7523e-03
10.250	18.750	2.5907e-03
10.250	19.000	3.8055e-03
10.250	19.250	5.1812e-03
10.250	19.500	5.4305e-03
10.250	19.750	5.6660e-03
10.250	20.000	5.9624e-03
10.250	20.250	6.0089e-03
10.250	20.500	6.0272e-03
10.250	20.750	6.0348e-03
10.250	21.000	6.0384e-03
10.250	21.250	6.0412e-03
10.250	21.500	6.0433e-03
10.250	21.750	6.0446e-03
10.250	22.000	6.0453e-03
10.250	22.250	6.0460e-03
10.250	22.500	6.0465e-03
10.250	22.750	6.0465e-03
10.250	23.000	6.0466e-03
10.250	23.250	6.0466e-03
10.250	23.500	6.0466e-03
10.250	23.750	6.0467e-03
10.250	24.000	6.0467e-03
10.500	17.000	1.4543e-04
10.500	17.250	1.9062e-04
10.500	17.500	2.6082e-04
10.500	17.750	3.7901e-04
10.500	18.000	5.7539e-04
10.500	18.250	8.7498e-04
10.500	18.500	1.3077e-03
10.500	18.750	1.9568e-03
10.500	19.000	2.8879e-03
10.500	19.250	4.1936e-03
10.500	19.500	5.2144e-03
10.500	19.750	5.4136e-03
10.500	20.000	5.6443e-03
10.500	20.250	5.9407e-03
10.500	20.500	5.9984e-03
10.500	20.750	6.0229e-03
10.500	21.000	6.0338e-03
10.500	21.250	6.0382e-03
10.500	21.500	6.0411e-03
10.500	21.750	6.0433e-03
10.500	22.000	6.0448e-03
10.500	22.250	6.0453e-03
10.500	22.500	6.0460e-03
10.500	22.750	6.0465e-03
10.500	23.000	6.0466e-03
10.500	23.250	6.0466e-03
10.500	23.500	6.0467e-03
10.500	23.750	6.0467e-03
10.500	24.000	6.0467e-03
10.750	17.000	1.1473e-04
10.750	17.250	1.4683e-04
10.750	17.500	1.9819e-04
10.750	17.750	2.8642e-04
10.750	18.000	4.3416e-04
10.750	18.250	6.6000e-04
10.750	18.500	9.9235e-04
10.750	18.750	1.4716e-03
10.750	19.000	2.1591e-03
10.750	19.250	3.1477e-03
10.750	19.500	4.4516e-03
10.750	19.750	5.2012e-03
10.750	20.000	5.3979e-03
10.750	20.250	5.6250e-03
10.750	20.500	5.9205e-03
10.750	20.750	5.9882e-03
10.750	21.000	6.0174e-03
10.750	21.250	6.0323e-03
10.750	21.500	6.0377e-03
10.750	21.750	6.0408e-03
10.750	22.000	6.0432e-03
10.750	22.250	6.0448e-03
10.750	22.500	6.0455e-03
10.750	22.750	6.0461e-03
10.750	23.000	6.0466e-03
10.750	23.250	6.0467e-03
10.750	23.500	6.0466e-03
10.750	23.750	6.0466e-03
10.750	24.000	6.0467e-03
11.000	17.000	9.2922e-05
11.000	17.250	1.1572e-04
11.000	17.500	1.5325e-04
11.000	17.750	2.1975e-04
11.000	18.000	3.3070e-04
11.000	18.250	5.0033e-04
11.000	18.500	7.4823e-04
11.000	18.750	1.1019e-03
11.000	19.000	1.6066e-03
11.000	19.250	2.3302e-03
11.000	19.500	3.3621e-03
11.000	19.750	4.7418e-03
11.000	20.000	5.1794e-03
11.000	20.250	5.3779e-03
11.000	20.500	5.6123e-03
11.000	20.750	5.9105e-03
11.000	21.000	5.9759e-03
11.000	21.250	6.0114e-03
11.000	21.500	6.0301e-03
11.000	21.750	6.0370e-03
11.000	22.000	6.0404e-03
11.000	22.250	6.0430e-03
11.000	22.500	6.0448e-03
11.000	22.750	6.0456e-03
11.000	23.000	6.0462e-03
11.000	23.250	6.0466e-03
11.000	23.500	6.0467e-03
11.000	23.750	6.0467e-03
11.000	24.000	6.0467e-03
11.250	17.000	7.7531e-05
11.250	17.250	9.3498e-05
11.250	17.500	1.2091e-04
11.250	17.750	1.7062e-04
11.250	18.000	2.5358e-04
11.250	18.250	3.7852e-04
11.250	18.500	5.6033e-04
11.250	18.750	8.2535e-04
11.250	19.000	1.1912e-03
11.250	19.250	1.7102e-03
11.250	19.500	2.4546e-03
11.250	19.750	3.5244e-03
11.250	20.000	4.7603e-03
11.250	20.250	5.1646e-03
11.250	20.500	5.3830e-03
11.250	20.750	5.6093e-03
11.250	21.000	5.9062e-03
11.250	21.250	5.9682e-03
11.250	21.500	6.0052e-03
11.250	21.750	6.0272e-03
11.250	22.000	6.0358e-03
11.250	22.250	6.0398e-03
11.250	22.500	6.0428e-03
11.250	22.750	6.0447e-03
11.250	23.000	6.0455e-03
11.250	23.250	6.0463e-03
11.250	23.500	6.0466e-03
11.250	23.750	6.0467e-03
11.250	24.000	6.0467e-03
11.500	17.000	6.6749e-05
11.500	17.250	7.7860e-05
11.500	17.500	9.7778e-05
11.500	17.750	1.3432e-04
11.500	18.000	1.9498e-04
11.500	18.250	2.8650e-04
11.500	18.500	4.1992e-04
11.500	18.750	6.1317e-04
11.500	19.000	8.8099e-04
11.500	19.250	1.2555e-03
11.500	19.500	1.7862e-03
11.500	19.750	2.5479e-03
11.500	20.000	3.6463e-03
11.500	20.250	4.7654e-03
11.500	20.500	5.1510e-03
11.500	20.750	5.3733e-03
11.500	21.000	5.6174e-03
11.500	21.250	5.9089e-03
11.500	21.500	5.9589e-03
11.500	21.750	5.9993e-03
11.500	22.000	6.0239e-03
11.500	22.250	6.0343e-03
11.500	22.500	6.0391e-03
11.500	22.750	6.0424e-03
11.500	23.000	6.0446e-03
11.500	23.250	6.0455e-03
11.500	23.500	6.0463e-03
11.500	23.750	6.0466e-03
11.500	24.000	6.0467e-03
11.750	17.000	5.9259e-05
11.750	17.250	6.6996e-05
11.750	17.500	8.1235e-05
11.750	17.750	1.0749e-04
11.750	18.000	1.5062e-04
11.750	18.250	2.1687e-04
11.750	18.500	3.1432e-04
11.750	18.750	4.5309e-04
11.750	19.000	6.5210e-04
11.750	19.250	9.2453e-04
11.750	19.500	1.3053e-03
11.750	19.750	1.8402e-03
11.750	20.000	2.6143e-03
11.750	20.250	3.7335e-03
11.750	20.500	4.7760e-03
11.750	20.750	5.1505e-03
11.750	21.000	5.3856e-03
11.750	21.250	5.6505e-03
11.750	21.500	5.9063e-03
11.750	21.750	5.9519e-03
11.750	22.000	5.9927e-03
11.750	22.250	6.0206e-03
11.750	22.500	6.0326e-03
11.750	22.750	6.0381e-03
11.750	23.000	6.0420e-03
11.750	23.250	6.0444e-03
11.750	23.500	6.0454e-03
11.750	23.750	6.0463e-03
11.750	24.000	6.0467e-03
12.000	17.000	5.4156e-05
12.000	17.250	5.9424e-05
12.000	17.500	6.9465e-05
12.000	17.750	8.7737e-05
12.000	18.000	1.1794e-04
12.000	18.250	1.6527e-04
12.000	18.500	2.3597e-04
12.000	18.750	3.3827e-04
12.000	19.000	4.8321e-04
12.000	19.250	6.8329e-04
12.000	19.500	9.5959e-04
12.000	19.750	1.3427e-03
12.000	20.000	1.8848e-03
12.000	20.250	2.6632e-03
12.000	20.500	3.7961e-03
12.000	20.750	4.7406e-03
12.000	21.000	5.1590e-03
12.000	21.250	5.4295e-03
12.000	21.500	5.7170e-03
12.000	21.750	5.8997e-03
12.000	22.000	5.9519e-03
12.000	22.250	5.9915e-03
12.000	22.500	6.0174e-03
12.000	22.750	6.0309e-03
12.000	23.000	6.0371e-03
12.000	23.250	6.0413e-03
12.000	23.500	6.0443e-03
12.000	23.750	6.0453e-03
12.000	24.000	6.0463e-03
12.250	17.000	5.0617e-05
12.250	17.250	5.4156e-05
12.250	17.500	6.0988e-05
12.250	17.750	7.3416e-05
12.250	18.000	9.4486e-05
12.250	18.250	1.2823e-04
12.250	18.500	1.7918e-04
12.250	18.750	2.5457e-04
12.250	19.000	3.6066e-04
12.250	19.250	5.0733e-04
12.250	19.500	7.0922e-04
12.250	19.750	9.8889e-04
12.250	20.000	1.3725e-03
12.250	20.250	1.9175e-03
12.250	20.500	2.7062e-03
12.250	20.750	3.8527e-03
12.250	21.000	4.7205e-03
12.250	21.250	5.1878e-03
12.250	21.500	5.4898e-03
12.250	21.750	5.7941e-03
12.250	22.000	5.8937e-03
12.250	22.250	5.9459e-03
12.250	22.500	5.9876e-03
12.250	22.750	6.0146e-03
12.250	23.000	6.0291e-03
12.250	23.250	6.0360e-03
12.250	23.500	6.0407e-03
12.250	23.750	6.0441e-03
12.250	24.000	6.0453e-03
12.500	17.000	4.8148e-05
12.500	17.250	5.0453e-05
12.500	17.500	5.4979e-05
12.500	17.750	6.3457e-05
12.500	18.000	7.8107e-05
12.500	18.250	1.0189e-04
12.500	18.500	1.3885e-04
12.500	18.750	1.9342e-04
12.500	19.000	2.7086e-04
12.500	19.250	3.7909e-04
12.500	19.500	5.2593e-04
12.500	19.750	7.2947e-04
12.500	20.000	1.0095e-03
12.500	20.250	1.3967e-03
12.500	20.500	1.9509e-03
12.500	20.750	2.7505e-03
12.500	21.000	3.9153e-03
12.500	21.250	4.7438e-03
12.500	21.500	5.2393e-03
12.500	21.750	5.5601e-03
12.500	22.000	5.8289e-03
12.500	22.250	5.8891e-03
12.500	22.500	5.9411e-03
12.500	22.750	5.9823e-03
12.500	23.000	6.0117e-03
12.500	23.250	6.0273e-03
12.500	23.500	6.0347e-03
12.500	23.750	6.0400e-03
12.500	24.000	6.0439e-03
12.750	17.000	3.6214e-05
12.750	17.250	4.7407e-05
12.750	17.500	5.0947e-05
12.750	17.750	5.6708e-05
12.750	18.000	6.6831e-05
12.750	18.250	8.3704e-05
12.750	18.500	1.0996e-04
12.750	18.750	1.4947e-04
12.750	19.000	2.0601e-04
12.750	19.250	2.8486e-04
12.750	19.500	3.9267e-04
12.750	19.750	5.4049e-04
12.750	20.000	7.4477e-04
12.750	20.250	1.0258e-03
12.750	20.500	1.4209e-03
12.750	20.750	1.9827e-03
12.750	21.000	2.8163e-03
12.750	21.250	4.0301e-03
12.750	21.500	4.7752e-03
12.750	21.750	5.3114e-03
12.750	22.000	5.6314e-03
12.750	22.250	5.8303e-03
12.750	22.500	5.8870e-03
12.750	22.750	5.9366e-03
12.750	23.000	5.9789e-03
12.750	23.250	6.0085e-03
12.750	23.500	6.0251e-03
12.750	23.750	6.0331e-03
12.750	24.000	6.0392e-03
13.000	17.000	1.8272e-05
13.000	17.250	3.3745e-05
13.000	17.500	4.5597e-05
13.000	17.750	5.2346e-05
13.000	18.000	5.9259e-05
13.000	18.250	7.0947e-05
13.000	18.500	8.9630e-05
13.000	18.750	1.1778e-04
13.000	19.000	1.5868e-04
13.000	19.250	2.1597e-04
13.000	19.500	2.9481e-04
13.000	19.750	4.0272e-04
13.000	20.000	5.5070e-04
13.000	20.250	7.5564e-04
13.000	20.500	1.0399e-03
13.000	20.750	1.4426e-03
13.000	21.000	2.0234e-03
13.000	21.250	2.9002e-03
13.000	21.500	4.1123e-03
13.000	21.750	4.8489e-03
13.000	22.000	5.3686e-03
13.000	22.250	5.6809e-03
13.000	22.500	5.8295e-03
13.000	22.750	5.8845e-03
13.000	23.000	5.9339e-03
13.000	23.250	5.9755e-03
13.000	23.500	6.0053e-03
13.000	23.750	6.0222e-03
13.000	24.000	6.0311e-03
13.250	17.000	1.1111e-05
13.250	17.250	2.1152e-05
13.250	17.500	4.0658e-05
13.250	17.750	4.9383e-05
13.250	18.000	5.4156e-05
13.250	18.250	6.2222e-05
13.250	18.500	7.5226e-05
13.250	18.750	9.5226e-05
13.250	19.000	1.2444e-04
13.250	19.250	1.6576e-04
13.250	19.500	2.2313e-04
13.250	19.750	3.0198e-04
13.250	20.000	4.0979e-04
13.250	20.250	5.5827e-04
13.250	20.500	7.6519e-04
13.250	20.750	1.0523e-03
13.250	21.000	1.4667e-03
13.250	21.250	2.0712e-03
13.250	21.500	2.9445e-03
13.250	21.750	4.1544e-03
13.250	22.000	4.8806e-03
13.250	22.250	5.3982e-03
13.250	22.500	5.6937e-03
13.250	22.750	5.8263e-03
13.250	23.000	5.8809e-03
13.250	23.250	5.9295e-03
13.250	23.500	5.9715e-03
13.250	23.750	6.0012e-03
13.250	24.000	6.0186e-03
13.500	17.000	6.6667e-06
13.500	17.250	1.3086e-05
13.500	17.500	2.7160e-05
13.500	17.750	4.2551e-05
13.500	18.000	5.0535e-05
13.500	18.250	5.6132e-05
13.500	18.500	6.5103e-05
13.500	18.750	7.9095e-05
13.500	19.000	9.9753e-05
13.500	19.250	1.2938e-04
13.500	19.500	1.7103e-04
13.500	19.750	2.2831e-04
13.500	20.000	3.0658e-04
13.500	20.250	4.1416e-04
13.500	20.500	5.6313e-04
13.500	20.750	7.6938e-04
13.500	21.000	1.0565e-03
13.500	21.250	1.4778e-03
13.500	21.500	2.0685e-03
13.500	21.750	2.9802e-03
13.500	22.000	4.1551e-03
13.500	22.250	4.8725e-03
13.500	22.500	5.3779e-03
13.500	22.750	5.6778e-03
13.500	23.000	5.8178e-03
13.500	23.250	5.8733e-03
13.500	23.500	5.9235e-03
13.500	23.750	5.9660e-03
13.500	24.000	5.9957e-03
13.750	17.000	4.0329e-06
13.750	17.250	7.9012e-06
13.750	17.500	1.7531e-05
13.750	17.750	3.1029e-05
13.750	18.000	4.7325e-05
13.750	18.250	5.1770e-05
13.750	18.500	5.7942e-05
13.750	18.750	6.7572e-05
13.750	19.000	8.2140e-05
13.750	19.250	1.0321e-04
13.750	19.500	1.3300e-04
13.750	19.750	1.7440e-04
13.750	20.000	2.3128e-04
13.750	20.250	3.0914e-04
13.750	20.500	4.1621e-04
13.750	20.750	5.6420e-04
13.750	21.000	7.6864e-04
13.750	21.250	1.0544e-03
13.750	21.500	1.4570e-03
13.750	21.750	2.0722e-03
13.750	22.000	3.0095e-03
13.750	22.250	4.1542e-03
13.750	22.500	4.8267e-03
13.750	22.750	5.3460e-03
13.750	23.000	5.6564e-03
13.750	23.250	5.8004e-03
13.750	23.500	5.8590e-03
13.750	23.750	5.9133e-03
13.750	24.000	5.9574e-03
14.000	17.000	2.3868e-06
14.000	17.250	4.8560e-06
14.000	17.500	1.0700e-05
14.000	17.750	2.1235e-05
14.000	18.000	3.6461e-05
14.000	18.250	4.8889e-05
14.000	18.500	5.3004e-05
14.000	18.750	5.9506e-05
14.000	19.000	6.9465e-05
14.000	19.250	8.4280e-05
14.000	19.500	1.0543e-04
14.000	19.750	1.3531e-04
14.000	20.000	1.7630e-04
14.000	20.250	2.3235e-04
14.000	20.500	3.0947e-04
14.000	20.750	4.1523e-04
14.000	21.000	5.5934e-04
14.000	21.250	7.6025e-04
14.000	21.500	1.0315e-03
14.000	21.750	1.4353e-03
14.000	22.000	2.0559e-03
14.000	22.250	3.0458e-03
14.000	22.500	4.1362e-03
14.000	22.750	4.7723e-03
14.000	23.000	5.2935e-03
14.000	23.250	5.6308e-03
14.000	23.500	5.7703e-03
14.000	23.750	5.8354e-03
14.000	24.000	5.8963e-03
