nFnu 8078.61A  relative to Inci 1215.00A scaled to 1215A.
Hden   Phi(H)  Eq_Width (A)
 7.000	17.000	1.3218e-02
 7.000	17.250	7.6319e-03
 7.000	17.500	4.8428e-03
 7.000	17.750	3.5076e-03
 7.000	18.000	2.8786e-03
 7.000	18.250	2.5368e-03
 7.000	18.500	2.3478e-03
 7.000	18.750	2.2673e-03
 7.000	19.000	2.2262e-03
 7.000	19.250	2.2038e-03
 7.000	19.500	2.1951e-03
 7.000	19.750	2.1915e-03
 7.000	20.000	2.1900e-03
 7.000	20.250	2.1894e-03
 7.000	20.500	2.1891e-03
 7.000	20.750	2.1889e-03
 7.000	21.000	2.1888e-03
 7.000	21.250	2.1887e-03
 7.000	21.500	2.1887e-03
 7.000	21.750	2.1887e-03
 7.000	22.000	2.1886e-03
 7.000	22.250	2.1886e-03
 7.000	22.500	2.1886e-03
 7.000	22.750	2.1887e-03
 7.000	23.000	2.1887e-03
 7.000	23.250	2.1886e-03
 7.000	23.500	2.1886e-03
 7.000	23.750	2.1886e-03
 7.000	24.000	2.1886e-03
 7.250	17.000	2.4037e-02
 7.250	17.250	1.3201e-02
 7.250	17.500	7.6238e-03
 7.250	17.750	4.8383e-03
 7.250	18.000	3.5063e-03
 7.250	18.250	2.8783e-03
 7.250	18.500	2.5367e-03
 7.250	18.750	2.3478e-03
 7.250	19.000	2.2673e-03
 7.250	19.250	2.2262e-03
 7.250	19.500	2.2038e-03
 7.250	19.750	2.1951e-03
 7.250	20.000	2.1915e-03
 7.250	20.250	2.1900e-03
 7.250	20.500	2.1894e-03
 7.250	20.750	2.1891e-03
 7.250	21.000	2.1889e-03
 7.250	21.250	2.1888e-03
 7.250	21.500	2.1887e-03
 7.250	21.750	2.1891e-03
 7.250	22.000	2.1887e-03
 7.250	22.250	2.1886e-03
 7.250	22.500	2.1886e-03
 7.250	22.750	2.1889e-03
 7.250	23.000	2.1889e-03
 7.250	23.250	2.1886e-03
 7.250	23.500	2.1886e-03
 7.250	23.750	2.1886e-03
 7.250	24.000	2.1886e-03
 7.500	17.000	4.2680e-02
 7.500	17.250	2.3997e-02
 7.500	17.500	1.3188e-02
 7.500	17.750	7.6167e-03
 7.500	18.000	4.8332e-03
 7.500	18.250	3.5049e-03
 7.500	18.500	2.8779e-03
 7.500	18.750	2.5366e-03
 7.500	19.000	2.3477e-03
 7.500	19.250	2.2673e-03
 7.500	19.500	2.2262e-03
 7.500	19.750	2.2038e-03
 7.500	20.000	2.1951e-03
 7.500	20.250	2.1915e-03
 7.500	20.500	2.1900e-03
 7.500	20.750	2.1894e-03
 7.500	21.000	2.1891e-03
 7.500	21.250	2.1889e-03
 7.500	21.500	2.1888e-03
 7.500	21.750	2.1887e-03
 7.500	22.000	2.1887e-03
 7.500	22.250	2.1887e-03
 7.500	22.500	2.1886e-03
 7.500	22.750	2.1886e-03
 7.500	23.000	2.1888e-03
 7.500	23.250	2.1889e-03
 7.500	23.500	2.1886e-03
 7.500	23.750	2.1890e-03
 7.500	24.000	2.1886e-03
 7.750	17.000	7.0037e-02
 7.750	17.250	4.2526e-02
 7.750	17.500	2.3968e-02
 7.750	17.750	1.3181e-02
 7.750	18.000	7.6107e-03
 7.750	18.250	4.8275e-03
 7.750	18.500	3.5031e-03
 7.750	18.750	2.8774e-03
 7.750	19.000	2.5365e-03
 7.750	19.250	2.3477e-03
 7.750	19.500	2.2673e-03
 7.750	19.750	2.2262e-03
 7.750	20.000	2.2038e-03
 7.750	20.250	2.1951e-03
 7.750	20.500	2.1915e-03
 7.750	20.750	2.1900e-03
 7.750	21.000	2.1894e-03
 7.750	21.250	2.1891e-03
 7.750	21.500	2.1889e-03
 7.750	21.750	2.1888e-03
 7.750	22.000	2.1887e-03
 7.750	22.250	2.1887e-03
 7.750	22.500	2.1887e-03
 7.750	22.750	2.1887e-03
 7.750	23.000	2.1887e-03
 7.750	23.250	2.1886e-03
 7.750	23.500	2.1889e-03
 7.750	23.750	2.1889e-03
 7.750	24.000	2.1886e-03
 8.000	17.000	7.9752e-02
 8.000	17.250	6.9237e-02
 8.000	17.500	4.2388e-02
 8.000	17.750	2.3936e-02
 8.000	18.000	1.3177e-02
 8.000	18.250	7.6053e-03
 8.000	18.500	4.8214e-03
 8.000	18.750	3.5009e-03
 8.000	19.000	2.8769e-03
 8.000	19.250	2.5365e-03
 8.000	19.500	2.3477e-03
 8.000	19.750	2.2673e-03
 8.000	20.000	2.2262e-03
 8.000	20.250	2.2038e-03
 8.000	20.500	2.1951e-03
 8.000	20.750	2.1915e-03
 8.000	21.000	2.1900e-03
 8.000	21.250	2.1894e-03
 8.000	21.500	2.1891e-03
 8.000	21.750	2.1889e-03
 8.000	22.000	2.1888e-03
 8.000	22.250	2.1887e-03
 8.000	22.500	2.1887e-03
 8.000	22.750	2.1887e-03
 8.000	23.000	2.1886e-03
 8.000	23.250	2.1888e-03
 8.000	23.500	2.1886e-03
 8.000	23.750	2.1886e-03
 8.000	24.000	2.1886e-03
 8.250	17.000	8.7654e-02
 8.250	17.250	7.9940e-02
 8.250	17.500	6.9147e-02
 8.250	17.750	4.2309e-02
 8.250	18.000	2.3932e-02
 8.250	18.250	1.3176e-02
 8.250	18.500	7.6003e-03
 8.250	18.750	4.8147e-03
 8.250	19.000	3.4985e-03
 8.250	19.250	2.8762e-03
 8.250	19.500	2.5363e-03
 8.250	19.750	2.3477e-03
 8.250	20.000	2.2672e-03
 8.250	20.250	2.2262e-03
 8.250	20.500	2.2038e-03
 8.250	20.750	2.1951e-03
 8.250	21.000	2.1915e-03
 8.250	21.250	2.1900e-03
 8.250	21.500	2.1894e-03
 8.250	21.750	2.1891e-03
 8.250	22.000	2.1889e-03
 8.250	22.250	2.1887e-03
 8.250	22.500	2.1887e-03
 8.250	22.750	2.1887e-03
 8.250	23.000	2.1886e-03
 8.250	23.250	2.1892e-03
 8.250	23.500	2.1886e-03
 8.250	23.750	2.1886e-03
 8.250	24.000	2.1888e-03
 8.500	17.000	9.4222e-02
 8.500	17.250	8.8247e-02
 8.500	17.500	8.0245e-02
 8.500	17.750	6.9154e-02
 8.500	18.000	4.2261e-02
 8.500	18.250	2.3939e-02
 8.500	18.500	1.3179e-02
 8.500	18.750	7.5954e-03
 8.500	19.000	4.8071e-03
 8.500	19.250	3.4958e-03
 8.500	19.500	2.8755e-03
 8.500	19.750	2.5362e-03
 8.500	20.000	2.3477e-03
 8.500	20.250	2.2672e-03
 8.500	20.500	2.2262e-03
 8.500	20.750	2.2038e-03
 8.500	21.000	2.1951e-03
 8.500	21.250	2.1915e-03
 8.500	21.500	2.1900e-03
 8.500	21.750	2.1894e-03
 8.500	22.000	2.1891e-03
 8.500	22.250	2.1889e-03
 8.500	22.500	2.1887e-03
 8.500	22.750	2.1887e-03
 8.500	23.000	2.1886e-03
 8.500	23.250	2.1887e-03
 8.500	23.500	2.1886e-03
 8.500	23.750	2.1886e-03
 8.500	24.000	2.1886e-03
 8.750	17.000	9.9629e-02
 8.750	17.250	9.5246e-02
 8.750	17.500	8.9220e-02
 8.750	17.750	8.0549e-02
 8.750	18.000	6.9303e-02
 8.750	18.250	4.2228e-02
 8.750	18.500	2.3954e-02
 8.750	18.750	1.3184e-02
 8.750	19.000	7.5905e-03
 8.750	19.250	4.7990e-03
 8.750	19.500	3.4928e-03
 8.750	19.750	2.8747e-03
 8.750	20.000	2.5360e-03
 8.750	20.250	2.3477e-03
 8.750	20.500	2.2672e-03
 8.750	20.750	2.2262e-03
 8.750	21.000	2.2038e-03
 8.750	21.250	2.1951e-03
 8.750	21.500	2.1915e-03
 8.750	21.750	2.1900e-03
 8.750	22.000	2.1894e-03
 8.750	22.250	2.1891e-03
 8.750	22.500	2.1889e-03
 8.750	22.750	2.1887e-03
 8.750	23.000	2.1889e-03
 8.750	23.250	2.1886e-03
 8.750	23.500	2.1887e-03
 8.750	23.750	2.1886e-03
 8.750	24.000	2.1886e-03
 9.000	17.000	1.0388e-01
 9.000	17.250	1.0106e-01
 9.000	17.500	9.7052e-02
 9.000	17.750	9.1179e-02
 9.000	18.000	8.2099e-02
 9.000	18.250	7.0042e-02
 9.000	18.500	4.2200e-02
 9.000	18.750	2.3973e-02
 9.000	19.000	1.3192e-02
 9.000	19.250	7.5869e-03
 9.000	19.500	4.7909e-03
 9.000	19.750	3.4898e-03
 9.000	20.000	2.8740e-03
 9.000	20.250	2.5359e-03
 9.000	20.500	2.3476e-03
 9.000	20.750	2.2672e-03
 9.000	21.000	2.2262e-03
 9.000	21.250	2.2038e-03
 9.000	21.500	2.1951e-03
 9.000	21.750	2.1915e-03
 9.000	22.000	2.1900e-03
 9.000	22.250	2.1894e-03
 9.000	22.500	2.1891e-03
 9.000	22.750	2.1889e-03
 9.000	23.000	2.1887e-03
 9.000	23.250	2.1887e-03
 9.000	23.500	2.1886e-03
 9.000	23.750	2.1886e-03
 9.000	24.000	2.1886e-03
 9.250	17.000	1.0710e-01
 9.250	17.250	1.0578e-01
 9.250	17.500	1.0397e-01
 9.250	17.750	1.0106e-01
 9.250	18.000	9.5367e-02
 9.250	18.250	8.5722e-02
 9.250	18.500	7.1889e-02
 9.250	18.750	4.2171e-02
 9.250	19.000	2.3994e-02
 9.250	19.250	1.3203e-02
 9.250	19.500	7.5858e-03
 9.250	19.750	4.7838e-03
 9.250	20.000	3.4868e-03
 9.250	20.250	2.8733e-03
 9.250	20.500	2.5357e-03
 9.250	20.750	2.3476e-03
 9.250	21.000	2.2672e-03
 9.250	21.250	2.2262e-03
 9.250	21.500	2.2037e-03
 9.250	21.750	2.1949e-03
 9.250	22.000	2.1914e-03
 9.250	22.250	2.1899e-03
 9.250	22.500	2.1893e-03
 9.250	22.750	2.1890e-03
 9.250	23.000	2.1888e-03
 9.250	23.250	2.1887e-03
 9.250	23.500	2.1886e-03
 9.250	23.750	2.1886e-03
 9.250	24.000	2.1886e-03
 9.500	17.000	1.0982e-01
 9.500	17.250	1.0982e-01
 9.500	17.500	1.1019e-01
 9.500	17.750	1.1061e-01
 9.500	18.000	1.0939e-01
 9.500	18.250	1.0476e-01
 9.500	18.500	9.4137e-02
 9.500	18.750	7.4791e-02
 9.500	19.000	4.2121e-02
 9.500	19.250	2.4011e-02
 9.500	19.500	1.3218e-02
 9.500	19.750	7.5877e-03
 9.500	20.000	4.7781e-03
 9.500	20.250	3.4843e-03
 9.500	20.500	2.8727e-03
 9.500	20.750	2.5356e-03
 9.500	21.000	2.3474e-03
 9.500	21.250	2.2672e-03
 9.500	21.500	2.2260e-03
 9.500	21.750	2.2036e-03
 9.500	22.000	2.1948e-03
 9.500	22.250	2.1914e-03
 9.500	22.500	2.1899e-03
 9.500	22.750	2.1891e-03
 9.500	23.000	2.1888e-03
 9.500	23.250	2.1886e-03
 9.500	23.500	2.1886e-03
 9.500	23.750	2.1885e-03
 9.500	24.000	2.1885e-03
 9.750	17.000	1.1162e-01
 9.750	17.250	1.1320e-01
 9.750	17.500	1.1576e-01
 9.750	17.750	1.2019e-01
 9.750	18.000	1.2579e-01
 9.750	18.250	1.2797e-01
 9.750	18.500	1.2357e-01
 9.750	18.750	1.1021e-01
 9.750	19.000	7.4962e-02
 9.750	19.250	4.2047e-02
 9.750	19.500	2.4013e-02
 9.750	19.750	1.3234e-02
 9.750	20.000	7.5923e-03
 9.750	20.250	4.7750e-03
 9.750	20.500	3.4825e-03
 9.750	20.750	2.8723e-03
 9.750	21.000	2.5355e-03
 9.750	21.250	2.3473e-03
 9.750	21.500	2.2672e-03
 9.750	21.750	2.2261e-03
 9.750	22.000	2.2036e-03
 9.750	22.250	2.1948e-03
 9.750	22.500	2.1914e-03
 9.750	22.750	2.1899e-03
 9.750	23.000	2.1891e-03
 9.750	23.250	2.1888e-03
 9.750	23.500	2.1886e-03
 9.750	23.750	2.1886e-03
 9.750	24.000	2.1885e-03
10.000	17.000	1.1247e-01
10.000	17.250	1.1617e-01
10.000	17.500	1.2164e-01
10.000	17.750	1.3092e-01
10.000	18.000	1.4482e-01
10.000	18.250	1.5608e-01
10.000	18.500	1.5913e-01
10.000	18.750	1.4967e-01
10.000	19.000	1.2321e-01
10.000	19.250	7.5418e-02
10.000	19.500	4.1959e-02
10.000	19.750	2.3986e-02
10.000	20.000	1.3248e-02
10.000	20.250	7.5994e-03
10.000	20.500	4.7733e-03
10.000	20.750	3.4809e-03
10.000	21.000	2.8721e-03
10.000	21.250	2.5355e-03
10.000	21.500	2.3473e-03
10.000	21.750	2.2672e-03
10.000	22.000	2.2261e-03
10.000	22.250	2.2036e-03
10.000	22.500	2.1948e-03
10.000	22.750	2.1914e-03
10.000	23.000	2.1899e-03
10.000	23.250	2.1891e-03
10.000	23.500	2.1888e-03
10.000	23.750	2.1886e-03
10.000	24.000	2.1886e-03
10.250	17.000	1.1387e-01
10.250	17.250	1.1911e-01
10.250	17.500	1.2878e-01
10.250	17.750	1.4486e-01
10.250	18.000	1.6746e-01
10.250	18.250	1.8763e-01
10.250	18.500	1.9942e-01
10.250	18.750	1.9838e-01
10.250	19.000	1.8176e-01
10.250	19.250	1.4017e-01
10.250	19.500	7.5623e-02
10.250	19.750	4.1896e-02
10.250	20.000	2.3916e-02
10.250	20.250	1.3256e-02
10.250	20.500	7.6071e-03
10.250	20.750	4.7733e-03
10.250	21.000	3.4802e-03
10.250	21.250	2.8722e-03
10.250	21.500	2.5354e-03
10.250	21.750	2.3472e-03
10.250	22.000	2.2672e-03
10.250	22.250	2.2261e-03
10.250	22.500	2.2036e-03
10.250	22.750	2.1948e-03
10.250	23.000	2.1914e-03
10.250	23.250	2.1899e-03
10.250	23.500	2.1891e-03
10.250	23.750	2.1888e-03
10.250	24.000	2.1886e-03
10.500	17.000	1.1611e-01
10.500	17.250	1.2383e-01
10.500	17.500	1.3850e-01
10.500	17.750	1.6367e-01
10.500	18.000	1.9548e-01
10.500	18.250	2.2473e-01
10.500	18.500	2.4272e-01
10.500	18.750	2.4980e-01
10.500	19.000	2.3952e-01
10.500	19.250	2.1224e-01
10.500	19.500	1.3821e-01
10.500	19.750	7.5141e-02
10.500	20.000	4.1579e-02
10.500	20.250	2.3781e-02
10.500	20.500	1.3250e-02
10.500	20.750	7.6134e-03
10.500	21.000	4.7753e-03
10.500	21.250	3.4800e-03
10.500	21.500	2.8725e-03
10.500	21.750	2.5354e-03
10.500	22.000	2.3472e-03
10.500	22.250	2.2672e-03
10.500	22.500	2.2261e-03
10.500	22.750	2.2037e-03
10.500	23.000	2.1949e-03
10.500	23.250	2.1914e-03
10.500	23.500	2.1899e-03
10.500	23.750	2.1891e-03
10.500	24.000	2.1888e-03
10.750	17.000	1.1954e-01
10.750	17.250	1.3048e-01
10.750	17.500	1.5303e-01
10.750	17.750	1.8817e-01
10.750	18.000	2.2849e-01
10.750	18.250	2.6359e-01
10.750	18.500	2.8851e-01
10.750	18.750	2.9989e-01
10.750	19.000	2.9683e-01
10.750	19.250	2.7893e-01
10.750	19.500	2.3667e-01
10.750	19.750	1.3827e-01
10.750	20.000	7.4253e-02
10.750	20.250	4.0922e-02
10.750	20.500	2.3570e-02
10.750	20.750	1.3219e-02
10.750	21.000	7.6154e-03
10.750	21.250	4.7787e-03
10.750	21.500	3.4806e-03
10.750	21.750	2.8730e-03
10.750	22.000	2.5355e-03
10.750	22.250	2.3472e-03
10.750	22.500	2.2672e-03
10.750	22.750	2.2261e-03
10.750	23.000	2.2037e-03
10.750	23.250	2.1949e-03
10.750	23.500	2.1914e-03
10.750	23.750	2.1899e-03
10.750	24.000	2.1891e-03
11.000	17.000	1.2426e-01
11.000	17.250	1.3887e-01
11.000	17.500	1.7060e-01
11.000	17.750	2.1669e-01
11.000	18.000	2.6358e-01
11.000	18.250	3.0356e-01
11.000	18.500	3.3299e-01
11.000	18.750	3.5012e-01
11.000	19.000	3.5447e-01
11.000	19.250	3.4536e-01
11.000	19.500	3.2101e-01
11.000	19.750	2.7123e-01
11.000	20.000	1.3686e-01
11.000	20.250	7.1747e-02
11.000	20.500	4.0142e-02
11.000	20.750	2.3294e-02
11.000	21.000	1.3138e-02
11.000	21.250	7.6077e-03
11.000	21.500	4.7830e-03
11.000	21.750	3.4818e-03
11.000	22.000	2.8737e-03
11.000	22.250	2.5356e-03
11.000	22.500	2.3472e-03
11.000	22.750	2.2672e-03
11.000	23.000	2.2262e-03
11.000	23.250	2.2037e-03
11.000	23.500	2.1949e-03
11.000	23.750	2.1914e-03
11.000	24.000	2.1899e-03
11.250	17.000	1.3057e-01
11.250	17.250	1.4836e-01
11.250	17.500	1.8871e-01
11.250	17.750	2.4486e-01
11.250	18.000	2.9880e-01
11.250	18.250	3.4229e-01
11.250	18.500	3.7572e-01
11.250	18.750	4.0040e-01
11.250	19.000	4.1051e-01
11.250	19.250	4.0830e-01
11.250	19.500	3.9353e-01
11.250	19.750	3.6541e-01
11.250	20.000	2.7973e-01
11.250	20.250	1.3603e-01
11.250	20.500	7.1046e-02
11.250	20.750	3.9202e-02
11.250	21.000	2.2952e-02
11.250	21.250	1.3001e-02
11.250	21.500	7.5827e-03
11.250	21.750	4.7873e-03
11.250	22.000	3.4835e-03
11.250	22.250	2.8747e-03
11.250	22.500	2.5357e-03
11.250	22.750	2.3471e-03
11.250	23.000	2.2672e-03
11.250	23.250	2.2262e-03
11.250	23.500	2.2037e-03
11.250	23.750	2.1949e-03
11.250	24.000	2.1914e-03
11.500	17.000	1.3931e-01
11.500	17.250	1.5911e-01
11.500	17.500	2.0542e-01
11.500	17.750	2.6943e-01
11.500	18.000	3.3030e-01
11.500	18.250	3.7887e-01
11.500	18.500	4.1694e-01
11.500	18.750	4.4616e-01
11.500	19.000	4.6279e-01
11.500	19.250	4.6720e-01
11.500	19.500	4.5973e-01
11.500	19.750	4.4136e-01
11.500	20.000	4.1010e-01
11.500	20.250	2.9073e-01
11.500	20.500	1.3373e-01
11.500	20.750	6.9034e-02
11.500	21.000	3.8280e-02
11.500	21.250	2.2600e-02
11.500	21.500	1.2806e-02
11.500	21.750	7.5364e-03
11.500	22.000	4.7898e-03
11.500	22.250	3.4855e-03
11.500	22.500	2.8756e-03
11.500	22.750	2.5359e-03
11.500	23.000	2.3469e-03
11.500	23.250	2.2672e-03
11.500	23.500	2.2263e-03
11.500	23.750	2.2037e-03
11.500	24.000	2.1949e-03
11.750	17.000	1.5129e-01
11.750	17.250	1.7129e-01
11.750	17.500	2.2003e-01
11.750	17.750	2.8835e-01
11.750	18.000	3.5495e-01
11.750	18.250	4.1045e-01
11.750	18.500	4.5444e-01
11.750	18.750	4.8710e-01
11.750	19.000	5.1075e-01
11.750	19.250	5.2056e-01
11.750	19.500	5.1927e-01
11.750	19.750	5.0609e-01
11.750	20.000	4.8436e-01
11.750	20.250	4.4941e-01
11.750	20.500	2.9089e-01
11.750	20.750	1.3172e-01
11.750	21.000	6.7588e-02
11.750	21.250	3.7772e-02
11.750	21.500	2.2134e-02
11.750	21.750	1.2564e-02
11.750	22.000	7.4591e-03
11.750	22.250	4.7880e-03
11.750	22.500	3.4877e-03
11.750	22.750	2.8765e-03
11.750	23.000	2.5361e-03
11.750	23.250	2.3467e-03
11.750	23.500	2.2672e-03
11.750	23.750	2.2263e-03
11.750	24.000	2.2038e-03
12.000	17.000	1.6783e-01
12.000	17.250	1.8536e-01
12.000	17.500	2.3228e-01
12.000	17.750	3.0056e-01
12.000	18.000	3.7170e-01
12.000	18.250	4.3463e-01
12.000	18.500	4.8637e-01
12.000	18.750	5.2591e-01
12.000	19.000	5.5313e-01
12.000	19.250	5.6783e-01
12.000	19.500	5.7063e-01
12.000	19.750	5.6182e-01
12.000	20.000	5.4471e-01
12.000	20.250	5.1842e-01
12.000	20.500	4.7990e-01
12.000	20.750	2.9038e-01
12.000	21.000	1.3075e-01
12.000	21.250	6.6377e-02
12.000	21.500	3.7788e-02
12.000	21.750	2.1648e-02
12.000	22.000	1.2289e-02
12.000	22.250	7.3581e-03
12.000	22.500	4.7796e-03
12.000	22.750	3.4895e-03
12.000	23.000	2.8772e-03
12.000	23.250	2.5362e-03
12.000	23.500	2.3465e-03
12.000	23.750	2.2670e-03
12.000	24.000	2.2262e-03
12.250	17.000	1.8972e-01
12.250	17.250	2.0182e-01
12.250	17.500	2.4244e-01
12.250	17.750	3.0668e-01
12.250	18.000	3.8037e-01
12.250	18.250	4.5067e-01
12.250	18.500	5.1063e-01
12.250	18.750	5.5849e-01
12.250	19.000	5.9023e-01
12.250	19.250	6.0775e-01
12.250	19.500	6.1313e-01
12.250	19.750	6.0868e-01
12.250	20.000	5.9274e-01
12.250	20.250	5.7095e-01
12.250	20.500	5.4203e-01
12.250	20.750	5.0049e-01
12.250	21.000	2.8618e-01
12.250	21.250	1.2877e-01
12.250	21.500	6.5685e-02
12.250	21.750	3.8125e-02
12.250	22.000	2.1141e-02
12.250	22.250	1.2117e-02
12.250	22.500	7.3105e-03
12.250	22.750	4.7632e-03
12.250	23.000	3.4909e-03
12.250	23.250	2.8778e-03
12.250	23.500	2.5362e-03
12.250	23.750	2.3462e-03
12.250	24.000	2.2669e-03
12.500	17.000	2.1545e-01
12.500	17.250	2.1952e-01
12.500	17.500	2.5225e-01
12.500	17.750	3.0948e-01
12.500	18.000	3.8286e-01
12.500	18.250	4.5778e-01
12.500	18.500	5.2591e-01
12.500	18.750	5.8122e-01
12.500	19.000	6.1891e-01
12.500	19.250	6.3968e-01
12.500	19.500	6.4572e-01
12.500	19.750	6.4298e-01
12.500	20.000	6.3110e-01
12.500	20.250	6.1070e-01
12.500	20.500	5.8633e-01
12.500	20.750	5.5448e-01
12.500	21.000	5.0502e-01
12.500	21.250	2.7569e-01
12.500	21.500	1.2713e-01
12.500	21.750	6.5345e-02
12.500	22.000	3.7863e-02
12.500	22.250	2.0745e-02
12.500	22.500	1.1857e-02
12.500	22.750	7.1768e-03
12.500	23.000	4.7388e-03
12.500	23.250	3.4910e-03
12.500	23.500	2.8779e-03
12.500	23.750	2.5360e-03
12.500	24.000	2.3456e-03
12.750	17.000	2.1634e-01
12.750	17.250	2.3262e-01
12.750	17.500	2.6044e-01
12.750	17.750	3.1365e-01
12.750	18.000	3.8340e-01
12.750	18.250	4.5942e-01
12.750	18.500	5.3164e-01
12.750	18.750	5.9363e-01
12.750	19.000	6.3868e-01
12.750	19.250	6.6367e-01
12.750	19.500	6.7102e-01
12.750	19.750	6.6786e-01
12.750	20.000	6.5771e-01
12.750	20.250	6.4097e-01
12.750	20.500	6.1860e-01
12.750	20.750	5.9170e-01
12.750	21.000	5.6018e-01
12.750	21.250	5.0711e-01
12.750	21.500	2.6462e-01
12.750	21.750	1.2354e-01
12.750	22.000	6.5219e-02
12.750	22.250	3.6710e-02
12.750	22.500	2.0211e-02
12.750	22.750	1.1545e-02
12.750	23.000	7.0598e-03
12.750	23.250	4.7079e-03
12.750	23.500	3.4891e-03
12.750	23.750	2.8770e-03
12.750	24.000	2.5354e-03
13.000	17.000	1.9460e-01
13.000	17.250	2.3327e-01
13.000	17.500	2.7103e-01
13.000	17.750	3.2081e-01
13.000	18.000	3.8494e-01
13.000	18.250	4.5873e-01
13.000	18.500	5.3219e-01
13.000	18.750	5.9712e-01
13.000	19.000	6.4675e-01
13.000	19.250	6.7794e-01
13.000	19.500	6.8790e-01
13.000	19.750	6.8596e-01
13.000	20.000	6.7588e-01
13.000	20.250	6.6129e-01
13.000	20.500	6.4247e-01
13.000	20.750	6.1884e-01
13.000	21.000	5.9090e-01
13.000	21.250	5.5787e-01
13.000	21.500	4.9607e-01
13.000	21.750	2.5056e-01
13.000	22.000	1.1938e-01
13.000	22.250	6.4884e-02
13.000	22.500	3.5675e-02
13.000	22.750	1.9722e-02
13.000	23.000	1.1313e-02
13.000	23.250	6.9481e-03
13.000	23.500	4.6688e-03
13.000	23.750	3.4841e-03
13.000	24.000	2.8748e-03
13.250	17.000	1.9088e-01
13.250	17.250	2.2852e-01
13.250	17.500	2.8798e-01
13.250	17.750	3.3439e-01
13.250	18.000	3.9070e-01
13.250	18.250	4.5960e-01
13.250	18.500	5.3157e-01
13.250	18.750	5.9683e-01
13.250	19.000	6.4896e-01
13.250	19.250	6.8285e-01
13.250	19.500	6.9757e-01
13.250	19.750	7.0008e-01
13.250	20.000	6.9068e-01
13.250	20.250	6.7586e-01
13.250	20.500	6.5891e-01
13.250	20.750	6.3798e-01
13.250	21.000	6.1500e-01
13.250	21.250	5.8588e-01
13.250	21.500	5.4459e-01
13.250	21.750	4.6068e-01
13.250	22.000	2.3461e-01
13.250	22.250	1.1586e-01
13.250	22.500	6.3285e-02
13.250	22.750	3.4570e-02
13.250	23.000	1.9194e-02
13.250	23.250	1.1211e-02
13.250	23.500	6.8953e-03
13.250	23.750	4.6258e-03
13.250	24.000	3.4741e-03
13.500	17.000	1.8644e-01
13.500	17.250	2.2346e-01
13.500	17.500	2.8393e-01
13.500	17.750	3.4377e-01
13.500	18.000	4.0155e-01
13.500	18.250	4.6438e-01
13.500	18.500	5.3219e-01
13.500	18.750	5.9600e-01
13.500	19.000	6.4910e-01
13.500	19.250	6.8594e-01
13.500	19.500	7.0540e-01
13.500	19.750	7.0952e-01
13.500	20.000	7.0335e-01
13.500	20.250	6.9097e-01
13.500	20.500	6.7277e-01
13.500	20.750	6.5166e-01
13.500	21.000	6.2679e-01
13.500	21.250	6.0335e-01
13.500	21.500	5.6695e-01
13.500	21.750	5.2199e-01
13.500	22.000	4.2060e-01
13.500	22.250	2.1792e-01
13.500	22.500	1.1018e-01
13.500	22.750	6.0493e-02
13.500	23.000	3.3413e-02
13.500	23.250	1.8575e-02
13.500	23.500	1.0843e-02
13.500	23.750	6.7206e-03
13.500	24.000	4.5799e-03
13.750	17.000	1.8364e-01
13.750	17.250	2.1728e-01
13.750	17.500	2.7895e-01
13.750	17.750	3.4507e-01
13.750	18.000	4.1762e-01
13.750	18.250	4.7418e-01
13.750	18.500	5.3591e-01
13.750	18.750	5.9659e-01
13.750	19.000	6.4983e-01
13.750	19.250	6.8975e-01
13.750	19.500	7.1361e-01
13.750	19.750	7.2177e-01
13.750	20.000	7.1806e-01
13.750	20.250	7.0714e-01
13.750	20.500	6.9046e-01
13.750	20.750	6.6916e-01
13.750	21.000	6.4444e-01
13.750	21.250	6.1654e-01
13.750	21.500	5.8482e-01
13.750	21.750	5.5072e-01
13.750	22.000	4.9791e-01
13.750	22.250	3.7872e-01
13.750	22.500	1.9859e-01
13.750	22.750	1.0380e-01
13.750	23.000	5.7747e-02
13.750	23.250	3.2196e-02
13.750	23.500	1.8051e-02
13.750	23.750	1.0580e-02
13.750	24.000	6.5872e-03
14.000	17.000	1.8056e-01
14.000	17.250	2.1269e-01
14.000	17.500	2.7040e-01
14.000	17.750	3.4208e-01
14.000	18.000	4.2411e-01
14.000	18.250	4.9233e-01
14.000	18.500	5.4658e-01
14.000	18.750	6.0138e-01
14.000	19.000	6.5238e-01
14.000	19.250	6.9374e-01
14.000	19.500	7.2208e-01
14.000	19.750	7.3607e-01
14.000	20.000	7.3610e-01
14.000	20.250	7.2644e-01
14.000	20.500	7.1165e-01
14.000	20.750	6.9177e-01
14.000	21.000	6.6711e-01
14.000	21.250	6.4084e-01
14.000	21.500	6.0760e-01
14.000	21.750	5.7731e-01
14.000	22.000	5.3997e-01
14.000	22.250	4.7663e-01
14.000	22.500	3.3669e-01
14.000	22.750	1.8002e-01
14.000	23.000	9.7117e-02
14.000	23.250	5.5400e-02
14.000	23.500	3.0882e-02
14.000	23.750	1.7494e-02
14.000	24.000	1.0275e-02
