nFnu 1113.22A  relative to Inci 1215.00A scaled to 1215A.
Hden   Phi(H)  Eq_Width (A)
 7.000	17.000	2.2975e-02
 7.000	17.250	1.8899e-02
 7.000	17.500	1.5420e-02
 7.000	17.750	1.2535e-02
 7.000	18.000	1.0591e-02
 7.000	18.250	9.4334e-03
 7.000	18.500	8.7215e-03
 7.000	18.750	8.3757e-03
 7.000	19.000	8.1934e-03
 7.000	19.250	8.0909e-03
 7.000	19.500	8.0472e-03
 7.000	19.750	8.0289e-03
 7.000	20.000	8.0208e-03
 7.000	20.250	8.0170e-03
 7.000	20.500	8.0151e-03
 7.000	20.750	8.0142e-03
 7.000	21.000	8.0136e-03
 7.000	21.250	8.0133e-03
 7.000	21.500	8.0133e-03
 7.000	21.750	8.0130e-03
 7.000	22.000	8.0130e-03
 7.000	22.250	8.0129e-03
 7.000	22.500	8.0129e-03
 7.000	22.750	8.0132e-03
 7.000	23.000	8.0132e-03
 7.000	23.250	8.0129e-03
 7.000	23.500	8.0129e-03
 7.000	23.750	8.0129e-03
 7.000	24.000	8.0129e-03
 7.250	17.000	2.7351e-02
 7.250	17.250	2.2759e-02
 7.250	17.500	1.8791e-02
 7.250	17.750	1.5368e-02
 7.250	18.000	1.2505e-02
 7.250	18.250	1.0575e-02
 7.250	18.500	9.4258e-03
 7.250	18.750	8.7188e-03
 7.250	19.000	8.3747e-03
 7.250	19.250	8.1931e-03
 7.250	19.500	8.0908e-03
 7.250	19.750	8.0472e-03
 7.250	20.000	8.0288e-03
 7.250	20.250	8.0208e-03
 7.250	20.500	8.0170e-03
 7.250	20.750	8.0151e-03
 7.250	21.000	8.0142e-03
 7.250	21.250	8.0136e-03
 7.250	21.500	8.0133e-03
 7.250	21.750	8.0147e-03
 7.250	22.000	8.0130e-03
 7.250	22.250	8.0130e-03
 7.250	22.500	8.0129e-03
 7.250	22.750	8.0137e-03
 7.250	23.000	8.0137e-03
 7.250	23.250	8.0129e-03
 7.250	23.500	8.0129e-03
 7.250	23.750	8.0129e-03
 7.250	24.000	8.0129e-03
 7.500	17.000	2.9186e-02
 7.500	17.250	2.7141e-02
 7.500	17.500	2.2635e-02
 7.500	17.750	1.8732e-02
 7.500	18.000	1.5342e-02
 7.500	18.250	1.2488e-02
 7.500	18.500	1.0565e-02
 7.500	18.750	9.4209e-03
 7.500	19.000	8.7170e-03
 7.500	19.250	8.3741e-03
 7.500	19.500	8.1928e-03
 7.500	19.750	8.0907e-03
 7.500	20.000	8.0472e-03
 7.500	20.250	8.0288e-03
 7.500	20.500	8.0207e-03
 7.500	20.750	8.0170e-03
 7.500	21.000	8.0151e-03
 7.500	21.250	8.0141e-03
 7.500	21.500	8.0136e-03
 7.500	21.750	8.0133e-03
 7.500	22.000	8.0132e-03
 7.500	22.250	8.0131e-03
 7.500	22.500	8.0130e-03
 7.500	22.750	8.0129e-03
 7.500	23.000	8.0133e-03
 7.500	23.250	8.0137e-03
 7.500	23.500	8.0129e-03
 7.500	23.750	8.0139e-03
 7.500	24.000	8.0129e-03
 7.750	17.000	3.3085e-02
 7.750	17.250	2.7723e-02
 7.750	17.500	2.7027e-02
 7.750	17.750	2.2563e-02
 7.750	18.000	1.8703e-02
 7.750	18.250	1.5334e-02
 7.750	18.500	1.2479e-02
 7.750	18.750	1.0560e-02
 7.750	19.000	9.4179e-03
 7.750	19.250	8.7159e-03
 7.750	19.500	8.3737e-03
 7.750	19.750	8.1927e-03
 7.750	20.000	8.0907e-03
 7.750	20.250	8.0472e-03
 7.750	20.500	8.0288e-03
 7.750	20.750	8.0207e-03
 7.750	21.000	8.0170e-03
 7.750	21.250	8.0151e-03
 7.750	21.500	8.0141e-03
 7.750	21.750	8.0136e-03
 7.750	22.000	8.0133e-03
 7.750	22.250	8.0131e-03
 7.750	22.500	8.0130e-03
 7.750	22.750	8.0132e-03
 7.750	23.000	8.0133e-03
 7.750	23.250	8.0130e-03
 7.750	23.500	8.0137e-03
 7.750	23.750	8.0137e-03
 7.750	24.000	8.0129e-03
 8.000	17.000	3.5165e-02
 8.000	17.250	2.9896e-02
 8.000	17.500	2.6566e-02
 8.000	17.750	2.6948e-02
 8.000	18.000	2.2519e-02
 8.000	18.250	1.8692e-02
 8.000	18.500	1.5336e-02
 8.000	18.750	1.2475e-02
 8.000	19.000	1.0556e-02
 8.000	19.250	9.4160e-03
 8.000	19.500	8.7152e-03
 8.000	19.750	8.3734e-03
 8.000	20.000	8.1926e-03
 8.000	20.250	8.0907e-03
 8.000	20.500	8.0472e-03
 8.000	20.750	8.0288e-03
 8.000	21.000	8.0207e-03
 8.000	21.250	8.0170e-03
 8.000	21.500	8.0151e-03
 8.000	21.750	8.0141e-03
 8.000	22.000	8.0135e-03
 8.000	22.250	8.0133e-03
 8.000	22.500	8.0131e-03
 8.000	22.750	8.0132e-03
 8.000	23.000	8.0129e-03
 8.000	23.250	8.0134e-03
 8.000	23.500	8.0129e-03
 8.000	23.750	8.0129e-03
 8.000	24.000	8.0129e-03
 8.250	17.000	3.6458e-02
 8.250	17.250	3.2409e-02
 8.250	17.500	2.7718e-02
 8.250	17.750	2.5694e-02
 8.250	18.000	2.6901e-02
 8.250	18.250	2.2488e-02
 8.250	18.500	1.8692e-02
 8.250	18.750	1.5345e-02
 8.250	19.000	1.2475e-02
 8.250	19.250	1.0554e-02
 8.250	19.500	9.4148e-03
 8.250	19.750	8.7147e-03
 8.250	20.000	8.3733e-03
 8.250	20.250	8.1926e-03
 8.250	20.500	8.0906e-03
 8.250	20.750	8.0472e-03
 8.250	21.000	8.0288e-03
 8.250	21.250	8.0207e-03
 8.250	21.500	8.0170e-03
 8.250	21.750	8.0151e-03
 8.250	22.000	8.0141e-03
 8.250	22.250	8.0135e-03
 8.250	22.500	8.0133e-03
 8.250	22.750	8.0133e-03
 8.250	23.000	8.0130e-03
 8.250	23.250	8.0150e-03
 8.250	23.500	8.0129e-03
 8.250	23.750	8.0128e-03
 8.250	24.000	8.0135e-03
 8.500	17.000	3.7088e-02
 8.500	17.250	3.4209e-02
 8.500	17.500	3.0549e-02
 8.500	17.750	2.6284e-02
 8.500	18.000	2.5174e-02
 8.500	18.250	2.6855e-02
 8.500	18.500	2.2462e-02
 8.500	18.750	1.8698e-02
 8.500	19.000	1.5359e-02
 8.500	19.250	1.2476e-02
 8.500	19.500	1.0553e-02
 8.500	19.750	9.4140e-03
 8.500	20.000	8.7145e-03
 8.500	20.250	8.3732e-03
 8.500	20.500	8.1925e-03
 8.500	20.750	8.0906e-03
 8.500	21.000	8.0472e-03
 8.500	21.250	8.0288e-03
 8.500	21.500	8.0207e-03
 8.500	21.750	8.0170e-03
 8.500	22.000	8.0151e-03
 8.500	22.250	8.0141e-03
 8.500	22.500	8.0135e-03
 8.500	22.750	8.0133e-03
 8.500	23.000	8.0131e-03
 8.500	23.250	8.0132e-03
 8.500	23.500	8.0129e-03
 8.500	23.750	8.0128e-03
 8.500	24.000	8.0128e-03
 8.750	17.000	3.7375e-02
 8.750	17.250	3.5410e-02
 8.750	17.500	3.2749e-02
 8.750	17.750	2.9407e-02
 8.750	18.000	2.5364e-02
 8.750	18.250	2.4867e-02
 8.750	18.500	2.6801e-02
 8.750	18.750	2.2436e-02
 8.750	19.000	1.8707e-02
 8.750	19.250	1.5376e-02
 8.750	19.500	1.2478e-02
 8.750	19.750	1.0552e-02
 8.750	20.000	9.4135e-03
 8.750	20.250	8.7142e-03
 8.750	20.500	8.3731e-03
 8.750	20.750	8.1925e-03
 8.750	21.000	8.0906e-03
 8.750	21.250	8.0472e-03
 8.750	21.500	8.0288e-03
 8.750	21.750	8.0207e-03
 8.750	22.000	8.0170e-03
 8.750	22.250	8.0151e-03
 8.750	22.500	8.0141e-03
 8.750	22.750	8.0135e-03
 8.750	23.000	8.0140e-03
 8.750	23.250	8.0131e-03
 8.750	23.500	8.0132e-03
 8.750	23.750	8.0129e-03
 8.750	24.000	8.0128e-03
 9.000	17.000	3.7396e-02
 9.000	17.250	3.6171e-02
 9.000	17.500	3.4321e-02
 9.000	17.750	3.1732e-02
 9.000	18.000	2.8490e-02
 9.000	18.250	2.4694e-02
 9.000	18.500	2.4658e-02
 9.000	18.750	2.6739e-02
 9.000	19.000	2.2405e-02
 9.000	19.250	1.8716e-02
 9.000	19.500	1.5394e-02
 9.000	19.750	1.2480e-02
 9.000	20.000	1.0551e-02
 9.000	20.250	9.4130e-03
 9.000	20.500	8.7141e-03
 9.000	20.750	8.3731e-03
 9.000	21.000	8.1925e-03
 9.000	21.250	8.0906e-03
 9.000	21.500	8.0472e-03
 9.000	21.750	8.0288e-03
 9.000	22.000	8.0207e-03
 9.000	22.250	8.0170e-03
 9.000	22.500	8.0151e-03
 9.000	22.750	8.0141e-03
 9.000	23.000	8.0135e-03
 9.000	23.250	8.0132e-03
 9.000	23.500	8.0130e-03
 9.000	23.750	8.0129e-03
 9.000	24.000	8.0130e-03
 9.250	17.000	3.7188e-02
 9.250	17.250	3.6542e-02
 9.250	17.500	3.5394e-02
 9.250	17.750	3.3510e-02
 9.250	18.000	3.0878e-02
 9.250	18.250	2.7663e-02
 9.250	18.500	2.4023e-02
 9.250	18.750	2.4502e-02
 9.250	19.000	2.6665e-02
 9.250	19.250	2.2367e-02
 9.250	19.500	1.8717e-02
 9.250	19.750	1.5411e-02
 9.250	20.000	1.2483e-02
 9.250	20.250	1.0551e-02
 9.250	20.500	9.4127e-03
 9.250	20.750	8.7139e-03
 9.250	21.000	8.3731e-03
 9.250	21.250	8.1925e-03
 9.250	21.500	8.0902e-03
 9.250	21.750	8.0467e-03
 9.250	22.000	8.0281e-03
 9.250	22.250	8.0202e-03
 9.250	22.500	8.0166e-03
 9.250	22.750	8.0147e-03
 9.250	23.000	8.0138e-03
 9.250	23.250	8.0133e-03
 9.250	23.500	8.0130e-03
 9.250	23.750	8.0128e-03
 9.250	24.000	8.0128e-03
 9.500	17.000	3.6781e-02
 9.500	17.250	3.6551e-02
 9.500	17.500	3.5998e-02
 9.500	17.750	3.4806e-02
 9.500	18.000	3.2765e-02
 9.500	18.250	2.9903e-02
 9.500	18.500	2.6527e-02
 9.500	18.750	2.3239e-02
 9.500	19.000	2.4379e-02
 9.500	19.250	2.6582e-02
 9.500	19.500	2.2320e-02
 9.500	19.750	1.8710e-02
 9.500	20.000	1.5424e-02
 9.500	20.250	1.2486e-02
 9.500	20.500	1.0551e-02
 9.500	20.750	9.4121e-03
 9.500	21.000	8.7133e-03
 9.500	21.250	8.3725e-03
 9.500	21.500	8.1919e-03
 9.500	21.750	8.0899e-03
 9.500	22.000	8.0464e-03
 9.500	22.250	8.0281e-03
 9.500	22.500	8.0199e-03
 9.500	22.750	8.0161e-03
 9.500	23.000	8.0142e-03
 9.500	23.250	8.0133e-03
 9.500	23.500	8.0128e-03
 9.500	23.750	8.0124e-03
 9.500	24.000	8.0123e-03
 9.750	17.000	3.6287e-02
 9.750	17.250	3.6265e-02
 9.750	17.500	3.6161e-02
 9.750	17.750	3.5590e-02
 9.750	18.000	3.4167e-02
 9.750	18.250	3.1791e-02
 9.750	18.500	2.8524e-02
 9.750	18.750	2.4682e-02
 9.750	19.000	2.3013e-02
 9.750	19.250	2.4265e-02
 9.750	19.500	2.6491e-02
 9.750	19.750	2.2268e-02
 9.750	20.000	1.8694e-02
 9.750	20.250	1.5431e-02
 9.750	20.500	1.2487e-02
 9.750	20.750	1.0551e-02
 9.750	21.000	9.4119e-03
 9.750	21.250	8.7132e-03
 9.750	21.500	8.3725e-03
 9.750	21.750	8.1919e-03
 9.750	22.000	8.0899e-03
 9.750	22.250	8.0464e-03
 9.750	22.500	8.0281e-03
 9.750	22.750	8.0200e-03
 9.750	23.000	8.0162e-03
 9.750	23.250	8.0142e-03
 9.750	23.500	8.0133e-03
 9.750	23.750	8.0127e-03
 9.750	24.000	8.0124e-03
10.000	17.000	3.5835e-02
10.000	17.250	3.5824e-02
10.000	17.500	3.5935e-02
10.000	17.750	3.5838e-02
10.000	18.000	3.5061e-02
10.000	18.250	3.3303e-02
10.000	18.500	3.0476e-02
10.000	18.750	2.6928e-02
10.000	19.000	2.3343e-02
10.000	19.250	2.2730e-02
10.000	19.500	2.4145e-02
10.000	19.750	2.6395e-02
10.000	20.000	2.2217e-02
10.000	20.250	1.8671e-02
10.000	20.500	1.5434e-02
10.000	20.750	1.2489e-02
10.000	21.000	1.0551e-02
10.000	21.250	9.4120e-03
10.000	21.500	8.7130e-03
10.000	21.750	8.3726e-03
10.000	22.000	8.1920e-03
10.000	22.250	8.0900e-03
10.000	22.500	8.0464e-03
10.000	22.750	8.0281e-03
10.000	23.000	8.0200e-03
10.000	23.250	8.0162e-03
10.000	23.500	8.0143e-03
10.000	23.750	8.0133e-03
10.000	24.000	8.0128e-03
10.250	17.000	3.5638e-02
10.250	17.250	3.5414e-02
10.250	17.500	3.5515e-02
10.250	17.750	3.5639e-02
10.250	18.000	3.5376e-02
10.250	18.250	3.4332e-02
10.250	18.500	3.2204e-02
10.250	18.750	2.9046e-02
10.250	19.000	2.5128e-02
10.250	19.250	2.1635e-02
10.250	19.500	2.2601e-02
10.250	19.750	2.4036e-02
10.250	20.000	2.6347e-02
10.250	20.250	2.2187e-02
10.250	20.500	1.8645e-02
10.250	20.750	1.5434e-02
10.250	21.000	1.2490e-02
10.250	21.250	1.0551e-02
10.250	21.500	9.4119e-03
10.250	21.750	8.7130e-03
10.250	22.000	8.3726e-03
10.250	22.250	8.1921e-03
10.250	22.500	8.0901e-03
10.250	22.750	8.0464e-03
10.250	23.000	8.0281e-03
10.250	23.250	8.0200e-03
10.250	23.500	8.0162e-03
10.250	23.750	8.0143e-03
10.250	24.000	8.0133e-03
10.500	17.000	3.5702e-02
10.500	17.250	3.5264e-02
10.500	17.500	3.5129e-02
10.500	17.750	3.5237e-02
10.500	18.000	3.5212e-02
10.500	18.250	3.4695e-02
10.500	18.500	3.3407e-02
10.500	18.750	3.1010e-02
10.500	19.000	2.7663e-02
10.500	19.250	2.3547e-02
10.500	19.500	2.2221e-02
10.500	19.750	2.2823e-02
10.500	20.000	2.4170e-02
10.500	20.250	2.6363e-02
10.500	20.500	2.2189e-02
10.500	20.750	1.8622e-02
10.500	21.000	1.5429e-02
10.500	21.250	1.2490e-02
10.500	21.500	1.0551e-02
10.500	21.750	9.4120e-03
10.500	22.000	8.7131e-03
10.500	22.250	8.3727e-03
10.500	22.500	8.1921e-03
10.500	22.750	8.0901e-03
10.500	23.000	8.0466e-03
10.500	23.250	8.0281e-03
10.500	23.500	8.0200e-03
10.500	23.750	8.0162e-03
10.500	24.000	8.0143e-03
10.750	17.000	3.5963e-02
10.750	17.250	3.5382e-02
10.750	17.500	3.5023e-02
10.750	17.750	3.4897e-02
10.750	18.000	3.4852e-02
10.750	18.250	3.4641e-02
10.750	18.500	3.3972e-02
10.750	18.750	3.2517e-02
10.750	19.000	3.0030e-02
10.750	19.250	2.6500e-02
10.750	19.500	2.2427e-02
10.750	19.750	2.2473e-02
10.750	20.000	2.3390e-02
10.750	20.250	2.4676e-02
10.750	20.500	2.6617e-02
10.750	20.750	2.2248e-02
10.750	21.000	1.8610e-02
10.750	21.250	1.5420e-02
10.750	21.500	1.2489e-02
10.750	21.750	1.0551e-02
10.750	22.000	9.4122e-03
10.750	22.250	8.7131e-03
10.750	22.500	8.3728e-03
10.750	22.750	8.1922e-03
10.750	23.000	8.0902e-03
10.750	23.250	8.0467e-03
10.750	23.500	8.0281e-03
10.750	23.750	8.0200e-03
10.750	24.000	8.0162e-03
11.000	17.000	3.6367e-02
11.000	17.250	3.5705e-02
11.000	17.500	3.5196e-02
11.000	17.750	3.4836e-02
11.000	18.000	3.4588e-02
11.000	18.250	3.4380e-02
11.000	18.500	3.4090e-02
11.000	18.750	3.3344e-02
11.000	19.000	3.1749e-02
11.000	19.250	2.9118e-02
11.000	19.500	2.5490e-02
11.000	19.750	2.1152e-02
11.000	20.000	2.3384e-02
11.000	20.250	2.4842e-02
11.000	20.500	2.5625e-02
11.000	20.750	2.7179e-02
11.000	21.000	2.2467e-02
11.000	21.250	1.8621e-02
11.000	21.500	1.5409e-02
11.000	21.750	1.2488e-02
11.000	22.000	1.0552e-02
11.000	22.250	9.4124e-03
11.000	22.500	8.7129e-03
11.000	22.750	8.3730e-03
11.000	23.000	8.1923e-03
11.000	23.250	8.0902e-03
11.000	23.500	8.0467e-03
11.000	23.750	8.0282e-03
11.000	24.000	8.0201e-03
11.250	17.000	3.6897e-02
11.250	17.250	3.6164e-02
11.250	17.500	3.5573e-02
11.250	17.750	3.5071e-02
11.250	18.000	3.4608e-02
11.250	18.250	3.4224e-02
11.250	18.500	3.3953e-02
11.250	18.750	3.3598e-02
11.250	19.000	3.2754e-02
11.250	19.250	3.1081e-02
11.250	19.500	2.8431e-02
11.250	19.750	2.4731e-02
11.250	20.000	2.1476e-02
11.250	20.250	2.4506e-02
11.250	20.500	2.6057e-02
11.250	20.750	2.7171e-02
11.250	21.000	2.8356e-02
11.250	21.250	2.2849e-02
11.250	21.500	1.8688e-02
11.250	21.750	1.5396e-02
11.250	22.000	1.2487e-02
11.250	22.250	1.0552e-02
11.250	22.500	9.4128e-03
11.250	22.750	8.7128e-03
11.250	23.000	8.3730e-03
11.250	23.250	8.1926e-03
11.250	23.500	8.0902e-03
11.250	23.750	8.0467e-03
11.250	24.000	8.0283e-03
11.500	17.000	3.7580e-02
11.500	17.250	3.6742e-02
11.500	17.500	3.6087e-02
11.500	17.750	3.5512e-02
11.500	18.000	3.4918e-02
11.500	18.250	3.4339e-02
11.500	18.500	3.3877e-02
11.500	18.750	3.3562e-02
11.500	19.000	3.3174e-02
11.500	19.250	3.2269e-02
11.500	19.500	3.0588e-02
11.500	19.750	2.7994e-02
11.500	20.000	2.4352e-02
11.500	20.250	2.2506e-02
11.500	20.500	2.6312e-02
11.500	20.750	2.8288e-02
11.500	21.000	2.9505e-02
11.500	21.250	2.9871e-02
11.500	21.500	2.3434e-02
11.500	21.750	1.8817e-02
11.500	22.000	1.5387e-02
11.500	22.250	1.2484e-02
11.500	22.500	1.0552e-02
11.500	22.750	9.4133e-03
11.500	23.000	8.7126e-03
11.500	23.250	8.3730e-03
11.500	23.500	8.1927e-03
11.500	23.750	8.0903e-03
11.500	24.000	8.0467e-03
11.750	17.000	3.8457e-02
11.750	17.250	3.7454e-02
11.750	17.500	3.6706e-02
11.750	17.750	3.6052e-02
11.750	18.000	3.5385e-02
11.750	18.250	3.4714e-02
11.750	18.500	3.4070e-02
11.750	18.750	3.3550e-02
11.750	19.000	3.3212e-02
11.750	19.250	3.2819e-02
11.750	19.500	3.1921e-02
11.750	19.750	3.0352e-02
11.750	20.000	2.7925e-02
11.750	20.250	2.4488e-02
11.750	20.500	2.4272e-02
11.750	20.750	2.8546e-02
11.750	21.000	3.1210e-02
11.750	21.250	3.2974e-02
11.750	21.500	3.1389e-02
11.750	21.750	2.4162e-02
11.750	22.000	1.9052e-02
11.750	22.250	1.5386e-02
11.750	22.500	1.2481e-02
11.750	22.750	1.0552e-02
11.750	23.000	9.4140e-03
11.750	23.250	8.7123e-03
11.750	23.500	8.3730e-03
11.750	23.750	8.1928e-03
11.750	24.000	8.0905e-03
12.000	17.000	3.9627e-02
12.000	17.250	3.8322e-02
12.000	17.500	3.7393e-02
12.000	17.750	3.6618e-02
12.000	18.000	3.5908e-02
12.000	18.250	3.5228e-02
12.000	18.500	3.4518e-02
12.000	18.750	3.3814e-02
12.000	19.000	3.3258e-02
12.000	19.250	3.2939e-02
12.000	19.500	3.2593e-02
12.000	19.750	3.1794e-02
12.000	20.000	3.0434e-02
12.000	20.250	2.8305e-02
12.000	20.500	2.5166e-02
12.000	20.750	2.6448e-02
12.000	21.000	3.1639e-02
12.000	21.250	3.5987e-02
12.000	21.500	3.7913e-02
12.000	21.750	3.2846e-02
12.000	22.000	2.5011e-02
12.000	22.250	1.9370e-02
12.000	22.500	1.5400e-02
12.000	22.750	1.2478e-02
12.000	23.000	1.0552e-02
12.000	23.250	9.4148e-03
12.000	23.500	8.7119e-03
12.000	23.750	8.3729e-03
12.000	24.000	8.1928e-03
12.250	17.000	4.1185e-02
12.250	17.250	3.9350e-02
12.250	17.500	3.8091e-02
12.250	17.750	3.7167e-02
12.250	18.000	3.6460e-02
12.250	18.250	3.5813e-02
12.250	18.500	3.5123e-02
12.250	18.750	3.4369e-02
12.250	19.000	3.3611e-02
12.250	19.250	3.3057e-02
12.250	19.500	3.2806e-02
12.250	19.750	3.2556e-02
12.250	20.000	3.1952e-02
12.250	20.250	3.0912e-02
12.250	20.500	2.9181e-02
12.250	20.750	2.6499e-02
12.250	21.000	2.9876e-02
12.250	21.250	3.6703e-02
12.250	21.500	4.2345e-02
12.250	21.750	4.3586e-02
12.250	22.000	3.4377e-02
12.250	22.250	2.5538e-02
12.250	22.500	1.9515e-02
12.250	22.750	1.5432e-02
12.250	23.000	1.2474e-02
12.250	23.250	1.0552e-02
12.250	23.500	9.4157e-03
12.250	23.750	8.7114e-03
12.250	24.000	8.3728e-03
12.500	17.000	4.3118e-02
12.500	17.250	4.0447e-02
12.500	17.500	3.8730e-02
12.500	17.750	3.7720e-02
12.500	18.000	3.7052e-02
12.500	18.250	3.6456e-02
12.500	18.500	3.5827e-02
12.500	18.750	3.5096e-02
12.500	19.000	3.4280e-02
12.500	19.250	3.3507e-02
12.500	19.500	3.2989e-02
12.500	19.750	3.2848e-02
12.500	20.000	3.2744e-02
12.500	20.250	3.2412e-02
12.500	20.500	3.1800e-02
12.500	20.750	3.0817e-02
12.500	21.000	2.9518e-02
12.500	21.250	3.5444e-02
12.500	21.500	4.3721e-02
12.500	21.750	4.9937e-02
12.500	22.000	4.7678e-02
12.500	22.250	3.5597e-02
12.500	22.500	2.6322e-02
12.500	22.750	1.9925e-02
12.500	23.000	1.5477e-02
12.500	23.250	1.2471e-02
12.500	23.500	1.0552e-02
12.500	23.750	9.4165e-03
12.500	24.000	8.7108e-03
12.750	17.000	3.6446e-02
12.750	17.250	4.0986e-02
12.750	17.500	3.9522e-02
12.750	17.750	3.8463e-02
12.750	18.000	3.7763e-02
12.750	18.250	3.7199e-02
12.750	18.500	3.6604e-02
12.750	18.750	3.5921e-02
12.750	19.000	3.5130e-02
12.750	19.250	3.4276e-02
12.750	19.500	3.3503e-02
12.750	19.750	3.3053e-02
12.750	20.000	3.3021e-02
12.750	20.250	3.3177e-02
12.750	20.500	3.3219e-02
12.750	20.750	3.3377e-02
12.750	21.000	3.3800e-02
12.750	21.250	3.4113e-02
12.750	21.500	4.2635e-02
12.750	21.750	5.3278e-02
12.750	22.000	5.8276e-02
12.750	22.250	5.0936e-02
12.750	22.500	3.7211e-02
12.750	22.750	2.7261e-02
12.750	23.000	2.0265e-02
12.750	23.250	1.5531e-02
12.750	23.500	1.2470e-02
12.750	23.750	1.0552e-02
12.750	24.000	9.4173e-03
13.000	17.000	2.3956e-02
13.000	17.250	3.3837e-02
13.000	17.500	3.9123e-02
13.000	17.750	3.9665e-02
13.000	18.000	3.8729e-02
13.000	18.250	3.8069e-02
13.000	18.500	3.7469e-02
13.000	18.750	3.6804e-02
13.000	19.000	3.6043e-02
13.000	19.250	3.5201e-02
13.000	19.500	3.4328e-02
13.000	19.750	3.3590e-02
13.000	20.000	3.3209e-02
13.000	20.250	3.3305e-02
13.000	20.500	3.3886e-02
13.000	20.750	3.4506e-02
13.000	21.000	3.5594e-02
13.000	21.250	3.7836e-02
13.000	21.500	4.0209e-02
13.000	21.750	5.2626e-02
13.000	22.000	6.2495e-02
13.000	22.250	6.5692e-02
13.000	22.500	5.3907e-02
13.000	22.750	3.8644e-02
13.000	23.000	2.7964e-02
13.000	23.250	2.0561e-02
13.000	23.500	1.5593e-02
13.000	23.750	1.2469e-02
13.000	24.000	1.0552e-02
13.250	17.000	1.9797e-02
13.250	17.250	2.6902e-02
13.250	17.500	3.9178e-02
13.250	17.750	4.1508e-02
13.250	18.000	4.0099e-02
13.250	18.250	3.9148e-02
13.250	18.500	3.8440e-02
13.250	18.750	3.7748e-02
13.250	19.000	3.6987e-02
13.250	19.250	3.6157e-02
13.250	19.500	3.5301e-02
13.250	19.750	3.4478e-02
13.250	20.000	3.3799e-02
13.250	20.250	3.3459e-02
13.250	20.500	3.3714e-02
13.250	20.750	3.4599e-02
13.250	21.000	3.6138e-02
13.250	21.250	3.8469e-02
13.250	21.500	4.1366e-02
13.250	21.750	4.5324e-02
13.250	22.000	5.9647e-02
13.250	22.250	7.0949e-02
13.250	22.500	7.1678e-02
13.250	22.750	5.6949e-02
13.250	23.000	4.0130e-02
13.250	23.250	2.8214e-02
13.250	23.500	2.0634e-02
13.250	23.750	1.5659e-02
13.250	24.000	1.2472e-02
13.500	17.000	1.7160e-02
13.500	17.250	2.2512e-02
13.500	17.500	3.2568e-02
13.500	17.750	4.0282e-02
13.500	18.000	4.1777e-02
13.500	18.250	4.0549e-02
13.500	18.500	3.9541e-02
13.500	18.750	3.8728e-02
13.500	19.000	3.7946e-02
13.500	19.250	3.7110e-02
13.500	19.500	3.6283e-02
13.500	19.750	3.5474e-02
13.500	20.000	3.4741e-02
13.500	20.250	3.4199e-02
13.500	20.500	3.3975e-02
13.500	20.750	3.4292e-02
13.500	21.000	3.5128e-02
13.500	21.250	3.7313e-02
13.500	21.500	3.9204e-02
13.500	21.750	4.2382e-02
13.500	22.000	4.8485e-02
13.500	22.250	6.4841e-02
13.500	22.500	7.7102e-02
13.500	22.750	7.6915e-02
13.500	23.000	6.0020e-02
13.500	23.250	4.1811e-02
13.500	23.500	2.9254e-02
13.500	23.750	2.1048e-02
13.500	24.000	1.5717e-02
13.750	17.000	1.5657e-02
13.750	17.250	1.9577e-02
13.750	17.500	2.7854e-02
13.750	17.750	3.5583e-02
13.750	18.000	4.2307e-02
13.750	18.250	4.1557e-02
13.750	18.500	4.0581e-02
13.750	18.750	3.9728e-02
13.750	19.000	3.8883e-02
13.750	19.250	3.8049e-02
13.750	19.500	3.7226e-02
13.750	19.750	3.6442e-02
13.750	20.000	3.5758e-02
13.750	20.250	3.5231e-02
13.750	20.500	3.4920e-02
13.750	20.750	3.4908e-02
13.750	21.000	3.5320e-02
13.750	21.250	3.6178e-02
13.750	21.500	3.7937e-02
13.750	21.750	4.0485e-02
13.750	22.000	4.4118e-02
13.750	22.250	5.3891e-02
13.750	22.500	7.0532e-02
13.750	22.750	8.4307e-02
13.750	23.000	8.2596e-02
13.750	23.250	6.3008e-02
13.750	23.500	4.3102e-02
13.750	23.750	2.9850e-02
13.750	24.000	2.1268e-02
14.000	17.000	1.4616e-02
14.000	17.250	1.7828e-02
14.000	17.500	2.4284e-02
14.000	17.750	3.1552e-02
14.000	18.000	3.8448e-02
14.000	18.250	4.2011e-02
14.000	18.500	4.1108e-02
14.000	18.750	4.0284e-02
14.000	19.000	3.9588e-02
14.000	19.250	3.8862e-02
14.000	19.500	3.8074e-02
14.000	19.750	3.7351e-02
14.000	20.000	3.6706e-02
14.000	20.250	3.6242e-02
14.000	20.500	3.6026e-02
14.000	20.750	3.6077e-02
14.000	21.000	3.6454e-02
14.000	21.250	3.7263e-02
14.000	21.500	3.8363e-02
14.000	21.750	4.0362e-02
14.000	22.000	4.3387e-02
14.000	22.250	4.9622e-02
14.000	22.500	6.3149e-02
14.000	22.750	7.8839e-02
14.000	23.000	9.2152e-02
14.000	23.250	8.8875e-02
14.000	23.500	6.5918e-02
14.000	23.750	4.4285e-02
14.000	24.000	3.0441e-02
