InwC 1113.22A  relative to Inci 1215.00A scaled to 1215A.
Hden   Phi(H)  Eq_Width (A)
 7.000	17.000	7.9914e-03
 7.000	17.250	7.9947e-03
 7.000	17.500	7.9981e-03
 7.000	17.750	8.0015e-03
 7.000	18.000	8.0049e-03
 7.000	18.250	8.0077e-03
 7.000	18.500	8.0097e-03
 7.000	18.750	8.0107e-03
 7.000	19.000	8.0117e-03
 7.000	19.250	8.0123e-03
 7.000	19.500	8.0126e-03
 7.000	19.750	8.0128e-03
 7.000	20.000	8.0128e-03
 7.000	20.250	8.0129e-03
 7.000	20.500	8.0129e-03
 7.000	20.750	8.0129e-03
 7.000	21.000	8.0129e-03
 7.000	21.250	8.0129e-03
 7.000	21.500	8.0131e-03
 7.000	21.750	8.0129e-03
 7.000	22.000	8.0129e-03
 7.000	22.250	8.0129e-03
 7.000	22.500	8.0129e-03
 7.000	22.750	8.0132e-03
 7.000	23.000	8.0132e-03
 7.000	23.250	8.0129e-03
 7.000	23.500	8.0129e-03
 7.000	23.750	8.0129e-03
 7.000	24.000	8.0129e-03
 7.250	17.000	7.9783e-03
 7.250	17.250	7.9914e-03
 7.250	17.500	7.9948e-03
 7.250	17.750	7.9981e-03
 7.250	18.000	8.0015e-03
 7.250	18.250	8.0049e-03
 7.250	18.500	8.0077e-03
 7.250	18.750	8.0097e-03
 7.250	19.000	8.0107e-03
 7.250	19.250	8.0117e-03
 7.250	19.500	8.0123e-03
 7.250	19.750	8.0126e-03
 7.250	20.000	8.0128e-03
 7.250	20.250	8.0128e-03
 7.250	20.500	8.0128e-03
 7.250	20.750	8.0129e-03
 7.250	21.000	8.0129e-03
 7.250	21.250	8.0129e-03
 7.250	21.500	8.0129e-03
 7.250	21.750	8.0145e-03
 7.250	22.000	8.0129e-03
 7.250	22.250	8.0129e-03
 7.250	22.500	8.0129e-03
 7.250	22.750	8.0137e-03
 7.250	23.000	8.0137e-03
 7.250	23.250	8.0129e-03
 7.250	23.500	8.0129e-03
 7.250	23.750	8.0129e-03
 7.250	24.000	8.0129e-03
 7.500	17.000	7.6499e-03
 7.500	17.250	7.9789e-03
 7.500	17.500	7.9914e-03
 7.500	17.750	7.9948e-03
 7.500	18.000	7.9981e-03
 7.500	18.250	8.0015e-03
 7.500	18.500	8.0049e-03
 7.500	18.750	8.0077e-03
 7.500	19.000	8.0097e-03
 7.500	19.250	8.0107e-03
 7.500	19.500	8.0117e-03
 7.500	19.750	8.0123e-03
 7.500	20.000	8.0126e-03
 7.500	20.250	8.0128e-03
 7.500	20.500	8.0128e-03
 7.500	20.750	8.0128e-03
 7.500	21.000	8.0128e-03
 7.500	21.250	8.0128e-03
 7.500	21.500	8.0129e-03
 7.500	21.750	8.0129e-03
 7.500	22.000	8.0129e-03
 7.500	22.250	8.0129e-03
 7.500	22.500	8.0129e-03
 7.500	22.750	8.0129e-03
 7.500	23.000	8.0133e-03
 7.500	23.250	8.0137e-03
 7.500	23.500	8.0129e-03
 7.500	23.750	8.0139e-03
 7.500	24.000	8.0129e-03
 7.750	17.000	8.8349e-03
 7.750	17.250	7.6515e-03
 7.750	17.500	7.9794e-03
 7.750	17.750	7.9914e-03
 7.750	18.000	7.9948e-03
 7.750	18.250	7.9981e-03
 7.750	18.500	8.0016e-03
 7.750	18.750	8.0049e-03
 7.750	19.000	8.0077e-03
 7.750	19.250	8.0097e-03
 7.750	19.500	8.0107e-03
 7.750	19.750	8.0117e-03
 7.750	20.000	8.0123e-03
 7.750	20.250	8.0126e-03
 7.750	20.500	8.0128e-03
 7.750	20.750	8.0128e-03
 7.750	21.000	8.0128e-03
 7.750	21.250	8.0128e-03
 7.750	21.500	8.0128e-03
 7.750	21.750	8.0128e-03
 7.750	22.000	8.0128e-03
 7.750	22.250	8.0129e-03
 7.750	22.500	8.0129e-03
 7.750	22.750	8.0131e-03
 7.750	23.000	8.0132e-03
 7.750	23.250	8.0130e-03
 7.750	23.500	8.0137e-03
 7.750	23.750	8.0137e-03
 7.750	24.000	8.0129e-03
 8.000	17.000	1.5508e-02
 8.000	17.250	8.9638e-03
 8.000	17.500	7.6486e-03
 8.000	17.750	7.9782e-03
 8.000	18.000	7.9914e-03
 8.000	18.250	7.9948e-03
 8.000	18.500	7.9982e-03
 8.000	18.750	8.0016e-03
 8.000	19.000	8.0049e-03
 8.000	19.250	8.0077e-03
 8.000	19.500	8.0097e-03
 8.000	19.750	8.0107e-03
 8.000	20.000	8.0117e-03
 8.000	20.250	8.0123e-03
 8.000	20.500	8.0126e-03
 8.000	20.750	8.0128e-03
 8.000	21.000	8.0128e-03
 8.000	21.250	8.0128e-03
 8.000	21.500	8.0128e-03
 8.000	21.750	8.0128e-03
 8.000	22.000	8.0128e-03
 8.000	22.250	8.0128e-03
 8.000	22.500	8.0128e-03
 8.000	22.750	8.0131e-03
 8.000	23.000	8.0128e-03
 8.000	23.250	8.0134e-03
 8.000	23.500	8.0128e-03
 8.000	23.750	8.0129e-03
 8.000	24.000	8.0129e-03
 8.250	17.000	2.0679e-02
 8.250	17.250	1.5426e-02
 8.250	17.500	8.9385e-03
 8.250	17.750	7.6499e-03
 8.250	18.000	7.9786e-03
 8.250	18.250	7.9914e-03
 8.250	18.500	7.9948e-03
 8.250	18.750	7.9982e-03
 8.250	19.000	8.0016e-03
 8.250	19.250	8.0049e-03
 8.250	19.500	8.0077e-03
 8.250	19.750	8.0097e-03
 8.250	20.000	8.0107e-03
 8.250	20.250	8.0117e-03
 8.250	20.500	8.0123e-03
 8.250	20.750	8.0126e-03
 8.250	21.000	8.0128e-03
 8.250	21.250	8.0128e-03
 8.250	21.500	8.0128e-03
 8.250	21.750	8.0128e-03
 8.250	22.000	8.0128e-03
 8.250	22.250	8.0128e-03
 8.250	22.500	8.0128e-03
 8.250	22.750	8.0130e-03
 8.250	23.000	8.0128e-03
 8.250	23.250	8.0150e-03
 8.250	23.500	8.0128e-03
 8.250	23.750	8.0128e-03
 8.250	24.000	8.0134e-03
 8.500	17.000	2.4452e-02
 8.500	17.250	2.0551e-02
 8.500	17.500	1.5327e-02
 8.500	17.750	8.9037e-03
 8.500	18.000	7.6509e-03
 8.500	18.250	7.9788e-03
 8.500	18.500	7.9914e-03
 8.500	18.750	7.9948e-03
 8.500	19.000	7.9982e-03
 8.500	19.250	8.0016e-03
 8.500	19.500	8.0049e-03
 8.500	19.750	8.0077e-03
 8.500	20.000	8.0097e-03
 8.500	20.250	8.0107e-03
 8.500	20.500	8.0117e-03
 8.500	20.750	8.0123e-03
 8.500	21.000	8.0126e-03
 8.500	21.250	8.0128e-03
 8.500	21.500	8.0128e-03
 8.500	21.750	8.0128e-03
 8.500	22.000	8.0128e-03
 8.500	22.250	8.0128e-03
 8.500	22.500	8.0128e-03
 8.500	22.750	8.0128e-03
 8.500	23.000	8.0128e-03
 8.500	23.250	8.0130e-03
 8.500	23.500	8.0128e-03
 8.500	23.750	8.0128e-03
 8.500	24.000	8.0128e-03
 8.750	17.000	2.7150e-02
 8.750	17.250	2.4321e-02
 8.750	17.500	2.0386e-02
 8.750	17.750	1.5262e-02
 8.750	18.000	8.8408e-03
 8.750	18.250	7.6514e-03
 8.750	18.500	7.9789e-03
 8.750	18.750	7.9914e-03
 8.750	19.000	7.9948e-03
 8.750	19.250	7.9983e-03
 8.750	19.500	8.0016e-03
 8.750	19.750	8.0049e-03
 8.750	20.000	8.0077e-03
 8.750	20.250	8.0097e-03
 8.750	20.500	8.0107e-03
 8.750	20.750	8.0117e-03
 8.750	21.000	8.0123e-03
 8.750	21.250	8.0126e-03
 8.750	21.500	8.0128e-03
 8.750	21.750	8.0128e-03
 8.750	22.000	8.0128e-03
 8.750	22.250	8.0128e-03
 8.750	22.500	8.0128e-03
 8.750	22.750	8.0128e-03
 8.750	23.000	8.0137e-03
 8.750	23.250	8.0128e-03
 8.750	23.500	8.0130e-03
 8.750	23.750	8.0128e-03
 8.750	24.000	8.0128e-03
 9.000	17.000	2.9047e-02
 9.000	17.250	2.7019e-02
 9.000	17.500	2.4118e-02
 9.000	17.750	2.0105e-02
 9.000	18.000	1.4955e-02
 9.000	18.250	8.6398e-03
 9.000	18.500	7.6515e-03
 9.000	18.750	7.9788e-03
 9.000	19.000	7.9914e-03
 9.000	19.250	7.9948e-03
 9.000	19.500	7.9983e-03
 9.000	19.750	8.0017e-03
 9.000	20.000	8.0050e-03
 9.000	20.250	8.0078e-03
 9.000	20.500	8.0097e-03
 9.000	20.750	8.0107e-03
 9.000	21.000	8.0117e-03
 9.000	21.250	8.0123e-03
 9.000	21.500	8.0126e-03
 9.000	21.750	8.0127e-03
 9.000	22.000	8.0128e-03
 9.000	22.250	8.0128e-03
 9.000	22.500	8.0128e-03
 9.000	22.750	8.0128e-03
 9.000	23.000	8.0128e-03
 9.000	23.250	8.0128e-03
 9.000	23.500	8.0128e-03
 9.000	23.750	8.0128e-03
 9.000	24.000	8.0129e-03
 9.250	17.000	3.0365e-02
 9.250	17.250	2.8924e-02
 9.250	17.500	2.6797e-02
 9.250	17.750	2.3740e-02
 9.250	18.000	1.9592e-02
 9.250	18.250	1.4364e-02
 9.250	18.500	8.1803e-03
 9.250	18.750	7.6508e-03
 9.250	19.000	7.9780e-03
 9.250	19.250	7.9913e-03
 9.250	19.500	7.9948e-03
 9.250	19.750	7.9984e-03
 9.250	20.000	8.0017e-03
 9.250	20.250	8.0050e-03
 9.250	20.500	8.0078e-03
 9.250	20.750	8.0097e-03
 9.250	21.000	8.0107e-03
 9.250	21.250	8.0117e-03
 9.250	21.500	8.0119e-03
 9.250	21.750	8.0121e-03
 9.250	22.000	8.0121e-03
 9.250	22.250	8.0123e-03
 9.250	22.500	8.0124e-03
 9.250	22.750	8.0124e-03
 9.250	23.000	8.0126e-03
 9.250	23.250	8.0127e-03
 9.250	23.500	8.0127e-03
 9.250	23.750	8.0127e-03
 9.250	24.000	8.0128e-03
 9.500	17.000	3.1268e-02
 9.500	17.250	3.0248e-02
 9.500	17.500	2.8702e-02
 9.500	17.750	2.6394e-02
 9.500	18.000	2.3085e-02
 9.500	18.250	1.8631e-02
 9.500	18.500	1.3173e-02
 9.500	18.750	7.4613e-03
 9.500	19.000	7.6490e-03
 9.500	19.250	7.9765e-03
 9.500	19.500	7.9911e-03
 9.500	19.750	7.9948e-03
 9.500	20.000	7.9984e-03
 9.500	20.250	8.0018e-03
 9.500	20.500	8.0050e-03
 9.500	20.750	8.0074e-03
 9.500	21.000	8.0093e-03
 9.500	21.250	8.0102e-03
 9.500	21.500	8.0111e-03
 9.500	21.750	8.0116e-03
 9.500	22.000	8.0119e-03
 9.500	22.250	8.0119e-03
 9.500	22.500	8.0120e-03
 9.500	22.750	8.0120e-03
 9.500	23.000	8.0120e-03
 9.500	23.250	8.0120e-03
 9.500	23.500	8.0121e-03
 9.500	23.750	8.0121e-03
 9.500	24.000	8.0121e-03
 9.750	17.000	3.1877e-02
 9.750	17.250	3.1163e-02
 9.750	17.500	3.0050e-02
 9.750	17.750	2.8310e-02
 9.750	18.000	2.5645e-02
 9.750	18.250	2.1911e-02
 9.750	18.500	1.7008e-02
 9.750	18.750	1.1072e-02
 9.750	19.000	7.4522e-03
 9.750	19.250	7.6456e-03
 9.750	19.500	7.9737e-03
 9.750	19.750	7.9908e-03
 9.750	20.000	7.9947e-03
 9.750	20.250	7.9984e-03
 9.750	20.500	8.0017e-03
 9.750	20.750	8.0049e-03
 9.750	21.000	8.0075e-03
 9.750	21.250	8.0093e-03
 9.750	21.500	8.0103e-03
 9.750	21.750	8.0112e-03
 9.750	22.000	8.0116e-03
 9.750	22.250	8.0119e-03
 9.750	22.500	8.0119e-03
 9.750	22.750	8.0120e-03
 9.750	23.000	8.0120e-03
 9.750	23.250	8.0120e-03
 9.750	23.500	8.0120e-03
 9.750	23.750	8.0120e-03
 9.750	24.000	8.0120e-03
10.000	17.000	3.2279e-02
10.000	17.250	3.1782e-02
10.000	17.500	3.0978e-02
10.000	17.750	2.9668e-02
10.000	18.000	2.7548e-02
10.000	18.250	2.4443e-02
10.000	18.500	2.0259e-02
10.000	18.750	1.5104e-02
10.000	19.000	9.4492e-03
10.000	19.250	7.4482e-03
10.000	19.500	7.6404e-03
10.000	19.750	7.9688e-03
10.000	20.000	7.9904e-03
10.000	20.250	7.9946e-03
10.000	20.500	7.9984e-03
10.000	20.750	8.0018e-03
10.000	21.000	8.0051e-03
10.000	21.250	8.0077e-03
10.000	21.500	8.0093e-03
10.000	21.750	8.0103e-03
10.000	22.000	8.0113e-03
10.000	22.250	8.0117e-03
10.000	22.500	8.0119e-03
10.000	22.750	8.0119e-03
10.000	23.000	8.0120e-03
10.000	23.250	8.0120e-03
10.000	23.500	8.0120e-03
10.000	23.750	8.0121e-03
10.000	24.000	8.0121e-03
10.250	17.000	3.2526e-02
10.250	17.250	3.2189e-02
10.250	17.500	3.1605e-02
10.250	17.750	3.0605e-02
10.250	18.000	2.8938e-02
10.250	18.250	2.6462e-02
10.250	18.500	2.3007e-02
10.250	18.750	1.8518e-02
10.250	19.000	1.2982e-02
10.250	19.250	7.4034e-03
10.250	19.500	7.4464e-03
10.250	19.750	7.6347e-03
10.250	20.000	7.9616e-03
10.250	20.250	7.9897e-03
10.250	20.500	7.9944e-03
10.250	20.750	7.9984e-03
10.250	21.000	8.0019e-03
10.250	21.250	8.0051e-03
10.250	21.500	8.0077e-03
10.250	21.750	8.0095e-03
10.250	22.000	8.0103e-03
10.250	22.250	8.0113e-03
10.250	22.500	8.0119e-03
10.250	22.750	8.0119e-03
10.250	23.000	8.0120e-03
10.250	23.250	8.0120e-03
10.250	23.500	8.0120e-03
10.250	23.750	8.0120e-03
10.250	24.000	8.0120e-03
10.500	17.000	3.2657e-02
10.500	17.250	3.2434e-02
10.500	17.500	3.2009e-02
10.500	17.750	3.1235e-02
10.500	18.000	2.9923e-02
10.500	18.250	2.7949e-02
10.500	18.500	2.5255e-02
10.500	18.750	2.1564e-02
10.500	19.000	1.6884e-02
10.500	19.250	1.1071e-02
10.500	19.500	7.3415e-03
10.500	19.750	7.4460e-03
10.500	20.000	7.6298e-03
10.500	20.250	7.9528e-03
10.500	20.500	7.9888e-03
10.500	20.750	7.9941e-03
10.500	21.000	7.9983e-03
10.500	21.250	8.0019e-03
10.500	21.500	8.0052e-03
10.500	21.750	8.0078e-03
10.500	22.000	8.0096e-03
10.500	22.250	8.0104e-03
10.500	22.500	8.0113e-03
10.500	22.750	8.0119e-03
10.500	23.000	8.0119e-03
10.500	23.250	8.0119e-03
10.500	23.500	8.0120e-03
10.500	23.750	8.0121e-03
10.500	24.000	8.0121e-03
10.750	17.000	3.2692e-02
10.750	17.250	3.2557e-02
10.750	17.500	3.2244e-02
10.750	17.750	3.1631e-02
10.750	18.000	3.0603e-02
10.750	18.250	2.9096e-02
10.750	18.500	2.7012e-02
10.750	18.750	2.4202e-02
10.750	19.000	2.0424e-02
10.750	19.250	1.5476e-02
10.750	19.500	9.5933e-03
10.750	19.750	7.3407e-03
10.750	20.000	7.4466e-03
10.750	20.250	7.6269e-03
10.750	20.500	7.9460e-03
10.750	20.750	7.9880e-03
10.750	21.000	7.9937e-03
10.750	21.250	7.9982e-03
10.750	21.500	8.0019e-03
10.750	21.750	8.0052e-03
10.750	22.000	8.0078e-03
10.750	22.250	8.0097e-03
10.750	22.500	8.0106e-03
10.750	22.750	8.0113e-03
10.750	23.000	8.0119e-03
10.750	23.250	8.0120e-03
10.750	23.500	8.0120e-03
10.750	23.750	8.0120e-03
10.750	24.000	8.0120e-03
11.000	17.000	3.2644e-02
11.000	17.250	3.2577e-02
11.000	17.500	3.2339e-02
11.000	17.750	3.1845e-02
11.000	18.000	3.1047e-02
11.000	18.250	2.9918e-02
11.000	18.500	2.8390e-02
11.000	18.750	2.6282e-02
11.000	19.000	2.3365e-02
11.000	19.250	1.9387e-02
11.000	19.500	1.4181e-02
11.000	19.750	7.7314e-03
11.000	20.000	7.3421e-03
11.000	20.250	7.4478e-03
11.000	20.500	7.6280e-03
11.000	20.750	7.9444e-03
11.000	21.000	7.9869e-03
11.000	21.250	7.9932e-03
11.000	21.500	7.9980e-03
11.000	21.750	8.0018e-03
11.000	22.000	8.0051e-03
11.000	22.250	8.0078e-03
11.000	22.500	8.0097e-03
11.000	22.750	8.0107e-03
11.000	23.000	8.0114e-03
11.000	23.250	8.0119e-03
11.000	23.500	8.0121e-03
11.000	23.750	8.0121e-03
11.000	24.000	8.0121e-03
11.250	17.000	3.2506e-02
11.250	17.250	3.2500e-02
11.250	17.500	3.2311e-02
11.250	17.750	3.1903e-02
11.250	18.000	3.1281e-02
11.250	18.250	3.0466e-02
11.250	18.500	2.9368e-02
11.250	18.750	2.7802e-02
11.250	19.000	2.5646e-02
11.250	19.250	2.2648e-02
11.250	19.500	1.8512e-02
11.250	19.750	1.2950e-02
11.250	20.000	7.3309e-03
11.250	20.250	7.3430e-03
11.250	20.500	7.4519e-03
11.250	20.750	7.6356e-03
11.250	21.000	7.9537e-03
11.250	21.250	7.9863e-03
11.250	21.500	7.9927e-03
11.250	21.750	7.9978e-03
11.250	22.000	8.0017e-03
11.250	22.250	8.0051e-03
11.250	22.500	8.0078e-03
11.250	22.750	8.0097e-03
11.250	23.000	8.0107e-03
11.250	23.250	8.0116e-03
11.250	23.500	8.0119e-03
11.250	23.750	8.0122e-03
11.250	24.000	8.0122e-03
11.500	17.000	3.2259e-02
11.500	17.250	3.2310e-02
11.500	17.500	3.2160e-02
11.500	17.750	3.1811e-02
11.500	18.000	3.1328e-02
11.500	18.250	3.0742e-02
11.500	18.500	2.9969e-02
11.500	18.750	2.8868e-02
11.500	19.000	2.7321e-02
11.500	19.250	2.5124e-02
11.500	19.500	2.2016e-02
11.500	19.750	1.7675e-02
11.500	20.000	1.1798e-02
11.500	20.250	7.2137e-03
11.500	20.500	7.3454e-03
11.500	20.750	7.4581e-03
11.500	21.000	7.6562e-03
11.500	21.250	7.9689e-03
11.500	21.500	7.9853e-03
11.500	21.750	7.9922e-03
11.500	22.000	7.9975e-03
11.500	22.250	8.0016e-03
11.500	22.500	8.0050e-03
11.500	22.750	8.0077e-03
11.500	23.000	8.0097e-03
11.500	23.250	8.0107e-03
11.500	23.500	8.0117e-03
11.500	23.750	8.0120e-03
11.500	24.000	8.0122e-03
11.750	17.000	3.1874e-02
11.750	17.250	3.1979e-02
11.750	17.500	3.1866e-02
11.750	17.750	3.1559e-02
11.750	18.000	3.1193e-02
11.750	18.250	3.0779e-02
11.750	18.500	3.0256e-02
11.750	18.750	2.9522e-02
11.750	19.000	2.8433e-02
11.750	19.250	2.6882e-02
11.750	19.500	2.4644e-02
11.750	19.750	2.1459e-02
11.750	20.000	1.6922e-02
11.750	20.250	1.0765e-02
11.750	20.500	7.2507e-03
11.750	20.750	7.3505e-03
11.750	21.000	7.4747e-03
11.750	21.250	7.7068e-03
11.750	21.500	7.9726e-03
11.750	21.750	7.9844e-03
11.750	22.000	7.9916e-03
11.750	22.250	7.9972e-03
11.750	22.500	8.0016e-03
11.750	22.750	8.0049e-03
11.750	23.000	8.0077e-03
11.750	23.250	8.0097e-03
11.750	23.500	8.0107e-03
11.750	23.750	8.0117e-03
11.750	24.000	8.0123e-03
12.000	17.000	3.1334e-02
12.000	17.250	3.1468e-02
12.000	17.500	3.1382e-02
12.000	17.750	3.1132e-02
12.000	18.000	3.0874e-02
12.000	18.250	3.0608e-02
12.000	18.500	3.0276e-02
12.000	18.750	2.9798e-02
12.000	19.000	2.9082e-02
12.000	19.250	2.8035e-02
12.000	19.500	2.6490e-02
12.000	19.750	2.4229e-02
12.000	20.000	2.0948e-02
12.000	20.250	1.6267e-02
12.000	20.500	9.8821e-03
12.000	20.750	7.2481e-03
12.000	21.000	7.3622e-03
12.000	21.250	7.5204e-03
12.000	21.500	7.7969e-03
12.000	21.750	7.9724e-03
12.000	22.000	7.9838e-03
12.000	22.250	7.9913e-03
12.000	22.500	7.9970e-03
12.000	22.750	8.0014e-03
12.000	23.000	8.0049e-03
12.000	23.250	8.0077e-03
12.000	23.500	8.0097e-03
12.000	23.750	8.0107e-03
12.000	24.000	8.0117e-03
12.250	17.000	3.0639e-02
12.250	17.250	3.0732e-02
12.250	17.500	3.0667e-02
12.250	17.750	3.0521e-02
12.250	18.000	3.0390e-02
12.250	18.250	3.0249e-02
12.250	18.500	3.0075e-02
12.250	18.750	2.9795e-02
12.250	19.000	2.9365e-02
12.250	19.250	2.8702e-02
12.250	19.500	2.7692e-02
12.250	19.750	2.6144e-02
12.250	20.000	2.3869e-02
12.250	20.250	2.0511e-02
12.250	20.500	1.5663e-02
12.250	20.750	9.0206e-03
12.250	21.000	7.2515e-03
12.250	21.250	7.3896e-03
12.250	21.500	7.5883e-03
12.250	21.750	7.9040e-03
12.250	22.000	7.9714e-03
12.250	22.250	7.9821e-03
12.250	22.500	7.9903e-03
12.250	22.750	7.9965e-03
12.250	23.000	8.0012e-03
12.250	23.250	8.0048e-03
12.250	23.500	8.0076e-03
12.250	23.750	8.0097e-03
12.250	24.000	8.0107e-03
12.500	17.000	2.9823e-02
12.500	17.250	2.9790e-02
12.500	17.500	2.9748e-02
12.500	17.750	2.9744e-02
12.500	18.000	2.9740e-02
12.500	18.250	2.9721e-02
12.500	18.500	2.9671e-02
12.500	18.750	2.9571e-02
12.500	19.000	2.9372e-02
12.500	19.250	2.9002e-02
12.500	19.500	2.8391e-02
12.500	19.750	2.7399e-02
12.500	20.000	2.5857e-02
12.500	20.250	2.3549e-02
12.500	20.500	2.0088e-02
12.500	20.750	1.5116e-02
12.500	21.000	8.4263e-03
12.500	21.250	7.2695e-03
12.500	21.500	7.4335e-03
12.500	21.750	7.6717e-03
12.500	22.000	7.9537e-03
12.500	22.250	7.9700e-03
12.500	22.500	7.9807e-03
12.500	22.750	7.9895e-03
12.500	23.000	7.9960e-03
12.500	23.250	8.0010e-03
12.500	23.500	8.0046e-03
12.500	23.750	8.0075e-03
12.500	24.000	8.0097e-03
12.750	17.000	2.2559e-02
12.750	17.250	2.8484e-02
12.750	17.500	2.8838e-02
12.750	17.750	2.8875e-02
12.750	18.000	2.8928e-02
12.750	18.250	2.8999e-02
12.750	18.500	2.9077e-02
12.750	18.750	2.9131e-02
12.750	19.000	2.9127e-02
12.750	19.250	2.9008e-02
12.750	19.500	2.8702e-02
12.750	19.750	2.8118e-02
12.750	20.000	2.7138e-02
12.750	20.250	2.5592e-02
12.750	20.500	2.3222e-02
12.750	20.750	1.9689e-02
12.750	21.000	1.4474e-02
12.750	21.250	7.5655e-03
12.750	21.500	7.2945e-03
12.750	21.750	7.4956e-03
12.750	22.000	7.7609e-03
12.750	22.250	7.9546e-03
12.750	22.500	7.9687e-03
12.750	22.750	7.9798e-03
12.750	23.000	7.9887e-03
12.750	23.250	7.9955e-03
12.750	23.500	8.0007e-03
12.750	23.750	8.0044e-03
12.750	24.000	8.0074e-03
13.000	17.000	1.1564e-02
13.000	17.250	2.0522e-02
13.000	17.500	2.6391e-02
13.000	17.750	2.7969e-02
13.000	18.000	2.7978e-02
13.000	18.250	2.8089e-02
13.000	18.500	2.8271e-02
13.000	18.750	2.8471e-02
13.000	19.000	2.8647e-02
13.000	19.250	2.8745e-02
13.000	19.500	2.8695e-02
13.000	19.750	2.8430e-02
13.000	20.000	2.7868e-02
13.000	20.250	2.6892e-02
13.000	20.500	2.5318e-02
13.000	20.750	2.2885e-02
13.000	21.000	1.9203e-02
13.000	21.250	1.3767e-02
13.000	21.500	7.0854e-03
13.000	21.750	7.3360e-03
13.000	22.000	7.5501e-03
13.000	22.250	7.8280e-03
13.000	22.500	7.9542e-03
13.000	22.750	7.9679e-03
13.000	23.000	7.9790e-03
13.000	23.250	7.9879e-03
13.000	23.500	7.9950e-03
13.000	23.750	8.0002e-03
13.000	24.000	8.0040e-03
13.250	17.000	7.1688e-03
13.250	17.250	1.3124e-02
13.250	17.500	2.3800e-02
13.250	17.750	2.7076e-02
13.250	18.000	2.6946e-02
13.250	18.250	2.6996e-02
13.250	18.500	2.7232e-02
13.250	18.750	2.7571e-02
13.250	19.000	2.7919e-02
13.250	19.250	2.8218e-02
13.250	19.500	2.8399e-02
13.250	19.750	2.8404e-02
13.250	20.000	2.8168e-02
13.250	20.250	2.7610e-02
13.250	20.500	2.6614e-02
13.250	20.750	2.4994e-02
13.250	21.000	2.2453e-02
13.250	21.250	1.8623e-02
13.250	21.500	1.3270e-02
13.250	21.750	7.0865e-03
13.250	22.000	7.3526e-03
13.250	22.250	7.5904e-03
13.250	22.500	7.8492e-03
13.250	22.750	7.9534e-03
13.250	23.000	7.9669e-03
13.250	23.250	7.9778e-03
13.250	23.500	7.9872e-03
13.250	23.750	7.9943e-03
13.250	24.000	7.9995e-03
13.500	17.000	4.3886e-03
13.500	17.250	8.3237e-03
13.500	17.500	1.6283e-02
13.500	17.750	2.3596e-02
13.500	18.000	2.5859e-02
13.500	18.250	2.5801e-02
13.500	18.500	2.5987e-02
13.500	18.750	2.6412e-02
13.500	19.000	2.6924e-02
13.500	19.250	2.7419e-02
13.500	19.500	2.7814e-02
13.500	19.750	2.8061e-02
13.500	20.000	2.8104e-02
13.500	20.250	2.7885e-02
13.500	20.500	2.7318e-02
13.500	20.750	2.6294e-02
13.500	21.000	2.4616e-02
13.500	21.250	2.1958e-02
13.500	21.500	1.8169e-02
13.500	21.750	1.2611e-02
13.500	22.000	7.1030e-03
13.500	22.250	7.3512e-03
13.500	22.500	7.5806e-03
13.500	22.750	7.8373e-03
13.500	23.000	7.9520e-03
13.500	23.250	7.9654e-03
13.500	23.500	7.9770e-03
13.500	23.750	7.9864e-03
13.500	24.000	7.9936e-03
13.750	17.000	2.7030e-03
13.750	17.250	5.1599e-03
13.750	17.500	1.0783e-02
13.750	17.750	1.7355e-02
13.750	18.000	2.3662e-02
13.750	18.250	2.4161e-02
13.750	18.500	2.4506e-02
13.750	18.750	2.5016e-02
13.750	19.000	2.5638e-02
13.750	19.250	2.6324e-02
13.750	19.500	2.6941e-02
13.750	19.750	2.7419e-02
13.750	20.000	2.7715e-02
13.750	20.250	2.7781e-02
13.750	20.500	2.7562e-02
13.750	20.750	2.6970e-02
13.750	21.000	2.5883e-02
13.750	21.250	2.4097e-02
13.750	21.500	2.1450e-02
13.750	21.750	1.7328e-02
13.750	22.000	1.1694e-02
13.750	22.250	7.1170e-03
13.750	22.500	7.3264e-03
13.750	22.750	7.5691e-03
13.750	23.000	7.8311e-03
13.750	23.250	7.9495e-03
13.750	23.500	7.9635e-03
13.750	23.750	7.9756e-03
13.750	24.000	7.9853e-03
14.000	17.000	1.6353e-03
14.000	17.250	3.2055e-03
14.000	17.500	6.7802e-03
14.000	17.750	1.2135e-02
14.000	18.000	1.7873e-02
14.000	18.250	2.1784e-02
14.000	18.500	2.2384e-02
14.000	18.750	2.3145e-02
14.000	19.000	2.4023e-02
14.000	19.250	2.4913e-02
14.000	19.500	2.5752e-02
14.000	19.750	2.6471e-02
14.000	20.000	2.7014e-02
14.000	20.250	2.7349e-02
14.000	20.500	2.7422e-02
14.000	20.750	2.7180e-02
14.000	21.000	2.6539e-02
14.000	21.250	2.5340e-02
14.000	21.500	2.3502e-02
14.000	21.750	2.0500e-02
14.000	22.000	1.6028e-02
14.000	22.250	1.0367e-02
14.000	22.500	7.1225e-03
14.000	22.750	7.3114e-03
14.000	23.000	7.5556e-03
14.000	23.250	7.8414e-03
14.000	23.500	7.9454e-03
14.000	23.750	7.9601e-03
14.000	24.000	7.9733e-03
