InwC 5600.00A  relative to Inci 1215.00A scaled to 1215A.
Hden   Phi(H)  Eq_Width (A)
 7.000	17.000	3.8522e-03
 7.000	17.250	3.8538e-03
 7.000	17.500	3.8555e-03
 7.000	17.750	3.8571e-03
 7.000	18.000	3.8588e-03
 7.000	18.250	3.8602e-03
 7.000	18.500	3.8611e-03
 7.000	18.750	3.8616e-03
 7.000	19.000	3.8621e-03
 7.000	19.250	3.8624e-03
 7.000	19.500	3.8625e-03
 7.000	19.750	3.8626e-03
 7.000	20.000	3.8626e-03
 7.000	20.250	3.8626e-03
 7.000	20.500	3.8626e-03
 7.000	20.750	3.8626e-03
 7.000	21.000	3.8626e-03
 7.000	21.250	3.8626e-03
 7.000	21.500	3.8627e-03
 7.000	21.750	3.8626e-03
 7.000	22.000	3.8626e-03
 7.000	22.250	3.8626e-03
 7.000	22.500	3.8626e-03
 7.000	22.750	3.8627e-03
 7.000	23.000	3.8627e-03
 7.000	23.250	3.8626e-03
 7.000	23.500	3.8626e-03
 7.000	23.750	3.8626e-03
 7.000	24.000	3.8626e-03
 7.250	17.000	3.8458e-03
 7.250	17.250	3.8522e-03
 7.250	17.500	3.8538e-03
 7.250	17.750	3.8555e-03
 7.250	18.000	3.8571e-03
 7.250	18.250	3.8588e-03
 7.250	18.500	3.8602e-03
 7.250	18.750	3.8611e-03
 7.250	19.000	3.8616e-03
 7.250	19.250	3.8621e-03
 7.250	19.500	3.8624e-03
 7.250	19.750	3.8625e-03
 7.250	20.000	3.8626e-03
 7.250	20.250	3.8626e-03
 7.250	20.500	3.8626e-03
 7.250	20.750	3.8626e-03
 7.250	21.000	3.8626e-03
 7.250	21.250	3.8626e-03
 7.250	21.500	3.8626e-03
 7.250	21.750	3.8634e-03
 7.250	22.000	3.8626e-03
 7.250	22.250	3.8626e-03
 7.250	22.500	3.8626e-03
 7.250	22.750	3.8630e-03
 7.250	23.000	3.8630e-03
 7.250	23.250	3.8626e-03
 7.250	23.500	3.8626e-03
 7.250	23.750	3.8626e-03
 7.250	24.000	3.8626e-03
 7.500	17.000	3.6953e-03
 7.500	17.250	3.8461e-03
 7.500	17.500	3.8522e-03
 7.500	17.750	3.8538e-03
 7.500	18.000	3.8555e-03
 7.500	18.250	3.8571e-03
 7.500	18.500	3.8588e-03
 7.500	18.750	3.8602e-03
 7.500	19.000	3.8611e-03
 7.500	19.250	3.8616e-03
 7.500	19.500	3.8621e-03
 7.500	19.750	3.8624e-03
 7.500	20.000	3.8625e-03
 7.500	20.250	3.8626e-03
 7.500	20.500	3.8626e-03
 7.500	20.750	3.8626e-03
 7.500	21.000	3.8626e-03
 7.500	21.250	3.8626e-03
 7.500	21.500	3.8626e-03
 7.500	21.750	3.8626e-03
 7.500	22.000	3.8626e-03
 7.500	22.250	3.8626e-03
 7.500	22.500	3.8626e-03
 7.500	22.750	3.8626e-03
 7.500	23.000	3.8628e-03
 7.500	23.250	3.8630e-03
 7.500	23.500	3.8626e-03
 7.500	23.750	3.8631e-03
 7.500	24.000	3.8626e-03
 7.750	17.000	3.4156e-03
 7.750	17.250	3.6960e-03
 7.750	17.500	3.8463e-03
 7.750	17.750	3.8522e-03
 7.750	18.000	3.8538e-03
 7.750	18.250	3.8555e-03
 7.750	18.500	3.8571e-03
 7.750	18.750	3.8588e-03
 7.750	19.000	3.8602e-03
 7.750	19.250	3.8611e-03
 7.750	19.500	3.8616e-03
 7.750	19.750	3.8621e-03
 7.750	20.000	3.8624e-03
 7.750	20.250	3.8625e-03
 7.750	20.500	3.8626e-03
 7.750	20.750	3.8626e-03
 7.750	21.000	3.8626e-03
 7.750	21.250	3.8626e-03
 7.750	21.500	3.8626e-03
 7.750	21.750	3.8626e-03
 7.750	22.000	3.8626e-03
 7.750	22.250	3.8626e-03
 7.750	22.500	3.8626e-03
 7.750	22.750	3.8627e-03
 7.750	23.000	3.8627e-03
 7.750	23.250	3.8626e-03
 7.750	23.500	3.8630e-03
 7.750	23.750	3.8630e-03
 7.750	24.000	3.8626e-03
 8.000	17.000	2.4160e-03
 8.000	17.250	3.3949e-03
 8.000	17.500	3.6947e-03
 8.000	17.750	3.8458e-03
 8.000	18.000	3.8522e-03
 8.000	18.250	3.8538e-03
 8.000	18.500	3.8555e-03
 8.000	18.750	3.8571e-03
 8.000	19.000	3.8588e-03
 8.000	19.250	3.8602e-03
 8.000	19.500	3.8611e-03
 8.000	19.750	3.8616e-03
 8.000	20.000	3.8621e-03
 8.000	20.250	3.8624e-03
 8.000	20.500	3.8625e-03
 8.000	20.750	3.8626e-03
 8.000	21.000	3.8626e-03
 8.000	21.250	3.8626e-03
 8.000	21.500	3.8626e-03
 8.000	21.750	3.8626e-03
 8.000	22.000	3.8626e-03
 8.000	22.250	3.8626e-03
 8.000	22.500	3.8626e-03
 8.000	22.750	3.8627e-03
 8.000	23.000	3.8626e-03
 8.000	23.250	3.8629e-03
 8.000	23.500	3.8626e-03
 8.000	23.750	3.8626e-03
 8.000	24.000	3.8626e-03
 8.250	17.000	1.6932e-03
 8.250	17.250	2.4255e-03
 8.250	17.500	3.3985e-03
 8.250	17.750	3.6952e-03
 8.250	18.000	3.8459e-03
 8.250	18.250	3.8522e-03
 8.250	18.500	3.8539e-03
 8.250	18.750	3.8556e-03
 8.250	19.000	3.8572e-03
 8.250	19.250	3.8588e-03
 8.250	19.500	3.8602e-03
 8.250	19.750	3.8611e-03
 8.250	20.000	3.8616e-03
 8.250	20.250	3.8621e-03
 8.250	20.500	3.8624e-03
 8.250	20.750	3.8625e-03
 8.250	21.000	3.8626e-03
 8.250	21.250	3.8626e-03
 8.250	21.500	3.8626e-03
 8.250	21.750	3.8626e-03
 8.250	22.000	3.8626e-03
 8.250	22.250	3.8626e-03
 8.250	22.500	3.8626e-03
 8.250	22.750	3.8627e-03
 8.250	23.000	3.8626e-03
 8.250	23.250	3.8636e-03
 8.250	23.500	3.8626e-03
 8.250	23.750	3.8626e-03
 8.250	24.000	3.8629e-03
 8.500	17.000	1.1836e-03
 8.500	17.250	1.7058e-03
 8.500	17.500	2.4360e-03
 8.500	17.750	3.4032e-03
 8.500	18.000	3.6956e-03
 8.500	18.250	3.8461e-03
 8.500	18.500	3.8522e-03
 8.500	18.750	3.8539e-03
 8.500	19.000	3.8556e-03
 8.500	19.250	3.8572e-03
 8.500	19.500	3.8588e-03
 8.500	19.750	3.8602e-03
 8.500	20.000	3.8611e-03
 8.500	20.250	3.8616e-03
 8.500	20.500	3.8621e-03
 8.500	20.750	3.8624e-03
 8.500	21.000	3.8625e-03
 8.500	21.250	3.8626e-03
 8.500	21.500	3.8626e-03
 8.500	21.750	3.8626e-03
 8.500	22.000	3.8626e-03
 8.500	22.250	3.8626e-03
 8.500	22.500	3.8626e-03
 8.500	22.750	3.8626e-03
 8.500	23.000	3.8626e-03
 8.500	23.250	3.8627e-03
 8.500	23.500	3.8626e-03
 8.500	23.750	3.8626e-03
 8.500	24.000	3.8626e-03
 8.750	17.000	8.2823e-04
 8.750	17.250	1.1975e-03
 8.750	17.500	1.7235e-03
 8.750	17.750	2.4433e-03
 8.750	18.000	3.4116e-03
 8.750	18.250	3.6958e-03
 8.750	18.500	3.8462e-03
 8.750	18.750	3.8522e-03
 8.750	19.000	3.8539e-03
 8.750	19.250	3.8556e-03
 8.750	19.500	3.8572e-03
 8.750	19.750	3.8588e-03
 8.750	20.000	3.8602e-03
 8.750	20.250	3.8611e-03
 8.750	20.500	3.8616e-03
 8.750	20.750	3.8621e-03
 8.750	21.000	3.8624e-03
 8.750	21.250	3.8625e-03
 8.750	21.500	3.8626e-03
 8.750	21.750	3.8626e-03
 8.750	22.000	3.8626e-03
 8.750	22.250	3.8626e-03
 8.750	22.500	3.8626e-03
 8.750	22.750	3.8626e-03
 8.750	23.000	3.8630e-03
 8.750	23.250	3.8626e-03
 8.750	23.500	3.8627e-03
 8.750	23.750	3.8626e-03
 8.750	24.000	3.8626e-03
 9.000	17.000	5.7992e-04
 9.000	17.250	8.4033e-04
 9.000	17.500	1.2179e-03
 9.000	17.750	1.7546e-03
 9.000	18.000	2.4784e-03
 9.000	18.250	3.4394e-03
 9.000	18.500	3.6958e-03
 9.000	18.750	3.8462e-03
 9.000	19.000	3.8522e-03
 9.000	19.250	3.8539e-03
 9.000	19.500	3.8556e-03
 9.000	19.750	3.8572e-03
 9.000	20.000	3.8588e-03
 9.000	20.250	3.8602e-03
 9.000	20.500	3.8611e-03
 9.000	20.750	3.8616e-03
 9.000	21.000	3.8621e-03
 9.000	21.250	3.8624e-03
 9.000	21.500	3.8625e-03
 9.000	21.750	3.8626e-03
 9.000	22.000	3.8626e-03
 9.000	22.250	3.8626e-03
 9.000	22.500	3.8626e-03
 9.000	22.750	3.8626e-03
 9.000	23.000	3.8626e-03
 9.000	23.250	3.8626e-03
 9.000	23.500	3.8626e-03
 9.000	23.750	3.8626e-03
 9.000	24.000	3.8626e-03
 9.250	17.000	4.0683e-04
 9.250	17.250	5.9021e-04
 9.250	17.500	8.6091e-04
 9.250	17.750	1.2572e-03
 9.250	18.000	1.8114e-03
 9.250	18.250	2.5519e-03
 9.250	18.500	3.5049e-03
 9.250	18.750	3.6952e-03
 9.250	19.000	3.8458e-03
 9.250	19.250	3.8522e-03
 9.250	19.500	3.8539e-03
 9.250	19.750	3.8556e-03
 9.250	20.000	3.8572e-03
 9.250	20.250	3.8588e-03
 9.250	20.500	3.8602e-03
 9.250	20.750	3.8611e-03
 9.250	21.000	3.8616e-03
 9.250	21.250	3.8621e-03
 9.250	21.500	3.8621e-03
 9.250	21.750	3.8622e-03
 9.250	22.000	3.8622e-03
 9.250	22.250	3.8623e-03
 9.250	22.500	3.8624e-03
 9.250	22.750	3.8624e-03
 9.250	23.000	3.8625e-03
 9.250	23.250	3.8625e-03
 9.250	23.500	3.8625e-03
 9.250	23.750	3.8625e-03
 9.250	24.000	3.8626e-03
 9.500	17.000	2.8700e-04
 9.500	17.250	4.1556e-04
 9.500	17.500	6.0930e-04
 9.500	17.750	9.0156e-04
 9.500	18.000	1.3278e-03
 9.500	18.250	1.9249e-03
 9.500	18.500	2.7107e-03
 9.500	18.750	3.6074e-03
 9.500	19.000	3.6942e-03
 9.500	19.250	3.8452e-03
 9.500	19.500	3.8521e-03
 9.500	19.750	3.8538e-03
 9.500	20.000	3.8556e-03
 9.500	20.250	3.8573e-03
 9.500	20.500	3.8588e-03
 9.500	20.750	3.8599e-03
 9.500	21.000	3.8609e-03
 9.500	21.250	3.8613e-03
 9.500	21.500	3.8617e-03
 9.500	21.750	3.8620e-03
 9.500	22.000	3.8621e-03
 9.500	22.250	3.8621e-03
 9.500	22.500	3.8621e-03
 9.500	22.750	3.8622e-03
 9.500	23.000	3.8622e-03
 9.500	23.250	3.8622e-03
 9.500	23.500	3.8622e-03
 9.500	23.750	3.8622e-03
 9.500	24.000	3.8622e-03
 9.750	17.000	2.0255e-04
 9.750	17.250	2.9342e-04
 9.750	17.500	4.3144e-04
 9.750	17.750	6.4667e-04
 9.750	18.000	9.8025e-04
 9.750	18.250	1.4622e-03
 9.750	18.500	2.1280e-03
 9.750	18.750	3.0021e-03
 9.750	19.000	3.6060e-03
 9.750	19.250	3.6920e-03
 9.750	19.500	3.8438e-03
 9.750	19.750	3.8520e-03
 9.750	20.000	3.8538e-03
 9.750	20.250	3.8556e-03
 9.750	20.500	3.8572e-03
 9.750	20.750	3.8588e-03
 9.750	21.000	3.8600e-03
 9.750	21.250	3.8609e-03
 9.750	21.500	3.8613e-03
 9.750	21.750	3.8618e-03
 9.750	22.000	3.8620e-03
 9.750	22.250	3.8621e-03
 9.750	22.500	3.8621e-03
 9.750	22.750	3.8622e-03
 9.750	23.000	3.8622e-03
 9.750	23.250	3.8622e-03
 9.750	23.500	3.8622e-03
 9.750	23.750	3.8622e-03
 9.750	24.000	3.8622e-03
10.000	17.000	1.4329e-04
10.000	17.250	2.0741e-04
10.000	17.500	3.0609e-04
10.000	17.750	4.6486e-04
10.000	18.000	7.2370e-04
10.000	18.250	1.1128e-03
10.000	18.500	1.6594e-03
10.000	18.750	2.3796e-03
10.000	19.000	3.2407e-03
10.000	19.250	3.6030e-03
10.000	19.500	3.6886e-03
10.000	19.750	3.8410e-03
10.000	20.000	3.8517e-03
10.000	20.250	3.8537e-03
10.000	20.500	3.8556e-03
10.000	20.750	3.8573e-03
10.000	21.000	3.8588e-03
10.000	21.250	3.8601e-03
10.000	21.500	3.8609e-03
10.000	21.750	3.8614e-03
10.000	22.000	3.8618e-03
10.000	22.250	3.8621e-03
10.000	22.500	3.8621e-03
10.000	22.750	3.8621e-03
10.000	23.000	3.8622e-03
10.000	23.250	3.8622e-03
10.000	23.500	3.8622e-03
10.000	23.750	3.8622e-03
10.000	24.000	3.8622e-03
10.250	17.000	1.0189e-04
10.250	17.250	1.4724e-04
10.250	17.500	2.1827e-04
10.250	17.750	3.3630e-04
10.250	18.000	5.3440e-04
10.250	18.250	8.3679e-04
10.250	18.500	1.2750e-03
10.250	18.750	1.8746e-03
10.250	19.000	2.6694e-03
10.250	19.250	3.5405e-03
10.250	19.500	3.5992e-03
10.250	19.750	3.6830e-03
10.250	20.000	3.8377e-03
10.250	20.250	3.8514e-03
10.250	20.500	3.8537e-03
10.250	20.750	3.8556e-03
10.250	21.000	3.8573e-03
10.250	21.250	3.8588e-03
10.250	21.500	3.8602e-03
10.250	21.750	3.8609e-03
10.250	22.000	3.8614e-03
10.250	22.250	3.8618e-03
10.250	22.500	3.8621e-03
10.250	22.750	3.8621e-03
10.250	23.000	3.8621e-03
10.250	23.250	3.8622e-03
10.250	23.500	3.8622e-03
10.250	23.750	3.8622e-03
10.250	24.000	3.8622e-03
10.500	17.000	7.2757e-05
10.500	17.250	1.0510e-04
10.500	17.500	1.5663e-04
10.500	17.750	2.4510e-04
10.500	18.000	3.9580e-04
10.500	18.250	6.2963e-04
10.500	18.500	9.6329e-04
10.500	18.750	1.4438e-03
10.500	19.000	2.0875e-03
10.500	19.250	2.9364e-03
10.500	19.500	3.5491e-03
10.500	19.750	3.5956e-03
10.500	20.000	3.6787e-03
10.500	20.250	3.8322e-03
10.500	20.500	3.8506e-03
10.500	20.750	3.8534e-03
10.500	21.000	3.8555e-03
10.500	21.250	3.8572e-03
10.500	21.500	3.8588e-03
10.500	21.750	3.8602e-03
10.500	22.000	3.8611e-03
10.500	22.250	3.8614e-03
10.500	22.500	3.8618e-03
10.500	22.750	3.8621e-03
10.500	23.000	3.8621e-03
10.500	23.250	3.8621e-03
10.500	23.500	3.8622e-03
10.500	23.750	3.8622e-03
10.500	24.000	3.8622e-03
10.750	17.000	5.2263e-05
10.750	17.250	7.5391e-05
10.750	17.500	1.1342e-04
10.750	17.750	1.7984e-04
10.750	18.000	2.9300e-04
10.750	18.250	4.6790e-04
10.750	18.500	7.2321e-04
10.750	18.750	1.0843e-03
10.750	19.000	1.5858e-03
10.750	19.250	2.2728e-03
10.750	19.500	3.1446e-03
10.750	19.750	3.5458e-03
10.750	20.000	3.5920e-03
10.750	20.250	3.6747e-03
10.750	20.500	3.8277e-03
10.750	20.750	3.8489e-03
10.750	21.000	3.8530e-03
10.750	21.250	3.8554e-03
10.750	21.500	3.8572e-03
10.750	21.750	3.8588e-03
10.750	22.000	3.8601e-03
10.750	22.250	3.8611e-03
10.750	22.500	3.8615e-03
10.750	22.750	3.8618e-03
10.750	23.000	3.8621e-03
10.750	23.250	3.8622e-03
10.750	23.500	3.8622e-03
10.750	23.750	3.8622e-03
10.750	24.000	3.8622e-03
11.000	17.000	3.7695e-05
11.000	17.250	5.4321e-05
11.000	17.500	8.2222e-05
11.000	17.750	1.3202e-04
11.000	18.000	2.1572e-04
11.000	18.250	3.4428e-04
11.000	18.500	5.3243e-04
11.000	18.750	8.0165e-04
11.000	19.000	1.1829e-03
11.000	19.250	1.7160e-03
11.000	19.500	2.4440e-03
11.000	19.750	3.3916e-03
11.000	20.000	3.5427e-03
11.000	20.250	3.5909e-03
11.000	20.500	3.6740e-03
11.000	20.750	3.8248e-03
11.000	21.000	3.8477e-03
11.000	21.250	3.8519e-03
11.000	21.500	3.8552e-03
11.000	21.750	3.8571e-03
11.000	22.000	3.8588e-03
11.000	22.250	3.8601e-03
11.000	22.500	3.8611e-03
11.000	22.750	3.8616e-03
11.000	23.000	3.8619e-03
11.000	23.250	3.8621e-03
11.000	23.500	3.8622e-03
11.000	23.750	3.8622e-03
11.000	24.000	3.8622e-03
11.250	17.000	2.7490e-05
11.250	17.250	3.9342e-05
11.250	17.500	5.9753e-05
11.250	17.750	9.6461e-05
11.250	18.000	1.5761e-04
11.250	18.250	2.5012e-04
11.250	18.500	3.8642e-04
11.250	18.750	5.8798e-04
11.250	19.000	8.6881e-04
11.250	19.250	1.2657e-03
11.250	19.500	1.8244e-03
11.250	19.750	2.6024e-03
11.250	20.000	3.4569e-03
11.250	20.250	3.5405e-03
11.250	20.500	3.5892e-03
11.250	20.750	3.6764e-03
11.250	21.000	3.8288e-03
11.250	21.250	3.8460e-03
11.250	21.500	3.8511e-03
11.250	21.750	3.8548e-03
11.250	22.000	3.8570e-03
11.250	22.250	3.8586e-03
11.250	22.500	3.8600e-03
11.250	22.750	3.8611e-03
11.250	23.000	3.8616e-03
11.250	23.250	3.8620e-03
11.250	23.500	3.8621e-03
11.250	23.750	3.8622e-03
11.250	24.000	3.8623e-03
11.500	17.000	2.0412e-05
11.500	17.250	2.8807e-05
11.500	17.500	4.3539e-05
11.500	17.750	7.0123e-05
11.500	18.000	1.1383e-04
11.500	18.250	1.8016e-04
11.500	18.500	2.7852e-04
11.500	18.750	4.2403e-04
11.500	19.000	6.2963e-04
11.500	19.250	9.2132e-04
11.500	19.500	1.3359e-03
11.500	19.750	1.9250e-03
11.500	20.000	2.7493e-03
11.500	20.250	3.4851e-03
11.500	20.500	3.5391e-03
11.500	20.750	3.5910e-03
11.500	21.000	3.6854e-03
11.500	21.250	3.8354e-03
11.500	21.500	3.8453e-03
11.500	21.750	3.8500e-03
11.500	22.000	3.8541e-03
11.500	22.250	3.8566e-03
11.500	22.500	3.8584e-03
11.500	22.750	3.8598e-03
11.500	23.000	3.8610e-03
11.500	23.250	3.8615e-03
11.500	23.500	3.8620e-03
11.500	23.750	3.8622e-03
11.500	24.000	3.8623e-03
11.750	17.000	1.5473e-05
11.750	17.250	2.1399e-05
11.750	17.500	3.2016e-05
11.750	17.750	5.0782e-05
11.750	18.000	8.1152e-05
11.750	18.250	1.2823e-04
11.750	18.500	1.9877e-04
11.750	18.750	3.0156e-04
11.750	19.000	4.5267e-04
11.750	19.250	6.6461e-04
11.750	19.500	9.6700e-04
11.750	19.750	1.3952e-03
11.750	20.000	2.0132e-03
11.750	20.250	2.8781e-03
11.750	20.500	3.4967e-03
11.750	20.750	3.5383e-03
11.750	21.000	3.5972e-03
11.750	21.250	3.7083e-03
11.750	21.500	3.8371e-03
11.750	21.750	3.8439e-03
11.750	22.000	3.8491e-03
11.750	22.250	3.8532e-03
11.750	22.500	3.8561e-03
11.750	22.750	3.8580e-03
11.750	23.000	3.8597e-03
11.750	23.250	3.8609e-03
11.750	23.500	3.8615e-03
11.750	23.750	3.8620e-03
11.750	24.000	3.8623e-03
12.000	17.000	1.2099e-05
12.000	17.250	1.6296e-05
12.000	17.500	2.3704e-05
12.000	17.750	3.6543e-05
12.000	18.000	5.7449e-05
12.000	18.250	9.0535e-05
12.000	18.500	1.4074e-04
12.000	18.750	2.1506e-04
12.000	19.000	3.2321e-04
12.000	19.250	4.7671e-04
12.000	19.500	6.9481e-04
12.000	19.750	1.0045e-03
12.000	20.000	1.4496e-03
12.000	20.250	2.0877e-03
12.000	20.500	2.9862e-03
12.000	20.750	3.4899e-03
12.000	21.000	3.5404e-03
12.000	21.250	3.6161e-03
12.000	21.500	3.7507e-03
12.000	21.750	3.8356e-03
12.000	22.000	3.8425e-03
12.000	22.250	3.8477e-03
12.000	22.500	3.8521e-03
12.000	22.750	3.8554e-03
12.000	23.000	3.8574e-03
12.000	23.250	3.8593e-03
12.000	23.500	3.8608e-03
12.000	23.750	3.8614e-03
12.000	24.000	3.8620e-03
12.250	17.000	9.7119e-06
12.250	17.250	1.2675e-05
12.250	17.500	1.7695e-05
12.250	17.750	2.6337e-05
12.250	18.000	4.0741e-05
12.250	18.250	6.3868e-05
12.250	18.500	9.9506e-05
12.250	18.750	1.5317e-04
12.250	19.000	2.3070e-04
12.250	19.250	3.4107e-04
12.250	19.500	4.9753e-04
12.250	19.750	7.2115e-04
12.250	20.000	1.0361e-03
12.250	20.250	1.4920e-03
12.250	20.500	2.1523e-03
12.250	20.750	3.0840e-03
12.250	21.000	3.4821e-03
12.250	21.250	3.5480e-03
12.250	21.500	3.6472e-03
12.250	21.750	3.7993e-03
12.250	22.000	3.8332e-03
12.250	22.250	3.8402e-03
12.250	22.500	3.8458e-03
12.250	22.750	3.8507e-03
12.250	23.000	3.8543e-03
12.250	23.250	3.8567e-03
12.250	23.500	3.8589e-03
12.250	23.750	3.8607e-03
12.250	24.000	3.8613e-03
12.500	17.000	7.9835e-06
12.500	17.250	9.9588e-06
12.500	17.500	1.3333e-05
12.500	17.750	1.9095e-05
12.500	18.000	2.9053e-05
12.500	18.250	4.5185e-05
12.500	18.500	7.0617e-05
12.500	18.750	1.0889e-04
12.500	19.000	1.6436e-04
12.500	19.250	2.4395e-04
12.500	19.500	3.5531e-04
12.500	19.750	5.1424e-04
12.500	20.000	7.4041e-04
12.500	20.250	1.0619e-03
12.500	20.500	1.5315e-03
12.500	20.750	2.2075e-03
12.500	21.000	3.1521e-03
12.500	21.250	3.4754e-03
12.500	21.500	3.5651e-03
12.500	21.750	3.6824e-03
12.500	22.000	3.8195e-03
12.500	22.250	3.8295e-03
12.500	22.500	3.8370e-03
12.500	22.750	3.8434e-03
12.500	23.000	3.8488e-03
12.500	23.250	3.8529e-03
12.500	23.500	3.8556e-03
12.500	23.750	3.8583e-03
12.500	24.000	3.8604e-03
12.750	17.000	5.3498e-06
12.750	17.250	7.8189e-06
12.750	17.500	1.0206e-05
12.750	17.750	1.4239e-05
12.750	18.000	2.1070e-05
12.750	18.250	3.2428e-05
12.750	18.500	5.0370e-05
12.750	18.750	7.7613e-05
12.750	19.000	1.1745e-04
12.750	19.250	1.7424e-04
12.750	19.500	2.5407e-04
12.750	19.750	3.6683e-04
12.750	20.000	5.2774e-04
12.750	20.250	7.5613e-04
12.750	20.500	1.0866e-03
12.750	20.750	1.5641e-03
12.750	21.000	2.2677e-03
12.750	21.250	3.2462e-03
12.750	21.500	3.4729e-03
12.750	21.750	3.5847e-03
12.750	22.000	3.7174e-03
12.750	22.250	3.8139e-03
12.750	22.500	3.8242e-03
12.750	22.750	3.8327e-03
12.750	23.000	3.8400e-03
12.750	23.250	3.8460e-03
12.750	23.500	3.8508e-03
12.750	23.750	3.8540e-03
12.750	24.000	3.8574e-03
13.000	17.000	2.7160e-06
13.000	17.250	5.1029e-06
13.000	17.500	7.8189e-06
13.000	17.750	1.0947e-05
13.000	18.000	1.5720e-05
13.000	18.250	2.3621e-05
13.000	18.500	3.6214e-05
13.000	18.750	5.5473e-05
13.000	19.000	8.3786e-05
13.000	19.250	1.2436e-04
13.000	19.500	1.8156e-04
13.000	19.750	2.6198e-04
13.000	20.000	3.7564e-04
13.000	20.250	5.3819e-04
13.000	20.500	7.7070e-04
13.000	20.750	1.1083e-03
13.000	21.000	1.6005e-03
13.000	21.250	2.3286e-03
13.000	21.500	3.2930e-03
13.000	21.750	3.4672e-03
13.000	22.000	3.5955e-03
13.000	22.250	3.7373e-03
13.000	22.500	3.8044e-03
13.000	22.750	3.8163e-03
13.000	23.000	3.8263e-03
13.000	23.250	3.8350e-03
13.000	23.500	3.8421e-03
13.000	23.750	3.8475e-03
13.000	24.000	3.8514e-03
13.250	17.000	1.5638e-06
13.250	17.250	3.1276e-06
13.250	17.500	6.0905e-06
13.250	17.750	8.7243e-06
13.250	18.000	1.2016e-05
13.250	18.250	1.7531e-05
13.250	18.500	2.6337e-05
13.250	18.750	3.9835e-05
13.250	19.000	5.9918e-05
13.250	19.250	8.8724e-05
13.250	19.500	1.2963e-04
13.250	19.750	1.8724e-04
13.250	20.000	2.6831e-04
13.250	20.250	3.8354e-04
13.250	20.500	5.4914e-04
13.250	20.750	7.8568e-04
13.250	21.000	1.1338e-03
13.250	21.250	1.6401e-03
13.250	21.500	2.3579e-03
13.250	21.750	3.2612e-03
13.250	22.000	3.4392e-03
13.250	22.250	3.5908e-03
13.250	22.500	3.7292e-03
13.250	22.750	3.7897e-03
13.250	23.000	3.8042e-03
13.250	23.250	3.8164e-03
13.250	23.500	3.8273e-03
13.250	23.750	3.8360e-03
13.250	24.000	3.8425e-03
13.500	17.000	9.0535e-07
13.500	17.250	1.8930e-06
13.500	17.500	3.8683e-06
13.500	17.750	6.5844e-06
13.500	18.000	9.3827e-06
13.500	18.250	1.3251e-05
13.500	18.500	1.9342e-05
13.500	18.750	2.8724e-05
13.500	19.000	4.2881e-05
13.500	19.250	6.3292e-05
13.500	19.500	9.2675e-05
13.500	19.750	1.3391e-04
13.500	20.000	1.9177e-04
13.500	20.250	2.7383e-04
13.500	20.500	3.9119e-04
13.500	20.750	5.5885e-04
13.500	21.000	7.9852e-04
13.500	21.250	1.1539e-03
13.500	21.500	1.6505e-03
13.500	21.750	2.3745e-03
13.500	22.000	3.1959e-03
13.500	22.250	3.3881e-03
13.500	22.500	3.5521e-03
13.500	22.750	3.6974e-03
13.500	23.000	3.7672e-03
13.500	23.250	3.7858e-03
13.500	23.500	3.8022e-03
13.500	23.750	3.8162e-03
13.500	24.000	3.8268e-03
13.750	17.000	1.0000e-07
13.750	17.250	1.0700e-06
13.750	17.500	2.3868e-06
13.750	17.750	4.4444e-06
13.750	18.000	7.4074e-06
13.750	18.250	1.0123e-05
13.750	18.500	1.4321e-05
13.750	18.750	2.0905e-05
13.750	19.000	3.0782e-05
13.750	19.250	4.5267e-05
13.750	19.500	6.6091e-05
13.750	19.750	9.5556e-05
13.750	20.000	1.3712e-04
13.750	20.250	1.9597e-04
13.750	20.500	2.7942e-04
13.750	20.750	3.9909e-04
13.750	21.000	5.6996e-04
13.750	21.250	8.1473e-04
13.750	21.500	1.1626e-03
13.750	21.750	1.6756e-03
13.750	22.000	2.3877e-03
13.750	22.250	3.1130e-03
13.750	22.500	3.3113e-03
13.750	22.750	3.4991e-03
13.750	23.000	3.6562e-03
13.750	23.250	3.7331e-03
13.750	23.500	3.7577e-03
13.750	23.750	3.7805e-03
13.750	24.000	3.7992e-03
14.000	17.000	1.0000e-07
14.000	17.250	1.0000e-07
14.000	17.500	1.3992e-06
14.000	17.750	2.8807e-06
14.000	18.000	5.2675e-06
14.000	18.250	7.9835e-06
14.000	18.500	1.0864e-05
14.000	18.750	1.5391e-05
14.000	19.000	2.2222e-05
14.000	19.250	3.2346e-05
14.000	19.500	4.6996e-05
14.000	19.750	6.8148e-05
14.000	20.000	9.7942e-05
14.000	20.250	1.4000e-04
14.000	20.500	1.9992e-04
14.000	20.750	2.8560e-04
14.000	21.000	4.0716e-04
14.000	21.250	5.8329e-04
14.000	21.500	8.2782e-04
14.000	21.750	1.1883e-03
14.000	22.000	1.7077e-03
14.000	22.250	2.4051e-03
14.000	22.500	3.0064e-03
14.000	22.750	3.2168e-03
14.000	23.000	3.4249e-03
14.000	23.250	3.6037e-03
14.000	23.500	3.6825e-03
14.000	23.750	3.7161e-03
14.000	24.000	3.7485e-03
