InwC 8078.61A  relative to Inci 1215.00A scaled to 1215A.
Hden   Phi(H)  Eq_Width (A)
 7.000	17.000	2.1827e-03
 7.000	17.250	2.1837e-03
 7.000	17.500	2.1846e-03
 7.000	17.750	2.1855e-03
 7.000	18.000	2.1865e-03
 7.000	18.250	2.1872e-03
 7.000	18.500	2.1878e-03
 7.000	18.750	2.1881e-03
 7.000	19.000	2.1883e-03
 7.000	19.250	2.1886e-03
 7.000	19.500	2.1886e-03
 7.000	19.750	2.1886e-03
 7.000	20.000	2.1886e-03
 7.000	20.250	2.1886e-03
 7.000	20.500	2.1886e-03
 7.000	20.750	2.1886e-03
 7.000	21.000	2.1886e-03
 7.000	21.250	2.1886e-03
 7.000	21.500	2.1887e-03
 7.000	21.750	2.1886e-03
 7.000	22.000	2.1886e-03
 7.000	22.250	2.1886e-03
 7.000	22.500	2.1886e-03
 7.000	22.750	2.1887e-03
 7.000	23.000	2.1887e-03
 7.000	23.250	2.1886e-03
 7.000	23.500	2.1886e-03
 7.000	23.750	2.1886e-03
 7.000	24.000	2.1886e-03
 7.250	17.000	2.1791e-03
 7.250	17.250	2.1827e-03
 7.250	17.500	2.1837e-03
 7.250	17.750	2.1846e-03
 7.250	18.000	2.1855e-03
 7.250	18.250	2.1865e-03
 7.250	18.500	2.1872e-03
 7.250	18.750	2.1878e-03
 7.250	19.000	2.1881e-03
 7.250	19.250	2.1883e-03
 7.250	19.500	2.1886e-03
 7.250	19.750	2.1886e-03
 7.250	20.000	2.1886e-03
 7.250	20.250	2.1886e-03
 7.250	20.500	2.1886e-03
 7.250	20.750	2.1886e-03
 7.250	21.000	2.1886e-03
 7.250	21.250	2.1886e-03
 7.250	21.500	2.1886e-03
 7.250	21.750	2.1891e-03
 7.250	22.000	2.1886e-03
 7.250	22.250	2.1886e-03
 7.250	22.500	2.1886e-03
 7.250	22.750	2.1889e-03
 7.250	23.000	2.1889e-03
 7.250	23.250	2.1886e-03
 7.250	23.500	2.1886e-03
 7.250	23.750	2.1886e-03
 7.250	24.000	2.1886e-03
 7.500	17.000	2.0938e-03
 7.500	17.250	2.1793e-03
 7.500	17.500	2.1827e-03
 7.500	17.750	2.1837e-03
 7.500	18.000	2.1846e-03
 7.500	18.250	2.1855e-03
 7.500	18.500	2.1865e-03
 7.500	18.750	2.1872e-03
 7.500	19.000	2.1878e-03
 7.500	19.250	2.1881e-03
 7.500	19.500	2.1883e-03
 7.500	19.750	2.1886e-03
 7.500	20.000	2.1886e-03
 7.500	20.250	2.1886e-03
 7.500	20.500	2.1886e-03
 7.500	20.750	2.1886e-03
 7.500	21.000	2.1886e-03
 7.500	21.250	2.1886e-03
 7.500	21.500	2.1886e-03
 7.500	21.750	2.1886e-03
 7.500	22.000	2.1886e-03
 7.500	22.250	2.1886e-03
 7.500	22.500	2.1886e-03
 7.500	22.750	2.1886e-03
 7.500	23.000	2.1888e-03
 7.500	23.250	2.1889e-03
 7.500	23.500	2.1886e-03
 7.500	23.750	2.1890e-03
 7.500	24.000	2.1886e-03
 7.750	17.000	1.9353e-03
 7.750	17.250	2.0942e-03
 7.750	17.500	2.1794e-03
 7.750	17.750	2.1827e-03
 7.750	18.000	2.1837e-03
 7.750	18.250	2.1846e-03
 7.750	18.500	2.1855e-03
 7.750	18.750	2.1865e-03
 7.750	19.000	2.1872e-03
 7.750	19.250	2.1878e-03
 7.750	19.500	2.1881e-03
 7.750	19.750	2.1883e-03
 7.750	20.000	2.1886e-03
 7.750	20.250	2.1886e-03
 7.750	20.500	2.1886e-03
 7.750	20.750	2.1886e-03
 7.750	21.000	2.1886e-03
 7.750	21.250	2.1886e-03
 7.750	21.500	2.1886e-03
 7.750	21.750	2.1886e-03
 7.750	22.000	2.1886e-03
 7.750	22.250	2.1886e-03
 7.750	22.500	2.1886e-03
 7.750	22.750	2.1887e-03
 7.750	23.000	2.1887e-03
 7.750	23.250	2.1886e-03
 7.750	23.500	2.1889e-03
 7.750	23.750	2.1889e-03
 7.750	24.000	2.1886e-03
 8.000	17.000	1.3685e-03
 8.000	17.250	1.9235e-03
 8.000	17.500	2.0935e-03
 8.000	17.750	2.1791e-03
 8.000	18.000	2.1827e-03
 8.000	18.250	2.1837e-03
 8.000	18.500	2.1846e-03
 8.000	18.750	2.1856e-03
 8.000	19.000	2.1865e-03
 8.000	19.250	2.1872e-03
 8.000	19.500	2.1878e-03
 8.000	19.750	2.1881e-03
 8.000	20.000	2.1883e-03
 8.000	20.250	2.1886e-03
 8.000	20.500	2.1886e-03
 8.000	20.750	2.1886e-03
 8.000	21.000	2.1886e-03
 8.000	21.250	2.1886e-03
 8.000	21.500	2.1886e-03
 8.000	21.750	2.1886e-03
 8.000	22.000	2.1886e-03
 8.000	22.250	2.1886e-03
 8.000	22.500	2.1886e-03
 8.000	22.750	2.1887e-03
 8.000	23.000	2.1886e-03
 8.000	23.250	2.1888e-03
 8.000	23.500	2.1886e-03
 8.000	23.750	2.1886e-03
 8.000	24.000	2.1886e-03
 8.250	17.000	9.5868e-04
 8.250	17.250	1.3739e-03
 8.250	17.500	1.9256e-03
 8.250	17.750	2.0938e-03
 8.250	18.000	2.1793e-03
 8.250	18.250	2.1827e-03
 8.250	18.500	2.1837e-03
 8.250	18.750	2.1846e-03
 8.250	19.000	2.1856e-03
 8.250	19.250	2.1865e-03
 8.250	19.500	2.1872e-03
 8.250	19.750	2.1878e-03
 8.250	20.000	2.1881e-03
 8.250	20.250	2.1883e-03
 8.250	20.500	2.1885e-03
 8.250	20.750	2.1886e-03
 8.250	21.000	2.1886e-03
 8.250	21.250	2.1886e-03
 8.250	21.500	2.1886e-03
 8.250	21.750	2.1886e-03
 8.250	22.000	2.1886e-03
 8.250	22.250	2.1886e-03
 8.250	22.500	2.1886e-03
 8.250	22.750	2.1887e-03
 8.250	23.000	2.1886e-03
 8.250	23.250	2.1892e-03
 8.250	23.500	2.1886e-03
 8.250	23.750	2.1886e-03
 8.250	24.000	2.1888e-03
 8.500	17.000	6.6971e-04
 8.500	17.250	9.6576e-04
 8.500	17.500	1.3798e-03
 8.500	17.750	1.9282e-03
 8.500	18.000	2.0940e-03
 8.500	18.250	2.1793e-03
 8.500	18.500	2.1827e-03
 8.500	18.750	2.1837e-03
 8.500	19.000	2.1846e-03
 8.500	19.250	2.1856e-03
 8.500	19.500	2.1865e-03
 8.500	19.750	2.1872e-03
 8.500	20.000	2.1878e-03
 8.500	20.250	2.1881e-03
 8.500	20.500	2.1883e-03
 8.500	20.750	2.1885e-03
 8.500	21.000	2.1886e-03
 8.500	21.250	2.1886e-03
 8.500	21.500	2.1886e-03
 8.500	21.750	2.1886e-03
 8.500	22.000	2.1886e-03
 8.500	22.250	2.1886e-03
 8.500	22.500	2.1886e-03
 8.500	22.750	2.1886e-03
 8.500	23.000	2.1886e-03
 8.500	23.250	2.1887e-03
 8.500	23.500	2.1886e-03
 8.500	23.750	2.1886e-03
 8.500	24.000	2.1886e-03
 8.750	17.000	4.6815e-04
 8.750	17.250	6.7753e-04
 8.750	17.500	9.7572e-04
 8.750	17.750	1.3838e-03
 8.750	18.000	1.9328e-03
 8.750	18.250	2.0942e-03
 8.750	18.500	2.1793e-03
 8.750	18.750	2.1827e-03
 8.750	19.000	2.1837e-03
 8.750	19.250	2.1847e-03
 8.750	19.500	2.1856e-03
 8.750	19.750	2.1865e-03
 8.750	20.000	2.1872e-03
 8.750	20.250	2.1878e-03
 8.750	20.500	2.1881e-03
 8.750	20.750	2.1883e-03
 8.750	21.000	2.1886e-03
 8.750	21.250	2.1886e-03
 8.750	21.500	2.1886e-03
 8.750	21.750	2.1886e-03
 8.750	22.000	2.1886e-03
 8.750	22.250	2.1886e-03
 8.750	22.500	2.1886e-03
 8.750	22.750	2.1886e-03
 8.750	23.000	2.1889e-03
 8.750	23.250	2.1886e-03
 8.750	23.500	2.1887e-03
 8.750	23.750	2.1886e-03
 8.750	24.000	2.1886e-03
 9.000	17.000	3.2733e-04
 9.000	17.250	4.7498e-04
 9.000	17.500	6.8905e-04
 9.000	17.750	9.9309e-04
 9.000	18.000	1.4033e-03
 9.000	18.250	1.9483e-03
 9.000	18.500	2.0940e-03
 9.000	18.750	2.1793e-03
 9.000	19.000	2.1827e-03
 9.000	19.250	2.1837e-03
 9.000	19.500	2.1847e-03
 9.000	19.750	2.1856e-03
 9.000	20.000	2.1865e-03
 9.000	20.250	2.1872e-03
 9.000	20.500	2.1878e-03
 9.000	20.750	2.1881e-03
 9.000	21.000	2.1883e-03
 9.000	21.250	2.1886e-03
 9.000	21.500	2.1886e-03
 9.000	21.750	2.1886e-03
 9.000	22.000	2.1886e-03
 9.000	22.250	2.1886e-03
 9.000	22.500	2.1886e-03
 9.000	22.750	2.1886e-03
 9.000	23.000	2.1886e-03
 9.000	23.250	2.1886e-03
 9.000	23.500	2.1886e-03
 9.000	23.750	2.1886e-03
 9.000	24.000	2.1886e-03
 9.250	17.000	2.2922e-04
 9.250	17.250	3.3317e-04
 9.250	17.500	4.8650e-04
 9.250	17.750	7.1095e-04
 9.250	18.000	1.0246e-03
 9.250	18.250	1.4440e-03
 9.250	18.500	1.9845e-03
 9.250	18.750	2.0935e-03
 9.250	19.000	2.1791e-03
 9.250	19.250	2.1827e-03
 9.250	19.500	2.1837e-03
 9.250	19.750	2.1847e-03
 9.250	20.000	2.1856e-03
 9.250	20.250	2.1865e-03
 9.250	20.500	2.1872e-03
 9.250	20.750	2.1878e-03
 9.250	21.000	2.1881e-03
 9.250	21.250	2.1883e-03
 9.250	21.500	2.1884e-03
 9.250	21.750	2.1885e-03
 9.250	22.000	2.1884e-03
 9.250	22.250	2.1885e-03
 9.250	22.500	2.1886e-03
 9.250	22.750	2.1886e-03
 9.250	23.000	2.1886e-03
 9.250	23.250	2.1886e-03
 9.250	23.500	2.1886e-03
 9.250	23.750	2.1886e-03
 9.250	24.000	2.1886e-03
 9.500	17.000	1.6123e-04
 9.500	17.250	2.3407e-04
 9.500	17.500	3.4387e-04
 9.500	17.750	5.0922e-04
 9.500	18.000	7.5004e-04
 9.500	18.250	1.0876e-03
 9.500	18.500	1.5325e-03
 9.500	18.750	2.0410e-03
 9.500	19.000	2.0926e-03
 9.500	19.250	2.1786e-03
 9.500	19.500	2.1826e-03
 9.500	19.750	2.1837e-03
 9.500	20.000	2.1847e-03
 9.500	20.250	2.1856e-03
 9.500	20.500	2.1865e-03
 9.500	20.750	2.1872e-03
 9.500	21.000	2.1877e-03
 9.500	21.250	2.1879e-03
 9.500	21.500	2.1881e-03
 9.500	21.750	2.1883e-03
 9.500	22.000	2.1884e-03
 9.500	22.250	2.1884e-03
 9.500	22.500	2.1884e-03
 9.500	22.750	2.1884e-03
 9.500	23.000	2.1884e-03
 9.500	23.250	2.1884e-03
 9.500	23.500	2.1884e-03
 9.500	23.750	2.1884e-03
 9.500	24.000	2.1884e-03
 9.750	17.000	1.1342e-04
 9.750	17.250	1.6486e-04
 9.750	17.500	2.4296e-04
 9.750	17.750	3.6461e-04
 9.750	18.000	5.5284e-04
 9.750	18.250	8.2469e-04
 9.750	18.500	1.2006e-03
 9.750	18.750	1.6953e-03
 9.750	19.000	2.0386e-03
 9.750	19.250	2.0907e-03
 9.750	19.500	2.1774e-03
 9.750	19.750	2.1825e-03
 9.750	20.000	2.1836e-03
 9.750	20.250	2.1846e-03
 9.750	20.500	2.1856e-03
 9.750	20.750	2.1865e-03
 9.750	21.000	2.1872e-03
 9.750	21.250	2.1877e-03
 9.750	21.500	2.1880e-03
 9.750	21.750	2.1882e-03
 9.750	22.000	2.1883e-03
 9.750	22.250	2.1884e-03
 9.750	22.500	2.1884e-03
 9.750	22.750	2.1884e-03
 9.750	23.000	2.1884e-03
 9.750	23.250	2.1884e-03
 9.750	23.500	2.1884e-03
 9.750	23.750	2.1884e-03
 9.750	24.000	2.1884e-03
10.000	17.000	7.9835e-05
10.000	17.250	1.1613e-04
10.000	17.500	1.7193e-04
10.000	17.750	2.6156e-04
10.000	18.000	4.0749e-04
10.000	18.250	6.2650e-04
10.000	18.500	9.3424e-04
10.000	18.750	1.3405e-03
10.000	19.000	1.8271e-03
10.000	19.250	2.0349e-03
10.000	19.500	2.0873e-03
10.000	19.750	2.1751e-03
10.000	20.000	2.1821e-03
10.000	20.250	2.1835e-03
10.000	20.500	2.1846e-03
10.000	20.750	2.1856e-03
10.000	21.000	2.1865e-03
10.000	21.250	2.1872e-03
10.000	21.500	2.1877e-03
10.000	21.750	2.1880e-03
10.000	22.000	2.1882e-03
10.000	22.250	2.1883e-03
10.000	22.500	2.1884e-03
10.000	22.750	2.1884e-03
10.000	23.000	2.1884e-03
10.000	23.250	2.1884e-03
10.000	23.500	2.1884e-03
10.000	23.750	2.1884e-03
10.000	24.000	2.1884e-03
10.250	17.000	5.6379e-05
10.250	17.250	8.2058e-05
10.250	17.500	1.2214e-04
10.250	17.750	1.8881e-04
10.250	18.000	3.0033e-04
10.250	18.250	4.7029e-04
10.250	18.500	7.1638e-04
10.250	18.750	1.0533e-03
10.250	19.000	1.5012e-03
10.250	19.250	1.9919e-03
10.250	19.500	2.0305e-03
10.250	19.750	2.0816e-03
10.250	20.000	2.1728e-03
10.250	20.250	2.1816e-03
10.250	20.500	2.1834e-03
10.250	20.750	2.1846e-03
10.250	21.000	2.1856e-03
10.250	21.250	2.1865e-03
10.250	21.500	2.1872e-03
10.250	21.750	2.1877e-03
10.250	22.000	2.1880e-03
10.250	22.250	2.1882e-03
10.250	22.500	2.1884e-03
10.250	22.750	2.1884e-03
10.250	23.000	2.1884e-03
10.250	23.250	2.1884e-03
10.250	23.500	2.1884e-03
10.250	23.750	2.1884e-03
10.250	24.000	2.1884e-03
10.500	17.000	3.9835e-05
10.500	17.250	5.8189e-05
10.500	17.500	8.7243e-05
10.500	17.750	1.3720e-04
10.500	18.000	2.2198e-04
10.500	18.250	3.5333e-04
10.500	18.500	5.4041e-04
10.500	18.750	8.0979e-04
10.500	19.000	1.1710e-03
10.500	19.250	1.6486e-03
10.500	19.500	1.9963e-03
10.500	19.750	2.0266e-03
10.500	20.000	2.0773e-03
10.500	20.250	2.1680e-03
10.500	20.500	2.1806e-03
10.500	20.750	2.1831e-03
10.500	21.000	2.1845e-03
10.500	21.250	2.1855e-03
10.500	21.500	2.1865e-03
10.500	21.750	2.1872e-03
10.500	22.000	2.1877e-03
10.500	22.250	2.1880e-03
10.500	22.500	2.1882e-03
10.500	22.750	2.1884e-03
10.500	23.000	2.1884e-03
10.500	23.250	2.1884e-03
10.500	23.500	2.1884e-03
10.500	23.750	2.1884e-03
10.500	24.000	2.1884e-03
10.750	17.000	2.8230e-05
10.750	17.250	4.1317e-05
10.750	17.500	6.2716e-05
10.750	17.750	1.0025e-04
10.750	18.000	1.6395e-04
10.750	18.250	2.6214e-04
10.750	18.500	4.0535e-04
10.750	18.750	6.0749e-04
10.750	19.000	8.8823e-04
10.750	19.250	1.2730e-03
10.750	19.500	1.7626e-03
10.750	19.750	1.9922e-03
10.750	20.000	2.0226e-03
10.750	20.250	2.0728e-03
10.750	20.500	2.1639e-03
10.750	20.750	2.1781e-03
10.750	21.000	2.1825e-03
10.750	21.250	2.1844e-03
10.750	21.500	2.1855e-03
10.750	21.750	2.1864e-03
10.750	22.000	2.1872e-03
10.750	22.250	2.1877e-03
10.750	22.500	2.1880e-03
10.750	22.750	2.1882e-03
10.750	23.000	2.1884e-03
10.750	23.250	2.1884e-03
10.750	23.500	2.1884e-03
10.750	23.750	2.1884e-03
10.750	24.000	2.1884e-03
11.000	17.000	1.9918e-05
11.000	17.250	2.9383e-05
11.000	17.500	4.5103e-05
11.000	17.750	7.3169e-05
11.000	18.000	1.2033e-04
11.000	18.250	1.9259e-04
11.000	18.500	2.9811e-04
11.000	18.750	4.4881e-04
11.000	19.000	6.6189e-04
11.000	19.250	9.5967e-04
11.000	19.500	1.3664e-03
11.000	19.750	1.8965e-03
11.000	20.000	1.9883e-03
11.000	20.250	2.0213e-03
11.000	20.500	2.0717e-03
11.000	20.750	2.1600e-03
11.000	21.000	2.1765e-03
11.000	21.250	2.1809e-03
11.000	21.500	2.1841e-03
11.000	21.750	2.1853e-03
11.000	22.000	2.1863e-03
11.000	22.250	2.1872e-03
11.000	22.500	2.1877e-03
11.000	22.750	2.1880e-03
11.000	23.000	2.1882e-03
11.000	23.250	2.1884e-03
11.000	23.500	2.1885e-03
11.000	23.750	2.1885e-03
11.000	24.000	2.1885e-03
11.250	17.000	1.4156e-05
11.250	17.250	2.0823e-05
11.250	17.500	3.2428e-05
11.250	17.750	5.3086e-05
11.250	18.000	8.7572e-05
11.250	18.250	1.3951e-04
11.250	18.500	2.1605e-04
11.250	18.750	3.2889e-04
11.250	19.000	4.8584e-04
11.250	19.250	7.0724e-04
11.250	19.500	1.0184e-03
11.250	19.750	1.4515e-03
11.250	20.000	1.9293e-03
11.250	20.250	1.9853e-03
11.250	20.500	2.0183e-03
11.250	20.750	2.0720e-03
11.250	21.000	2.1613e-03
11.250	21.250	2.1740e-03
11.250	21.500	2.1798e-03
11.250	21.750	2.1835e-03
11.250	22.000	2.1851e-03
11.250	22.250	2.1862e-03
11.250	22.500	2.1870e-03
11.250	22.750	2.1877e-03
11.250	23.000	2.1880e-03
11.250	23.250	2.1883e-03
11.250	23.500	2.1884e-03
11.250	23.750	2.1885e-03
11.250	24.000	2.1885e-03
11.500	17.000	1.0123e-05
11.500	17.250	1.4897e-05
11.500	17.500	2.3210e-05
11.500	17.750	3.8189e-05
11.500	18.000	6.2798e-05
11.500	18.250	1.0016e-04
11.500	18.500	1.5539e-04
11.500	18.750	2.3695e-04
11.500	19.000	3.5185e-04
11.500	19.250	5.1457e-04
11.500	19.500	7.4510e-04
11.500	19.750	1.0719e-03
11.500	20.000	1.5287e-03
11.500	20.250	1.9416e-03
11.500	20.500	1.9830e-03
11.500	20.750	2.0185e-03
11.500	21.000	2.0764e-03
11.500	21.250	2.1640e-03
11.500	21.500	2.1732e-03
11.500	21.750	2.1782e-03
11.500	22.000	2.1826e-03
11.500	22.250	2.1847e-03
11.500	22.500	2.1858e-03
11.500	22.750	2.1868e-03
11.500	23.000	2.1877e-03
11.500	23.250	2.1880e-03
11.500	23.500	2.1883e-03
11.500	23.750	2.1884e-03
11.500	24.000	2.1885e-03
11.750	17.000	7.4074e-06
11.750	17.250	1.0700e-05
11.750	17.500	1.6708e-05
11.750	17.750	2.7243e-05
11.750	18.000	4.4444e-05
11.750	18.250	7.0947e-05
11.750	18.500	1.1053e-04
11.750	18.750	1.6823e-04
11.750	19.000	2.5276e-04
11.750	19.250	3.7103e-04
11.750	19.500	5.3918e-04
11.750	19.750	7.7638e-04
11.750	20.000	1.1174e-03
11.750	20.250	1.5938e-03
11.750	20.500	1.9440e-03
11.750	20.750	1.9807e-03
11.750	21.000	2.0208e-03
11.750	21.250	2.0882e-03
11.750	21.500	2.1650e-03
11.750	21.750	2.1713e-03
11.750	22.000	2.1770e-03
11.750	22.250	2.1813e-03
11.750	22.500	2.1840e-03
11.750	22.750	2.1853e-03
11.750	23.000	2.1866e-03
11.750	23.250	2.1876e-03
11.750	23.500	2.1879e-03
11.750	23.750	2.1882e-03
11.750	24.000	2.1885e-03
12.000	17.000	5.5144e-06
12.000	17.250	7.8189e-06
12.000	17.500	1.2016e-05
12.000	17.750	1.9259e-05
12.000	18.000	3.1029e-05
12.000	18.250	4.9630e-05
12.000	18.500	7.7942e-05
12.000	18.750	1.1967e-04
12.000	19.000	1.8016e-04
12.000	19.250	2.6593e-04
12.000	19.500	3.8724e-04
12.000	19.750	5.5877e-04
12.000	20.000	8.0387e-04
12.000	20.250	1.1534e-03
12.000	20.500	1.6445e-03
12.000	20.750	1.9341e-03
12.000	21.000	1.9794e-03
12.000	21.250	2.0304e-03
12.000	21.500	2.1127e-03
12.000	21.750	2.1631e-03
12.000	22.000	2.1697e-03
12.000	22.250	2.1753e-03
12.000	22.500	2.1798e-03
12.000	22.750	2.1830e-03
12.000	23.000	2.1846e-03
12.000	23.250	2.1862e-03
12.000	23.500	2.1874e-03
12.000	23.750	2.1878e-03
12.000	24.000	2.1882e-03
12.250	17.000	4.1152e-06
12.250	17.250	5.7613e-06
12.250	17.500	8.6420e-06
12.250	17.750	1.3498e-05
12.250	18.000	2.1646e-05
12.250	18.250	3.4650e-05
12.250	18.500	5.4650e-05
12.250	18.750	8.4856e-05
12.250	19.000	1.2831e-04
12.250	19.250	1.8996e-04
12.250	19.500	2.7712e-04
12.250	19.750	4.0099e-04
12.250	20.000	5.7440e-04
12.250	20.250	8.2329e-04
12.250	20.500	1.1813e-03
12.250	20.750	1.6849e-03
12.250	21.000	1.9215e-03
12.250	21.250	1.9805e-03
12.250	21.500	2.0492e-03
12.250	21.750	2.1388e-03
12.250	22.000	2.1607e-03
12.250	22.250	2.1673e-03
12.250	22.500	2.1732e-03
12.250	22.750	2.1781e-03
12.250	23.000	2.1816e-03
12.250	23.250	2.1837e-03
12.250	23.500	2.1857e-03
12.250	23.750	2.1872e-03
12.250	24.000	2.1877e-03
12.500	17.000	3.1276e-06
12.500	17.250	4.2798e-06
12.500	17.500	6.1728e-06
12.500	17.750	9.4650e-06
12.500	18.000	1.5062e-05
12.500	18.250	2.4115e-05
12.500	18.500	3.8436e-05
12.500	18.750	5.9918e-05
12.500	19.000	9.1029e-05
12.500	19.250	1.3556e-04
12.500	19.500	1.9761e-04
12.500	19.750	2.8576e-04
12.500	20.000	4.1029e-04
12.500	20.250	5.8560e-04
12.500	20.500	8.3901e-04
12.500	20.750	1.2002e-03
12.500	21.000	1.7042e-03
12.500	21.250	1.9075e-03
12.500	21.500	1.9916e-03
12.500	21.750	2.0671e-03
12.500	22.000	2.1481e-03
12.500	22.250	2.1570e-03
12.500	22.500	2.1642e-03
12.500	22.750	2.1705e-03
12.500	23.000	2.1760e-03
12.500	23.250	2.1799e-03
12.500	23.500	2.1823e-03
12.500	23.750	2.1849e-03
12.500	24.000	2.1870e-03
12.750	17.000	1.9753e-06
12.750	17.250	3.0453e-06
12.750	17.500	4.3621e-06
12.750	17.750	6.6667e-06
12.750	18.000	1.0535e-05
12.750	18.250	1.6955e-05
12.750	18.500	2.6996e-05
12.750	18.750	4.2387e-05
12.750	19.000	6.4691e-05
12.750	19.250	9.6461e-05
12.750	19.500	1.4099e-04
12.750	19.750	2.0362e-04
12.750	20.000	2.9218e-04
12.750	20.250	4.1671e-04
12.750	20.500	5.9465e-04
12.750	20.750	8.4790e-04
12.750	21.000	1.2166e-03
12.750	21.250	1.7289e-03
12.750	21.500	1.9048e-03
12.750	21.750	1.9988e-03
12.750	22.000	2.0830e-03
12.750	22.250	2.1419e-03
12.750	22.500	2.1514e-03
12.750	22.750	2.1597e-03
12.750	23.000	2.1669e-03
12.750	23.250	2.1728e-03
12.750	23.500	2.1774e-03
12.750	23.750	2.1804e-03
12.750	24.000	2.1838e-03
13.000	17.000	9.8765e-07
13.000	17.250	1.8930e-06
13.000	17.500	3.1276e-06
13.000	17.750	4.8560e-06
13.000	18.000	7.4897e-06
13.000	18.250	1.1934e-05
13.000	18.500	1.9095e-05
13.000	18.750	2.9877e-05
13.000	19.000	4.5844e-05
13.000	19.250	6.8477e-05
13.000	19.500	1.0041e-04
13.000	19.750	1.4510e-04
13.000	20.000	2.0774e-04
13.000	20.250	2.9638e-04
13.000	20.500	4.2140e-04
13.000	20.750	5.9975e-04
13.000	21.000	8.5473e-04
13.000	21.250	1.2266e-03
13.000	21.500	1.7442e-03
13.000	21.750	1.8905e-03
13.000	22.000	1.9978e-03
13.000	22.250	2.0878e-03
13.000	22.500	2.1316e-03
13.000	22.750	2.1430e-03
13.000	23.000	2.1528e-03
13.000	23.250	2.1614e-03
13.000	23.500	2.1685e-03
13.000	23.750	2.1738e-03
13.000	24.000	2.1775e-03
13.250	17.000	1.0000e-07
13.250	17.250	1.1523e-06
13.250	17.500	2.3045e-06
13.250	17.750	3.5391e-06
13.250	18.000	5.4321e-06
13.250	18.250	8.5597e-06
13.250	18.500	1.3498e-05
13.250	18.750	2.1070e-05
13.250	19.000	3.2346e-05
13.250	19.250	4.8477e-05
13.250	19.500	7.1358e-05
13.250	19.750	1.0337e-04
13.250	20.000	1.4807e-04
13.250	20.250	2.1086e-04
13.250	20.500	2.9992e-04
13.250	20.750	4.2453e-04
13.250	21.000	6.0354e-04
13.250	21.250	8.5745e-04
13.250	21.500	1.2328e-03
13.250	21.750	1.6994e-03
13.250	22.000	1.8582e-03
13.250	22.250	1.9830e-03
13.250	22.500	2.0737e-03
13.250	22.750	2.1156e-03
13.250	23.000	2.1299e-03
13.250	23.250	2.1420e-03
13.250	23.500	2.1530e-03
13.250	23.750	2.1618e-03
13.250	24.000	2.1682e-03
13.500	17.000	1.0000e-07
13.500	17.250	1.0000e-07
13.500	17.500	1.3992e-06
13.500	17.750	2.4691e-06
13.500	18.000	3.9506e-06
13.500	18.250	6.0905e-06
13.500	18.500	9.5473e-06
13.500	18.750	1.4815e-05
13.500	19.000	2.2798e-05
13.500	19.250	3.4239e-05
13.500	19.500	5.0617e-05
13.500	19.750	7.3498e-05
13.500	20.000	1.0543e-04
13.500	20.250	1.5021e-04
13.500	20.500	2.1325e-04
13.500	20.750	3.0148e-04
13.500	21.000	4.2403e-04
13.500	21.250	5.9992e-04
13.500	21.500	8.5490e-04
13.500	21.750	1.2101e-03
13.500	22.000	1.6300e-03
13.500	22.250	1.8052e-03
13.500	22.500	1.9439e-03
13.500	22.750	2.0425e-03
13.500	23.000	2.0914e-03
13.500	23.250	2.1099e-03
13.500	23.500	2.1264e-03
13.500	23.750	2.1407e-03
13.500	24.000	2.1515e-03
13.750	17.000	1.0000e-07
13.750	17.250	1.0000e-07
13.750	17.500	8.2305e-07
13.750	17.750	1.5638e-06
13.750	18.000	2.8807e-06
13.750	18.250	4.3621e-06
13.750	18.500	6.7490e-06
13.750	18.750	1.0453e-05
13.750	19.000	1.6049e-05
13.750	19.250	2.4115e-05
13.750	19.500	3.5720e-05
13.750	19.750	5.2099e-05
13.750	20.000	7.5062e-05
13.750	20.250	1.0708e-04
13.750	20.500	1.5193e-04
13.750	20.750	2.1465e-04
13.750	21.000	3.0165e-04
13.750	21.250	4.2132e-04
13.750	21.500	5.9753e-04
13.750	21.750	8.4008e-04
13.750	22.000	1.1753e-03
13.750	22.250	1.5472e-03
13.750	22.500	1.7317e-03
13.750	22.750	1.8905e-03
13.750	23.000	1.9999e-03
13.750	23.250	2.0551e-03
13.750	23.500	2.0796e-03
13.750	23.750	2.1026e-03
13.750	24.000	2.1219e-03
14.000	17.000	1.0000e-07
14.000	17.250	1.0000e-07
14.000	17.500	1.0000e-07
14.000	17.750	9.8765e-07
14.000	18.000	1.8930e-06
14.000	18.250	3.1276e-06
14.000	18.500	4.7737e-06
14.000	18.750	7.3251e-06
14.000	19.000	1.1193e-05
14.000	19.250	1.6872e-05
14.000	19.500	2.5021e-05
14.000	19.750	3.6790e-05
14.000	20.000	5.3169e-05
14.000	20.250	7.6132e-05
14.000	20.500	1.0823e-04
14.000	20.750	1.5300e-04
14.000	21.000	2.1449e-04
14.000	21.250	2.9967e-04
14.000	21.500	4.2181e-04
14.000	21.750	5.8642e-04
14.000	22.000	8.1498e-04
14.000	22.250	1.1295e-03
14.000	22.500	1.4481e-03
14.000	22.750	1.6409e-03
14.000	23.000	1.8165e-03
14.000	23.250	1.9421e-03
14.000	23.500	2.0017e-03
14.000	23.750	2.0351e-03
14.000	24.000	2.0680e-03
