InwC 399.153A  relative to Inci 1215.00A scaled to 1215A.
Hden   Phi(H)  Eq_Width (A)
 7.000	17.000	6.1917e-03
 7.000	17.250	6.5918e-03
 7.000	17.500	6.7977e-03
 7.000	17.750	6.8865e-03
 7.000	18.000	6.9306e-03
 7.000	18.250	6.9600e-03
 7.000	18.500	6.9758e-03
 7.000	18.750	6.9802e-03
 7.000	19.000	6.9824e-03
 7.000	19.250	6.9835e-03
 7.000	19.500	6.9838e-03
 7.000	19.750	6.9840e-03
 7.000	20.000	6.9840e-03
 7.000	20.250	6.9840e-03
 7.000	20.500	6.9840e-03
 7.000	20.750	6.9841e-03
 7.000	21.000	6.9840e-03
 7.000	21.250	6.9840e-03
 7.000	21.500	6.9842e-03
 7.000	21.750	6.9841e-03
 7.000	22.000	6.9841e-03
 7.000	22.250	6.9840e-03
 7.000	22.500	6.9841e-03
 7.000	22.750	6.9843e-03
 7.000	23.000	6.9843e-03
 7.000	23.250	6.9840e-03
 7.000	23.500	6.9841e-03
 7.000	23.750	6.9840e-03
 7.000	24.000	6.9841e-03
 7.250	17.000	5.6188e-03
 7.250	17.250	6.1951e-03
 7.250	17.500	6.5942e-03
 7.250	17.750	6.7989e-03
 7.250	18.000	6.8869e-03
 7.250	18.250	6.9308e-03
 7.250	18.500	6.9600e-03
 7.250	18.750	6.9758e-03
 7.250	19.000	6.9802e-03
 7.250	19.250	6.9824e-03
 7.250	19.500	6.9835e-03
 7.250	19.750	6.9838e-03
 7.250	20.000	6.9840e-03
 7.250	20.250	6.9840e-03
 7.250	20.500	6.9840e-03
 7.250	20.750	6.9840e-03
 7.250	21.000	6.9840e-03
 7.250	21.250	6.9840e-03
 7.250	21.500	6.9841e-03
 7.250	21.750	6.9854e-03
 7.250	22.000	6.9841e-03
 7.250	22.250	6.9841e-03
 7.250	22.500	6.9841e-03
 7.250	22.750	6.9848e-03
 7.250	23.000	6.9848e-03
 7.250	23.250	6.9841e-03
 7.250	23.500	6.9841e-03
 7.250	23.750	6.9841e-03
 7.250	24.000	6.9841e-03
 7.500	17.000	4.2444e-03
 7.500	17.250	5.6221e-03
 7.500	17.500	6.1980e-03
 7.500	17.750	6.5968e-03
 7.500	18.000	6.8005e-03
 7.500	18.250	6.8874e-03
 7.500	18.500	6.9309e-03
 7.500	18.750	6.9601e-03
 7.500	19.000	6.9758e-03
 7.500	19.250	6.9802e-03
 7.500	19.500	6.9824e-03
 7.500	19.750	6.9835e-03
 7.500	20.000	6.9838e-03
 7.500	20.250	6.9839e-03
 7.500	20.500	6.9840e-03
 7.500	20.750	6.9840e-03
 7.500	21.000	6.9840e-03
 7.500	21.250	6.9840e-03
 7.500	21.500	6.9840e-03
 7.500	21.750	6.9841e-03
 7.500	22.000	6.9840e-03
 7.500	22.250	6.9841e-03
 7.500	22.500	6.9841e-03
 7.500	22.750	6.9841e-03
 7.500	23.000	6.9844e-03
 7.500	23.250	6.9848e-03
 7.500	23.500	6.9841e-03
 7.500	23.750	6.9849e-03
 7.500	24.000	6.9841e-03
 7.750	17.000	2.4188e-03
 7.750	17.250	4.2551e-03
 7.750	17.500	5.6242e-03
 7.750	17.750	6.2003e-03
 7.750	18.000	6.5994e-03
 7.750	18.250	6.8022e-03
 7.750	18.500	6.8881e-03
 7.750	18.750	6.9312e-03
 7.750	19.000	6.9602e-03
 7.750	19.250	6.9759e-03
 7.750	19.500	6.9802e-03
 7.750	19.750	6.9824e-03
 7.750	20.000	6.9835e-03
 7.750	20.250	6.9838e-03
 7.750	20.500	6.9840e-03
 7.750	20.750	6.9840e-03
 7.750	21.000	6.9840e-03
 7.750	21.250	6.9840e-03
 7.750	21.500	6.9840e-03
 7.750	21.750	6.9840e-03
 7.750	22.000	6.9840e-03
 7.750	22.250	6.9840e-03
 7.750	22.500	6.9840e-03
 7.750	22.750	6.9843e-03
 7.750	23.000	6.9843e-03
 7.750	23.250	6.9841e-03
 7.750	23.500	6.9848e-03
 7.750	23.750	6.9848e-03
 7.750	24.000	6.9841e-03
 8.000	17.000	1.2813e-03
 8.000	17.250	2.4067e-03
 8.000	17.500	4.2430e-03
 8.000	17.750	5.6240e-03
 8.000	18.000	6.2022e-03
 8.000	18.250	6.6021e-03
 8.000	18.500	6.8043e-03
 8.000	18.750	6.8889e-03
 8.000	19.000	6.9314e-03
 8.000	19.250	6.9602e-03
 8.000	19.500	6.9759e-03
 8.000	19.750	6.9802e-03
 8.000	20.000	6.9824e-03
 8.000	20.250	6.9835e-03
 8.000	20.500	6.9838e-03
 8.000	20.750	6.9840e-03
 8.000	21.000	6.9840e-03
 8.000	21.250	6.9840e-03
 8.000	21.500	6.9840e-03
 8.000	21.750	6.9840e-03
 8.000	22.000	6.9840e-03
 8.000	22.250	6.9840e-03
 8.000	22.500	6.9840e-03
 8.000	22.750	6.9842e-03
 8.000	23.000	6.9840e-03
 8.000	23.250	6.9844e-03
 8.000	23.500	6.9840e-03
 8.000	23.750	6.9840e-03
 8.000	24.000	6.9840e-03
 8.250	17.000	6.8305e-04
 8.250	17.250	1.2837e-03
 8.250	17.500	2.4105e-03
 8.250	17.750	4.2444e-03
 8.250	18.000	5.6238e-03
 8.250	18.250	6.2037e-03
 8.250	18.500	6.6049e-03
 8.250	18.750	6.8065e-03
 8.250	19.000	6.8899e-03
 8.250	19.250	6.9319e-03
 8.250	19.500	6.9603e-03
 8.250	19.750	6.9759e-03
 8.250	20.000	6.9802e-03
 8.250	20.250	6.9824e-03
 8.250	20.500	6.9835e-03
 8.250	20.750	6.9838e-03
 8.250	21.000	6.9839e-03
 8.250	21.250	6.9840e-03
 8.250	21.500	6.9840e-03
 8.250	21.750	6.9840e-03
 8.250	22.000	6.9840e-03
 8.250	22.250	6.9840e-03
 8.250	22.500	6.9840e-03
 8.250	22.750	6.9842e-03
 8.250	23.000	6.9840e-03
 8.250	23.250	6.9858e-03
 8.250	23.500	6.9840e-03
 8.250	23.750	6.9840e-03
 8.250	24.000	6.9845e-03
 8.500	17.000	3.6444e-04
 8.500	17.250	6.8395e-04
 8.500	17.500	1.2848e-03
 8.500	17.750	2.4081e-03
 8.500	18.000	4.2437e-03
 8.500	18.250	5.6221e-03
 8.500	18.500	6.2047e-03
 8.500	18.750	6.6077e-03
 8.500	19.000	6.8091e-03
 8.500	19.250	6.8909e-03
 8.500	19.500	6.9323e-03
 8.500	19.750	6.9605e-03
 8.500	20.000	6.9760e-03
 8.500	20.250	6.9802e-03
 8.500	20.500	6.9824e-03
 8.500	20.750	6.9835e-03
 8.500	21.000	6.9838e-03
 8.500	21.250	6.9839e-03
 8.500	21.500	6.9840e-03
 8.500	21.750	6.9840e-03
 8.500	22.000	6.9840e-03
 8.500	22.250	6.9840e-03
 8.500	22.500	6.9840e-03
 8.500	22.750	6.9840e-03
 8.500	23.000	6.9840e-03
 8.500	23.250	6.9842e-03
 8.500	23.500	6.9840e-03
 8.500	23.750	6.9840e-03
 8.500	24.000	6.9840e-03
 8.750	17.000	1.9465e-04
 8.750	17.250	3.6469e-04
 8.750	17.500	6.8453e-04
 8.750	17.750	1.2858e-03
 8.750	18.000	2.4119e-03
 8.750	18.250	4.2402e-03
 8.750	18.500	5.6191e-03
 8.750	18.750	6.2052e-03
 8.750	19.000	6.6108e-03
 8.750	19.250	6.8118e-03
 8.750	19.500	6.8922e-03
 8.750	19.750	6.9328e-03
 8.750	20.000	6.9607e-03
 8.750	20.250	6.9760e-03
 8.750	20.500	6.9802e-03
 8.750	20.750	6.9824e-03
 8.750	21.000	6.9835e-03
 8.750	21.250	6.9838e-03
 8.750	21.500	6.9839e-03
 8.750	21.750	6.9840e-03
 8.750	22.000	6.9840e-03
 8.750	22.250	6.9840e-03
 8.750	22.500	6.9840e-03
 8.750	22.750	6.9840e-03
 8.750	23.000	6.9847e-03
 8.750	23.250	6.9840e-03
 8.750	23.500	6.9842e-03
 8.750	23.750	6.9840e-03
 8.750	24.000	6.9840e-03
 9.000	17.000	1.0387e-04
 9.000	17.250	1.9514e-04
 9.000	17.500	3.6543e-04
 9.000	17.750	6.8576e-04
 9.000	18.000	1.2891e-03
 9.000	18.250	2.4147e-03
 9.000	18.500	4.2368e-03
 9.000	18.750	5.6163e-03
 9.000	19.000	6.2053e-03
 9.000	19.250	6.6136e-03
 9.000	19.500	6.8146e-03
 9.000	19.750	6.8935e-03
 9.000	20.000	6.9333e-03
 9.000	20.250	6.9609e-03
 9.000	20.500	6.9760e-03
 9.000	20.750	6.9802e-03
 9.000	21.000	6.9824e-03
 9.000	21.250	6.9835e-03
 9.000	21.500	6.9838e-03
 9.000	21.750	6.9839e-03
 9.000	22.000	6.9840e-03
 9.000	22.250	6.9840e-03
 9.000	22.500	6.9840e-03
 9.000	22.750	6.9840e-03
 9.000	23.000	6.9840e-03
 9.000	23.250	6.9840e-03
 9.000	23.500	6.9840e-03
 9.000	23.750	6.9840e-03
 9.000	24.000	6.9840e-03
 9.250	17.000	5.4733e-05
 9.250	17.250	1.0428e-04
 9.250	17.500	1.9621e-04
 9.250	17.750	3.6798e-04
 9.250	18.000	6.9177e-04
 9.250	18.250	1.3016e-03
 9.250	18.500	2.4360e-03
 9.250	18.750	4.2391e-03
 9.250	19.000	5.6143e-03
 9.250	19.250	6.2051e-03
 9.250	19.500	6.6160e-03
 9.250	19.750	6.8173e-03
 9.250	20.000	6.8947e-03
 9.250	20.250	6.9339e-03
 9.250	20.500	6.9611e-03
 9.250	20.750	6.9760e-03
 9.250	21.000	6.9802e-03
 9.250	21.250	6.9824e-03
 9.250	21.500	6.9831e-03
 9.250	21.750	6.9833e-03
 9.250	22.000	6.9833e-03
 9.250	22.250	6.9835e-03
 9.250	22.500	6.9836e-03
 9.250	22.750	6.9837e-03
 9.250	23.000	6.9838e-03
 9.250	23.250	6.9839e-03
 9.250	23.500	6.9839e-03
 9.250	23.750	6.9839e-03
 9.250	24.000	6.9839e-03
 9.500	17.000	2.8148e-05
 9.500	17.250	5.5062e-05
 9.500	17.500	1.0551e-04
 9.500	17.750	1.9926e-04
 9.500	18.000	3.7416e-04
 9.500	18.250	7.0453e-04
 9.500	18.500	1.3313e-03
 9.500	18.750	2.5035e-03
 9.500	19.000	4.2552e-03
 9.500	19.250	5.6156e-03
 9.500	19.500	6.2050e-03
 9.500	19.750	6.6179e-03
 9.500	20.000	6.8198e-03
 9.500	20.250	6.8960e-03
 9.500	20.500	6.9344e-03
 9.500	20.750	6.9607e-03
 9.500	21.000	6.9756e-03
 9.500	21.250	6.9798e-03
 9.500	21.500	6.9819e-03
 9.500	21.750	6.9828e-03
 9.500	22.000	6.9831e-03
 9.500	22.250	6.9832e-03
 9.500	22.500	6.9832e-03
 9.500	22.750	6.9833e-03
 9.500	23.000	6.9833e-03
 9.500	23.250	6.9833e-03
 9.500	23.500	6.9833e-03
 9.500	23.750	6.9833e-03
 9.500	24.000	6.9833e-03
 9.750	17.000	1.4074e-05
 9.750	17.250	2.8477e-05
 9.750	17.500	5.6132e-05
 9.750	17.750	1.0831e-04
 9.750	18.000	2.0477e-04
 9.750	18.250	3.8535e-04
 9.750	18.500	7.3152e-04
 9.750	18.750	1.4030e-03
 9.750	19.000	2.6199e-03
 9.750	19.250	4.2981e-03
 9.750	19.500	5.6255e-03
 9.750	19.750	6.2067e-03
 9.750	20.000	6.6194e-03
 9.750	20.250	6.8215e-03
 9.750	20.500	6.8969e-03
 9.750	20.750	6.9347e-03
 9.750	21.000	6.9611e-03
 9.750	21.250	6.9758e-03
 9.750	21.500	6.9798e-03
 9.750	21.750	6.9819e-03
 9.750	22.000	6.9828e-03
 9.750	22.250	6.9831e-03
 9.750	22.500	6.9832e-03
 9.750	22.750	6.9833e-03
 9.750	23.000	6.9833e-03
 9.750	23.250	6.9833e-03
 9.750	23.500	6.9833e-03
 9.750	23.750	6.9833e-03
 9.750	24.000	6.9833e-03
10.000	17.000	6.5844e-06
10.000	17.250	1.4239e-05
10.000	17.500	2.9218e-05
10.000	17.750	5.8189e-05
10.000	18.000	1.1276e-04
10.000	18.250	2.1399e-04
10.000	18.500	4.0658e-04
10.000	18.750	7.8510e-04
10.000	19.000	1.5258e-03
10.000	19.250	2.8091e-03
10.000	19.500	4.3964e-03
10.000	19.750	5.6532e-03
10.000	20.000	6.2131e-03
10.000	20.250	6.6211e-03
10.000	20.500	6.8238e-03
10.000	20.750	6.8983e-03
10.000	21.000	6.9354e-03
10.000	21.250	6.9616e-03
10.000	21.500	6.9759e-03
10.000	21.750	6.9799e-03
10.000	22.000	6.9820e-03
10.000	22.250	6.9829e-03
10.000	22.500	6.9831e-03
10.000	22.750	6.9832e-03
10.000	23.000	6.9833e-03
10.000	23.250	6.9833e-03
10.000	23.500	6.9833e-03
10.000	23.750	6.9833e-03
10.000	24.000	6.9833e-03
10.250	17.000	3.2099e-06
10.250	17.250	6.6667e-06
10.250	17.500	1.4815e-05
10.250	17.750	3.0617e-05
10.250	18.000	6.1317e-05
10.250	18.250	1.1992e-04
10.250	18.500	2.3004e-04
10.250	18.750	4.4609e-04
10.250	19.000	8.7103e-04
10.250	19.250	1.6874e-03
10.250	19.500	3.0216e-03
10.250	19.750	4.5436e-03
10.250	20.000	5.7007e-03
10.250	20.250	6.2271e-03
10.250	20.500	6.6242e-03
10.250	20.750	6.8261e-03
10.250	21.000	6.8995e-03
10.250	21.250	6.9360e-03
10.250	21.500	6.9620e-03
10.250	21.750	6.9760e-03
10.250	22.000	6.9799e-03
10.250	22.250	6.9821e-03
10.250	22.500	6.9830e-03
10.250	22.750	6.9831e-03
10.250	23.000	6.9832e-03
10.250	23.250	6.9833e-03
10.250	23.500	6.9833e-03
10.250	23.750	6.9833e-03
10.250	24.000	6.9833e-03
10.500	17.000	1.5638e-06
10.500	17.250	3.2099e-06
10.500	17.500	6.9959e-06
10.500	17.750	1.5720e-05
10.500	18.000	3.2675e-05
10.500	18.250	6.6091e-05
10.500	18.500	1.3062e-04
10.500	18.750	2.5465e-04
10.500	19.000	4.9638e-04
10.500	19.250	9.7185e-04
10.500	19.500	1.8370e-03
10.500	19.750	3.2224e-03
10.500	20.000	4.6987e-03
10.500	20.250	5.7817e-03
10.500	20.500	6.2560e-03
10.500	20.750	6.6304e-03
10.500	21.000	6.8281e-03
10.500	21.250	6.9007e-03
10.500	21.500	6.9367e-03
10.500	21.750	6.9623e-03
10.500	22.000	6.9764e-03
10.500	22.250	6.9800e-03
10.500	22.500	6.9821e-03
10.500	22.750	6.9830e-03
10.500	23.000	6.9832e-03
10.500	23.250	6.9832e-03
10.500	23.500	6.9833e-03
10.500	23.750	6.9833e-03
10.500	24.000	6.9833e-03
10.750	17.000	8.2305e-07
10.750	17.250	1.6461e-06
10.750	17.500	3.4568e-06
10.750	17.750	7.6543e-06
10.750	18.000	1.7037e-05
10.750	18.250	3.5967e-05
10.750	18.500	7.3004e-05
10.750	18.750	1.4469e-04
10.750	19.000	2.8255e-04
10.750	19.250	5.5136e-04
10.750	19.500	1.0793e-03
10.750	19.750	2.0151e-03
10.750	20.000	3.4224e-03
10.750	20.250	4.8423e-03
10.750	20.500	5.8793e-03
10.750	20.750	6.3092e-03
10.750	21.000	6.6416e-03
10.750	21.250	6.8307e-03
10.750	21.500	6.9020e-03
10.750	21.750	6.9374e-03
10.750	22.000	6.9626e-03
10.750	22.250	6.9765e-03
10.750	22.500	6.9802e-03
10.750	22.750	6.9821e-03
10.750	23.000	6.9831e-03
10.750	23.250	6.9833e-03
10.750	23.500	6.9833e-03
10.750	23.750	6.9833e-03
10.750	24.000	6.9833e-03
11.000	17.000	1.0000e-07
11.000	17.250	9.0535e-07
11.000	17.500	1.7284e-06
11.000	17.750	3.7860e-06
11.000	18.000	8.4774e-06
11.000	18.250	1.8683e-05
11.000	18.500	3.9671e-05
11.000	18.750	8.0823e-05
11.000	19.000	1.5967e-04
11.000	19.250	3.1226e-04
11.000	19.500	6.1021e-04
11.000	19.750	1.1909e-03
11.000	20.000	2.1998e-03
11.000	20.250	3.5819e-03
11.000	20.500	4.9925e-03
11.000	20.750	6.0030e-03
11.000	21.000	6.3605e-03
11.000	21.250	6.6622e-03
11.000	21.500	6.8343e-03
11.000	21.750	6.9035e-03
11.000	22.000	6.9383e-03
11.000	22.250	6.9631e-03
11.000	22.500	6.9767e-03
11.000	22.750	6.9804e-03
11.000	23.000	6.9823e-03
11.000	23.250	6.9831e-03
11.000	23.500	6.9834e-03
11.000	23.750	6.9834e-03
11.000	24.000	6.9834e-03
11.250	17.000	1.0000e-07
11.250	17.250	1.0000e-07
11.250	17.500	9.0535e-07
11.250	17.750	1.8930e-06
11.250	18.000	4.1152e-06
11.250	18.250	9.3004e-06
11.250	18.500	2.0576e-05
11.250	18.750	4.3704e-05
11.250	19.000	8.8724e-05
11.250	19.250	1.7572e-04
11.250	19.500	3.4403e-04
11.250	19.750	6.7325e-04
11.250	20.000	1.3084e-03
11.250	20.250	2.3949e-03
11.250	20.500	3.8030e-03
11.250	20.750	5.1467e-03
11.250	21.000	6.0957e-03
11.250	21.250	6.4269e-03
11.250	21.500	6.6863e-03
11.250	21.750	6.8398e-03
11.250	22.000	6.9058e-03
11.250	22.250	6.9394e-03
11.250	22.500	6.9637e-03
11.250	22.750	6.9769e-03
11.250	23.000	6.9806e-03
11.250	23.250	6.9825e-03
11.250	23.500	6.9831e-03
11.250	23.750	6.9834e-03
11.250	24.000	6.9835e-03
11.500	17.000	1.0000e-07
11.500	17.250	1.0000e-07
11.500	17.500	1.0000e-07
11.500	17.750	9.8765e-07
11.500	18.000	2.0576e-06
11.500	18.250	4.4444e-06
11.500	18.500	1.0206e-05
11.500	18.750	2.2634e-05
11.500	19.000	4.7984e-05
11.500	19.250	9.7037e-05
11.500	19.500	1.9226e-04
11.500	19.750	3.7827e-04
11.500	20.000	7.4066e-04
11.500	20.250	1.4277e-03
11.500	20.500	2.5903e-03
11.500	20.750	4.0022e-03
11.500	21.000	5.3224e-03
11.500	21.250	6.1956e-03
11.500	21.500	6.4835e-03
11.500	21.750	6.7143e-03
11.500	22.000	6.8476e-03
11.500	22.250	6.9087e-03
11.500	22.500	6.9411e-03
11.500	22.750	6.9644e-03
11.500	23.000	6.9772e-03
11.500	23.250	6.9807e-03
11.500	23.500	6.9826e-03
11.500	23.750	6.9832e-03
11.500	24.000	6.9835e-03
11.750	17.000	1.0000e-07
11.750	17.250	1.0000e-07
11.750	17.500	1.0000e-07
11.750	17.750	1.0000e-07
11.750	18.000	1.0700e-06
11.750	18.250	2.2222e-06
11.750	18.500	4.8560e-06
11.750	18.750	1.1276e-05
11.750	19.000	2.5021e-05
11.750	19.250	5.2757e-05
11.750	19.500	1.0617e-04
11.750	19.750	2.0996e-04
11.750	20.000	4.1259e-04
11.750	20.250	8.0930e-04
11.750	20.500	1.5508e-03
11.750	20.750	2.7905e-03
11.750	21.000	4.2369e-03
11.750	21.250	5.5621e-03
11.750	21.500	6.2665e-03
11.750	21.750	6.5433e-03
11.750	22.000	6.7408e-03
11.750	22.250	6.8569e-03
11.750	22.500	6.9128e-03
11.750	22.750	6.9435e-03
11.750	23.000	6.9655e-03
11.750	23.250	6.9775e-03
11.750	23.500	6.9808e-03
11.750	23.750	6.9826e-03
11.750	24.000	6.9835e-03
12.000	17.000	1.0000e-07
12.000	17.250	1.0000e-07
12.000	17.500	1.0000e-07
12.000	17.750	1.0000e-07
12.000	18.000	1.0000e-07
12.000	18.250	1.1523e-06
12.000	18.500	2.3868e-06
12.000	18.750	5.5144e-06
12.000	19.000	1.2675e-05
12.000	19.250	2.7901e-05
12.000	19.500	5.8025e-05
12.000	19.750	1.1564e-04
12.000	20.000	2.2798e-04
12.000	20.250	4.4749e-04
12.000	20.500	8.7646e-04
12.000	20.750	1.6828e-03
12.000	21.000	3.0271e-03
12.000	21.250	4.5711e-03
12.000	21.500	5.8491e-03
12.000	21.750	6.3464e-03
12.000	22.000	6.5927e-03
12.000	22.250	6.7639e-03
12.000	22.500	6.8661e-03
12.000	22.750	6.9177e-03
12.000	23.000	6.9463e-03
12.000	23.250	6.9669e-03
12.000	23.500	6.9779e-03
12.000	23.750	6.9810e-03
12.000	24.000	6.9827e-03
12.250	17.000	1.0000e-07
12.250	17.250	1.0000e-07
12.250	17.500	1.0000e-07
12.250	17.750	1.0000e-07
12.250	18.000	1.0000e-07
12.250	18.250	1.0000e-07
12.250	18.500	1.2346e-06
12.250	18.750	2.7160e-06
12.250	19.000	6.2551e-06
12.250	19.250	1.4403e-05
12.250	19.500	3.1111e-05
12.250	19.750	6.3704e-05
12.250	20.000	1.2576e-04
12.250	20.250	2.4642e-04
12.250	20.500	4.8313e-04
12.250	20.750	9.4790e-04
12.250	21.000	1.8503e-03
12.250	21.250	3.3379e-03
12.250	21.500	4.9513e-03
12.250	21.750	6.0943e-03
12.250	22.000	6.4089e-03
12.250	22.250	6.6310e-03
12.250	22.500	6.7830e-03
12.250	22.750	6.8746e-03
12.250	23.000	6.9226e-03
12.250	23.250	6.9494e-03
12.250	23.500	6.9686e-03
12.250	23.750	6.9785e-03
12.250	24.000	6.9812e-03
12.500	17.000	1.0000e-07
12.500	17.250	1.0000e-07
12.500	17.500	1.0000e-07
12.500	17.750	1.0000e-07
12.500	18.000	1.0000e-07
12.500	18.250	1.0000e-07
12.500	18.500	1.0000e-07
12.500	18.750	1.4815e-06
12.500	19.000	3.2099e-06
12.500	19.250	7.3251e-06
12.500	19.500	1.6296e-05
12.500	19.750	3.4403e-05
12.500	20.000	6.9300e-05
12.500	20.250	1.3547e-04
12.500	20.500	2.6486e-04
12.500	20.750	5.2280e-04
12.500	21.000	1.0451e-03
12.500	21.250	2.0786e-03
12.500	21.500	3.7081e-03
12.500	21.750	5.3167e-03
12.500	22.000	6.2138e-03
12.500	22.250	6.4609e-03
12.500	22.500	6.6640e-03
12.500	22.750	6.8026e-03
12.500	23.000	6.8819e-03
12.500	23.250	6.9267e-03
12.500	23.500	6.9523e-03
12.500	23.750	6.9701e-03
12.500	24.000	6.9790e-03
12.750	17.000	1.0000e-07
12.750	17.250	1.0000e-07
12.750	17.500	1.0000e-07
12.750	17.750	1.0000e-07
12.750	18.000	1.0000e-07
12.750	18.250	1.0000e-07
12.750	18.500	1.0000e-07
12.750	18.750	8.2305e-07
12.750	19.000	1.7284e-06
12.750	19.250	3.7037e-06
12.750	19.500	8.3128e-06
12.750	19.750	1.8025e-05
12.750	20.000	3.7284e-05
12.750	20.250	7.4403e-05
12.750	20.500	1.4510e-04
12.750	20.750	2.8584e-04
12.750	21.000	5.7737e-04
12.750	21.250	1.1709e-03
12.750	21.500	2.3291e-03
12.750	21.750	4.1081e-03
12.750	22.000	5.6202e-03
12.750	22.250	6.2710e-03
12.750	22.500	6.5046e-03
12.750	22.750	6.6930e-03
12.750	23.000	6.8157e-03
12.750	23.250	6.8881e-03
12.750	23.500	6.9302e-03
12.750	23.750	6.9548e-03
12.750	24.000	6.9715e-03
13.000	17.000	1.0000e-07
13.000	17.250	1.0000e-07
13.000	17.500	1.0000e-07
13.000	17.750	1.0000e-07
13.000	18.000	1.0000e-07
13.000	18.250	1.0000e-07
13.000	18.500	1.0000e-07
13.000	18.750	1.0000e-07
13.000	19.000	9.8765e-07
13.000	19.250	1.9753e-06
13.000	19.500	4.2798e-06
13.000	19.750	9.2181e-06
13.000	20.000	1.9424e-05
13.000	20.250	3.9506e-05
13.000	20.500	7.9177e-05
13.000	20.750	1.5514e-04
13.000	21.000	3.0881e-04
13.000	21.250	6.3811e-04
13.000	21.500	1.2976e-03
13.000	21.750	2.6201e-03
13.000	22.000	4.3952e-03
13.000	22.250	5.8131e-03
13.000	22.500	6.3202e-03
13.000	22.750	6.5398e-03
13.000	23.000	6.7114e-03
13.000	23.250	6.8258e-03
13.000	23.500	6.8929e-03
13.000	23.750	6.9330e-03
13.000	24.000	6.9568e-03
13.250	17.000	1.0000e-07
13.250	17.250	1.0000e-07
13.250	17.500	1.0000e-07
13.250	17.750	1.0000e-07
13.250	18.000	1.0000e-07
13.250	18.250	1.0000e-07
13.250	18.500	1.0000e-07
13.250	18.750	1.0000e-07
13.250	19.000	1.0000e-07
13.250	19.250	1.1523e-06
13.250	19.500	2.3045e-06
13.250	19.750	4.7737e-06
13.250	20.000	9.9588e-06
13.250	20.250	2.0329e-05
13.250	20.500	4.1070e-05
13.250	20.750	8.2222e-05
13.250	21.000	1.6453e-04
13.250	21.250	3.3210e-04
13.250	21.500	6.7374e-04
13.250	21.750	1.3636e-03
13.250	22.000	2.7584e-03
13.250	22.250	4.5798e-03
13.250	22.500	5.9053e-03
13.250	22.750	6.3612e-03
13.250	23.000	6.5679e-03
13.250	23.250	6.7223e-03
13.250	23.500	6.8311e-03
13.250	23.750	6.8972e-03
13.250	24.000	6.9353e-03
13.500	17.000	1.0000e-07
13.500	17.250	1.0000e-07
13.500	17.500	1.0000e-07
13.500	17.750	1.0000e-07
13.500	18.000	1.0000e-07
13.500	18.250	1.0000e-07
13.500	18.500	1.0000e-07
13.500	18.750	1.0000e-07
13.500	19.000	1.0000e-07
13.500	19.250	1.0000e-07
13.500	19.500	1.3169e-06
13.500	19.750	2.6337e-06
13.500	20.000	5.2675e-06
13.500	20.250	1.0617e-05
13.500	20.500	2.1152e-05
13.500	20.750	4.1975e-05
13.500	21.000	8.2469e-05
13.500	21.250	1.6683e-04
13.500	21.500	3.2905e-04
13.500	21.750	6.6436e-04
13.500	22.000	1.3523e-03
13.500	22.250	2.8053e-03
13.500	22.500	4.6210e-03
13.500	22.750	5.9441e-03
13.500	23.000	6.3964e-03
13.500	23.250	6.5911e-03
13.500	23.500	6.7388e-03
13.500	23.750	6.8398e-03
13.500	24.000	6.9007e-03
13.750	17.000	1.0000e-07
13.750	17.250	1.0000e-07
13.750	17.500	1.0000e-07
13.750	17.750	1.0000e-07
13.750	18.000	1.0000e-07
13.750	18.250	1.0000e-07
13.750	18.500	1.0000e-07
13.750	18.750	1.0000e-07
13.750	19.000	1.0000e-07
13.750	19.250	1.0000e-07
13.750	19.500	1.0000e-07
13.750	19.750	1.4815e-06
13.750	20.000	2.8807e-06
13.750	20.250	5.6790e-06
13.750	20.500	1.1276e-05
13.750	20.750	2.1975e-05
13.750	21.000	4.2716e-05
13.750	21.250	8.2387e-05
13.750	21.500	1.6156e-04
13.750	21.750	3.2173e-04
13.750	22.000	6.4617e-04
13.750	22.250	1.3478e-03
13.750	22.500	2.7809e-03
13.750	22.750	4.6694e-03
13.750	23.000	6.0021e-03
13.750	23.250	6.4275e-03
13.750	23.500	6.6106e-03
13.750	23.750	6.7509e-03
13.750	24.000	6.8467e-03
14.000	17.000	1.0000e-07
14.000	17.250	1.0000e-07
14.000	17.500	1.0000e-07
14.000	17.750	1.0000e-07
14.000	18.000	1.0000e-07
14.000	18.250	1.0000e-07
14.000	18.500	1.0000e-07
14.000	18.750	1.0000e-07
14.000	19.000	1.0000e-07
14.000	19.250	1.0000e-07
14.000	19.500	1.0000e-07
14.000	19.750	9.0535e-07
14.000	20.000	1.6461e-06
14.000	20.250	3.2099e-06
14.000	20.500	6.1728e-06
14.000	20.750	1.1934e-05
14.000	21.000	2.2881e-05
14.000	21.250	4.3786e-05
14.000	21.500	8.3210e-05
14.000	21.750	1.6066e-04
14.000	22.000	3.1597e-04
14.000	22.250	6.4593e-04
14.000	22.500	1.3628e-03
14.000	22.750	2.8151e-03
14.000	23.000	4.7430e-03
14.000	23.250	6.0863e-03
14.000	23.500	6.4590e-03
14.000	23.750	6.6302e-03
14.000	24.000	6.7645e-03
