InwT 1.48022m  relative to Inci 1215.00A scaled to 1215A.
Hden   Phi(H)  Eq_Width (A)
7.000  17.000  5.9591e-03
7.000  17.250  3.4726e-03
7.000  17.500  2.1562e-03
7.000  17.750  1.4741e-03
7.000  18.000  1.1388e-03
7.000  18.250  9.5514e-04
7.000  18.500  8.5111e-04
7.000  18.750  8.0683e-04
7.000  19.000  7.8428e-04
7.000  19.250  7.7202e-04
7.000  19.500  7.6442e-04
7.000  19.750  7.5972e-04
7.000  20.000  7.5738e-04
7.000  20.250  7.5690e-04
7.000  20.500  7.5775e-04
7.000  20.750  7.5940e-04
7.000  21.000  7.6133e-04
7.000  21.250  7.6302e-04
7.000  21.500  7.6395e-04
7.000  21.750  7.6395e-04
7.000  22.000  7.6395e-04
7.000  22.250  7.6395e-04
7.000  22.500  7.6395e-04
7.000  22.750  7.6403e-04
7.000  23.000  7.6403e-04
7.000  23.250  7.6395e-04
7.000  23.500  7.6403e-04
7.000  23.750  7.6403e-04
7.000  24.000  7.6403e-04
7.250  17.000  9.6212e-03
7.250  17.250  5.9537e-03
7.250  17.500  3.4703e-03
7.250  17.750  2.1547e-03
7.250  18.000  1.4736e-03
7.250  18.250  1.1388e-03
7.250  18.500  9.5514e-04
7.250  18.750  8.5111e-04
7.250  19.000  8.0683e-04
7.250  19.250  7.8428e-04
7.250  19.500  7.7202e-04
7.250  19.750  7.6733e-04
7.250  20.000  7.6543e-04
7.250  20.250  7.6469e-04
7.250  20.500  7.6436e-04
7.250  20.750  7.6412e-04
7.250  21.000  7.6403e-04
7.250  21.250  7.6403e-04
7.250  21.500  7.6403e-04
7.250  21.750  7.6395e-04
7.250  22.000  7.6395e-04
7.250  22.250  7.6395e-04
7.250  22.500  7.6395e-04
7.250  22.750  7.6395e-04
7.250  23.000  7.6395e-04
7.250  23.250  7.6395e-04
7.250  23.500  7.6395e-04
7.250  23.750  7.6395e-04
7.250  24.000  7.6395e-04
7.500  17.000  1.4959e-02
7.500  17.250  9.6110e-03
7.500  17.500  5.9495e-03
7.500  17.750  3.4684e-03
7.500  18.000  2.1530e-03
7.500  18.250  1.4729e-03
7.500  18.500  1.1386e-03
7.500  18.750  9.5506e-04
7.500  19.000  8.5111e-04
7.500  19.250  8.0683e-04
7.500  19.500  7.8428e-04
7.500  19.750  7.7202e-04
7.500  20.000  7.6733e-04
7.500  20.250  7.6512e-04
7.500  20.500  7.6396e-04
7.500  20.750  7.6355e-04
7.500  21.000  7.6362e-04
7.500  21.250  7.6387e-04
7.500  21.500  7.6403e-04
7.500  21.750  7.6395e-04
7.500  22.000  7.6395e-04
7.500  22.250  7.6395e-04
7.500  22.500  7.6395e-04
7.500  22.750  7.6395e-04
7.500  23.000  7.6395e-04
7.500  23.250  7.6395e-04
7.500  23.500  7.6403e-04
7.500  23.750  7.6395e-04
7.500  24.000  7.6395e-04
7.750  17.000  1.6343e-02
7.750  17.250  1.4995e-02
7.750  17.500  9.6037e-03
7.750  17.750  5.9469e-03
7.750  18.000  3.4667e-03
7.750  18.250  2.1512e-03
7.750  18.500  1.4721e-03
7.750  18.750  1.1384e-03
7.750  19.000  9.5506e-04
7.750  19.250  8.5111e-04
7.750  19.500  8.0683e-04
7.750  19.750  7.8428e-04
7.750  20.000  7.7202e-04
7.750  20.250  7.6733e-04
7.750  20.500  7.6543e-04
7.750  20.750  7.6469e-04
7.750  21.000  7.6436e-04
7.750  21.250  7.6412e-04
7.750  21.500  7.6403e-04
7.750  21.750  7.6403e-04
7.750  22.000  7.6395e-04
7.750  22.250  7.6395e-04
7.750  22.500  7.6395e-04
7.750  22.750  7.6395e-04
7.750  23.000  7.6395e-04
7.750  23.250  7.6395e-04
7.750  23.500  7.6395e-04
7.750  23.750  7.6395e-04
7.750  24.000  7.6395e-04
8.000  17.000  1.7054e-02
8.000  17.250  1.6219e-02
8.000  17.500  1.4856e-02
8.000  17.750  9.5888e-03
8.000  18.000  5.9450e-03
8.000  18.250  3.4655e-03
8.000  18.500  2.1491e-03
8.000  18.750  1.4711e-03
8.000  19.000  1.1380e-03
8.000  19.250  9.5498e-04
8.000  19.500  8.5111e-04
8.000  19.750  8.0683e-04
8.000  20.000  7.8428e-04
8.000  20.250  7.7202e-04
8.000  20.500  7.6733e-04
8.000  20.750  7.6543e-04
8.000  21.000  7.6469e-04
8.000  21.250  7.6436e-04
8.000  21.500  7.6412e-04
8.000  21.750  7.6403e-04
8.000  22.000  7.6403e-04
8.000  22.250  7.6395e-04
8.000  22.500  7.6395e-04
8.000  22.750  7.6395e-04
8.000  23.000  7.6395e-04
8.000  23.250  7.6395e-04
8.000  23.500  7.6395e-04
8.000  23.750  7.6395e-04
8.000  24.000  7.6395e-04
8.250  17.000  1.7663e-02
8.250  17.250  1.7217e-02
8.250  17.500  1.6309e-02
8.250  17.750  1.4873e-02
8.250  18.000  9.5864e-03
8.250  18.250  5.9447e-03
8.250  18.500  3.4644e-03
8.250  18.750  2.1469e-03
8.250  19.000  1.4700e-03
8.250  19.250  1.1377e-03
8.250  19.500  9.5498e-04
8.250  19.750  8.5103e-04
8.250  20.000  8.0683e-04
8.250  20.250  7.8428e-04
8.250  20.500  7.7202e-04
8.250  20.750  7.6733e-04
8.250  21.000  7.6543e-04
8.250  21.250  7.6469e-04
8.250  21.500  7.6436e-04
8.250  21.750  7.6412e-04
8.250  22.000  7.6403e-04
8.250  22.250  7.6403e-04
8.250  22.500  7.6395e-04
8.250  22.750  7.6403e-04
8.250  23.000  7.6395e-04
8.250  23.250  7.6395e-04
8.250  23.500  7.6403e-04
8.250  23.750  7.6395e-04
8.250  24.000  7.6395e-04
8.500  17.000  1.8118e-02
8.500  17.250  1.7881e-02
8.500  17.500  1.7421e-02
8.500  17.750  1.6430e-02
8.500  18.000  1.4904e-02
8.500  18.250  9.5857e-03
8.500  18.500  5.9453e-03
8.500  18.750  3.4634e-03
8.500  19.000  2.1444e-03
8.500  19.250  1.4687e-03
8.500  19.500  1.1374e-03
8.500  19.750  9.5490e-04
8.500  20.000  8.5103e-04
8.500  20.250  8.0683e-04
8.500  20.500  7.8428e-04
8.500  20.750  7.7202e-04
8.500  21.000  7.6733e-04
8.500  21.250  7.6543e-04
8.500  21.500  7.6469e-04
8.500  21.750  7.6436e-04
8.500  22.000  7.6412e-04
8.500  22.250  7.6403e-04
8.500  22.500  7.6403e-04
8.500  22.750  7.6395e-04
8.500  23.000  7.6395e-04
8.500  23.250  7.6395e-04
8.500  23.500  7.6395e-04
8.500  23.750  7.6395e-04
8.500  24.000  7.6395e-04
8.750  17.000  1.8433e-02
8.750  17.250  1.8393e-02
8.750  17.500  1.8203e-02
8.750  17.750  1.7761e-02
8.750  18.000  1.6682e-02
8.750  18.250  1.5006e-02
8.750  18.500  9.5855e-03
8.750  18.750  5.9468e-03
8.750  19.000  3.4624e-03
8.750  19.250  2.1417e-03
8.750  19.500  1.4673e-03
8.750  19.750  1.1370e-03
8.750  20.000  9.5481e-04
8.750  20.250  8.5103e-04
8.750  20.500  8.0683e-04
8.750  20.750  7.8428e-04
8.750  21.000  7.7202e-04
8.750  21.250  7.6733e-04
8.750  21.500  7.6543e-04
8.750  21.750  7.6469e-04
8.750  22.000  7.6436e-04
8.750  22.250  7.6412e-04
8.750  22.500  7.6403e-04
8.750  22.750  7.6403e-04
8.750  23.000  7.6395e-04
8.750  23.250  7.6395e-04
8.750  23.500  7.6395e-04
8.750  23.750  7.6395e-04
8.750  24.000  7.6395e-04
9.000  17.000  1.8594e-02
9.000  17.250  1.8775e-02
9.000  17.500  1.8859e-02
9.000  17.750  1.8814e-02
9.000  18.000  1.8407e-02
9.000  18.250  1.7227e-02
9.000  18.500  1.5215e-02
9.000  18.750  9.5847e-03
9.000  19.000  5.9491e-03
9.000  19.250  3.4620e-03
9.000  19.500  2.1390e-03
9.000  19.750  1.4658e-03
9.000  20.000  1.1365e-03
9.000  20.250  9.5473e-04
9.000  20.500  8.5103e-04
9.000  20.750  8.0683e-04
9.000  21.000  7.8428e-04
9.000  21.250  7.7202e-04
9.000  21.500  7.6733e-04
9.000  21.750  7.6543e-04
9.000  22.000  7.6469e-04
9.000  22.250  7.6436e-04
9.000  22.500  7.6412e-04
9.000  22.750  7.6403e-04
9.000  23.000  7.6403e-04
9.000  23.250  7.6395e-04
9.000  23.500  7.6395e-04
9.000  23.750  7.6395e-04
9.000  24.000  7.6395e-04
9.250  17.000  1.8590e-02
9.250  17.250  1.9002e-02
9.250  17.500  1.9424e-02
9.250  17.750  1.9843e-02
9.250  18.000  2.0080e-02
9.250  18.250  1.9777e-02
9.250  18.500  1.8395e-02
9.250  18.750  1.5734e-02
9.250  19.000  9.5816e-03
9.250  19.250  5.9521e-03
9.250  19.500  3.4621e-03
9.250  19.750  2.1365e-03
9.250  20.000  1.4644e-03
9.250  20.250  1.1362e-03
9.250  20.500  9.5465e-04
9.250  20.750  8.5095e-04
9.250  21.000  8.0683e-04
9.250  21.250  7.8428e-04
9.250  21.500  7.7193e-04
9.250  21.750  7.6724e-04
9.250  22.000  7.6535e-04
9.250  22.250  7.6461e-04
9.250  22.500  7.6428e-04
9.250  22.750  7.6412e-04
9.250  23.000  7.6403e-04
9.250  23.250  7.6403e-04
9.250  23.500  7.6395e-04
9.250  23.750  7.6395e-04
9.250  24.000  7.6395e-04
9.500  17.000  1.8468e-02
9.500  17.250  1.9132e-02
9.500  17.500  1.9903e-02
9.500  17.750  2.0862e-02
9.500  18.000  2.1880e-02
9.500  18.250  2.2672e-02
9.500  18.500  2.2456e-02
9.500  18.750  2.0668e-02
9.500  19.000  1.5771e-02
9.500  19.250  9.5751e-03
9.500  19.500  5.9553e-03
9.500  19.750  3.4630e-03
9.500  20.000  2.1347e-03
9.500  20.250  1.4632e-03
9.500  20.500  1.1359e-03
9.500  20.750  9.5457e-04
9.500  21.000  8.5086e-04
9.500  21.250  8.0675e-04
9.500  21.500  7.8420e-04
9.500  21.750  7.7193e-04
9.500  22.000  7.6716e-04
9.500  22.250  7.6535e-04
9.500  22.500  7.6453e-04
9.500  22.750  7.6420e-04
9.500  23.000  7.6403e-04
9.500  23.250  7.6395e-04
9.500  23.500  7.6387e-04
9.500  23.750  7.6387e-04
9.500  24.000  7.6387e-04
9.750  17.000  1.8183e-02
9.750  17.250  1.9105e-02
9.750  17.500  2.0276e-02
9.750  17.750  2.1883e-02
9.750  18.000  2.3995e-02
9.750  18.250  2.6021e-02
9.750  18.500  2.7091e-02
9.750  18.750  2.6332e-02
9.750  19.000  2.3828e-02
9.750  19.250  1.5803e-02
9.750  19.500  9.5665e-03
9.750  19.750  5.9585e-03
9.750  20.000  3.4644e-03
9.750  20.250  2.1337e-03
9.750  20.500  1.4623e-03
9.750  20.750  1.1356e-03
9.750  21.000  9.5449e-04
9.750  21.250  8.5086e-04
9.750  21.500  8.0675e-04
9.750  21.750  7.8420e-04
9.750  22.000  7.7193e-04
9.750  22.250  7.6716e-04
9.750  22.500  7.6535e-04
9.750  22.750  7.6453e-04
9.750  23.000  7.6420e-04
9.750  23.250  7.6403e-04
9.750  23.500  7.6395e-04
9.750  23.750  7.6387e-04
9.750  24.000  7.6387e-04
10.000  17.000  1.7704e-02
10.000  17.250  1.8990e-02
10.000  17.500  2.0632e-02
10.000  17.750  2.3023e-02
10.000  18.000  2.6438e-02
10.000  18.250  2.9804e-02
10.000  18.500  3.2138e-02
10.000  18.750  3.2613e-02
10.000  19.000  3.1083e-02
10.000  19.250  2.5736e-02
10.000  19.500  1.5811e-02
10.000  19.750  9.5463e-03
10.000  20.000  5.9596e-03
10.000  20.250  3.4662e-03
10.000  20.500  2.1333e-03
10.000  20.750  1.4615e-03
10.000  21.000  1.1355e-03
10.000  21.250  9.5449e-04
10.000  21.500  8.5086e-04
10.000  21.750  8.0675e-04
10.000  22.000  7.8420e-04
10.000  22.250  7.7193e-04
10.000  22.500  7.6716e-04
10.000  22.750  7.6535e-04
10.000  23.000  7.6453e-04
10.000  23.250  7.6420e-04
10.000  23.500  7.6403e-04
10.000  23.750  7.6395e-04
10.000  24.000  7.6387e-04
10.250  17.000  1.7309e-02
10.250  17.250  1.8799e-02
10.250  17.500  2.1096e-02
10.250  17.750  2.4510e-02
10.250  18.000  2.9239e-02
10.250  18.250  3.3896e-02
10.250  18.500  3.7343e-02
10.250  18.750  3.9132e-02
10.250  19.000  3.8754e-02
10.250  19.250  3.6238e-02
10.250  19.500  2.7109e-02
10.250  19.750  1.5791e-02
10.250  20.000  9.5265e-03
10.250  20.250  5.9587e-03
10.250  20.500  3.4678e-03
10.250  20.750  2.1333e-03
10.250  21.000  1.4611e-03
10.250  21.250  1.1354e-03
10.250  21.500  9.5440e-04
10.250  21.750  8.5086e-04
10.250  22.000  8.0675e-04
10.250  22.250  7.8420e-04
10.250  22.500  7.7193e-04
10.250  22.750  7.6724e-04
10.250  23.000  7.6535e-04
10.250  23.250  7.6453e-04
10.250  23.500  7.6420e-04
10.250  23.750  7.6403e-04
10.250  24.000  7.6395e-04
10.500  17.000  1.7113e-02
10.500  17.250  1.8865e-02
10.500  17.500  2.1823e-02
10.500  17.750  2.6542e-02
10.500  18.000  3.2497e-02
10.500  18.250  3.8297e-02
10.500  18.500  4.2504e-02
10.500  18.750  4.5189e-02
10.500  19.000  4.6019e-02
10.500  19.250  4.4664e-02
10.500  19.500  4.0577e-02
10.500  19.750  2.7062e-02
10.500  20.000  1.5720e-02
10.500  20.250  9.4858e-03
10.500  20.500  5.9483e-03
10.500  20.750  3.4683e-03
10.500  21.000  2.1338e-03
10.500  21.250  1.4608e-03
10.500  21.500  1.1355e-03
10.500  21.750  9.5440e-04
10.500  22.000  8.5078e-04
10.500  22.250  8.0675e-04
10.500  22.500  7.8420e-04
10.500  22.750  7.7193e-04
10.500  23.000  7.6724e-04
10.500  23.250  7.6535e-04
10.500  23.500  7.6453e-04
10.500  23.750  7.6420e-04
10.500  24.000  7.6403e-04
10.750  17.000  1.7169e-02
10.750  17.250  1.9234e-02
10.750  17.500  2.3133e-02
10.750  17.750  2.9099e-02
10.750  18.000  3.6113e-02
10.750  18.250  4.2533e-02
10.750  18.500  4.7465e-02
10.750  18.750  5.0994e-02
10.750  19.000  5.2625e-02
10.750  19.250  5.2448e-02
10.750  19.500  5.0162e-02
10.750  19.750  4.4583e-02
10.750  20.000  2.7010e-02
10.750  20.250  1.5559e-02
10.750  20.500  9.4188e-03
10.750  20.750  5.9264e-03
10.750  21.000  3.4660e-03
10.750  21.250  2.1345e-03
10.750  21.500  1.4610e-03
10.750  21.750  1.1357e-03
10.750  22.000  9.5440e-04
10.750  22.250  8.5078e-04
10.750  22.500  8.0675e-04
10.750  22.750  7.8428e-04
10.750  23.000  7.7193e-04
10.750  23.250  7.6724e-04
10.750  23.500  7.6535e-04
10.750  23.750  7.6453e-04
10.750  24.000  7.6420e-04
11.000  17.000  1.7492e-02
11.000  17.250  1.9902e-02
11.000  17.500  2.4811e-02
11.000  17.750  3.1976e-02
11.000  18.000  3.9658e-02
11.000  18.250  4.6552e-02
11.000  18.500  5.2199e-02
11.000  18.750  5.6312e-02
11.000  19.000  5.8739e-02
11.000  19.250  5.9523e-02
11.000  19.500  5.8578e-02
11.000  19.750  5.5675e-02
11.000  20.000  4.7556e-02
11.000  20.250  2.6789e-02
11.000  20.500  1.5485e-02
11.000  20.750  9.3563e-03
11.000  21.000  5.8898e-03
11.000  21.250  3.4576e-03
11.000  21.500  2.1352e-03
11.000  21.750  1.4613e-03
11.000  22.000  1.1360e-03
11.000  22.250  9.5449e-04
11.000  22.500  8.5070e-04
11.000  22.750  8.0675e-04
11.000  23.000  7.8428e-04
11.000  23.250  7.7193e-04
11.000  23.500  7.6724e-04
11.000  23.750  7.6535e-04
11.000  24.000  7.6461e-04
11.250  17.000  1.8102e-02
11.250  17.250  2.0763e-02
11.250  17.500  2.6533e-02
11.250  17.750  3.4666e-02
11.250  18.000  4.2961e-02
11.250  18.250  5.0216e-02
11.250  18.500  5.6170e-02
11.250  18.750  6.1037e-02
11.250  19.000  6.4141e-02
11.250  19.250  6.5907e-02
11.250  19.500  6.5990e-02
11.250  19.750  6.4403e-02
11.250  20.000  6.0907e-02
11.250  20.250  4.7952e-02
11.250  20.500  2.6646e-02
11.250  20.750  1.5329e-02
11.250  21.000  9.3045e-03
11.250  21.250  5.8351e-03
11.250  21.500  3.4430e-03
11.250  21.750  2.1347e-03
11.250  22.000  1.4618e-03
11.250  22.250  1.1363e-03
11.250  22.500  9.5449e-04
11.250  22.750  8.5070e-04
11.250  23.000  8.0675e-04
11.250  23.250  7.8428e-04
11.250  23.500  7.7193e-04
11.250  23.750  7.6724e-04
11.250  24.000  7.6535e-04
11.500  17.000  1.9098e-02
11.500  17.250  2.1868e-02
11.500  17.500  2.8121e-02
11.500  17.750  3.6880e-02
11.500  18.000  4.5717e-02
11.500  18.250  5.3293e-02
11.500  18.500  5.9704e-02
11.500  18.750  6.5091e-02
11.500  19.000  6.9031e-02
11.500  19.250  7.1404e-02
11.500  19.500  7.2159e-02
11.500  19.750  7.1701e-02
11.500  20.000  6.9741e-02
11.500  20.250  6.5906e-02
11.500  20.500  4.8006e-02
11.500  20.750  2.6427e-02
11.500  21.000  1.5222e-02
11.500  21.250  9.3133e-03
11.500  21.500  5.7740e-03
11.500  21.750  3.4171e-03
11.500  22.000  2.1319e-03
11.500  22.250  1.4622e-03
11.500  22.500  1.1365e-03
11.500  22.750  9.5457e-04
11.500  23.000  8.5053e-04
11.500  23.250  8.0675e-04
11.500  23.500  7.8428e-04
11.500  23.750  7.7202e-04
11.500  24.000  7.6724e-04
11.750  17.000  2.0580e-02
11.750  17.250  2.3217e-02
11.750  17.500  2.9547e-02
11.750  17.750  3.8550e-02
11.750  18.000  4.7700e-02
11.750  18.250  5.5752e-02
11.750  18.500  6.2729e-02
11.750  18.750  6.8496e-02
11.750  19.000  7.3179e-02
11.750  19.250  7.6185e-02
11.750  19.500  7.7749e-02
11.750  19.750  7.7781e-02
11.750  20.000  7.6837e-02
11.750  20.250  7.4531e-02
11.750  20.500  7.0360e-02
11.750  20.750  4.7681e-02
11.750  21.000  2.6207e-02
11.750  21.250  1.5194e-02
11.750  21.500  9.4685e-03
11.750  21.750  5.7002e-03
11.750  22.000  3.3824e-03
11.750  22.250  2.1258e-03
11.750  22.500  1.4625e-03
11.750  22.750  1.1367e-03
11.750  23.000  9.5449e-04
11.750  23.250  8.5045e-04
11.750  23.500  8.0667e-04
11.750  23.750  7.8428e-04
11.750  24.000  7.7202e-04
12.000  17.000  2.2723e-02
12.000  17.250  2.4893e-02
12.000  17.500  3.0793e-02
12.000  17.750  3.9527e-02
12.000  18.000  4.8842e-02
12.000  18.250  5.7518e-02
12.000  18.500  6.5170e-02
12.000  18.750  7.1702e-02
12.000  19.000  7.6921e-02
12.000  19.250  8.0498e-02
12.000  19.500  8.2568e-02
12.000  19.750  8.3118e-02
12.000  20.000  8.2596e-02
12.000  20.250  8.1129e-02
12.000  20.500  7.8460e-02
12.000  20.750  7.3505e-02
12.000  21.000  4.7114e-02
12.000  21.250  2.6102e-02
12.000  21.500  1.5387e-02
12.000  21.750  9.6751e-03
12.000  22.000  5.6172e-03
12.000  22.250  3.3523e-03
12.000  22.500  2.1155e-03
12.000  22.750  1.4621e-03
12.000  23.000  1.1365e-03
12.000  23.250  9.5432e-04
12.000  23.500  8.5021e-04
12.000  23.750  8.0658e-04
12.000  24.000  7.8428e-04
12.250  17.000  2.5686e-02
12.250  17.250  2.6980e-02
12.250  17.500  3.1887e-02
12.250  17.750  3.9845e-02
12.250  18.000  4.9164e-02
12.250  18.250  5.8544e-02
12.250  18.500  6.7171e-02
12.250  18.750  7.4516e-02
12.250  19.000  8.0224e-02
12.250  19.250  8.4187e-02
12.250  19.500  8.6612e-02
12.250  19.750  8.7661e-02
12.250  20.000  8.7353e-02
12.250  20.250  8.6305e-02
12.250  20.500  8.4551e-02
12.250  20.750  8.1708e-02
12.250  21.000  7.5214e-02
12.250  21.250  4.6371e-02
12.250  21.500  2.6277e-02
12.250  21.750  1.5593e-02
12.250  22.000  9.6616e-03
12.250  22.250  5.5296e-03
12.250  22.500  3.3098e-03
12.250  22.750  2.1008e-03
12.250  23.000  1.4603e-03
12.250  23.250  1.1357e-03
12.250  23.500  9.5391e-04
12.250  23.750  8.4988e-04
12.250  24.000  8.0642e-04
12.500  17.000  2.9165e-02
12.500  17.250  2.9362e-02
12.500  17.500  3.2928e-02
12.500  17.750  3.9782e-02
12.500  18.000  4.8953e-02
12.500  18.250  5.8825e-02
12.500  18.500  6.8388e-02
12.500  18.750  7.6609e-02
12.500  19.000  8.3072e-02
12.500  19.250  8.7362e-02
12.500  19.500  9.0006e-02
12.500  19.750  9.1355e-02
12.500  20.000  9.1479e-02
12.500  20.250  9.0584e-02
12.500  20.500  8.9136e-02
12.500  20.750  8.7163e-02
12.500  21.000  8.4186e-02
12.500  21.250  7.7505e-02
12.500  21.500  4.6126e-02
12.500  21.750  2.6186e-02
12.500  22.000  1.5841e-02
12.500  22.250  9.4510e-03
12.500  22.500  5.4310e-03
12.500  22.750  3.2529e-03
12.500  23.000  2.0813e-03
12.500  23.250  1.4565e-03
12.500  23.500  1.1339e-03
12.500  23.750  9.5292e-04
12.500  24.000  8.4930e-04
12.750  17.000  3.1478e-02
12.750  17.250  3.1153e-02
12.750  17.500  3.3827e-02
12.750  17.750  4.0027e-02
12.750  18.000  4.8667e-02
12.750  18.250  5.8615e-02
12.750  18.500  6.8599e-02
12.750  18.750  7.7745e-02
12.750  19.000  8.4954e-02
12.750  19.250  8.9909e-02
12.750  19.500  9.2668e-02
12.750  19.750  9.4218e-02
12.750  20.000  9.4646e-02
12.750  20.250  9.4322e-02
12.750  20.500  9.2690e-02
12.750  20.750  9.1267e-02
12.750  21.000  8.9223e-02
12.750  21.250  8.6299e-02
12.750  21.500  7.6593e-02
12.750  21.750  4.5001e-02
12.750  22.000  2.6086e-02
12.750  22.250  1.5936e-02
12.750  22.500  9.2164e-03
12.750  22.750  5.3148e-03
12.750  23.000  3.1953e-03
12.750  23.250  2.0568e-03
12.750  23.500  1.4495e-03
12.750  23.750  1.1304e-03
12.750  24.000  9.5103e-04
13.000  17.000  2.1753e-02
13.000  17.250  2.6632e-02
13.000  17.500  3.5397e-02
13.000  17.750  4.0916e-02
13.000  18.000  4.8732e-02
13.000  18.250  5.8264e-02
13.000  18.500  6.8347e-02
13.000  18.750  7.7793e-02
13.000  19.000  8.5674e-02
13.000  19.250  9.1381e-02
13.000  19.500  9.4776e-02
13.000  19.750  9.6424e-02
13.000  20.000  9.6965e-02
13.000  20.250  9.6865e-02
13.000  20.500  9.6161e-02
13.000  20.750  9.4780e-02
13.000  21.000  9.3137e-02
13.000  21.250  9.1163e-02
13.000  21.500  8.7986e-02
13.000  21.750  7.3467e-02
13.000  22.000  4.3704e-02
13.000  22.250  2.5708e-02
13.000  22.500  1.5680e-02
13.000  22.750  8.9330e-03
13.000  23.000  5.1571e-03
13.000  23.250  3.1398e-03
13.000  23.500  2.0253e-03
13.000  23.750  1.4378e-03
13.000  24.000  1.1238e-03
13.250  17.000  2.1225e-02
13.250  17.250  2.5480e-02
13.250  17.500  3.3924e-02
13.250  17.750  4.1873e-02
13.250  18.000  4.9260e-02
13.250  18.250  5.8164e-02
13.250  18.500  6.7942e-02
13.250  18.750  7.7391e-02
13.250  19.000  8.5579e-02
13.250  19.250  9.1697e-02
13.250  19.500  9.5748e-02
13.250  19.750  9.7953e-02
13.250  20.000  9.8869e-02
13.250  20.250  9.8997e-02
13.250  20.500  9.8519e-02
13.250  20.750  9.7524e-02
13.250  21.000  9.6400e-02
13.250  21.250  9.4271e-02
13.250  21.500  9.2441e-02
13.250  21.750  8.6686e-02
13.250  22.000  6.8956e-02
13.250  22.250  4.1261e-02
13.250  22.500  2.4862e-02
13.250  22.750  1.5034e-02
13.250  23.000  8.5888e-03
13.250  23.250  4.9950e-03
13.250  23.500  3.0581e-03
13.250  23.750  1.9864e-03
13.250  24.000  1.4195e-03
13.500  17.000  2.0666e-02
13.500  17.250  2.4835e-02
13.500  17.500  3.2157e-02
13.500  17.750  4.1024e-02
13.500  18.000  5.0452e-02
13.500  18.250  5.8474e-02
13.500  18.500  6.7541e-02
13.500  18.750  7.6808e-02
13.500  19.000  8.5152e-02
13.500  19.250  9.1851e-02
13.500  19.500  9.6275e-02
13.500  19.750  9.8890e-02
13.500  20.000  1.0033e-01
13.500  20.250  1.0109e-01
13.500  20.500  1.0054e-01
13.500  20.750  9.9502e-02
13.500  21.000  9.7996e-02
13.500  21.250  9.6225e-02
13.500  21.500  9.4138e-02
13.500  21.750  9.0570e-02
13.500  22.000  8.2599e-02
13.500  22.250  6.2351e-02
13.500  22.500  3.7953e-02
13.500  22.750  2.3298e-02
13.500  23.000  1.4137e-02
13.500  23.250  8.1819e-03
13.500  23.500  4.8004e-03
13.500  23.750  2.9441e-03
13.500  24.000  1.9356e-03
13.750  17.000  2.0243e-02
13.750  17.250  2.4187e-02
13.750  17.500  3.1021e-02
13.750  17.750  3.9697e-02
13.750  18.000  5.0430e-02
13.750  18.250  5.9114e-02
13.750  18.500  6.7954e-02
13.750  18.750  7.6510e-02
13.750  19.000  8.4709e-02
13.750  19.250  9.1705e-02
13.750  19.500  9.6881e-02
13.750  19.750  1.0011e-01
13.750  20.000  1.0190e-01
13.750  20.250  1.0275e-01
13.750  20.500  1.0285e-01
13.750  20.750  1.0190e-01
13.750  21.000  1.0023e-01
13.750  21.250  9.7821e-02
13.750  21.500  9.6208e-02
13.750  21.750  9.2927e-02
13.750  22.000  8.7523e-02
13.750  22.250  7.6525e-02
13.750  22.500  5.4713e-02
13.750  22.750  3.3915e-02
13.750  23.000  2.1171e-02
13.750  23.250  1.3096e-02
13.750  23.500  7.6672e-03
13.750  23.750  4.5539e-03
13.750  24.000  2.8139e-03
14.000  17.000  1.9842e-02
14.000  17.250  2.3432e-02
14.000  17.500  3.0043e-02
14.000  17.750  3.8030e-02
14.000  18.000  4.9403e-02
14.000  18.250  6.0507e-02
14.000  18.500  6.9260e-02
14.000  18.750  7.6980e-02
14.000  19.000  8.4652e-02
14.000  19.250  9.1787e-02
14.000  19.500  9.7529e-02
14.000  19.750  1.0164e-01
14.000  20.000  1.0395e-01
14.000  20.250  1.0500e-01
14.000  20.500  1.0531e-01
14.000  20.750  1.0470e-01
14.000  21.000  1.0315e-01
14.000  21.250  1.0083e-01
14.000  21.500  9.9013e-02
14.000  21.750  9.6007e-02
14.000  22.000  9.1611e-02
14.000  22.250  8.3416e-02
14.000  22.500  6.8274e-02
14.000  22.750  4.6686e-02
14.000  23.000  2.9932e-02
14.000  23.250  1.8928e-02
14.000  23.500  1.1911e-02
14.000  23.750  7.0426e-03
14.000  24.000  4.2371e-03
