InwC 10000.0A  relative to Inci 1215.00A scaled to 1215A.
Hden   Phi(H)  Eq_Width (A)
7.000  17.000  2.4710e-03
7.000  17.250  2.4725e-03
7.000  17.500  2.4736e-03
7.000  17.750  2.4747e-03
7.000  18.000  2.4758e-03
7.000  18.250  2.4768e-03
7.000  18.500  2.4774e-03
7.000  18.750  2.4777e-03
7.000  19.000  2.4780e-03
7.000  19.250  2.4782e-03
7.000  19.500  2.4783e-03
7.000  19.750  2.4784e-03
7.000  20.000  2.4784e-03
7.000  20.250  2.4784e-03
7.000  20.500  2.4784e-03
7.000  20.750  2.4784e-03
7.000  21.000  2.4784e-03
7.000  21.250  2.4784e-03
7.000  21.500  2.4784e-03
7.000  21.750  2.4784e-03
7.000  22.000  2.4784e-03
7.000  22.250  2.4784e-03
7.000  22.500  2.4784e-03
7.000  22.750  2.4787e-03
7.000  23.000  2.4787e-03
7.000  23.250  2.4784e-03
7.000  23.500  2.4787e-03
7.000  23.750  2.4787e-03
7.000  24.000  2.4788e-03
7.250  17.000  2.3821e-03
7.250  17.250  2.4710e-03
7.250  17.500  2.4725e-03
7.250  17.750  2.4736e-03
7.250  18.000  2.4747e-03
7.250  18.250  2.4758e-03
7.250  18.500  2.4768e-03
7.250  18.750  2.4774e-03
7.250  19.000  2.4777e-03
7.250  19.250  2.4780e-03
7.250  19.500  2.4782e-03
7.250  19.750  2.4783e-03
7.250  20.000  2.4784e-03
7.250  20.250  2.4784e-03
7.250  20.500  2.4784e-03
7.250  20.750  2.4784e-03
7.250  21.000  2.4784e-03
7.250  21.250  2.4784e-03
7.250  21.500  2.4784e-03
7.250  21.750  2.4784e-03
7.250  22.000  2.4784e-03
7.250  22.250  2.4784e-03
7.250  22.500  2.4784e-03
7.250  22.750  2.4784e-03
7.250  23.000  2.4784e-03
7.250  23.250  2.4784e-03
7.250  23.500  2.4784e-03
7.250  23.750  2.4784e-03
7.250  24.000  2.4784e-03
7.500  17.000  2.2300e-03
7.500  17.250  2.3825e-03
7.500  17.500  2.4710e-03
7.500  17.750  2.4725e-03
7.500  18.000  2.4736e-03
7.500  18.250  2.4747e-03
7.500  18.500  2.4758e-03
7.500  18.750  2.4768e-03
7.500  19.000  2.4774e-03
7.500  19.250  2.4777e-03
7.500  19.500  2.4780e-03
7.500  19.750  2.4782e-03
7.500  20.000  2.4783e-03
7.500  20.250  2.4784e-03
7.500  20.500  2.4784e-03
7.500  20.750  2.4784e-03
7.500  21.000  2.4784e-03
7.500  21.250  2.4784e-03
7.500  21.500  2.4784e-03
7.500  21.750  2.4784e-03
7.500  22.000  2.4784e-03
7.500  22.250  2.4784e-03
7.500  22.500  2.4784e-03
7.500  22.750  2.4784e-03
7.500  23.000  2.4784e-03
7.500  23.250  2.4784e-03
7.500  23.500  2.4787e-03
7.500  23.750  2.4784e-03
7.500  24.000  2.4784e-03
7.750  17.000  1.6107e-03
7.750  17.250  2.2366e-03
7.750  17.500  2.3829e-03
7.750  17.750  2.4711e-03
7.750  18.000  2.4725e-03
7.750  18.250  2.4736e-03
7.750  18.500  2.4747e-03
7.750  18.750  2.4758e-03
7.750  19.000  2.4768e-03
7.750  19.250  2.4774e-03
7.750  19.500  2.4777e-03
7.750  19.750  2.4780e-03
7.750  20.000  2.4782e-03
7.750  20.250  2.4783e-03
7.750  20.500  2.4784e-03
7.750  20.750  2.4784e-03
7.750  21.000  2.4784e-03
7.750  21.250  2.4784e-03
7.750  21.500  2.4784e-03
7.750  21.750  2.4784e-03
7.750  22.000  2.4784e-03
7.750  22.250  2.4784e-03
7.750  22.500  2.4784e-03
7.750  22.750  2.4784e-03
7.750  23.000  2.4784e-03
7.750  23.250  2.4784e-03
7.750  23.500  2.4784e-03
7.750  23.750  2.4784e-03
7.750  24.000  2.4784e-03
8.000  17.000  1.1306e-03
8.000  17.250  1.6051e-03
8.000  17.500  2.2244e-03
8.000  17.750  2.3822e-03
8.000  18.000  2.4710e-03
8.000  18.250  2.4725e-03
8.000  18.500  2.4736e-03
8.000  18.750  2.4747e-03
8.000  19.000  2.4758e-03
8.000  19.250  2.4768e-03
8.000  19.500  2.4774e-03
8.000  19.750  2.4777e-03
8.000  20.000  2.4780e-03
8.000  20.250  2.4782e-03
8.000  20.500  2.4783e-03
8.000  20.750  2.4784e-03
8.000  21.000  2.4784e-03
8.000  21.250  2.4784e-03
8.000  21.500  2.4784e-03
8.000  21.750  2.4784e-03
8.000  22.000  2.4784e-03
8.000  22.250  2.4784e-03
8.000  22.500  2.4784e-03
8.000  22.750  2.4784e-03
8.000  23.000  2.4784e-03
8.000  23.250  2.4784e-03
8.000  23.500  2.4784e-03
8.000  23.750  2.4784e-03
8.000  24.000  2.4784e-03
8.250  17.000  7.9193e-04
8.250  17.250  1.1426e-03
8.250  17.500  1.6145e-03
8.250  17.750  2.2278e-03
8.250  18.000  2.3825e-03
8.250  18.250  2.4711e-03
8.250  18.500  2.4725e-03
8.250  18.750  2.4736e-03
8.250  19.000  2.4747e-03
8.250  19.250  2.4758e-03
8.250  19.500  2.4768e-03
8.250  19.750  2.4774e-03
8.250  20.000  2.4777e-03
8.250  20.250  2.4780e-03
8.250  20.500  2.4782e-03
8.250  20.750  2.4783e-03
8.250  21.000  2.4784e-03
8.250  21.250  2.4784e-03
8.250  21.500  2.4784e-03
8.250  21.750  2.4784e-03
8.250  22.000  2.4784e-03
8.250  22.250  2.4784e-03
8.250  22.500  2.4784e-03
8.250  22.750  2.4785e-03
8.250  23.000  2.4784e-03
8.250  23.250  2.4784e-03
8.250  23.500  2.4785e-03
8.250  23.750  2.4784e-03
8.250  24.000  2.4784e-03
8.500  17.000  5.5481e-04
8.500  17.250  8.0337e-04
8.500  17.500  1.1570e-03
8.500  17.750  1.6257e-03
8.500  18.000  2.2322e-03
8.500  18.250  2.3826e-03
8.500  18.500  2.4710e-03
8.500  18.750  2.4725e-03
8.500  19.000  2.4736e-03
8.500  19.250  2.4747e-03
8.500  19.500  2.4758e-03
8.500  19.750  2.4768e-03
8.500  20.000  2.4774e-03
8.500  20.250  2.4777e-03
8.500  20.500  2.4780e-03
8.500  20.750  2.4782e-03
8.500  21.000  2.4783e-03
8.500  21.250  2.4784e-03
8.500  21.500  2.4784e-03
8.500  21.750  2.4784e-03
8.500  22.000  2.4784e-03
8.500  22.250  2.4784e-03
8.500  22.500  2.4784e-03
8.500  22.750  2.4784e-03
8.500  23.000  2.4784e-03
8.500  23.250  2.4784e-03
8.500  23.500  2.4784e-03
8.500  23.750  2.4784e-03
8.500  24.000  2.4784e-03
8.750  17.000  3.8955e-04
8.750  17.250  5.6461e-04
8.750  17.500  8.1844e-04
8.750  17.750  1.1788e-03
8.750  18.000  1.6475e-03
8.750  18.250  2.2439e-03
8.750  18.500  2.3827e-03
8.750  18.750  2.4710e-03
8.750  19.000  2.4725e-03
8.750  19.250  2.4736e-03
8.750  19.500  2.4747e-03
8.750  19.750  2.4759e-03
8.750  20.000  2.4768e-03
8.750  20.250  2.4774e-03
8.750  20.500  2.4777e-03
8.750  20.750  2.4780e-03
8.750  21.000  2.4782e-03
8.750  21.250  2.4783e-03
8.750  21.500  2.4784e-03
8.750  21.750  2.4784e-03
8.750  22.000  2.4784e-03
8.750  22.250  2.4784e-03
8.750  22.500  2.4784e-03
8.750  22.750  2.4784e-03
8.750  23.000  2.4784e-03
8.750  23.250  2.4784e-03
8.750  23.500  2.4784e-03
8.750  23.750  2.4784e-03
8.750  24.000  2.4784e-03
9.000  17.000  2.7416e-04
9.000  17.250  3.9770e-04
9.000  17.500  5.7926e-04
9.000  17.750  8.4444e-04
9.000  18.000  1.2147e-03
9.000  18.250  1.6888e-03
9.000  18.500  2.2661e-03
9.000  18.750  2.3827e-03
9.000  19.000  2.4710e-03
9.000  19.250  2.4725e-03
9.000  19.500  2.4737e-03
9.000  19.750  2.4747e-03
9.000  20.000  2.4759e-03
9.000  20.250  2.4768e-03
9.000  20.500  2.4774e-03
9.000  20.750  2.4777e-03
9.000  21.000  2.4780e-03
9.000  21.250  2.4782e-03
9.000  21.500  2.4783e-03
9.000  21.750  2.4784e-03
9.000  22.000  2.4784e-03
9.000  22.250  2.4784e-03
9.000  22.500  2.4784e-03
9.000  22.750  2.4784e-03
9.000  23.000  2.4784e-03
9.000  23.250  2.4784e-03
9.000  23.500  2.4784e-03
9.000  23.750  2.4784e-03
9.000  24.000  2.4784e-03
9.250  17.000  1.9325e-04
9.250  17.250  2.8033e-04
9.250  17.500  4.1062e-04
9.250  17.750  6.0593e-04
9.250  18.000  8.9152e-04
9.250  18.250  1.2824e-03
9.250  18.500  1.7672e-03
9.250  18.750  2.3198e-03
9.250  19.000  2.3823e-03
9.250  19.250  2.4710e-03
9.250  19.500  2.4725e-03
9.250  19.750  2.4737e-03
9.250  20.000  2.4747e-03
9.250  20.250  2.4759e-03
9.250  20.500  2.4768e-03
9.250  20.750  2.4774e-03
9.250  21.000  2.4777e-03
9.250  21.250  2.4780e-03
9.250  21.500  2.4780e-03
9.250  21.750  2.4780e-03
9.250  22.000  2.4780e-03
9.250  22.250  2.4781e-03
9.250  22.500  2.4783e-03
9.250  22.750  2.4783e-03
9.250  23.000  2.4784e-03
9.250  23.250  2.4784e-03
9.250  23.500  2.4784e-03
9.250  23.750  2.4784e-03
9.250  24.000  2.4784e-03
9.500  17.000  1.3646e-04
9.500  17.250  1.9827e-04
9.500  17.500  2.9169e-04
9.500  17.750  4.3588e-04
9.500  18.000  6.5539e-04
9.500  18.250  9.7506e-04
9.500  18.500  1.3992e-03
9.500  18.750  1.9109e-03
9.500  19.000  2.3221e-03
9.500  19.250  2.3816e-03
9.500  19.500  2.4709e-03
9.500  19.750  2.4724e-03
9.500  20.000  2.4736e-03
9.500  20.250  2.4748e-03
9.500  20.500  2.4759e-03
9.500  20.750  2.4766e-03
9.500  21.000  2.4772e-03
9.500  21.250  2.4774e-03
9.500  21.500  2.4777e-03
9.500  21.750  2.4778e-03
9.500  22.000  2.4779e-03
9.500  22.250  2.4779e-03
9.500  22.500  2.4779e-03
9.500  22.750  2.4779e-03
9.500  23.000  2.4779e-03
9.500  23.250  2.4779e-03
9.500  23.500  2.4779e-03
9.500  23.750  2.4779e-03
9.500  24.000  2.4779e-03
9.750  17.000  9.6379e-05
9.750  17.250  1.4000e-04
9.750  17.500  2.0691e-04
9.750  17.750  3.1333e-04
9.750  18.000  4.8362e-04
9.750  18.250  7.4082e-04
9.750  18.500  1.0978e-03
9.750  18.750  1.5475e-03
9.750  19.000  2.0960e-03
9.750  19.250  2.3212e-03
9.750  19.500  2.3802e-03
9.750  19.750  2.4708e-03
9.750  20.000  2.4724e-03
9.750  20.250  2.4736e-03
9.750  20.500  2.4747e-03
9.750  20.750  2.4758e-03
9.750  21.000  2.4767e-03
9.750  21.250  2.4772e-03
9.750  21.500  2.4774e-03
9.750  21.750  2.4778e-03
9.750  22.000  2.4779e-03
9.750  22.250  2.4779e-03
9.750  22.500  2.4779e-03
9.750  22.750  2.4779e-03
9.750  23.000  2.4779e-03
9.750  23.250  2.4779e-03
9.750  23.500  2.4779e-03
9.750  23.750  2.4779e-03
9.750  24.000  2.4779e-03
10.000  17.000  6.7984e-05
10.000  17.250  9.9012e-05
10.000  17.500  1.4700e-04
10.000  17.750  2.2560e-04
10.000  18.000  3.5720e-04
10.000  18.250  5.5975e-04
10.000  18.500  8.4938e-04
10.000  18.750  1.2309e-03
10.000  19.000  1.7166e-03
10.000  19.250  2.2068e-03
10.000  19.500  2.3198e-03
10.000  19.750  2.3786e-03
10.000  20.000  2.4705e-03
10.000  20.250  2.4723e-03
10.000  20.500  2.4736e-03
10.000  20.750  2.4747e-03
10.000  21.000  2.4758e-03
10.000  21.250  2.4767e-03
10.000  21.500  2.4772e-03
10.000  21.750  2.4774e-03
10.000  22.000  2.4778e-03
10.000  22.250  2.4779e-03
10.000  22.500  2.4779e-03
10.000  22.750  2.4779e-03
10.000  23.000  2.4779e-03
10.000  23.250  2.4779e-03
10.000  23.500  2.4779e-03
10.000  23.750  2.4779e-03
10.000  24.000  2.4779e-03
10.250  17.000  4.7984e-05
10.250  17.250  7.0041e-05
10.250  17.500  1.0477e-04
10.250  17.750  1.6321e-04
10.250  18.000  2.6387e-04
10.250  18.250  4.1992e-04
10.250  18.500  6.4568e-04
10.250  18.750  9.5704e-04
10.250  19.000  1.3643e-03
10.250  19.250  1.8913e-03
10.250  19.500  2.2871e-03
10.250  19.750  2.3180e-03
10.250  20.000  2.3765e-03
10.250  20.250  2.4700e-03
10.250  20.500  2.4721e-03
10.250  20.750  2.4735e-03
10.250  21.000  2.4747e-03
10.250  21.250  2.4758e-03
10.250  21.500  2.4767e-03
10.250  21.750  2.4773e-03
10.250  22.000  2.4775e-03
10.250  22.250  2.4778e-03
10.250  22.500  2.4779e-03
10.250  22.750  2.4779e-03
10.250  23.000  2.4779e-03
10.250  23.250  2.4779e-03
10.250  23.500  2.4779e-03
10.250  23.750  2.4779e-03
10.250  24.000  2.4779e-03
10.500  17.000  3.3827e-05
10.500  17.250  4.9630e-05
10.500  17.500  7.4979e-05
10.500  17.750  1.1868e-04
10.500  18.000  1.9490e-04
10.500  18.250  3.1457e-04
10.500  18.500  4.8346e-04
10.500  18.750  7.2329e-04
10.500  19.000  1.0533e-03
10.500  19.250  1.4897e-03
10.500  19.500  2.0301e-03
10.500  19.750  2.2858e-03
10.500  20.000  2.3162e-03
10.500  20.250  2.3742e-03
10.500  20.500  2.4693e-03
10.500  20.750  2.4718e-03
10.500  21.000  2.4733e-03
10.500  21.250  2.4747e-03
10.500  21.500  2.4758e-03
10.500  21.750  2.4767e-03
10.500  22.000  2.4774e-03
10.500  22.250  2.4776e-03
10.500  22.500  2.4778e-03
10.500  22.750  2.4779e-03
10.500  23.000  2.4780e-03
10.500  23.250  2.4779e-03
10.500  23.500  2.4779e-03
10.500  23.750  2.4779e-03
10.500  24.000  2.4779e-03
10.750  17.000  2.3868e-05
10.750  17.250  3.5226e-05
10.750  17.500  5.3827e-05
10.750  17.750  8.6667e-05
10.750  18.000  1.4354e-04
10.750  18.250  2.3169e-04
10.750  18.500  3.5778e-04
10.750  18.750  5.3942e-04
10.750  19.000  7.9037e-04
10.750  19.250  1.1360e-03
10.750  19.500  1.5935e-03
10.750  19.750  2.1561e-03
10.750  20.000  2.2840e-03
10.750  20.250  2.3149e-03
10.750  20.500  2.3733e-03
10.750  20.750  2.4683e-03
10.750  21.000  2.4711e-03
10.750  21.250  2.4731e-03
10.750  21.500  2.4746e-03
10.750  21.750  2.4757e-03
10.750  22.000  2.4766e-03
10.750  22.250  2.4774e-03
10.750  22.500  2.4777e-03
10.750  22.750  2.4779e-03
10.750  23.000  2.4779e-03
10.750  23.250  2.4780e-03
10.750  23.500  2.4780e-03
10.750  23.750  2.4779e-03
10.750  24.000  2.4779e-03
11.000  17.000  1.6872e-05
11.000  17.250  2.5021e-05
11.000  17.500  3.8683e-05
11.000  17.750  6.3128e-05
11.000  18.000  1.0486e-04
11.000  18.250  1.6897e-04
11.000  18.500  2.6272e-04
11.000  18.750  3.9646e-04
11.000  19.000  5.8354e-04
11.000  19.250  8.4560e-04
11.000  19.500  1.2069e-03
11.000  19.750  1.6953e-03
11.000  20.000  2.2416e-03
11.000  20.250  2.2822e-03
11.000  20.500  2.3135e-03
11.000  20.750  2.3736e-03
11.000  21.000  2.4670e-03
11.000  21.250  2.4702e-03
11.000  21.500  2.4728e-03
11.000  21.750  2.4744e-03
11.000  22.000  2.4756e-03
11.000  22.250  2.4765e-03
11.000  22.500  2.4773e-03
11.000  22.750  2.4776e-03
11.000  23.000  2.4779e-03
11.000  23.250  2.4779e-03
11.000  23.500  2.4780e-03
11.000  23.750  2.4780e-03
11.000  24.000  2.4780e-03
11.250  17.000  1.1934e-05
11.250  17.250  1.7695e-05
11.250  17.500  2.7654e-05
11.250  17.750  4.5597e-05
11.250  18.000  7.5802e-05
11.250  18.250  1.2198e-04
11.250  18.500  1.8889e-04
11.250  18.750  2.8741e-04
11.250  19.000  4.2436e-04
11.250  19.250  6.2000e-04
11.250  19.500  8.9383e-04
11.250  19.750  1.2737e-03
11.250  20.000  1.7877e-03
11.250  20.250  2.2532e-03
11.250  20.500  2.2799e-03
11.250  20.750  2.3132e-03
11.250  21.000  2.3771e-03
11.250  21.250  2.4655e-03
11.250  21.500  2.4697e-03
11.250  21.750  2.4723e-03
11.250  22.000  2.4741e-03
11.250  22.250  2.4753e-03
11.250  22.500  2.4765e-03
11.250  22.750  2.4773e-03
11.250  23.000  2.4776e-03
11.250  23.250  2.4779e-03
11.250  23.500  2.4780e-03
11.250  23.750  2.4780e-03
11.250  24.000  2.4781e-03
11.500  17.000  8.5597e-06
11.500  17.250  1.2593e-05
11.500  17.500  1.9753e-05
11.500  17.750  3.2675e-05
11.500  18.000  5.4156e-05
11.500  18.250  8.6831e-05
11.500  18.500  1.3498e-04
11.500  18.750  2.0584e-04
11.500  19.000  3.0642e-04
11.500  19.250  4.4831e-04
11.500  19.500  6.4790e-04
11.500  19.750  9.3317e-04
11.500  20.000  1.3322e-03
11.500  20.250  1.8767e-03
11.500  20.500  2.2541e-03
11.500  20.750  2.2771e-03
11.500  21.000  2.3147e-03
11.500  21.250  2.3872e-03
11.500  21.500  2.4652e-03
11.500  21.750  2.4685e-03
11.500  22.000  2.4714e-03
11.500  22.250  2.4735e-03
11.500  22.500  2.4749e-03
11.500  22.750  2.4761e-03
11.500  23.000  2.4772e-03
11.500  23.250  2.4775e-03
11.500  23.500  2.4779e-03
11.500  23.750  2.4781e-03
11.500  24.000  2.4780e-03
11.750  17.000  6.1728e-06
11.750  17.250  9.0535e-06
11.750  17.500  1.4074e-05
11.750  17.750  2.3210e-05
11.750  18.000  3.8189e-05
11.750  18.250  6.1070e-05
11.750  18.500  9.5309e-05
11.750  18.750  1.4519e-04
11.750  19.000  2.1827e-04
11.750  19.250  3.2107e-04
11.750  19.500  4.6733e-04
11.750  19.750  6.7317e-04
11.750  20.000  9.6897e-04
11.750  20.250  1.3849e-03
11.750  20.500  1.9550e-03
11.750  20.750  2.2444e-03
11.750  21.000  2.2741e-03
11.750  21.250  2.3211e-03
11.750  21.500  2.4109e-03
11.750  21.750  2.4630e-03
11.750  22.000  2.4667e-03
11.750  22.250  2.4700e-03
11.750  22.500  2.4726e-03
11.750  22.750  2.4742e-03
11.750  23.000  2.4757e-03
11.750  23.250  2.4770e-03
11.750  23.500  2.4774e-03
11.750  23.750  2.4779e-03
11.750  24.000  2.4782e-03
12.000  17.000  4.5267e-06
12.000  17.250  6.5844e-06
12.000  17.500  1.0123e-05
12.000  17.750  1.6379e-05
12.000  18.000  2.6502e-05
12.000  18.250  4.2387e-05
12.000  18.500  6.6502e-05
12.000  18.750  1.0239e-04
12.000  19.000  1.5481e-04
12.000  19.250  2.2881e-04
12.000  19.500  3.3407e-04
12.000  19.750  4.8313e-04
12.000  20.000  6.9539e-04
12.000  20.250  9.9860e-04
12.000  20.500  1.4265e-03
12.000  20.750  2.0082e-03
12.000  21.000  2.2305e-03
12.000  21.250  2.2723e-03
12.000  21.500  2.3388e-03
12.000  21.750  2.4384e-03
12.000  22.000  2.4595e-03
12.000  22.250  2.4639e-03
12.000  22.500  2.4681e-03
12.000  22.750  2.4713e-03
12.000  23.000  2.4732e-03
12.000  23.250  2.4751e-03
12.000  23.500  2.4768e-03
12.000  23.750  2.4774e-03
12.000  24.000  2.4779e-03
12.250  17.000  3.4568e-06
12.250  17.250  4.8560e-06
12.250  17.500  7.2428e-06
12.250  17.750  1.1358e-05
12.250  18.000  1.8189e-05
12.250  18.250  2.9218e-05
12.250  18.500  4.6337e-05
12.250  18.750  7.2016e-05
12.250  19.000  1.0947e-04
12.250  19.250  1.6230e-04
12.250  19.500  2.3737e-04
12.250  19.750  3.4428e-04
12.250  20.000  4.9531e-04
12.250  20.250  7.1218e-04
12.250  20.500  1.0224e-03
12.250  20.750  1.4630e-03
12.250  21.000  2.0358e-03
12.250  21.250  2.2123e-03
12.250  21.500  2.2807e-03
12.250  21.750  2.3551e-03
12.250  22.000  2.4469e-03
12.250  22.250  2.4542e-03
12.250  22.500  2.4598e-03
12.250  22.750  2.4650e-03
12.250  23.000  2.4691e-03
12.250  23.250  2.4714e-03
12.250  23.500  2.4741e-03
12.250  23.750  2.4764e-03
12.250  24.000  2.4771e-03
12.500  17.000  2.5514e-06
12.500  17.250  3.5391e-06
12.500  17.500  5.1029e-06
12.500  17.750  7.8189e-06
12.500  18.000  1.2510e-05
12.500  18.250  2.0165e-05
12.500  18.500  3.2263e-05
12.500  18.750  5.0453e-05
12.500  19.000  7.7202e-05
12.500  19.250  1.1514e-04
12.500  19.500  1.6864e-04
12.500  19.750  2.4469e-04
12.500  20.000  3.5267e-04
12.500  20.250  5.0576e-04
12.500  20.500  7.2527e-04
12.500  20.750  1.0400e-03
12.500  21.000  1.4877e-03
12.500  21.250  2.0775e-03
12.500  21.500  2.2053e-03
12.500  21.750  2.2796e-03
12.500  22.000  2.3711e-03
12.500  22.250  2.4371e-03
12.500  22.500  2.4459e-03
12.500  22.750  2.4536e-03
12.500  23.000  2.4604e-03
12.500  23.250  2.4655e-03
12.500  23.500  2.4687e-03
12.500  23.750  2.4723e-03
12.500  24.000  2.4758e-03
12.750  17.000  1.8107e-06
12.750  17.250  2.4691e-06
12.750  17.500  3.6214e-06
12.750  17.750  5.4321e-06
12.750  18.000  8.6420e-06
12.750  18.250  1.3992e-05
12.750  18.500  2.2469e-05
12.750  18.750  3.5391e-05
12.750  19.000  5.4239e-05
12.750  19.250  8.1481e-05
12.750  19.500  1.1942e-04
12.750  19.750  1.7350e-04
12.750  20.000  2.5021e-04
12.750  20.250  3.5967e-04
12.750  20.500  5.1160e-04
12.750  20.750  7.3457e-04
12.750  21.000  1.0530e-03
12.750  21.250  1.5095e-03
12.750  21.500  2.0585e-03
12.750  21.750  2.1770e-03
12.750  22.000  2.2749e-03
12.750  22.250  2.3760e-03
12.750  22.500  2.4219e-03
12.750  22.750  2.4337e-03
12.750  23.000  2.4441e-03
12.750  23.250  2.4532e-03
12.750  23.500  2.4598e-03
12.750  23.750  2.4642e-03
12.750  24.000  2.4697e-03
13.000  17.000  1.0000e-07
13.000  17.250  1.1523e-06
13.000  17.500  2.5514e-06
13.000  17.750  3.8683e-06
13.000  18.000  6.0905e-06
13.000  18.250  9.7942e-06
13.000  18.500  1.5638e-05
13.000  18.750  2.4691e-05
13.000  19.000  3.8025e-05
13.000  19.250  5.7366e-05
13.000  19.500  8.4609e-05
13.000  19.750  1.2305e-04
13.000  20.000  1.7695e-04
13.000  20.250  2.5399e-04
13.000  20.500  3.6346e-04
13.000  20.750  5.1967e-04
13.000  21.000  7.4198e-04
13.000  21.250  1.0641e-03
13.000  21.500  1.5238e-03
13.000  21.750  2.0041e-03
13.000  22.000  2.1415e-03
13.000  22.250  2.2565e-03
13.000  22.500  2.3602e-03
13.000  22.750  2.3991e-03
13.000  23.000  2.4156e-03
13.000  23.250  2.4298e-03
13.000  23.500  2.4420e-03
13.000  23.750  2.4507e-03
13.000  24.000  2.4569e-03
13.250  17.000  1.0000e-07
13.250  17.250  1.0000e-07
13.250  17.500  1.4815e-06
13.250  17.750  2.7160e-06
13.250  18.000  4.2798e-06
13.250  18.250  6.8313e-06
13.250  18.500  1.0864e-05
13.250  18.750  1.7202e-05
13.250  19.000  2.6584e-05
13.250  19.250  4.0165e-05
13.250  19.500  5.9506e-05
13.250  19.750  8.6914e-05
13.250  20.000  1.2551e-04
13.250  20.250  1.8025e-04
13.250  20.500  2.5745e-04
13.250  20.750  3.6683e-04
13.250  21.000  5.2436e-04
13.250  21.250  7.4551e-04
13.250  21.500  1.0696e-03
13.250  21.750  1.5055e-03
13.250  22.000  1.9267e-03
13.250  22.250  2.0726e-03
13.250  22.500  2.2109e-03
13.250  22.750  2.3199e-03
13.250  23.000  2.3651e-03
13.250  23.250  2.3882e-03
13.250  23.500  2.4084e-03
13.250  23.750  2.4247e-03
13.250  24.000  2.4361e-03
13.500  17.000  1.0000e-07
13.500  17.250  1.0000e-07
13.500  17.500  8.2305e-07
13.500  17.750  1.6461e-06
13.500  18.000  3.0453e-06
13.500  18.250  4.7737e-06
13.500  18.500  7.4897e-06
13.500  18.750  1.1852e-05
13.500  19.000  1.8436e-05
13.500  19.250  2.8066e-05
13.500  19.500  4.1811e-05
13.500  19.750  6.1235e-05
13.500  20.000  8.8477e-05
13.500  20.250  1.2757e-04
13.500  20.500  1.8206e-04
13.500  20.750  2.5942e-04
13.500  21.000  3.6872e-04
13.500  21.250  5.2288e-04
13.500  21.500  7.4486e-04
13.500  21.750  1.0520e-03
13.500  22.000  1.4513e-03
13.500  22.250  1.8063e-03
13.500  22.500  1.9788e-03
13.500  22.750  2.1359e-03
13.500  23.000  2.2573e-03
13.500  23.250  2.3143e-03
13.500  23.500  2.3477e-03
13.500  23.750  2.3766e-03
13.500  24.000  2.3983e-03
13.750  17.000  1.0000e-07
13.750  17.250  1.0000e-07
13.750  17.500  1.0000e-07
13.750  17.750  9.8765e-07
13.750  18.000  1.9753e-06
13.750  18.250  3.2922e-06
13.750  18.500  5.2675e-06
13.750  18.750  8.1481e-06
13.750  19.000  1.2675e-05
13.750  19.250  1.9342e-05
13.750  19.500  2.9053e-05
13.750  19.750  4.2798e-05
13.750  20.000  6.2387e-05
13.750  20.250  8.9877e-05
13.750  20.500  1.2897e-04
13.750  20.750  1.8370e-04
13.750  21.000  2.6091e-04
13.750  21.250  3.6823e-04
13.750  21.500  5.2346e-04
13.750  21.750  7.3440e-04
13.750  22.000  1.0165e-03
13.750  22.250  1.3670e-03
13.750  22.500  1.6636e-03
13.750  22.750  1.8551e-03
13.750  23.000  2.0303e-03
13.750  23.250  2.1714e-03
13.750  23.500  2.2407e-03
13.750  23.750  2.2886e-03
13.750  24.000  2.3293e-03
14.000  17.000  1.0000e-07
14.000  17.250  1.0000e-07
14.000  17.500  1.0000e-07
14.000  17.750  1.0000e-07
14.000  18.000  1.1523e-06
14.000  18.250  2.2222e-06
14.000  18.500  3.7037e-06
14.000  18.750  5.6790e-06
14.000  19.000  8.7243e-06
14.000  19.250  1.3251e-05
14.000  19.500  2.0000e-05
14.000  19.750  2.9794e-05
14.000  20.000  4.3621e-05
14.000  20.250  6.3210e-05
14.000  20.500  9.1029e-05
14.000  20.750  1.3004e-04
14.000  21.000  1.8486e-04
14.000  21.250  2.6099e-04
14.000  21.500  3.7021e-04
14.000  21.750  5.1770e-04
14.000  22.000  7.1177e-04
14.000  22.250  9.5317e-04
14.000  22.500  1.2463e-03
14.000  22.750  1.4969e-03
14.000  23.000  1.7096e-03
14.000  23.250  1.8949e-03
14.000  23.500  2.0551e-03
14.000  23.750  2.1366e-03
14.000  24.000  2.2047e-03
