nFnu 925.144A  relative to Inci 1215.00A scaled to 1215A.
Hden   Phi(H)  Eq_Width (A)
7.000  17.000  2.8912e-02
7.000  17.250  2.7370e-02
7.000  17.500  2.4971e-02
7.000  17.750  2.1782e-02
7.000  18.000  1.8764e-02
7.000  18.250  1.6820e-02
7.000  18.500  1.5524e-02
7.000  18.750  1.4843e-02
7.000  19.000  1.4478e-02
7.000  19.250  1.4271e-02
7.000  19.500  1.4181e-02
7.000  19.750  1.4143e-02
7.000  20.000  1.4127e-02
7.000  20.250  1.4119e-02
7.000  20.500  1.4115e-02
7.000  20.750  1.4113e-02
7.000  21.000  1.4112e-02
7.000  21.250  1.4111e-02
7.000  21.500  1.4111e-02
7.000  21.750  1.4111e-02
7.000  22.000  1.4111e-02
7.000  22.250  1.4111e-02
7.000  22.500  1.4111e-02
7.000  22.750  1.4112e-02
7.000  23.000  1.4112e-02
7.000  23.250  1.4111e-02
7.000  23.500  1.4112e-02
7.000  23.750  1.4112e-02
7.000  24.000  1.4113e-02
7.250  17.000  3.1432e-02
7.250  17.250  2.8280e-02
7.250  17.500  2.7061e-02
7.250  17.750  2.4835e-02
7.250  18.000  2.1708e-02
7.250  18.250  1.8723e-02
7.250  18.500  1.6799e-02
7.250  18.750  1.5517e-02
7.250  19.000  1.4840e-02
7.250  19.250  1.4477e-02
7.250  19.500  1.4271e-02
7.250  19.750  1.4181e-02
7.250  20.000  1.4143e-02
7.250  20.250  1.4127e-02
7.250  20.500  1.4119e-02
7.250  20.750  1.4115e-02
7.250  21.000  1.4113e-02
7.250  21.250  1.4112e-02
7.250  21.500  1.4111e-02
7.250  21.750  1.4111e-02
7.250  22.000  1.4111e-02
7.250  22.250  1.4111e-02
7.250  22.500  1.4111e-02
7.250  22.750  1.4111e-02
7.250  23.000  1.4111e-02
7.250  23.250  1.4111e-02
7.250  23.500  1.4111e-02
7.250  23.750  1.4111e-02
7.250  24.000  1.4111e-02
7.500  17.000  3.5485e-02
7.500  17.250  2.9433e-02
7.500  17.500  2.7915e-02
7.500  17.750  2.6885e-02
7.500  18.000  2.4770e-02
7.500  18.250  2.1670e-02
7.500  18.500  1.8698e-02
7.500  18.750  1.6787e-02
7.500  19.000  1.5512e-02
7.500  19.250  1.4838e-02
7.500  19.500  1.4477e-02
7.500  19.750  1.4270e-02
7.500  20.000  1.4181e-02
7.500  20.250  1.4143e-02
7.500  20.500  1.4127e-02
7.500  20.750  1.4119e-02
7.500  21.000  1.4115e-02
7.500  21.250  1.4113e-02
7.500  21.500  1.4112e-02
7.500  21.750  1.4111e-02
7.500  22.000  1.4111e-02
7.500  22.250  1.4111e-02
7.500  22.500  1.4111e-02
7.500  22.750  1.4111e-02
7.500  23.000  1.4111e-02
7.500  23.250  1.4111e-02
7.500  23.500  1.4112e-02
7.500  23.750  1.4111e-02
7.500  24.000  1.4111e-02
7.750  17.000  2.7537e-02
7.750  17.250  3.1196e-02
7.750  17.500  2.7853e-02
7.750  17.750  2.7702e-02
7.750  18.000  2.6792e-02
7.750  18.250  2.4753e-02
7.750  18.500  2.1654e-02
7.750  18.750  1.8684e-02
7.750  19.000  1.6516e-02
7.750  19.250  1.5114e-02
7.750  19.500  1.4323e-02
7.750  19.750  1.3987e-02
7.750  20.000  1.3949e-02
7.750  20.250  1.4053e-02
7.750  20.500  1.4143e-02
7.750  20.750  1.4127e-02
7.750  21.000  1.4119e-02
7.750  21.250  1.4115e-02
7.750  21.500  1.4113e-02
7.750  21.750  1.4112e-02
7.750  22.000  1.4111e-02
7.750  22.250  1.4111e-02
7.750  22.500  1.4111e-02
7.750  22.750  1.4111e-02
7.750  23.000  1.4110e-02
7.750  23.250  1.4110e-02
7.750  23.500  1.4111e-02
7.750  23.750  1.4111e-02
7.750  24.000  1.4110e-02
8.000  17.000  1.9761e-02
8.000  17.250  2.3398e-02
8.000  17.500  2.7561e-02
8.000  17.750  2.6563e-02
8.000  18.000  2.7582e-02
8.000  18.250  2.6746e-02
8.000  18.500  2.4766e-02
8.000  18.750  2.1654e-02
8.000  19.000  1.8678e-02
8.000  19.250  1.6774e-02
8.000  19.500  1.5507e-02
8.000  19.750  1.4836e-02
8.000  20.000  1.4476e-02
8.000  20.250  1.4270e-02
8.000  20.500  1.4181e-02
8.000  20.750  1.4143e-02
8.000  21.000  1.4127e-02
8.000  21.250  1.4119e-02
8.000  21.500  1.4115e-02
8.000  21.750  1.4113e-02
8.000  22.000  1.4112e-02
8.000  22.250  1.4111e-02
8.000  22.500  1.4111e-02
8.000  22.750  1.4111e-02
8.000  23.000  1.4110e-02
8.000  23.250  1.4110e-02
8.000  23.500  1.4110e-02
8.000  23.750  1.4110e-02
8.000  24.000  1.4111e-02
8.250  17.000  1.4459e-02
8.250  17.250  1.6652e-02
8.250  17.500  2.0575e-02
8.250  17.750  2.5198e-02
8.250  18.000  2.5692e-02
8.250  18.250  2.7498e-02
8.250  18.500  2.6729e-02
8.250  18.750  2.4799e-02
8.250  19.000  2.1664e-02
8.250  19.250  1.8675e-02
8.250  19.500  1.6772e-02
8.250  19.750  1.5506e-02
8.250  20.000  1.4836e-02
8.250  20.250  1.4476e-02
8.250  20.500  1.4270e-02
8.250  20.750  1.4181e-02
8.250  21.000  1.4143e-02
8.250  21.250  1.4127e-02
8.250  21.500  1.4119e-02
8.250  21.750  1.4115e-02
8.250  22.000  1.4113e-02
8.250  22.250  1.4112e-02
8.250  22.500  1.4111e-02
8.250  22.750  1.4111e-02
8.250  23.000  1.4111e-02
8.250  23.250  1.4111e-02
8.250  23.500  1.4111e-02
8.250  23.750  1.4110e-02
8.250  24.000  1.4111e-02
8.500  17.000  1.0996e-02
8.500  17.250  1.2137e-02
8.500  17.500  1.4609e-02
8.500  17.750  1.8814e-02
8.500  18.000  2.3668e-02
8.500  18.250  2.5048e-02
8.500  18.500  2.7434e-02
8.500  18.750  2.6728e-02
8.500  19.000  2.4848e-02
8.500  19.250  2.1680e-02
8.500  19.500  1.8675e-02
8.500  19.750  1.6770e-02
8.500  20.000  1.5506e-02
8.500  20.250  1.4836e-02
8.500  20.500  1.4476e-02
8.500  20.750  1.4270e-02
8.500  21.000  1.4181e-02
8.500  21.250  1.4143e-02
8.500  21.500  1.4127e-02
8.500  21.750  1.4119e-02
8.500  22.000  1.4115e-02
8.500  22.250  1.4113e-02
8.500  22.500  1.4112e-02
8.500  22.750  1.4111e-02
8.500  23.000  1.4111e-02
8.500  23.250  1.4111e-02
8.500  23.500  1.4110e-02
8.500  23.750  1.4110e-02
8.500  24.000  1.4110e-02
8.750  17.000  8.7877e-03
8.750  17.250  9.3399e-03
8.750  17.500  1.0704e-02
8.750  17.750  1.3327e-02
8.750  18.000  1.7773e-02
8.750  18.250  2.2741e-02
8.750  18.500  2.4688e-02
8.750  18.750  2.7373e-02
8.750  19.000  2.6736e-02
8.750  19.250  2.4905e-02
8.750  19.500  2.1701e-02
8.750  19.750  1.8677e-02
8.750  20.000  1.6769e-02
8.750  20.250  1.5505e-02
8.750  20.500  1.4835e-02
8.750  20.750  1.4476e-02
8.750  21.000  1.4270e-02
8.750  21.250  1.4181e-02
8.750  21.500  1.4143e-02
8.750  21.750  1.4127e-02
8.750  22.000  1.4119e-02
8.750  22.250  1.4115e-02
8.750  22.500  1.4113e-02
8.750  22.750  1.4112e-02
8.750  23.000  1.4111e-02
8.750  23.250  1.4111e-02
8.750  23.500  1.4111e-02
8.750  23.750  1.4110e-02
8.750  24.000  1.4110e-02
9.000  17.000  7.3598e-03
9.000  17.250  7.6155e-03
9.000  17.500  8.3528e-03
9.000  17.750  9.8649e-03
9.000  18.000  1.2687e-02
9.000  18.250  1.7313e-02
9.000  18.500  2.2229e-02
9.000  18.750  2.4449e-02
9.000  19.000  2.7310e-02
9.000  19.250  2.6738e-02
9.000  19.500  2.4966e-02
9.000  19.750  2.1723e-02
9.000  20.000  1.8679e-02
9.000  20.250  1.6769e-02
9.000  20.500  1.5505e-02
9.000  20.750  1.4835e-02
9.000  21.000  1.4476e-02
9.000  21.250  1.4270e-02
9.000  21.500  1.4181e-02
9.000  21.750  1.4143e-02
9.000  22.000  1.4127e-02
9.000  22.250  1.4119e-02
9.000  22.500  1.4115e-02
9.000  22.750  1.4113e-02
9.000  23.000  1.4112e-02
9.000  23.250  1.4111e-02
9.000  23.500  1.4111e-02
9.000  23.750  1.4111e-02
9.000  24.000  1.4110e-02
9.250  17.000  6.4072e-03
9.250  17.250  6.5150e-03
9.250  17.500  6.9401e-03
9.250  17.750  7.8304e-03
9.250  18.000  9.5469e-03
9.250  18.250  1.2597e-02
9.250  18.500  1.7432e-02
9.250  18.750  2.1978e-02
9.250  19.000  2.4276e-02
9.250  19.250  2.7236e-02
9.250  19.500  2.6729e-02
9.250  19.750  2.5020e-02
9.250  20.000  2.1745e-02
9.250  20.250  1.8682e-02
9.250  20.500  1.6769e-02
9.250  20.750  1.5504e-02
9.250  21.000  1.4835e-02
9.250  21.250  1.4476e-02
9.250  21.500  1.4269e-02
9.250  21.750  1.4180e-02
9.250  22.000  1.4142e-02
9.250  22.250  1.4125e-02
9.250  22.500  1.4118e-02
9.250  22.750  1.4114e-02
9.250  23.000  1.4113e-02
9.250  23.250  1.4112e-02
9.250  23.500  1.4111e-02
9.250  23.750  1.4111e-02
9.250  24.000  1.4110e-02
9.500  17.000  5.7505e-03
9.500  17.250  5.7684e-03
9.500  17.500  6.0516e-03
9.500  17.750  6.6530e-03
9.500  18.000  7.7410e-03
9.500  18.250  9.6993e-03
9.500  18.500  1.3133e-02
9.500  18.750  1.8171e-02
9.500  19.000  2.1733e-02
9.500  19.250  2.4138e-02
9.500  19.500  2.7161e-02
9.500  19.750  2.6704e-02
9.500  20.000  2.5060e-02
9.500  20.250  2.1765e-02
9.500  20.500  1.8684e-02
9.500  20.750  1.6767e-02
9.500  21.000  1.5503e-02
9.500  21.250  1.4834e-02
9.500  21.500  1.4474e-02
9.500  21.750  1.4268e-02
9.500  22.000  1.4179e-02
9.500  22.250  1.4141e-02
9.500  22.500  1.4124e-02
9.500  22.750  1.4116e-02
9.500  23.000  1.4112e-02
9.500  23.250  1.4110e-02
9.500  23.500  1.4109e-02
9.500  23.750  1.4109e-02
9.500  24.000  1.4108e-02
9.750  17.000  5.3344e-03
9.750  17.250  5.2347e-03
9.750  17.500  5.4260e-03
9.750  17.750  5.8929e-03
9.750  18.000  6.7126e-03
9.750  18.250  8.0832e-03
9.750  18.500  1.0426e-02
9.750  18.750  1.4270e-02
9.750  19.000  1.9159e-02
9.750  19.250  2.1545e-02
9.750  19.500  2.4006e-02
9.750  19.750  2.7081e-02
9.750  20.000  2.6662e-02
9.750  20.250  2.5082e-02
9.750  20.500  2.1780e-02
9.750  20.750  1.8686e-02
9.750  21.000  1.6768e-02
9.750  21.250  1.5502e-02
9.750  21.500  1.4834e-02
9.750  21.750  1.4474e-02
9.750  22.000  1.4268e-02
9.750  22.250  1.4179e-02
9.750  22.500  1.4141e-02
9.750  22.750  1.4124e-02
9.750  23.000  1.4116e-02
9.750  23.250  1.4113e-02
9.750  23.500  1.4110e-02
9.750  23.750  1.4109e-02
9.750  24.000  1.4109e-02
10.000  17.000  5.1273e-03
10.000  17.250  4.8767e-03
10.000  17.500  4.9389e-03
10.000  17.750  5.3270e-03
10.000  18.000  6.0663e-03
10.000  18.250  7.1661e-03
10.000  18.500  8.8626e-03
10.000  18.750  1.1577e-02
10.000  19.000  1.5718e-02
10.000  19.250  1.9545e-02
10.000  19.500  2.1441e-02
10.000  19.750  2.3908e-02
10.000  20.000  2.7033e-02
10.000  20.250  2.6613e-02
10.000  20.500  2.5091e-02
10.000  20.750  2.1791e-02
10.000  21.000  1.8687e-02
10.000  21.250  1.6768e-02
10.000  21.500  1.5503e-02
10.000  21.750  1.4834e-02
10.000  22.000  1.4474e-02
10.000  22.250  1.4268e-02
10.000  22.500  1.4179e-02
10.000  22.750  1.4141e-02
10.000  23.000  1.4124e-02
10.000  23.250  1.4116e-02
10.000  23.500  1.4112e-02
10.000  23.750  1.4110e-02
10.000  24.000  1.4109e-02
10.250  17.000  5.1258e-03
10.250  17.250  4.7104e-03
10.250  17.500  4.6199e-03
10.250  17.750  4.8993e-03
10.250  18.000  5.5821e-03
10.250  18.250  6.5722e-03
10.250  18.500  7.9430e-03
10.250  18.750  9.9803e-03
10.250  19.000  1.3096e-02
10.250  19.250  1.7072e-02
10.250  19.500  1.9774e-02
10.250  19.750  2.1426e-02
10.250  20.000  2.3853e-02
10.250  20.250  2.7013e-02
10.250  20.500  2.6562e-02
10.250  20.750  2.5084e-02
10.250  21.000  2.1798e-02
10.250  21.250  1.8687e-02
10.250  21.500  1.6768e-02
10.250  21.750  1.5503e-02
10.250  22.000  1.4834e-02
10.250  22.250  1.4474e-02
10.250  22.500  1.4269e-02
10.250  22.750  1.4179e-02
10.250  23.000  1.4141e-02
10.250  23.250  1.4124e-02
10.250  23.500  1.4117e-02
10.250  23.750  1.4113e-02
10.250  24.000  1.4110e-02
10.500  17.000  5.2649e-03
10.500  17.250  4.7373e-03
10.500  17.500  4.4913e-03
10.500  17.750  4.6388e-03
10.500  18.000  5.2090e-03
10.500  18.250  6.1170e-03
10.500  18.500  7.2846e-03
10.500  18.750  8.8137e-03
10.500  19.000  1.0942e-02
10.500  19.250  1.4105e-02
10.500  19.500  1.7742e-02
10.500  19.750  1.9875e-02
10.500  20.000  2.1577e-02
10.500  20.250  2.3961e-02
10.500  20.500  2.7151e-02
10.500  20.750  2.6529e-02
10.500  21.000  2.5066e-02
10.500  21.250  2.1800e-02
10.500  21.500  1.8687e-02
10.500  21.750  1.6768e-02
10.500  22.000  1.5503e-02
10.500  22.250  1.4835e-02
10.500  22.500  1.4475e-02
10.500  22.750  1.4269e-02
10.500  23.000  1.4180e-02
10.500  23.250  1.4141e-02
10.500  23.500  1.4124e-02
10.500  23.750  1.4116e-02
10.500  24.000  1.4113e-02
10.750  17.000  5.4867e-03
10.750  17.250  4.9061e-03
10.750  17.500  4.5613e-03
10.750  17.750  4.5772e-03
10.750  18.000  4.9752e-03
10.750  18.250  5.6794e-03
10.750  18.500  6.6202e-03
10.750  18.750  7.7641e-03
10.750  19.000  9.2911e-03
10.750  19.250  1.1616e-02
10.750  19.500  1.4986e-02
10.750  19.750  1.8405e-02
10.750  20.000  2.0145e-02
10.750  20.250  2.2044e-02
10.750  20.500  2.4357e-02
10.750  20.750  2.7502e-02
10.750  21.000  2.6553e-02
10.750  21.250  2.5042e-02
10.750  21.500  2.1799e-02
10.750  21.750  1.8685e-02
10.750  22.000  1.6768e-02
10.750  22.250  1.5503e-02
10.750  22.500  1.4835e-02
10.750  22.750  1.4475e-02
10.750  23.000  1.4269e-02
10.750  23.250  1.4180e-02
10.750  23.500  1.4142e-02
10.750  23.750  1.4125e-02
10.750  24.000  1.4116e-02
11.000  17.000  5.7430e-03
11.000  17.250  5.1579e-03
11.000  17.500  4.7705e-03
11.000  17.750  4.6932e-03
11.000  18.000  4.9063e-03
11.000  18.250  5.3338e-03
11.000  18.500  5.9840e-03
11.000  18.750  6.8551e-03
11.000  19.000  8.0078e-03
11.000  19.250  9.6877e-03
11.000  19.500  1.2243e-02
11.000  19.750  1.5849e-02
11.000  20.000  1.8850e-02
11.000  20.250  2.0769e-02
11.000  20.500  2.2626e-02
11.000  20.750  2.5112e-02
11.000  21.000  2.8152e-02
11.000  21.250  2.6703e-02
11.000  21.500  2.5020e-02
11.000  21.750  2.1791e-02
11.000  22.000  1.8683e-02
11.000  22.250  1.6768e-02
11.000  22.500  1.5503e-02
11.000  22.750  1.4835e-02
11.000  23.000  1.4476e-02
11.000  23.250  1.4269e-02
11.000  23.500  1.4180e-02
11.000  23.750  1.4142e-02
11.000  24.000  1.4125e-02
11.250  17.000  5.9747e-03
11.250  17.250  5.4301e-03
11.250  17.500  5.0387e-03
11.250  17.750  4.9083e-03
11.250  18.000  4.9821e-03
11.250  18.250  5.1505e-03
11.250  18.500  5.4683e-03
11.250  18.750  6.1001e-03
11.250  19.000  6.9763e-03
11.250  19.250  8.2211e-03
11.250  19.500  1.0073e-02
11.250  19.750  1.2895e-02
11.250  20.000  1.6728e-02
11.250  20.250  1.9500e-02
11.250  20.500  2.1568e-02
11.250  20.750  2.3735e-02
11.250  21.000  2.6438e-02
11.250  21.250  2.9183e-02
11.250  21.500  2.7026e-02
11.250  21.750  2.5017e-02
11.250  22.000  2.1780e-02
11.250  22.250  1.8679e-02
11.250  22.500  1.6768e-02
11.250  22.750  1.5502e-02
11.250  23.000  1.4835e-02
11.250  23.250  1.4476e-02
11.250  23.500  1.4269e-02
11.250  23.750  1.4180e-02
11.250  24.000  1.4142e-02
11.500  17.000  6.1043e-03
11.500  17.250  5.6636e-03
11.500  17.500  5.3012e-03
11.500  17.750  5.1476e-03
11.500  18.000  5.2338e-03
11.500  18.250  5.5609e-03
11.500  18.500  6.1301e-03
11.500  18.750  6.9424e-03
11.500  19.000  7.9989e-03
11.500  19.250  9.3008e-03
11.500  19.500  1.0849e-02
11.500  19.750  1.2645e-02
11.500  20.000  1.4689e-02
11.500  20.250  1.6983e-02
11.500  20.500  1.9528e-02
11.500  20.750  2.2325e-02
11.500  21.000  2.5375e-02
11.500  21.250  2.8620e-02
11.500  21.500  3.0505e-02
11.500  21.750  2.7559e-02
11.500  22.000  2.5057e-02
11.500  22.250  2.1765e-02
11.500  22.500  1.8675e-02
11.500  22.750  1.6768e-02
11.500  23.000  1.5502e-02
11.500  23.250  1.4835e-02
11.500  23.500  1.4476e-02
11.500  23.750  1.4270e-02
11.500  24.000  1.4180e-02
11.750  17.000  6.0130e-03
11.750  17.250  5.7601e-03
11.750  17.500  5.4849e-03
11.750  17.750  5.3374e-03
11.750  18.000  5.2697e-03
11.750  18.250  5.4218e-03
11.750  18.500  5.8379e-03
11.750  18.750  6.5182e-03
11.750  19.000  7.4631e-03
11.750  19.250  8.6727e-03
11.750  19.500  1.0148e-02
11.750  19.750  1.1888e-02
11.750  20.000  1.3894e-02
11.750  20.250  1.6166e-02
11.750  20.500  1.8704e-02
11.750  20.750  2.1509e-02
11.750  21.000  2.4547e-02
11.750  21.250  2.7992e-02
11.750  21.500  3.1897e-02
11.750  21.750  3.1975e-02
11.750  22.000  2.8299e-02
11.750  22.250  2.5158e-02
11.750  22.500  2.1748e-02
11.750  22.750  1.8669e-02
11.750  23.000  1.6768e-02
11.750  23.250  1.5502e-02
11.750  23.500  1.4835e-02
11.750  23.750  1.4476e-02
11.750  24.000  1.4270e-02
12.000  17.000  5.5473e-03
12.000  17.250  5.5856e-03
12.000  17.500  5.4867e-03
12.000  17.750  5.4248e-03
12.000  18.000  5.3810e-03
12.000  18.250  5.3086e-03
12.000  18.500  5.1979e-03
12.000  18.750  5.1254e-03
12.000  19.000  5.2010e-03
12.000  19.250  5.5230e-03
12.000  19.500  6.2044e-03
12.000  19.750  7.2363e-03
12.000  20.000  8.8470e-03
12.000  20.250  1.1399e-02
12.000  20.500  1.5266e-02
12.000  20.750  1.9914e-02
12.000  21.000  2.3239e-02
12.000  21.250  2.7245e-02
12.000  21.500  3.1733e-02
12.000  21.750  3.6157e-02
12.000  22.000  3.3573e-02
12.000  22.250  2.8915e-02
12.000  22.500  2.5326e-02
12.000  22.750  2.1732e-02
12.000  23.000  1.8663e-02
12.000  23.250  1.6768e-02
12.000  23.500  1.5501e-02
12.000  23.750  1.4835e-02
12.000  24.000  1.4476e-02
12.250  17.000  4.5523e-03
12.250  17.250  5.0095e-03
12.250  17.500  5.1962e-03
12.250  17.750  5.3174e-03
12.250  18.000  5.3695e-03
12.250  18.250  5.3305e-03
12.250  18.500  5.2263e-03
12.250  18.750  5.1109e-03
12.250  19.000  5.0507e-03
12.250  19.250  5.1221e-03
12.250  19.500  5.4825e-03
12.250  19.750  6.2088e-03
12.250  20.000  7.3262e-03
12.250  20.250  9.1221e-03
12.250  20.500  1.1979e-02
12.250  20.750  1.6363e-02
12.250  21.000  2.1698e-02
12.250  21.250  2.6007e-02
12.250  21.500  3.1032e-02
12.250  21.750  3.6672e-02
12.250  22.000  4.0012e-02
12.250  22.250  3.5129e-02
12.250  22.500  2.9779e-02
12.250  22.750  2.5545e-02
12.250  23.000  2.1720e-02
12.250  23.250  1.8657e-02
12.250  23.500  1.6767e-02
12.250  23.750  1.5500e-02
12.250  24.000  1.4835e-02
12.500  17.000  2.7841e-03
12.500  17.250  3.9828e-03
12.500  17.500  4.5797e-03
12.500  17.750  4.9162e-03
12.500  18.000  5.1037e-03
12.500  18.250  5.1668e-03
12.500  18.500  5.1416e-03
12.500  18.750  5.0657e-03
12.500  19.000  4.9831e-03
12.500  19.250  4.9452e-03
12.500  19.500  5.0462e-03
12.500  19.750  5.4426e-03
12.500  20.000  6.2176e-03
12.500  20.250  7.4455e-03
12.500  20.500  9.4637e-03
12.500  20.750  1.2754e-02
12.500  21.000  1.8025e-02
12.500  21.250  2.4622e-02
12.500  21.500  2.9822e-02
12.500  21.750  3.5980e-02
12.500  22.000  4.2453e-02
12.500  22.250  4.3230e-02
12.500  22.500  3.6702e-02
12.500  22.750  3.0900e-02
12.500  23.000  2.5804e-02
12.500  23.250  2.1716e-02
12.500  23.500  1.8651e-02
12.500  23.750  1.6767e-02
12.500  24.000  1.5499e-02
12.750  17.000  2.2058e-03
12.750  17.250  2.6128e-03
12.750  17.500  3.5487e-03
12.750  17.750  4.1332e-03
12.750  18.000  4.4994e-03
12.750  18.250  4.7375e-03
12.750  18.500  4.8712e-03
12.750  18.750  4.9197e-03
12.750  19.000  4.8987e-03
12.750  19.250  4.8573e-03
12.750  19.500  4.8348e-03
12.750  19.750  4.9564e-03
12.750  20.000  5.3858e-03
12.750  20.250  6.2478e-03
12.750  20.500  7.6074e-03
12.750  20.750  9.9486e-03
12.750  21.000  1.3871e-02
12.750  21.250  2.0447e-02
12.750  21.500  2.8161e-02
12.750  21.750  3.4561e-02
12.750  22.000  4.2069e-02
12.750  22.250  4.8474e-02
12.750  22.500  4.6411e-02
12.750  22.750  3.8434e-02
12.750  23.000  3.1852e-02
12.750  23.250  2.6070e-02
12.750  23.500  2.1723e-02
12.750  23.750  1.8646e-02
12.750  24.000  1.6767e-02
13.000  17.000  2.5867e-03
13.000  17.250  2.6521e-03
13.000  17.500  3.4585e-03
13.000  17.750  5.0728e-03
13.000  18.000  7.3935e-03
13.000  18.250  1.0319e-02
13.000  18.500  1.3748e-02
13.000  18.750  1.7579e-02
13.000  19.000  2.1710e-02
13.000  19.250  2.6040e-02
13.000  19.500  3.0467e-02
13.000  19.750  3.4891e-02
13.000  20.000  3.9208e-02
13.000  20.250  4.3318e-02
13.000  20.500  4.7119e-02
13.000  20.750  5.0510e-02
13.000  21.000  5.3389e-02
13.000  21.250  5.5655e-02
13.000  21.500  5.7206e-02
13.000  21.750  5.7941e-02
13.000  22.000  5.7757e-02
13.000  22.250  5.6555e-02
13.000  22.500  5.4231e-02
13.000  22.750  4.9758e-02
13.000  23.000  4.0811e-02
13.000  23.250  3.2443e-02
13.000  23.500  2.6358e-02
13.000  23.750  2.1747e-02
13.000  24.000  1.8644e-02
13.250  17.000  2.3070e-03
13.250  17.250  2.3218e-03
13.250  17.500  3.2394e-03
13.250  17.750  5.1417e-03
13.250  18.000  7.9052e-03
13.250  18.250  1.1406e-02
13.250  18.500  1.5522e-02
13.250  18.750  2.0129e-02
13.250  19.000  2.5103e-02
13.250  19.250  3.0321e-02
13.250  19.500  3.5660e-02
13.250  19.750  4.0995e-02
13.250  20.000  4.6205e-02
13.250  20.250  5.1165e-02
13.250  20.500  5.5752e-02
13.250  20.750  5.9842e-02
13.250  21.000  6.3313e-02
13.250  21.250  6.6039e-02
13.250  21.500  6.7900e-02
13.250  21.750  6.8769e-02
13.250  22.000  6.8525e-02
13.250  22.250  6.7044e-02
13.250  22.500  6.4203e-02
13.250  22.750  5.9877e-02
13.250  23.000  5.3218e-02
13.250  23.250  4.2657e-02
13.250  23.500  3.3273e-02
13.250  23.750  2.6628e-02
13.250  24.000  2.1779e-02
13.500  17.000  2.1448e-03
13.500  17.250  2.0830e-03
13.500  17.500  1.6396e-03
13.500  17.750  1.7784e-03
13.500  18.000  1.9631e-03
13.500  18.250  2.2137e-03
13.500  18.500  2.6167e-03
13.500  18.750  3.2017e-03
13.500  19.000  3.9980e-03
13.500  19.250  5.0350e-03
13.500  19.500  6.3422e-03
13.500  19.750  7.9489e-03
13.500  20.000  9.8846e-03
13.500  20.250  1.2179e-02
13.500  20.500  1.4861e-02
13.500  20.750  1.7960e-02
13.500  21.000  2.1505e-02
13.500  21.250  2.5527e-02
13.500  21.500  3.0054e-02
13.500  21.750  3.5116e-02
13.500  22.000  4.0742e-02
13.500  22.250  4.6962e-02
13.500  22.500  5.3805e-02
13.500  22.750  6.1301e-02
13.500  23.000  6.5813e-02
13.500  23.250  5.6380e-02
13.500  23.500  4.4301e-02
13.500  23.750  3.4394e-02
13.500  24.000  2.6887e-02
13.750  17.000  2.0527e-03
13.750  17.250  1.9798e-03
13.750  17.500  1.9750e-03
13.750  17.750  2.0705e-03
13.750  18.000  2.2896e-03
13.750  18.250  2.6554e-03
13.750  18.500  3.1912e-03
13.750  18.750  3.9202e-03
13.750  19.000  4.8657e-03
13.750  19.250  6.0509e-03
13.750  19.500  7.4990e-03
13.750  19.750  9.2332e-03
13.750  20.000  1.1277e-02
13.750  20.250  1.3653e-02
13.750  20.500  1.6385e-02
13.750  20.750  1.9496e-02
13.750  21.000  2.3009e-02
13.750  21.250  2.6948e-02
13.750  21.500  3.1336e-02
13.750  21.750  3.6195e-02
13.750  22.000  4.1550e-02
13.750  22.250  4.7423e-02
13.750  22.500  5.3838e-02
13.750  22.750  6.0818e-02
13.750  23.000  6.8386e-02
13.750  23.250  7.2262e-02
13.750  23.500  5.9916e-02
13.750  23.750  4.5923e-02
13.750  24.000  3.5142e-02
14.000  17.000  1.9989e-03
14.000  17.250  1.9770e-03
14.000  17.500  1.5255e-03
14.000  17.750  1.4441e-03
14.000  18.000  1.5363e-03
14.000  18.250  1.6763e-03
14.000  18.500  1.8503e-03
14.000  18.750  2.0444e-03
14.000  19.000  2.2449e-03
14.000  19.250  2.4379e-03
14.000  19.500  2.6414e-03
14.000  19.750  2.9829e-03
14.000  20.000  3.6956e-03
14.000  20.250  5.3939e-03
14.000  20.500  8.1439e-03
14.000  20.750  1.1839e-02
14.000  21.000  1.6372e-02
14.000  21.250  2.1637e-02
14.000  21.500  2.7528e-02
14.000  21.750  3.3936e-02
14.000  22.000  4.0756e-02
14.000  22.250  4.7882e-02
14.000  22.500  5.5205e-02
14.000  22.750  6.2621e-02
14.000  23.000  7.0021e-02
14.000  23.250  7.7300e-02
14.000  23.500  7.9473e-02
14.000  23.750  6.3265e-02
14.000  24.000  4.7686e-02
