InwC 6209.66A  relative to Inci 1215.00A scaled to 1215A.
Hden   Phi(H)  Eq_Width (A)
7.000  17.000  5.9547e-03
7.000  17.250  5.9582e-03
7.000  17.500  5.9608e-03
7.000  17.750  5.9635e-03
7.000  18.000  5.9662e-03
7.000  18.250  5.9686e-03
7.000  18.500  5.9700e-03
7.000  18.750  5.9708e-03
7.000  19.000  5.9715e-03
7.000  19.250  5.9720e-03
7.000  19.500  5.9722e-03
7.000  19.750  5.9723e-03
7.000  20.000  5.9723e-03
7.000  20.250  5.9723e-03
7.000  20.500  5.9724e-03
7.000  20.750  5.9724e-03
7.000  21.000  5.9724e-03
7.000  21.250  5.9724e-03
7.000  21.500  5.9724e-03
7.000  21.750  5.9724e-03
7.000  22.000  5.9724e-03
7.000  22.250  5.9726e-03
7.000  22.500  5.9724e-03
7.000  22.750  5.9732e-03
7.000  23.000  5.9732e-03
7.000  23.250  5.9726e-03
7.000  23.500  5.9731e-03
7.000  23.750  5.9731e-03
7.000  24.000  5.9733e-03
7.250  17.000  5.7404e-03
7.250  17.250  5.9547e-03
7.250  17.500  5.9582e-03
7.250  17.750  5.9608e-03
7.250  18.000  5.9635e-03
7.250  18.250  5.9662e-03
7.250  18.500  5.9686e-03
7.250  18.750  5.9700e-03
7.250  19.000  5.9708e-03
7.250  19.250  5.9715e-03
7.250  19.500  5.9720e-03
7.250  19.750  5.9722e-03
7.250  20.000  5.9723e-03
7.250  20.250  5.9723e-03
7.250  20.500  5.9723e-03
7.250  20.750  5.9723e-03
7.250  21.000  5.9723e-03
7.250  21.250  5.9724e-03
7.250  21.500  5.9724e-03
7.250  21.750  5.9725e-03
7.250  22.000  5.9724e-03
7.250  22.250  5.9724e-03
7.250  22.500  5.9724e-03
7.250  22.750  5.9724e-03
7.250  23.000  5.9724e-03
7.250  23.250  5.9724e-03
7.250  23.500  5.9724e-03
7.250  23.750  5.9724e-03
7.250  24.000  5.9724e-03
7.500  17.000  5.3742e-03
7.500  17.250  5.7413e-03
7.500  17.500  5.9547e-03
7.500  17.750  5.9582e-03
7.500  18.000  5.9608e-03
7.500  18.250  5.9635e-03
7.500  18.500  5.9662e-03
7.500  18.750  5.9686e-03
7.500  19.000  5.9700e-03
7.500  19.250  5.9708e-03
7.500  19.500  5.9715e-03
7.500  19.750  5.9720e-03
7.500  20.000  5.9722e-03
7.500  20.250  5.9723e-03
7.500  20.500  5.9723e-03
7.500  20.750  5.9723e-03
7.500  21.000  5.9723e-03
7.500  21.250  5.9723e-03
7.500  21.500  5.9723e-03
7.500  21.750  5.9723e-03
7.500  22.000  5.9724e-03
7.500  22.250  5.9724e-03
7.500  22.500  5.9724e-03
7.500  22.750  5.9724e-03
7.500  23.000  5.9724e-03
7.500  23.250  5.9724e-03
7.500  23.500  5.9732e-03
7.500  23.750  5.9724e-03
7.500  24.000  5.9724e-03
7.750  17.000  3.8822e-03
7.750  17.250  5.3899e-03
7.750  17.500  5.7421e-03
7.750  17.750  5.9547e-03
7.750  18.000  5.9582e-03
7.750  18.250  5.9608e-03
7.750  18.500  5.9635e-03
7.750  18.750  5.9662e-03
7.750  19.000  5.9686e-03
7.750  19.250  5.9700e-03
7.750  19.500  5.9708e-03
7.750  19.750  5.9715e-03
7.750  20.000  5.9720e-03
7.750  20.250  5.9722e-03
7.750  20.500  5.9723e-03
7.750  20.750  5.9723e-03
7.750  21.000  5.9723e-03
7.750  21.250  5.9723e-03
7.750  21.500  5.9723e-03
7.750  21.750  5.9723e-03
7.750  22.000  5.9723e-03
7.750  22.250  5.9723e-03
7.750  22.500  5.9723e-03
7.750  22.750  5.9724e-03
7.750  23.000  5.9724e-03
7.750  23.250  5.9724e-03
7.750  23.500  5.9725e-03
7.750  23.750  5.9725e-03
7.750  24.000  5.9724e-03
8.000  17.000  2.7258e-03
8.000  17.250  3.8687e-03
8.000  17.500  5.3604e-03
8.000  17.750  5.7407e-03
8.000  18.000  5.9547e-03
8.000  18.250  5.9583e-03
8.000  18.500  5.9608e-03
8.000  18.750  5.9635e-03
8.000  19.000  5.9662e-03
8.000  19.250  5.9686e-03
8.000  19.500  5.9700e-03
8.000  19.750  5.9708e-03
8.000  20.000  5.9715e-03
8.000  20.250  5.9720e-03
8.000  20.500  5.9722e-03
8.000  20.750  5.9723e-03
8.000  21.000  5.9723e-03
8.000  21.250  5.9723e-03
8.000  21.500  5.9723e-03
8.000  21.750  5.9723e-03
8.000  22.000  5.9723e-03
8.000  22.250  5.9723e-03
8.000  22.500  5.9723e-03
8.000  22.750  5.9723e-03
8.000  23.000  5.9723e-03
8.000  23.250  5.9723e-03
8.000  23.500  5.9723e-03
8.000  23.750  5.9723e-03
8.000  24.000  5.9724e-03
8.250  17.000  1.9100e-03
8.250  17.250  2.7547e-03
8.250  17.500  3.8912e-03
8.250  17.750  5.3685e-03
8.250  18.000  5.7412e-03
8.250  18.250  5.9547e-03
8.250  18.500  5.9583e-03
8.250  18.750  5.9609e-03
8.250  19.000  5.9636e-03
8.250  19.250  5.9663e-03
8.250  19.500  5.9686e-03
8.250  19.750  5.9700e-03
8.250  20.000  5.9708e-03
8.250  20.250  5.9715e-03
8.250  20.500  5.9720e-03
8.250  20.750  5.9722e-03
8.250  21.000  5.9723e-03
8.250  21.250  5.9723e-03
8.250  21.500  5.9723e-03
8.250  21.750  5.9723e-03
8.250  22.000  5.9723e-03
8.250  22.250  5.9723e-03
8.250  22.500  5.9723e-03
8.250  22.750  5.9726e-03
8.250  23.000  5.9723e-03
8.250  23.250  5.9724e-03
8.250  23.500  5.9727e-03
8.250  23.750  5.9723e-03
8.250  24.000  5.9724e-03
8.500  17.000  1.3391e-03
8.500  17.250  1.9375e-03
8.500  17.500  2.7892e-03
8.500  17.750  3.9180e-03
8.500  18.000  5.3790e-03
8.500  18.250  5.7417e-03
8.500  18.500  5.9547e-03
8.500  18.750  5.9583e-03
8.500  19.000  5.9609e-03
8.500  19.250  5.9636e-03
8.500  19.500  5.9663e-03
8.500  19.750  5.9686e-03
8.500  20.000  5.9700e-03
8.500  20.250  5.9708e-03
8.500  20.500  5.9715e-03
8.500  20.750  5.9720e-03
8.500  21.000  5.9722e-03
8.500  21.250  5.9723e-03
8.500  21.500  5.9723e-03
8.500  21.750  5.9723e-03
8.500  22.000  5.9723e-03
8.500  22.250  5.9723e-03
8.500  22.500  5.9723e-03
8.500  22.750  5.9723e-03
8.500  23.000  5.9723e-03
8.500  23.250  5.9723e-03
8.500  23.500  5.9723e-03
8.500  23.750  5.9723e-03
8.500  24.000  5.9723e-03
8.750  17.000  9.4099e-04
8.750  17.250  1.3626e-03
8.750  17.500  1.9737e-03
8.750  17.750  2.8414e-03
8.750  18.000  3.9697e-03
8.750  18.250  5.4063e-03
8.750  18.500  5.7418e-03
8.750  18.750  5.9547e-03
8.750  19.000  5.9583e-03
8.750  19.250  5.9609e-03
8.750  19.500  5.9636e-03
8.750  19.750  5.9663e-03
8.750  20.000  5.9686e-03
8.750  20.250  5.9700e-03
8.750  20.500  5.9708e-03
8.750  20.750  5.9715e-03
8.750  21.000  5.9720e-03
8.750  21.250  5.9722e-03
8.750  21.500  5.9723e-03
8.750  21.750  5.9723e-03
8.750  22.000  5.9723e-03
8.750  22.250  5.9723e-03
8.750  22.500  5.9723e-03
8.750  22.750  5.9723e-03
8.750  23.000  5.9723e-03
8.750  23.250  5.9723e-03
8.750  23.500  5.9724e-03
8.750  23.750  5.9723e-03
8.750  24.000  5.9723e-03
9.000  17.000  6.6296e-04
9.000  17.250  9.6049e-04
9.000  17.500  1.3975e-03
9.000  17.750  2.0356e-03
9.000  18.000  2.9263e-03
9.000  18.250  4.0674e-03
9.000  18.500  5.4588e-03
9.000  18.750  5.7414e-03
9.000  19.000  5.9547e-03
9.000  19.250  5.9583e-03
9.000  19.500  5.9609e-03
9.000  19.750  5.9637e-03
9.000  20.000  5.9663e-03
9.000  20.250  5.9686e-03
9.000  20.500  5.9700e-03
9.000  20.750  5.9708e-03
9.000  21.000  5.9715e-03
9.000  21.250  5.9720e-03
9.000  21.500  5.9722e-03
9.000  21.750  5.9723e-03
9.000  22.000  5.9723e-03
9.000  22.250  5.9723e-03
9.000  22.500  5.9723e-03
9.000  22.750  5.9723e-03
9.000  23.000  5.9723e-03
9.000  23.250  5.9723e-03
9.000  23.500  5.9723e-03
9.000  23.750  5.9723e-03
9.000  24.000  5.9723e-03
9.250  17.000  4.6815e-04
9.250  17.250  6.7778e-04
9.250  17.500  9.9128e-04
9.250  17.750  1.4610e-03
9.250  18.000  2.1471e-03
9.250  18.250  3.0862e-03
9.250  18.500  4.2526e-03
9.250  18.750  5.5855e-03
9.250  19.000  5.7402e-03
9.250  19.250  5.9545e-03
9.250  19.500  5.9582e-03
9.250  19.750  5.9609e-03
9.250  20.000  5.9637e-03
9.250  20.250  5.9663e-03
9.250  20.500  5.9686e-03
9.250  20.750  5.9700e-03
9.250  21.000  5.9708e-03
9.250  21.250  5.9714e-03
9.250  21.500  5.9714e-03
9.250  21.750  5.9715e-03
9.250  22.000  5.9715e-03
9.250  22.250  5.9717e-03
9.250  22.500  5.9720e-03
9.250  22.750  5.9721e-03
9.250  23.000  5.9723e-03
9.250  23.250  5.9723e-03
9.250  23.500  5.9723e-03
9.250  23.750  5.9723e-03
9.250  24.000  5.9723e-03
9.500  17.000  3.3136e-04
9.500  17.250  4.8025e-04
9.500  17.500  7.0486e-04
9.500  17.750  1.0514e-03
9.500  18.000  1.5780e-03
9.500  18.250  2.3447e-03
9.500  18.500  3.3624e-03
9.500  18.750  4.5937e-03
9.500  19.000  5.5869e-03
9.500  19.250  5.7374e-03
9.500  19.500  5.9541e-03
9.500  19.750  5.9581e-03
9.500  20.000  5.9609e-03
9.500  20.250  5.9637e-03
9.500  20.500  5.9663e-03
9.500  20.750  5.9681e-03
9.500  21.000  5.9695e-03
9.500  21.250  5.9701e-03
9.500  21.500  5.9708e-03
9.500  21.750  5.9710e-03
9.500  22.000  5.9712e-03
9.500  22.250  5.9713e-03
9.500  22.500  5.9713e-03
9.500  22.750  5.9713e-03
9.500  23.000  5.9713e-03
9.500  23.250  5.9713e-03
9.500  23.500  5.9713e-03
9.500  23.750  5.9713e-03
9.500  24.000  5.9713e-03
9.750  17.000  2.3490e-04
9.750  17.250  3.3984e-04
9.750  17.500  5.0082e-04
9.750  17.750  7.5630e-04
9.750  18.000  1.1646e-03
9.750  18.250  1.7804e-03
9.750  18.500  2.6347e-03
9.750  18.750  3.7129e-03
9.750  19.000  5.0323e-03
9.750  19.250  5.5802e-03
9.750  19.500  5.7319e-03
9.750  19.750  5.9529e-03
9.750  20.000  5.9579e-03
9.750  20.250  5.9609e-03
9.750  20.500  5.9637e-03
9.750  20.750  5.9663e-03
9.750  21.000  5.9684e-03
9.750  21.250  5.9695e-03
9.750  21.500  5.9702e-03
9.750  21.750  5.9709e-03
9.750  22.000  5.9711e-03
9.750  22.250  5.9712e-03
9.750  22.500  5.9713e-03
9.750  22.750  5.9713e-03
9.750  23.000  5.9713e-03
9.750  23.250  5.9713e-03
9.750  23.500  5.9713e-03
9.750  23.750  5.9713e-03
9.750  24.000  5.9713e-03
10.000  17.000  1.6650e-04
10.000  17.250  2.4115e-04
10.000  17.500  3.5654e-04
10.000  17.750  5.4510e-04
10.000  18.000  8.6074e-04
10.000  18.250  1.3451e-03
10.000  18.500  2.0368e-03
10.000  18.750  2.9478e-03
10.000  19.000  4.1105e-03
10.000  19.250  5.2887e-03
10.000  19.500  5.5731e-03
10.000  19.750  5.7250e-03
10.000  20.000  5.9519e-03
10.000  20.250  5.9577e-03
10.000  20.500  5.9608e-03
10.000  20.750  5.9637e-03
10.000  21.000  5.9663e-03
10.000  21.250  5.9685e-03
10.000  21.500  5.9696e-03
10.000  21.750  5.9702e-03
10.000  22.000  5.9709e-03
10.000  22.250  5.9713e-03
10.000  22.500  5.9712e-03
10.000  22.750  5.9713e-03
10.000  23.000  5.9713e-03
10.000  23.250  5.9713e-03
10.000  23.500  5.9713e-03
10.000  23.750  5.9713e-03
10.000  24.000  5.9713e-03
10.250  17.000  1.1819e-04
10.250  17.250  1.7136e-04
10.250  17.500  2.5481e-04
10.250  17.750  3.9514e-04
10.250  18.000  6.3630e-04
10.250  18.250  1.0095e-03
10.250  18.500  1.5479e-03
10.250  18.750  2.2889e-03
10.250  19.000  3.2588e-03
10.250  19.250  4.5190e-03
10.250  19.500  5.4725e-03
10.250  19.750  5.5626e-03
10.250  20.000  5.7128e-03
10.250  20.250  5.9477e-03
10.250  20.500  5.9569e-03
10.250  20.750  5.9607e-03
10.250  21.000  5.9637e-03
10.250  21.250  5.9663e-03
10.250  21.500  5.9685e-03
10.250  21.750  5.9699e-03
10.250  22.000  5.9703e-03
10.250  22.250  5.9709e-03
10.250  22.500  5.9714e-03
10.250  22.750  5.9713e-03
10.250  23.000  5.9712e-03
10.250  23.250  5.9713e-03
10.250  23.500  5.9714e-03
10.250  23.750  5.9714e-03
10.250  24.000  5.9713e-03
10.500  17.000  8.4280e-05
10.500  17.250  1.2230e-04
10.500  17.500  1.8305e-04
10.500  17.750  2.8815e-04
10.500  18.000  4.7078e-04
10.500  18.250  7.5704e-04
10.500  18.500  1.1596e-03
10.500  18.750  1.7300e-03
10.500  19.000  2.5141e-03
10.500  19.250  3.5523e-03
10.500  19.500  4.8451e-03
10.500  19.750  5.4669e-03
10.500  20.000  5.5519e-03
10.500  20.250  5.7053e-03
10.500  20.500  5.9444e-03
10.500  20.750  5.9547e-03
10.500  21.000  5.9604e-03
10.500  21.250  5.9635e-03
10.500  21.500  5.9663e-03
10.500  21.750  5.9685e-03
10.500  22.000  5.9700e-03
10.500  22.250  5.9705e-03
10.500  22.500  5.9709e-03
10.500  22.750  5.9714e-03
10.500  23.000  5.9714e-03
10.500  23.250  5.9713e-03
10.500  23.500  5.9713e-03
10.500  23.750  5.9713e-03
10.500  24.000  5.9713e-03
10.750  17.000  6.0329e-05
10.750  17.250  8.7572e-05
10.750  17.500  1.3218e-04
10.750  17.750  2.1111e-04
10.750  18.000  3.4757e-04
10.750  18.250  5.5860e-04
10.750  18.500  8.5959e-04
10.750  18.750  1.2920e-03
10.750  19.000  1.8877e-03
10.750  19.250  2.7070e-03
10.750  19.500  3.7932e-03
10.750  19.750  5.1314e-03
10.750  20.000  5.4571e-03
10.750  20.250  5.5501e-03
10.750  20.500  5.6997e-03
10.750  20.750  5.9398e-03
10.750  21.000  5.9519e-03
10.750  21.250  5.9597e-03
10.750  21.500  5.9635e-03
10.750  21.750  5.9662e-03
10.750  22.000  5.9684e-03
10.750  22.250  5.9700e-03
10.750  22.500  5.9707e-03
10.750  22.750  5.9712e-03
10.750  23.000  5.9714e-03
10.750  23.250  5.9715e-03
10.750  23.500  5.9714e-03
10.750  23.750  5.9714e-03
10.750  24.000  5.9713e-03
11.000  17.000  4.3292e-05
11.000  17.250  6.2881e-05
11.000  17.500  9.5720e-05
11.000  17.750  1.5449e-04
11.000  18.000  2.5473e-04
11.000  18.250  4.0840e-04
11.000  18.500  6.3267e-04
11.000  18.750  9.5128e-04
11.000  19.000  1.3958e-03
11.000  19.250  2.0168e-03
11.000  19.500  2.8717e-03
11.000  19.750  4.0291e-03
11.000  20.000  5.3297e-03
11.000  20.250  5.4509e-03
11.000  20.500  5.5421e-03
11.000  20.750  5.7002e-03
11.000  21.000  5.9345e-03
11.000  21.250  5.9486e-03
11.000  21.500  5.9586e-03
11.000  21.750  5.9630e-03
11.000  22.000  5.9658e-03
11.000  22.250  5.9682e-03
11.000  22.500  5.9699e-03
11.000  22.750  5.9707e-03
11.000  23.000  5.9714e-03
11.000  23.250  5.9714e-03
11.000  23.500  5.9716e-03
11.000  23.750  5.9716e-03
11.000  24.000  5.9715e-03
11.250  17.000  3.1440e-05
11.250  17.250  4.5267e-05
11.250  17.500  6.9218e-05
11.250  17.750  1.1235e-04
11.250  18.000  1.8510e-04
11.250  18.250  2.9580e-04
11.250  18.500  4.5605e-04
11.250  18.750  6.9144e-04
11.250  19.000  1.0174e-03
11.250  19.250  1.4814e-03
11.250  19.500  2.1291e-03
11.250  19.750  3.0264e-03
11.250  20.000  4.2424e-03
11.250  20.250  5.3577e-03
11.250  20.500  5.4465e-03
11.250  20.750  5.5431e-03
11.250  21.000  5.7085e-03
11.250  21.250  5.9317e-03
11.250  21.500  5.9459e-03
11.250  21.750  5.9566e-03
11.250  22.000  5.9623e-03
11.250  22.250  5.9653e-03
11.250  22.500  5.9680e-03
11.250  22.750  5.9698e-03
11.250  23.000  5.9706e-03
11.250  23.250  5.9714e-03
11.250  23.500  5.9715e-03
11.250  23.750  5.9716e-03
11.250  24.000  5.9716e-03
11.500  17.000  2.3210e-05
11.500  17.250  3.3004e-05
11.500  17.500  5.0206e-05
11.500  17.750  8.1317e-05
11.500  18.000  1.3309e-04
11.500  18.250  2.1152e-04
11.500  18.500  3.2700e-04
11.500  18.750  4.9663e-04
11.500  19.000  7.3654e-04
11.500  19.250  1.0739e-03
11.500  19.500  1.5467e-03
11.500  19.750  2.2207e-03
11.500  20.000  3.1621e-03
11.500  20.250  4.4495e-03
11.500  20.500  5.3622e-03
11.500  20.750  5.4444e-03
11.500  21.000  5.5500e-03
11.500  21.250  5.7370e-03
11.500  21.500  5.9293e-03
11.500  21.750  5.9433e-03
11.500  22.000  5.9542e-03
11.500  22.250  5.9609e-03
11.500  22.500  5.9646e-03
11.500  22.750  5.9675e-03
11.500  23.000  5.9696e-03
11.500  23.250  5.9705e-03
11.500  23.500  5.9714e-03
11.500  23.750  5.9718e-03
11.500  24.000  5.9716e-03
11.750  17.000  1.7531e-05
11.750  17.250  2.4444e-05
11.750  17.500  3.6626e-05
11.750  17.750  5.8601e-05
11.750  18.000  9.4568e-05
11.750  18.250  1.4963e-04
11.750  18.500  2.3193e-04
11.750  18.750  3.5160e-04
11.750  19.000  5.2642e-04
11.750  19.250  7.7152e-04
11.750  19.500  1.1189e-03
11.750  19.750  1.6064e-03
11.750  20.000  2.3051e-03
11.750  20.250  3.2870e-03
11.750  20.500  4.6366e-03
11.750  20.750  5.3473e-03
11.750  21.000  5.4456e-03
11.750  21.250  5.5736e-03
11.750  21.500  5.7946e-03
11.750  21.750  5.9263e-03
11.750  22.000  5.9401e-03
11.750  22.250  5.9514e-03
11.750  22.500  5.9590e-03
11.750  22.750  5.9634e-03
11.750  23.000  5.9668e-03
11.750  23.250  5.9694e-03
11.750  23.500  5.9705e-03
11.750  23.750  5.9714e-03
11.750  24.000  5.9719e-03
12.000  17.000  1.3663e-05
12.000  17.250  1.8436e-05
12.000  17.500  2.6996e-05
12.000  17.750  4.2058e-05
12.000  18.000  6.6420e-05
12.000  18.250  1.0486e-04
12.000  18.500  1.6280e-04
12.000  18.750  2.4889e-04
12.000  19.000  3.7473e-04
12.000  19.250  5.5169e-04
12.000  19.500  8.0247e-04
12.000  19.750  1.1565e-03
12.000  20.000  1.6597e-03
12.000  20.250  2.3770e-03
12.000  20.500  3.3900e-03
12.000  20.750  4.7736e-03
12.000  21.000  5.3299e-03
12.000  21.250  5.4557e-03
12.000  21.500  5.6194e-03
12.000  21.750  5.8675e-03
12.000  22.000  5.9226e-03
12.000  22.250  5.9364e-03
12.000  22.500  5.9483e-03
12.000  22.750  5.9567e-03
12.000  23.000  5.9615e-03
12.000  23.250  5.9658e-03
12.000  23.500  5.9691e-03
12.000  23.750  5.9702e-03
12.000  24.000  5.9713e-03
12.250  17.000  1.0864e-05
12.250  17.250  1.4239e-05
12.250  17.500  2.0082e-05
12.250  17.750  3.0041e-05
12.250  18.000  4.6502e-05
12.250  18.250  7.3086e-05
12.250  18.500  1.1432e-04
12.250  18.750  1.7605e-04
12.250  19.000  2.6601e-04
12.250  19.250  3.9267e-04
12.250  19.500  5.7210e-04
12.250  19.750  8.2708e-04
12.250  20.000  1.1866e-03
12.250  20.250  1.7016e-03
12.250  20.500  2.4387e-03
12.250  20.750  3.4882e-03
12.250  21.000  4.8626e-03
12.250  21.250  5.3139e-03
12.250  21.500  5.4821e-03
12.250  21.750  5.6730e-03
12.250  22.000  5.8982e-03
12.250  22.250  5.9171e-03
12.250  22.500  5.9319e-03
12.250  22.750  5.9445e-03
12.250  23.000  5.9536e-03
12.250  23.250  5.9591e-03
12.250  23.500  5.9644e-03
12.250  23.750  5.9686e-03
12.250  24.000  5.9700e-03
12.500  17.000  8.8066e-06
12.500  17.250  1.1193e-05
12.500  17.500  1.4979e-05
12.500  17.750  2.1564e-05
12.500  18.000  3.2757e-05
12.500  18.250  5.1193e-05
12.500  18.500  8.0494e-05
12.500  18.750  1.2428e-04
12.500  19.000  1.8856e-04
12.500  19.250  2.7975e-04
12.500  19.500  4.0790e-04
12.500  19.750  5.9004e-04
12.500  20.000  8.4790e-04
12.500  20.250  1.2134e-03
12.500  20.500  1.7374e-03
12.500  20.750  2.4911e-03
12.500  21.000  3.5699e-03
12.500  21.250  5.0034e-03
12.500  21.500  5.3079e-03
12.500  21.750  5.5045e-03
12.500  22.000  5.7317e-03
12.500  22.250  5.8899e-03
12.500  22.500  5.9093e-03
12.500  22.750  5.9257e-03
12.500  23.000  5.9394e-03
12.500  23.250  5.9493e-03
12.500  23.500  5.9557e-03
12.500  23.750  5.9624e-03
12.500  24.000  5.9679e-03
12.750  17.000  6.9136e-06
12.750  17.250  8.7243e-06
12.750  17.500  1.1276e-05
12.750  17.750  1.5802e-05
12.750  18.000  2.3539e-05
12.750  18.250  3.6379e-05
12.750  18.500  5.6708e-05
12.750  18.750  8.7819e-05
12.750  19.000  1.3342e-04
12.750  19.250  1.9885e-04
12.750  19.500  2.9021e-04
12.750  19.750  4.1992e-04
12.750  20.000  6.0387e-04
12.750  20.250  8.6634e-04
12.750  20.500  1.2310e-03
12.750  20.750  1.7681e-03
12.750  21.000  2.5407e-03
12.750  21.250  3.6616e-03
12.750  21.500  4.9733e-03
12.750  21.750  5.2844e-03
12.750  22.000  5.5290e-03
12.750  22.250  5.7728e-03
12.750  22.500  5.8754e-03
12.750  22.750  5.8974e-03
12.750  23.000  5.9165e-03
12.750  23.250  5.9319e-03
12.750  23.500  5.9431e-03
12.750  23.750  5.9508e-03
12.750  24.000  5.9595e-03
13.000  17.000  1.9753e-06
13.000  17.250  3.9506e-06
13.000  17.500  8.8066e-06
13.000  17.750  1.2016e-05
13.000  18.000  1.7366e-05
13.000  18.250  2.6173e-05
13.000  18.500  4.0247e-05
13.000  18.750  6.2058e-05
13.000  19.000  9.4239e-05
13.000  19.250  1.4091e-04
13.000  19.500  2.0658e-04
13.000  19.750  2.9901e-04
13.000  20.000  4.2864e-04
13.000  20.250  6.1407e-04
13.000  20.500  8.7811e-04
13.000  20.750  1.2565e-03
13.000  21.000  1.8002e-03
13.000  21.250  2.5992e-03
13.000  21.500  3.7091e-03
13.000  21.750  4.9137e-03
13.000  22.000  5.2611e-03
13.000  22.250  5.5352e-03
13.000  22.500  5.7758e-03
13.000  22.750  5.8527e-03
13.000  23.000  5.8798e-03
13.000  23.250  5.9025e-03
13.000  23.500  5.9209e-03
13.000  23.750  5.9338e-03
13.000  24.000  5.9433e-03
13.250  17.000  1.1523e-06
13.250  17.250  2.2222e-06
13.250  17.500  5.1029e-06
13.250  17.750  8.9712e-06
13.250  18.000  1.3004e-05
13.250  18.250  1.9095e-05
13.250  18.500  2.8889e-05
13.250  18.750  4.3951e-05
13.250  19.000  6.6667e-05
13.250  19.250  9.9424e-05
13.250  19.500  1.4617e-04
13.250  19.750  2.1218e-04
13.250  20.000  3.0527e-04
13.250  20.250  4.3737e-04
13.250  20.500  6.2428e-04
13.250  20.750  8.9062e-04
13.250  21.000  1.2784e-03
13.250  21.250  1.8322e-03
13.250  21.500  2.6216e-03
13.250  21.750  3.7347e-03
13.250  22.000  4.8227e-03
13.250  22.250  5.1773e-03
13.250  22.500  5.4962e-03
13.250  22.750  5.7356e-03
13.250  23.000  5.8174e-03
13.250  23.250  5.8520e-03
13.250  23.500  5.8810e-03
13.250  23.750  5.9036e-03
13.250  24.000  5.9193e-03
13.500  17.000  1.0000e-07
13.500  17.250  1.3169e-06
13.500  17.500  2.8807e-06
13.500  17.750  5.7613e-06
13.500  18.000  9.9588e-06
13.500  18.250  1.4156e-05
13.500  18.500  2.0741e-05
13.500  18.750  3.1193e-05
13.500  19.000  4.6996e-05
13.500  19.250  7.0370e-05
13.500  19.500  1.0346e-04
13.500  19.750  1.5037e-04
13.500  20.000  2.1630e-04
13.500  20.250  3.1070e-04
13.500  20.500  4.4313e-04
13.500  20.750  6.3218e-04
13.500  21.000  9.0263e-04
13.500  21.250  1.2914e-03
13.500  21.500  1.8354e-03
13.500  21.750  2.6315e-03
13.500  22.000  3.7035e-03
13.500  22.250  4.6529e-03
13.500  22.500  5.0550e-03
13.500  22.750  5.4081e-03
13.500  23.000  5.6629e-03
13.500  23.250  5.7627e-03
13.500  23.500  5.8096e-03
13.500  23.750  5.8486e-03
13.500  24.000  5.8769e-03
13.750  17.000  1.0000e-07
13.750  17.250  1.0000e-07
13.750  17.500  1.7284e-06
13.750  17.750  3.4568e-06
13.750  18.000  6.7490e-06
13.750  18.250  1.0370e-05
13.750  18.500  1.5309e-05
13.750  18.750  2.2305e-05
13.750  19.000  3.3086e-05
13.750  19.250  4.9218e-05
13.750  19.500  7.2675e-05
13.750  19.750  1.0601e-04
13.750  20.000  1.5325e-04
13.750  20.250  2.2000e-04
13.750  20.500  3.1514e-04
13.750  20.750  4.4922e-04
13.750  21.000  6.4099e-04
13.750  21.250  9.1317e-04
13.750  21.500  1.2953e-03
13.750  21.750  1.8480e-03
13.750  22.000  2.6242e-03
13.750  22.250  3.6352e-03
13.750  22.500  4.4486e-03
13.750  22.750  4.8854e-03
13.750  23.000  5.2704e-03
13.750  23.250  5.5637e-03
13.750  23.500  5.6808e-03
13.750  23.750  5.7463e-03
13.750  24.000  5.7991e-03
14.000  17.000  1.0000e-07
14.000  17.250  1.0000e-07
14.000  17.500  9.8765e-07
14.000  17.750  2.0576e-06
14.000  18.000  4.2798e-06
14.000  18.250  7.6543e-06
14.000  18.500  1.1523e-05
14.000  18.750  1.6296e-05
14.000  19.000  2.3539e-05
14.000  19.250  3.4568e-05
14.000  19.500  5.0782e-05
14.000  19.750  7.4403e-05
14.000  20.000  1.0807e-04
14.000  20.250  1.5556e-04
14.000  20.500  2.2346e-04
14.000  20.750  3.1934e-04
14.000  21.000  4.5572e-04
14.000  21.250  6.4979e-04
14.000  21.500  9.1951e-04
14.000  21.750  1.3090e-03
14.000  22.000  1.8532e-03
14.000  22.250  2.5864e-03
14.000  22.500  3.5133e-03
14.000  22.750  4.2078e-03
14.000  23.000  4.6985e-03
14.000  23.250  5.0996e-03
14.000  23.500  5.4305e-03
14.000  23.750  5.5610e-03
14.000  24.000  5.6533e-03
