InwT 1585.12A  relative to Inci 1215.00A scaled to 1215A.
Hden   Phi(H)  Eq_Width (A)
7.000  17.000  3.7308e-02
7.000  17.250  2.7299e-02
7.000  17.500  2.1251e-02
7.000  17.750  1.7782e-02
7.000  18.000  1.5977e-02
7.000  18.250  1.4981e-02
7.000  18.500  1.4420e-02
7.000  18.750  1.4174e-02
7.000  19.000  1.4047e-02
7.000  19.250  1.3977e-02
7.000  19.500  1.3947e-02
7.000  19.750  1.3935e-02
7.000  20.000  1.3930e-02
7.000  20.250  1.3927e-02
7.000  20.500  1.3926e-02
7.000  20.750  1.3926e-02
7.000  21.000  1.3925e-02
7.000  21.250  1.3925e-02
7.000  21.500  1.3925e-02
7.000  21.750  1.3925e-02
7.000  22.000  1.3925e-02
7.000  22.250  1.3925e-02
7.000  22.500  1.3925e-02
7.000  22.750  1.3927e-02
7.000  23.000  1.3927e-02
7.000  23.250  1.3925e-02
7.000  23.500  1.3926e-02
7.000  23.750  1.3926e-02
7.000  24.000  1.3927e-02
7.250  17.000  4.1939e-02
7.250  17.250  3.7214e-02
7.250  17.500  2.7246e-02
7.250  17.750  2.1222e-02
7.250  18.000  1.7768e-02
7.250  18.250  1.5970e-02
7.250  18.500  1.4978e-02
7.250  18.750  1.4419e-02
7.250  19.000  1.4173e-02
7.250  19.250  1.4047e-02
7.250  19.500  1.3977e-02
7.250  19.750  1.3947e-02
7.250  20.000  1.3935e-02
7.250  20.250  1.3930e-02
7.250  20.500  1.3927e-02
7.250  20.750  1.3926e-02
7.250  21.000  1.3926e-02
7.250  21.250  1.3925e-02
7.250  21.500  1.3925e-02
7.250  21.750  1.3925e-02
7.250  22.000  1.3925e-02
7.250  22.250  1.3925e-02
7.250  22.500  1.3925e-02
7.250  22.750  1.3925e-02
7.250  23.000  1.3925e-02
7.250  23.250  1.3925e-02
7.250  23.500  1.3925e-02
7.250  23.750  1.3925e-02
7.250  24.000  1.3925e-02
7.500  17.000  4.7268e-02
7.500  17.250  4.1734e-02
7.500  17.500  3.7160e-02
7.500  17.750  2.7214e-02
7.500  18.000  2.1202e-02
7.500  18.250  1.7758e-02
7.500  18.500  1.5966e-02
7.500  18.750  1.4976e-02
7.500  19.000  1.4418e-02
7.500  19.250  1.4173e-02
7.500  19.500  1.4047e-02
7.500  19.750  1.3977e-02
7.500  20.000  1.3947e-02
7.500  20.250  1.3935e-02
7.500  20.500  1.3930e-02
7.500  20.750  1.3927e-02
7.500  21.000  1.3926e-02
7.500  21.250  1.3925e-02
7.500  21.500  1.3925e-02
7.500  21.750  1.3925e-02
7.500  22.000  1.3925e-02
7.500  22.250  1.3925e-02
7.500  22.500  1.3925e-02
7.500  22.750  1.3925e-02
7.500  23.000  1.3925e-02
7.500  23.250  1.3925e-02
7.500  23.500  1.3927e-02
7.500  23.750  1.3925e-02
7.500  24.000  1.3925e-02
7.750  17.000  4.4309e-02
7.750  17.250  4.6823e-02
7.750  17.500  4.1575e-02
7.750  17.750  3.7128e-02
7.750  18.000  2.7195e-02
7.750  18.250  2.1188e-02
7.750  18.500  1.7750e-02
7.750  18.750  1.5963e-02
7.750  19.000  1.4975e-02
7.750  19.250  1.4418e-02
7.750  19.500  1.4173e-02
7.750  19.750  1.4047e-02
7.750  20.000  1.3977e-02
7.750  20.250  1.3947e-02
7.750  20.500  1.3935e-02
7.750  20.750  1.3930e-02
7.750  21.000  1.3927e-02
7.750  21.250  1.3926e-02
7.750  21.500  1.3925e-02
7.750  21.750  1.3925e-02
7.750  22.000  1.3925e-02
7.750  22.250  1.3925e-02
7.750  22.500  1.3925e-02
7.750  22.750  1.3925e-02
7.750  23.000  1.3925e-02
7.750  23.250  1.3925e-02
7.750  23.500  1.3925e-02
7.750  23.750  1.3925e-02
7.750  24.000  1.3925e-02
8.000  17.000  4.1133e-02
8.000  17.250  4.3344e-02
8.000  17.500  4.6014e-02
8.000  17.750  4.1317e-02
8.000  18.000  3.7110e-02
8.000  18.250  2.7183e-02
8.000  18.500  2.1178e-02
8.000  18.750  1.7743e-02
8.000  19.000  1.5960e-02
8.000  19.250  1.4974e-02
8.000  19.500  1.4418e-02
8.000  19.750  1.4173e-02
8.000  20.000  1.4047e-02
8.000  20.250  1.3977e-02
8.000  20.500  1.3947e-02
8.000  20.750  1.3935e-02
8.000  21.000  1.3930e-02
8.000  21.250  1.3927e-02
8.000  21.500  1.3926e-02
8.000  21.750  1.3925e-02
8.000  22.000  1.3925e-02
8.000  22.250  1.3925e-02
8.000  22.500  1.3925e-02
8.000  22.750  1.3925e-02
8.000  23.000  1.3925e-02
8.000  23.250  1.3925e-02
8.000  23.500  1.3925e-02
8.000  23.750  1.3925e-02
8.000  24.000  1.3925e-02
8.250  17.000  3.8717e-02
8.250  17.250  4.0735e-02
8.250  17.500  4.3007e-02
8.250  17.750  4.5764e-02
8.250  18.000  4.1239e-02
8.250  18.250  3.7098e-02
8.250  18.500  2.7176e-02
8.250  18.750  2.1168e-02
8.250  19.000  1.7737e-02
8.250  19.250  1.5958e-02
8.250  19.500  1.4973e-02
8.250  19.750  1.4417e-02
8.250  20.000  1.4173e-02
8.250  20.250  1.4047e-02
8.250  20.500  1.3977e-02
8.250  20.750  1.3947e-02
8.250  21.000  1.3935e-02
8.250  21.250  1.3930e-02
8.250  21.500  1.3927e-02
8.250  21.750  1.3926e-02
8.250  22.000  1.3925e-02
8.250  22.250  1.3925e-02
8.250  22.500  1.3925e-02
8.250  22.750  1.3925e-02
8.250  23.000  1.3925e-02
8.250  23.250  1.3925e-02
8.250  23.500  1.3925e-02
8.250  23.750  1.3925e-02
8.250  24.000  1.3925e-02
8.500  17.000  3.6664e-02
8.500  17.250  3.8437e-02
8.500  17.500  4.0530e-02
8.500  17.750  4.2850e-02
8.500  18.000  4.5633e-02
8.500  18.250  4.1186e-02
8.500  18.500  3.7089e-02
8.500  18.750  2.7172e-02
8.500  19.000  2.1160e-02
8.500  19.250  1.7730e-02
8.500  19.500  1.5955e-02
8.500  19.750  1.4973e-02
8.500  20.000  1.4417e-02
8.500  20.250  1.4173e-02
8.500  20.500  1.4047e-02
8.500  20.750  1.3977e-02
8.500  21.000  1.3947e-02
8.500  21.250  1.3935e-02
8.500  21.500  1.3930e-02
8.500  21.750  1.3927e-02
8.500  22.000  1.3926e-02
8.500  22.250  1.3925e-02
8.500  22.500  1.3925e-02
8.500  22.750  1.3925e-02
8.500  23.000  1.3925e-02
8.500  23.250  1.3925e-02
8.500  23.500  1.3925e-02
8.500  23.750  1.3925e-02
8.500  24.000  1.3925e-02
8.750  17.000  3.4890e-02
8.750  17.250  3.6519e-02
8.750  17.500  3.8365e-02
8.750  17.750  4.0501e-02
8.750  18.000  4.2873e-02
8.750  18.250  4.5656e-02
8.750  18.500  4.1161e-02
8.750  18.750  3.7080e-02
8.750  19.000  2.7169e-02
8.750  19.250  2.1151e-02
8.750  19.500  1.7723e-02
8.750  19.750  1.5953e-02
8.750  20.000  1.4972e-02
8.750  20.250  1.4417e-02
8.750  20.500  1.4173e-02
8.750  20.750  1.4047e-02
8.750  21.000  1.3977e-02
8.750  21.250  1.3947e-02
8.750  21.500  1.3935e-02
8.750  21.750  1.3930e-02
8.750  22.000  1.3927e-02
8.750  22.250  1.3926e-02
8.750  22.500  1.3925e-02
8.750  22.750  1.3925e-02
8.750  23.000  1.3925e-02
8.750  23.250  1.3925e-02
8.750  23.500  1.3925e-02
8.750  23.750  1.3925e-02
8.750  24.000  1.3925e-02
9.000  17.000  3.3220e-02
9.000  17.250  3.4878e-02
9.000  17.500  3.6594e-02
9.000  17.750  3.8537e-02
9.000  18.000  4.0747e-02
9.000  18.250  4.3177e-02
9.000  18.500  4.5842e-02
9.000  18.750  4.1137e-02
9.000  19.000  3.7070e-02
9.000  19.250  2.7166e-02
9.000  19.500  2.1142e-02
9.000  19.750  1.7717e-02
9.000  20.000  1.5951e-02
9.000  20.250  1.4972e-02
9.000  20.500  1.4417e-02
9.000  20.750  1.4173e-02
9.000  21.000  1.4047e-02
9.000  21.250  1.3977e-02
9.000  21.500  1.3947e-02
9.000  21.750  1.3935e-02
9.000  22.000  1.3930e-02
9.000  22.250  1.3927e-02
9.000  22.500  1.3926e-02
9.000  22.750  1.3925e-02
9.000  23.000  1.3925e-02
9.000  23.250  1.3925e-02
9.000  23.500  1.3925e-02
9.000  23.750  1.3925e-02
9.000  24.000  1.3925e-02
9.250  17.000  3.1453e-02
9.250  17.250  3.3290e-02
9.250  17.500  3.5101e-02
9.250  17.750  3.6983e-02
9.250  18.000  3.9057e-02
9.250  18.250  4.1413e-02
9.250  18.500  4.4054e-02
9.250  18.750  4.6375e-02
9.250  19.000  4.1093e-02
9.250  19.250  3.7058e-02
9.250  19.500  2.7165e-02
9.250  19.750  2.1135e-02
9.250  20.000  1.7710e-02
9.250  20.250  1.5949e-02
9.250  20.500  1.4972e-02
9.250  20.750  1.4417e-02
9.250  21.000  1.4173e-02
9.250  21.250  1.4047e-02
9.250  21.500  1.3975e-02
9.250  21.750  1.3946e-02
9.250  22.000  1.3933e-02
9.250  22.250  1.3928e-02
9.250  22.500  1.3927e-02
9.250  22.750  1.3926e-02
9.250  23.000  1.3925e-02
9.250  23.250  1.3925e-02
9.250  23.500  1.3925e-02
9.250  23.750  1.3925e-02
9.250  24.000  1.3925e-02
9.500  17.000  2.9426e-02
9.500  17.250  3.1562e-02
9.500  17.500  3.3640e-02
9.500  17.750  3.5715e-02
9.500  18.000  3.7804e-02
9.500  18.250  4.0141e-02
9.500  18.500  4.2867e-02
9.500  18.750  4.5962e-02
9.500  19.000  4.6079e-02
9.500  19.250  4.1015e-02
9.500  19.500  3.7044e-02
9.500  19.750  2.7163e-02
9.500  20.000  2.1129e-02
9.500  20.250  1.7705e-02
9.500  20.500  1.5948e-02
9.500  20.750  1.4971e-02
9.500  21.000  1.4415e-02
9.500  21.250  1.4171e-02
9.500  21.500  1.4045e-02
9.500  21.750  1.3974e-02
9.500  22.000  1.3945e-02
9.500  22.250  1.3933e-02
9.500  22.500  1.3927e-02
9.500  22.750  1.3925e-02
9.500  23.000  1.3924e-02
9.500  23.250  1.3923e-02
9.500  23.500  1.3923e-02
9.500  23.750  1.3922e-02
9.500  24.000  1.3922e-02
9.750  17.000  2.7013e-02
9.750  17.250  2.9465e-02
9.750  17.500  3.1935e-02
9.750  17.750  3.4395e-02
9.750  18.000  3.6824e-02
9.750  18.250  3.9368e-02
9.750  18.500  4.2124e-02
9.750  18.750  4.5171e-02
9.750  19.000  4.8733e-02
9.750  19.250  4.5546e-02
9.750  19.500  4.0868e-02
9.750  19.750  3.7026e-02
9.750  20.000  2.7161e-02
9.750  20.250  2.1126e-02
9.750  20.500  1.7700e-02
9.750  20.750  1.5947e-02
9.750  21.000  1.4971e-02
9.750  21.250  1.4415e-02
9.750  21.500  1.4171e-02
9.750  21.750  1.4045e-02
9.750  22.000  1.3974e-02
9.750  22.250  1.3945e-02
9.750  22.500  1.3933e-02
9.750  22.750  1.3927e-02
9.750  23.000  1.3925e-02
9.750  23.250  1.3924e-02
9.750  23.500  1.3923e-02
9.750  23.750  1.3923e-02
9.750  24.000  1.3922e-02
10.000  17.000  2.4151e-02
10.000  17.250  2.6905e-02
10.000  17.500  2.9777e-02
10.000  17.750  3.2787e-02
10.000  18.000  3.5829e-02
10.000  18.250  3.8827e-02
10.000  18.500  4.1659e-02
10.000  18.750  4.4607e-02
10.000  19.000  4.8109e-02
10.000  19.250  5.1028e-02
10.000  19.500  4.5151e-02
10.000  19.750  4.0740e-02
10.000  20.000  3.7008e-02
10.000  20.250  2.7158e-02
10.000  20.500  2.1124e-02
10.000  20.750  1.7697e-02
10.000  21.000  1.5946e-02
10.000  21.250  1.4971e-02
10.000  21.500  1.4415e-02
10.000  21.750  1.4171e-02
10.000  22.000  1.4045e-02
10.000  22.250  1.3975e-02
10.000  22.500  1.3945e-02
10.000  22.750  1.3933e-02
10.000  23.000  1.3927e-02
10.000  23.250  1.3925e-02
10.000  23.500  1.3924e-02
10.000  23.750  1.3923e-02
10.000  24.000  1.3923e-02
10.250  17.000  2.1478e-02
10.250  17.250  2.3929e-02
10.250  17.500  2.7165e-02
10.250  17.750  3.0696e-02
10.250  18.000  3.4456e-02
10.250  18.250  3.8031e-02
10.250  18.500  4.1128e-02
10.250  18.750  4.4041e-02
10.250  19.000  4.7139e-02
10.250  19.250  5.1094e-02
10.250  19.500  5.2742e-02
10.250  19.750  4.4944e-02
10.250  20.000  4.0556e-02
10.250  20.250  3.6990e-02
10.250  20.500  2.7154e-02
10.250  20.750  2.1124e-02
10.250  21.000  1.7695e-02
10.250  21.250  1.5946e-02
10.250  21.500  1.4971e-02
10.250  21.750  1.4416e-02
10.250  22.000  1.4172e-02
10.250  22.250  1.4045e-02
10.250  22.500  1.3975e-02
10.250  22.750  1.3945e-02
10.250  23.000  1.3933e-02
10.250  23.250  1.3927e-02
10.250  23.500  1.3925e-02
10.250  23.750  1.3924e-02
10.250  24.000  1.3923e-02
10.500  17.000  1.9257e-02
10.500  17.250  2.1201e-02
10.500  17.500  2.4184e-02
10.500  17.750  2.8176e-02
10.500  18.000  3.2426e-02
10.500  18.250  3.6435e-02
10.500  18.500  3.9899e-02
10.500  18.750  4.2879e-02
10.500  19.000  4.5824e-02
10.500  19.250  4.9326e-02
10.500  19.500  5.3915e-02
10.500  19.750  5.2734e-02
10.500  20.000  4.5171e-02
10.500  20.250  4.0585e-02
10.500  20.500  3.6990e-02
10.500  20.750  2.7149e-02
10.500  21.000  2.1125e-02
10.500  21.250  1.7694e-02
10.500  21.500  1.5946e-02
10.500  21.750  1.4971e-02
10.500  22.000  1.4416e-02
10.500  22.250  1.4172e-02
10.500  22.500  1.4046e-02
10.500  22.750  1.3975e-02
10.500  23.000  1.3946e-02
10.500  23.250  1.3933e-02
10.500  23.500  1.3927e-02
10.500  23.750  1.3925e-02
10.500  24.000  1.3924e-02
10.750  17.000  1.7659e-02
10.750  17.250  1.9032e-02
10.750  17.500  2.1517e-02
10.750  17.750  2.5297e-02
10.750  18.000  2.9619e-02
10.750  18.250  3.3750e-02
10.750  18.500  3.7419e-02
10.750  18.750  4.0679e-02
10.750  19.000  4.3793e-02
10.750  19.250  4.7100e-02
10.750  19.500  5.1062e-02
10.750  19.750  5.5910e-02
10.750  20.000  5.2706e-02
10.750  20.250  4.6289e-02
10.750  20.500  4.0995e-02
10.750  20.750  3.7013e-02
10.750  21.000  2.7143e-02
10.750  21.250  2.1126e-02
10.750  21.500  1.7694e-02
10.750  21.750  1.5947e-02
10.750  22.000  1.4971e-02
10.750  22.250  1.4416e-02
10.750  22.500  1.4173e-02
10.750  22.750  1.4046e-02
10.750  23.000  1.3975e-02
10.750  23.250  1.3946e-02
10.750  23.500  1.3933e-02
10.750  23.750  1.3928e-02
10.750  24.000  1.3925e-02
11.000  17.000  1.6585e-02
11.000  17.250  1.7559e-02
11.000  17.500  1.9415e-02
11.000  17.750  2.2373e-02
11.000  18.000  2.6102e-02
11.000  18.250  2.9975e-02
11.000  18.500  3.3785e-02
11.000  18.750  3.7416e-02
11.000  19.000  4.0906e-02
11.000  19.250  4.4319e-02
11.000  19.500  4.7929e-02
11.000  19.750  5.2107e-02
11.000  20.000  5.6330e-02
11.000  20.250  5.4151e-02
11.000  20.500  4.6803e-02
11.000  20.750  4.1657e-02
11.000  21.000  3.7067e-02
11.000  21.250  2.7136e-02
11.000  21.500  2.1126e-02
11.000  21.750  1.7696e-02
11.000  22.000  1.5949e-02
11.000  22.250  1.4971e-02
11.000  22.500  1.4416e-02
11.000  22.750  1.4173e-02
11.000  23.000  1.4047e-02
11.000  23.250  1.3975e-02
11.000  23.500  1.3946e-02
11.000  23.750  1.3933e-02
11.000  24.000  1.3928e-02
11.250  17.000  1.5911e-02
11.250  17.250  1.6656e-02
11.250  17.500  1.7867e-02
11.250  17.750  1.9746e-02
11.250  18.000  2.2405e-02
11.250  18.250  2.5636e-02
11.250  18.500  2.9380e-02
11.250  18.750  3.3366e-02
11.250  19.000  3.7232e-02
11.250  19.250  4.0882e-02
11.250  19.500  4.4452e-02
11.250  19.750  4.8276e-02
11.250  20.000  5.2698e-02
11.250  20.250  5.7254e-02
11.250  20.500  5.5069e-02
11.250  20.750  4.8417e-02
11.250  21.000  4.2902e-02
11.250  21.250  3.7141e-02
11.250  21.500  2.7125e-02
11.250  21.750  2.1124e-02
11.250  22.000  1.7699e-02
11.250  22.250  1.5951e-02
11.250  22.500  1.4972e-02
11.250  22.750  1.4416e-02
11.250  23.000  1.4173e-02
11.250  23.250  1.4047e-02
11.250  23.500  1.3975e-02
11.250  23.750  1.3946e-02
11.250  24.000  1.3934e-02
11.500  17.000  1.5552e-02
11.500  17.250  1.6097e-02
11.500  17.500  1.6746e-02
11.500  17.750  1.7667e-02
11.500  18.000  1.9136e-02
11.500  18.250  2.1453e-02
11.500  18.500  2.4756e-02
11.500  18.750  2.8792e-02
11.500  19.000  3.3079e-02
11.500  19.250  3.6996e-02
11.500  19.500  4.0681e-02
11.500  19.750  4.4484e-02
11.500  20.000  4.8675e-02
11.500  20.250  5.3506e-02
11.500  20.500  5.8163e-02
11.500  20.750  5.6928e-02
11.500  21.000  5.0589e-02
11.500  21.250  4.5097e-02
11.500  21.500  3.7214e-02
11.500  21.750  2.7106e-02
11.500  22.000  2.1117e-02
11.500  22.250  1.7702e-02
11.500  22.500  1.5953e-02
11.500  22.750  1.4972e-02
11.500  23.000  1.4416e-02
11.500  23.250  1.4173e-02
11.500  23.500  1.4047e-02
11.500  23.750  1.3976e-02
11.500  24.000  1.3946e-02
11.750  17.000  1.5428e-02
11.750  17.250  1.5671e-02
11.750  17.500  1.5868e-02
11.750  17.750  1.6111e-02
11.750  18.000  1.6672e-02
11.750  18.250  1.8094e-02
11.750  18.500  2.0634e-02
11.750  18.750  2.4284e-02
11.750  19.000  2.8616e-02
11.750  19.250  3.2954e-02
11.750  19.500  3.6865e-02
11.750  19.750  4.0723e-02
11.750  20.000  4.4898e-02
11.750  20.250  4.9547e-02
11.750  20.500  5.4987e-02
11.750  20.750  5.9138e-02
11.750  21.000  5.9841e-02
11.750  21.250  5.4410e-02
11.750  21.500  4.8537e-02
11.750  21.750  3.7259e-02
11.750  22.000  2.7075e-02
11.750  22.250  2.1102e-02
11.750  22.500  1.7706e-02
11.750  22.750  1.5956e-02
11.750  23.000  1.4973e-02
11.750  23.250  1.4415e-02
11.750  23.500  1.4173e-02
11.750  23.750  1.4047e-02
11.750  24.000  1.3976e-02
12.000  17.000  1.5361e-02
12.000  17.250  1.5269e-02
12.000  17.500  1.5056e-02
12.000  17.750  1.4862e-02
12.000  18.000  1.4992e-02
12.000  18.250  1.5767e-02
12.000  18.500  1.7551e-02
12.000  18.750  2.0444e-02
12.000  19.000  2.4344e-02
12.000  19.250  2.8832e-02
12.000  19.500  3.3207e-02
12.000  19.750  3.7210e-02
12.000  20.000  4.1379e-02
12.000  20.250  4.6028e-02
12.000  20.500  5.1227e-02
12.000  20.750  5.7394e-02
12.000  21.000  6.2169e-02
12.000  21.250  6.4387e-02
12.000  21.500  5.9693e-02
12.000  21.750  5.2733e-02
12.000  22.000  3.7285e-02
12.000  22.250  2.7031e-02
12.000  22.500  2.1077e-02
12.000  22.750  1.7709e-02
12.000  23.000  1.5959e-02
12.000  23.250  1.4974e-02
12.000  23.500  1.4415e-02
12.000  23.750  1.4173e-02
12.000  24.000  1.4047e-02
12.250  17.000  1.5240e-02
12.250  17.250  1.4785e-02
12.250  17.500  1.4212e-02
12.250  17.750  1.4376e-02
12.250  18.000  1.5436e-02
12.250  18.250  1.7298e-02
12.250  18.500  1.9869e-02
12.250  18.750  2.3055e-02
12.250  19.000  2.6764e-02
12.250  19.250  3.0902e-02
12.250  19.500  3.5377e-02
12.250  19.750  4.0094e-02
12.250  20.000  4.4961e-02
12.250  20.250  4.9885e-02
12.250  20.500  5.4772e-02
12.250  20.750  5.9530e-02
12.250  21.000  6.4065e-02
12.250  21.250  6.8283e-02
12.250  21.500  7.0696e-02
12.250  21.750  6.6212e-02
12.250  22.000  5.4779e-02
12.250  22.250  3.7263e-02
12.250  22.500  2.6971e-02
12.250  22.750  2.1040e-02
12.250  23.000  1.7711e-02
12.250  23.250  1.5961e-02
12.250  23.500  1.4976e-02
12.250  23.750  1.4414e-02
12.250  24.000  1.4172e-02
12.500  17.000  1.4816e-02
12.500  17.250  1.4071e-02
12.500  17.500  1.4556e-02
12.500  17.750  1.6373e-02
12.500  18.000  1.9341e-02
12.500  18.250  2.3279e-02
12.500  18.500  2.8006e-02
12.500  18.750  3.3342e-02
12.500  19.000  3.9107e-02
12.500  19.250  4.5118e-02
12.500  19.500  5.1196e-02
12.500  19.750  5.7160e-02
12.500  20.000  6.2829e-02
12.500  20.250  6.8023e-02
12.500  20.500  7.2561e-02
12.500  20.750  7.6261e-02
12.500  21.000  7.8944e-02
12.500  21.250  8.0428e-02
12.500  21.500  8.0533e-02
12.500  21.750  7.9078e-02
12.500  22.000  7.3121e-02
12.500  22.250  5.4998e-02
12.500  22.500  3.7208e-02
12.500  22.750  2.6896e-02
12.500  23.000  2.0994e-02
12.500  23.250  1.7709e-02
12.500  23.500  1.5963e-02
12.500  23.750  1.4976e-02
12.500  24.000  1.4413e-02
12.750  17.000  1.3687e-02
12.750  17.250  1.3033e-02
12.750  17.500  1.3874e-02
12.750  17.750  1.6332e-02
12.750  18.000  2.0182e-02
12.750  18.250  2.5202e-02
12.750  18.500  3.1168e-02
12.750  18.750  3.7857e-02
12.750  19.000  4.5046e-02
12.750  19.250  5.2511e-02
12.750  19.500  6.0030e-02
12.750  19.750  6.7379e-02
12.750  20.000  7.4334e-02
12.750  20.250  8.0673e-02
12.750  20.500  8.6173e-02
12.750  20.750  9.0609e-02
12.750  21.000  9.3759e-02
12.750  21.250  9.5400e-02
12.750  21.500  9.5308e-02
12.750  21.750  9.3261e-02
12.750  22.000  8.9034e-02
12.750  22.250  7.8957e-02
12.750  22.500  5.5091e-02
12.750  22.750  3.7139e-02
12.750  23.000  2.6806e-02
12.750  23.250  2.0943e-02
12.750  23.500  1.7703e-02
12.750  23.750  1.5964e-02
12.750  24.000  1.4977e-02
13.000  17.000  5.0927e-03
13.000  17.250  6.7982e-03
13.000  17.500  1.1243e-02
13.000  17.750  1.1014e-02
13.000  18.000  1.1211e-02
13.000  18.250  1.1939e-02
13.000  18.500  1.3226e-02
13.000  18.750  1.5050e-02
13.000  19.000  1.7322e-02
13.000  19.250  1.9888e-02
13.000  19.500  2.2845e-02
13.000  19.750  2.6533e-02
13.000  20.000  3.1073e-02
13.000  20.250  3.6333e-02
13.000  20.500  4.2241e-02
13.000  20.750  4.8499e-02
13.000  21.000  5.7224e-02
13.000  21.250  6.8971e-02
13.000  21.500  8.2261e-02
13.000  21.750  9.5131e-02
13.000  22.000  1.0170e-01
13.000  22.250  9.8816e-02
13.000  22.500  8.2259e-02
13.000  22.750  5.5136e-02
13.000  23.000  3.7066e-02
13.000  23.250  2.6714e-02
13.000  23.500  2.0885e-02
13.000  23.750  1.7693e-02
13.000  24.000  1.5962e-02
13.250  17.000  3.3685e-03
13.250  17.250  4.4252e-03
13.250  17.500  7.3710e-03
13.250  17.750  9.9783e-03
13.250  18.000  1.0661e-02
13.250  18.250  1.1408e-02
13.250  18.500  1.2677e-02
13.250  18.750  1.4495e-02
13.250  19.000  1.6801e-02
13.250  19.250  1.9467e-02
13.250  19.500  2.2448e-02
13.250  19.750  2.5815e-02
13.250  20.000  2.9867e-02
13.250  20.250  3.4707e-02
13.250  20.500  4.0561e-02
13.250  20.750  4.7505e-02
13.250  21.000  5.6263e-02
13.250  21.250  6.6669e-02
13.250  21.500  7.9194e-02
13.250  21.750  9.3372e-02
13.250  22.000  1.1037e-01
13.250  22.250  1.0885e-01
13.250  22.500  1.0445e-01
13.250  22.750  8.3196e-02
13.250  23.000  5.5120e-02
13.250  23.250  3.6948e-02
13.250  23.500  2.6609e-02
13.250  23.750  2.0829e-02
13.250  24.000  1.7678e-02
13.500  17.000  2.2784e-03
13.500  17.250  3.0463e-03
13.500  17.500  4.7552e-03
13.500  17.750  7.3731e-03
13.500  18.000  1.0105e-02
13.500  18.250  1.0924e-02
13.500  18.500  1.2184e-02
13.500  18.750  1.3975e-02
13.500  19.000  1.6286e-02
13.500  19.250  1.9028e-02
13.500  19.500  2.2105e-02
13.500  19.750  2.5542e-02
13.500  20.000  2.9527e-02
13.500  20.250  3.4386e-02
13.500  20.500  3.9654e-02
13.500  20.750  4.5884e-02
13.500  21.000  5.3204e-02
13.500  21.250  6.3113e-02
13.500  21.500  7.1426e-02
13.500  21.750  8.5727e-02
13.500  22.000  1.0293e-01
13.500  22.250  1.1877e-01
13.500  22.500  1.1433e-01
13.500  22.750  1.0722e-01
13.500  23.000  8.3136e-02
13.500  23.250  5.5016e-02
13.500  23.500  3.6808e-02
13.500  23.750  2.6483e-02
13.500  24.000  2.0770e-02
13.750  17.000  1.6015e-03
13.750  17.250  2.1491e-03
13.750  17.500  3.3012e-03
13.750  17.750  5.2035e-03
13.750  18.000  8.1166e-03
13.750  18.250  1.0027e-02
13.750  18.500  1.1712e-02
13.750  18.750  1.3464e-02
13.750  19.000  1.5776e-02
13.750  19.250  1.8597e-02
13.750  19.500  2.1818e-02
13.750  19.750  2.5417e-02
13.750  20.000  2.9530e-02
13.750  20.250  3.4316e-02
13.750  20.500  3.9877e-02
13.750  20.750  4.6043e-02
13.750  21.000  5.2818e-02
13.750  21.250  6.0362e-02
13.750  21.500  6.8631e-02
13.750  21.750  7.9652e-02
13.750  22.000  9.5180e-02
13.750  22.250  1.1671e-01
13.750  22.500  1.2970e-01
13.750  22.750  1.1985e-01
13.750  23.000  1.0744e-01
13.750  23.250  8.3281e-02
13.750  23.500  5.4868e-02
13.750  23.750  3.6637e-02
13.750  24.000  2.6350e-02
14.000  17.000  1.1695e-03
14.000  17.250  1.5515e-03
14.000  17.500  2.3747e-03
14.000  17.750  3.6807e-03
14.000  18.000  6.1039e-03
14.000  18.250  9.1403e-03
14.000  18.500  1.1319e-02
14.000  18.750  1.3002e-02
14.000  19.000  1.5267e-02
14.000  19.250  1.8141e-02
14.000  19.500  2.1535e-02
14.000  19.750  2.5375e-02
14.000  20.000  2.9653e-02
14.000  20.250  3.4577e-02
14.000  20.500  4.0345e-02
14.000  20.750  4.6857e-02
14.000  21.000  5.4034e-02
14.000  21.250  6.2009e-02
14.000  21.500  6.9379e-02
14.000  21.750  7.9659e-02
14.000  22.000  9.3480e-02
14.000  22.250  1.1371e-01
14.000  22.500  1.4082e-01
14.000  22.750  1.4675e-01
14.000  23.000  1.3143e-01
14.000  23.250  1.1026e-01
14.000  23.500  8.4190e-02
14.000  23.750  5.4620e-02
14.000  24.000  3.6418e-02
