InwC 1410.00A  relative to Inci 1215.00A scaled to 1215A.
Hden   Phi(H)  Eq_Width (A)
7.000  17.000  1.4052e-02
7.000  17.250  1.4061e-02
7.000  17.500  1.4067e-02
7.000  17.750  1.4073e-02
7.000  18.000  1.4080e-02
7.000  18.250  1.4085e-02
7.000  18.500  1.4089e-02
7.000  18.750  1.4090e-02
7.000  19.000  1.4092e-02
7.000  19.250  1.4093e-02
7.000  19.500  1.4094e-02
7.000  19.750  1.4094e-02
7.000  20.000  1.4094e-02
7.000  20.250  1.4094e-02
7.000  20.500  1.4094e-02
7.000  20.750  1.4094e-02
7.000  21.000  1.4094e-02
7.000  21.250  1.4094e-02
7.000  21.500  1.4094e-02
7.000  21.750  1.4094e-02
7.000  22.000  1.4094e-02
7.000  22.250  1.4095e-02
7.000  22.500  1.4094e-02
7.000  22.750  1.4096e-02
7.000  23.000  1.4096e-02
7.000  23.250  1.4095e-02
7.000  23.500  1.4096e-02
7.000  23.750  1.4096e-02
7.000  24.000  1.4096e-02
7.250  17.000  1.3499e-02
7.250  17.250  1.4053e-02
7.250  17.500  1.4061e-02
7.250  17.750  1.4067e-02
7.250  18.000  1.4073e-02
7.250  18.250  1.4080e-02
7.250  18.500  1.4085e-02
7.250  18.750  1.4089e-02
7.250  19.000  1.4090e-02
7.250  19.250  1.4092e-02
7.250  19.500  1.4093e-02
7.250  19.750  1.4094e-02
7.250  20.000  1.4094e-02
7.250  20.250  1.4094e-02
7.250  20.500  1.4094e-02
7.250  20.750  1.4094e-02
7.250  21.000  1.4094e-02
7.250  21.250  1.4094e-02
7.250  21.500  1.4094e-02
7.250  21.750  1.4094e-02
7.250  22.000  1.4094e-02
7.250  22.250  1.4094e-02
7.250  22.500  1.4094e-02
7.250  22.750  1.4094e-02
7.250  23.000  1.4094e-02
7.250  23.250  1.4094e-02
7.250  23.500  1.4094e-02
7.250  23.750  1.4094e-02
7.250  24.000  1.4094e-02
7.500  17.000  1.3602e-02
7.500  17.250  1.3502e-02
7.500  17.500  1.4053e-02
7.500  17.750  1.4061e-02
7.500  18.000  1.4067e-02
7.500  18.250  1.4073e-02
7.500  18.500  1.4080e-02
7.500  18.750  1.4085e-02
7.500  19.000  1.4089e-02
7.500  19.250  1.4090e-02
7.500  19.500  1.4092e-02
7.500  19.750  1.4093e-02
7.500  20.000  1.4094e-02
7.500  20.250  1.4094e-02
7.500  20.500  1.4094e-02
7.500  20.750  1.4094e-02
7.500  21.000  1.4094e-02
7.500  21.250  1.4094e-02
7.500  21.500  1.4094e-02
7.500  21.750  1.4094e-02
7.500  22.000  1.4094e-02
7.500  22.250  1.4094e-02
7.500  22.500  1.4094e-02
7.500  22.750  1.4094e-02
7.500  23.000  1.4094e-02
7.500  23.250  1.4094e-02
7.500  23.500  1.4096e-02
7.500  23.750  1.4094e-02
7.500  24.000  1.4094e-02
7.750  17.000  1.6826e-02
7.750  17.250  1.3567e-02
7.750  17.500  1.3504e-02
7.750  17.750  1.4053e-02
7.750  18.000  1.4061e-02
7.750  18.250  1.4067e-02
7.750  18.500  1.4073e-02
7.750  18.750  1.4080e-02
7.750  19.000  1.4085e-02
7.750  19.250  1.4089e-02
7.750  19.500  1.4090e-02
7.750  19.750  1.4092e-02
7.750  20.000  1.4093e-02
7.750  20.250  1.4094e-02
7.750  20.500  1.4094e-02
7.750  20.750  1.4094e-02
7.750  21.000  1.4094e-02
7.750  21.250  1.4094e-02
7.750  21.500  1.4094e-02
7.750  21.750  1.4094e-02
7.750  22.000  1.4094e-02
7.750  22.250  1.4094e-02
7.750  22.500  1.4094e-02
7.750  22.750  1.4094e-02
7.750  23.000  1.4094e-02
7.750  23.250  1.4094e-02
7.750  23.500  1.4094e-02
7.750  23.750  1.4094e-02
7.750  24.000  1.4094e-02
8.000  17.000  1.9707e-02
8.000  17.250  1.6843e-02
8.000  17.500  1.3624e-02
8.000  17.750  1.3500e-02
8.000  18.000  1.4053e-02
8.000  18.250  1.4061e-02
8.000  18.500  1.4067e-02
8.000  18.750  1.4073e-02
8.000  19.000  1.4080e-02
8.000  19.250  1.4085e-02
8.000  19.500  1.4089e-02
8.000  19.750  1.4090e-02
8.000  20.000  1.4092e-02
8.000  20.250  1.4093e-02
8.000  20.500  1.4094e-02
8.000  20.750  1.4094e-02
8.000  21.000  1.4094e-02
8.000  21.250  1.4094e-02
8.000  21.500  1.4094e-02
8.000  21.750  1.4094e-02
8.000  22.000  1.4094e-02
8.000  22.250  1.4094e-02
8.000  22.500  1.4094e-02
8.000  22.750  1.4094e-02
8.000  23.000  1.4094e-02
8.000  23.250  1.4094e-02
8.000  23.500  1.4094e-02
8.000  23.750  1.4094e-02
8.000  24.000  1.4094e-02
8.250  17.000  2.1907e-02
8.250  17.250  1.9603e-02
8.250  17.500  1.6761e-02
8.250  17.750  1.4943e-02
8.250  18.000  1.4203e-02
8.250  18.250  1.4052e-02
8.250  18.500  1.4061e-02
8.250  18.750  1.4067e-02
8.250  19.000  1.4073e-02
8.250  19.250  1.4080e-02
8.250  19.500  1.4085e-02
8.250  19.750  1.4089e-02
8.250  20.000  1.4090e-02
8.250  20.250  1.4092e-02
8.250  20.500  1.4093e-02
8.250  20.750  1.4094e-02
8.250  21.000  1.4094e-02
8.250  21.250  1.4094e-02
8.250  21.500  1.4094e-02
8.250  21.750  1.4094e-02
8.250  22.000  1.4094e-02
8.250  22.250  1.4094e-02
8.250  22.500  1.4094e-02
8.250  22.750  1.4095e-02
8.250  23.000  1.4094e-02
8.250  23.250  1.4094e-02
8.250  23.500  1.4095e-02
8.250  23.750  1.4094e-02
8.250  24.000  1.4094e-02
8.500  17.000  2.3519e-02
8.500  17.250  2.1798e-02
8.500  17.500  1.9472e-02
8.500  17.750  1.6665e-02
8.500  18.000  1.3575e-02
8.500  18.250  1.3503e-02
8.500  18.500  1.4052e-02
8.500  18.750  1.4061e-02
8.500  19.000  1.4067e-02
8.500  19.250  1.4073e-02
8.500  19.500  1.4080e-02
8.500  19.750  1.4085e-02
8.500  20.000  1.4089e-02
8.500  20.250  1.4090e-02
8.500  20.500  1.4092e-02
8.500  20.750  1.4093e-02
8.500  21.000  1.4094e-02
8.500  21.250  1.4094e-02
8.500  21.500  1.4094e-02
8.500  21.750  1.4094e-02
8.500  22.000  1.4094e-02
8.500  22.250  1.4094e-02
8.500  22.500  1.4094e-02
8.500  22.750  1.4094e-02
8.500  23.000  1.4094e-02
8.500  23.250  1.4094e-02
8.500  23.500  1.4094e-02
8.500  23.750  1.4094e-02
8.500  24.000  1.4094e-02
8.750  17.000  2.4670e-02
8.750  17.250  2.3411e-02
8.750  17.500  2.1642e-02
8.750  17.750  1.9268e-02
8.750  18.000  1.6483e-02
8.750  18.250  1.3504e-02
8.750  18.500  1.3504e-02
8.750  18.750  1.4052e-02
8.750  19.000  1.4061e-02
8.750  19.250  1.4067e-02
8.750  19.500  1.4073e-02
8.750  19.750  1.4080e-02
8.750  20.000  1.4085e-02
8.750  20.250  1.4089e-02
8.750  20.500  1.4090e-02
8.750  20.750  1.4092e-02
8.750  21.000  1.4093e-02
8.750  21.250  1.4094e-02
8.750  21.500  1.4094e-02
8.750  21.750  1.4094e-02
8.750  22.000  1.4094e-02
8.750  22.250  1.4094e-02
8.750  22.500  1.4094e-02
8.750  22.750  1.4094e-02
8.750  23.000  1.4094e-02
8.750  23.250  1.4094e-02
8.750  23.500  1.4094e-02
8.750  23.750  1.4094e-02
8.750  24.000  1.4094e-02
9.000  17.000  2.5481e-02
9.000  17.250  2.4563e-02
9.000  17.500  2.3241e-02
9.000  17.750  2.1384e-02
9.000  18.000  1.8947e-02
9.000  18.250  1.6163e-02
9.000  18.500  1.3377e-02
9.000  18.750  1.3503e-02
9.000  19.000  1.4051e-02
9.000  19.250  1.4060e-02
9.000  19.500  1.4067e-02
9.000  19.750  1.4074e-02
9.000  20.000  1.4080e-02
9.000  20.250  1.4085e-02
9.000  20.500  1.4089e-02
9.000  20.750  1.4090e-02
9.000  21.000  1.4092e-02
9.000  21.250  1.4093e-02
9.000  21.500  1.4094e-02
9.000  21.750  1.4094e-02
9.000  22.000  1.4094e-02
9.000  22.250  1.4094e-02
9.000  22.500  1.4094e-02
9.000  22.750  1.4094e-02
9.000  23.000  1.4094e-02
9.000  23.250  1.4094e-02
9.000  23.500  1.4094e-02
9.000  23.750  1.4094e-02
9.000  24.000  1.4094e-02
9.250  17.000  2.6052e-02
9.250  17.250  2.5377e-02
9.250  17.500  2.4385e-02
9.250  17.750  2.2944e-02
9.250  18.000  2.0928e-02
9.250  18.250  1.8370e-02
9.250  18.500  1.5611e-02
9.250  18.750  1.3088e-02
9.250  19.000  1.3500e-02
9.250  19.250  1.4050e-02
9.250  19.500  1.4060e-02
9.250  19.750  1.4067e-02
9.250  20.000  1.4074e-02
9.250  20.250  1.4080e-02
9.250  20.500  1.4085e-02
9.250  20.750  1.4089e-02
9.250  21.000  1.4090e-02
9.250  21.250  1.4092e-02
9.250  21.500  1.4092e-02
9.250  21.750  1.4092e-02
9.250  22.000  1.4092e-02
9.250  22.250  1.4092e-02
9.250  22.500  1.4093e-02
9.250  22.750  1.4093e-02
9.250  23.000  1.4094e-02
9.250  23.250  1.4094e-02
9.250  23.500  1.4094e-02
9.250  23.750  1.4094e-02
9.250  24.000  1.4094e-02
9.500  17.000  2.6447e-02
9.500  17.250  2.5947e-02
9.500  17.500  2.5199e-02
9.500  17.750  2.4080e-02
9.500  18.000  2.2436e-02
9.500  18.250  2.0186e-02
9.500  18.500  1.7469e-02
9.500  18.750  1.4715e-02
9.500  19.000  1.3063e-02
9.500  19.250  1.3495e-02
9.500  19.500  1.4049e-02
9.500  19.750  1.4060e-02
9.500  20.000  1.4067e-02
9.500  20.250  1.4088e-02
9.500  20.500  1.4093e-02
9.500  20.750  1.4090e-02
9.500  21.000  1.4087e-02
9.500  21.250  1.4089e-02
9.500  21.500  1.4090e-02
9.500  21.750  1.4091e-02
9.500  22.000  1.4091e-02
9.500  22.250  1.4091e-02
9.500  22.500  1.4092e-02
9.500  22.750  1.4092e-02
9.500  23.000  1.4091e-02
9.500  23.250  1.4092e-02
9.500  23.500  1.4092e-02
9.500  23.750  1.4092e-02
9.500  24.000  1.4092e-02
9.750  17.000  2.6724e-02
9.750  17.250  2.6342e-02
9.750  17.500  2.5769e-02
9.750  17.750  2.4894e-02
9.750  18.000  2.3545e-02
9.750  18.250  2.1625e-02
9.750  18.500  1.9161e-02
9.750  18.750  1.6423e-02
9.750  19.000  1.3703e-02
9.750  19.250  1.3057e-02
9.750  19.500  1.3486e-02
9.750  19.750  1.4046e-02
9.750  20.000  1.4059e-02
9.750  20.250  1.4017e-02
9.750  20.500  1.4044e-02
9.750  20.750  1.4080e-02
9.750  21.000  1.4085e-02
9.750  21.250  1.4087e-02
9.750  21.500  1.4089e-02
9.750  21.750  1.4091e-02
9.750  22.000  1.4091e-02
9.750  22.250  1.4091e-02
9.750  22.500  1.4091e-02
9.750  22.750  1.4092e-02
9.750  23.000  1.4092e-02
9.750  23.250  1.4092e-02
9.750  23.500  1.4092e-02
9.750  23.750  1.4092e-02
9.750  24.000  1.4092e-02
10.000  17.000  2.6917e-02
10.000  17.250  2.6621e-02
10.000  17.500  2.6173e-02
10.000  17.750  2.5467e-02
10.000  18.000  2.4356e-02
10.000  18.250  2.2743e-02
10.000  18.500  2.0612e-02
10.000  18.750  1.8094e-02
10.000  19.000  1.5344e-02
10.000  19.250  1.3164e-02
10.000  19.500  1.3057e-02
10.000  19.750  1.3475e-02
10.000  20.000  1.4043e-02
10.000  20.250  1.4058e-02
10.000  20.500  1.4067e-02
10.000  20.750  1.4074e-02
10.000  21.000  1.4080e-02
10.000  21.250  1.4085e-02
10.000  21.500  1.4088e-02
10.000  21.750  1.4089e-02
10.000  22.000  1.4091e-02
10.000  22.250  1.4092e-02
10.000  22.500  1.4091e-02
10.000  22.750  1.4092e-02
10.000  23.000  1.4092e-02
10.000  23.250  1.4092e-02
10.000  23.500  1.4092e-02
10.000  23.750  1.4092e-02
10.000  24.000  1.4092e-02
10.250  17.000  2.7052e-02
10.250  17.250  2.6816e-02
10.250  17.500  2.6455e-02
10.250  17.750  2.5874e-02
10.250  18.000  2.4937e-02
10.250  18.250  2.3595e-02
10.250  18.500  2.1809e-02
10.250  18.750  1.9590e-02
10.250  19.000  1.7063e-02
10.250  19.250  1.4344e-02
10.250  19.500  1.2786e-02
10.250  19.750  1.3057e-02
10.250  20.000  1.3465e-02
10.250  20.250  1.4039e-02
10.250  20.500  1.4056e-02
10.250  20.750  1.4066e-02
10.250  21.000  1.4074e-02
10.250  21.250  1.4080e-02
10.250  21.500  1.4085e-02
10.250  21.750  1.4088e-02
10.250  22.000  1.4089e-02
10.250  22.250  1.4091e-02
10.250  22.500  1.4092e-02
10.250  22.750  1.4092e-02
10.250  23.000  1.4091e-02
10.250  23.250  1.4092e-02
10.250  23.500  1.4092e-02
10.250  23.750  1.4092e-02
10.250  24.000  1.4092e-02
10.500  17.000  2.7145e-02
10.500  17.250  2.6950e-02
10.500  17.500  2.6647e-02
10.500  17.750  2.6150e-02
10.500  18.000  2.5348e-02
10.500  18.250  2.4199e-02
10.500  18.500  2.2752e-02
10.500  18.750  2.0965e-02
10.500  19.000  1.8849e-02
10.500  19.250  1.6327e-02
10.500  19.500  1.3634e-02
10.500  19.750  1.2807e-02
10.500  20.000  1.3056e-02
10.500  20.250  1.3457e-02
10.500  20.500  1.4033e-02
10.500  20.750  1.4326e-02
10.500  21.000  1.4326e-02
10.500  21.250  1.4191e-02
10.500  21.500  1.4080e-02
10.500  21.750  1.4085e-02
10.500  22.000  1.4088e-02
10.500  22.250  1.4090e-02
10.500  22.500  1.4091e-02
10.500  22.750  1.4092e-02
10.500  23.000  1.4092e-02
10.500  23.250  1.4092e-02
10.500  23.500  1.4091e-02
10.500  23.750  1.4092e-02
10.500  24.000  1.4092e-02
10.750  17.000  2.7204e-02
10.750  17.250  2.7038e-02
10.750  17.500  2.6771e-02
10.750  17.750  2.6319e-02
10.750  18.000  2.5620e-02
10.750  18.250  2.4676e-02
10.750  18.500  2.3527e-02
10.750  18.750  2.2152e-02
10.750  19.000  2.0461e-02
10.750  19.250  1.8303e-02
10.750  19.500  1.5728e-02
10.750  19.750  1.2956e-02
10.750  20.000  1.2812e-02
10.750  20.250  1.3063e-02
10.750  20.500  1.3456e-02
10.750  20.750  1.4028e-02
10.750  21.000  1.4052e-02
10.750  21.250  1.4065e-02
10.750  21.500  1.4073e-02
10.750  21.750  1.4080e-02
10.750  22.000  1.4085e-02
10.750  22.250  1.4089e-02
10.750  22.500  1.4090e-02
10.750  22.750  1.4091e-02
10.750  23.000  1.4092e-02
10.750  23.250  1.4092e-02
10.750  23.500  1.4092e-02
10.750  23.750  1.4092e-02
10.750  24.000  1.4092e-02
11.000  17.000  2.7230e-02
11.000  17.250  2.7086e-02
11.000  17.500  2.6830e-02
11.000  17.750  2.6406e-02
11.000  18.000  2.5788e-02
11.000  18.250  2.5007e-02
11.000  18.500  2.4118e-02
11.000  18.750  2.3089e-02
11.000  19.000  2.1781e-02
11.000  19.250  2.0061e-02
11.000  19.500  1.7838e-02
11.000  19.750  1.5094e-02
11.000  20.000  1.2495e-02
11.000  20.250  1.2815e-02
11.000  20.500  1.3070e-02
11.000  20.750  1.3464e-02
11.000  21.000  1.4024e-02
11.000  21.250  1.4049e-02
11.000  21.500  1.4064e-02
11.000  21.750  1.4073e-02
11.000  22.000  1.4080e-02
11.000  22.250  1.4085e-02
11.000  22.500  1.4089e-02
11.000  22.750  1.4090e-02
11.000  23.000  1.4092e-02
11.000  23.250  1.4092e-02
11.000  23.500  1.4092e-02
11.000  23.750  1.4092e-02
11.000  24.000  1.4092e-02
11.250  17.000  2.7224e-02
11.250  17.250  2.7089e-02
11.250  17.500  2.6827e-02
11.250  17.750  2.6408e-02
11.250  18.000  2.5837e-02
11.250  18.250  2.5191e-02
11.250  18.500  2.4538e-02
11.250  18.750  2.3775e-02
11.250  19.000  2.2799e-02
11.250  19.250  2.1472e-02
11.250  19.500  1.9685e-02
11.250  19.750  1.7340e-02
11.250  20.000  1.4472e-02
11.250  20.250  1.2533e-02
11.250  20.500  1.2824e-02
11.250  20.750  1.3081e-02
11.250  21.000  1.3490e-02
11.250  21.250  1.4019e-02
11.250  21.500  1.4046e-02
11.250  21.750  1.4063e-02
11.250  22.000  1.4072e-02
11.250  22.250  1.4080e-02
11.250  22.500  1.4085e-02
11.250  22.750  1.4089e-02
11.250  23.000  1.4090e-02
11.250  23.250  1.4092e-02
11.250  23.500  1.4092e-02
11.250  23.750  1.4092e-02
11.250  24.000  1.4092e-02
11.500  17.000  2.7191e-02
11.500  17.250  2.7040e-02
11.500  17.500  2.6758e-02
11.500  17.750  2.6314e-02
11.500  18.000  2.5759e-02
11.500  18.250  2.5242e-02
11.500  18.500  2.4766e-02
11.500  18.750  2.4229e-02
11.500  19.000  2.3524e-02
11.500  19.250  2.2549e-02
11.500  19.500  2.1201e-02
11.500  19.750  1.9331e-02
11.500  20.000  1.6860e-02
11.500  20.250  1.3851e-02
11.500  20.500  1.2569e-02
11.500  20.750  1.2833e-02
11.500  21.000  1.3105e-02
11.500  21.250  1.3556e-02
11.500  21.500  1.4014e-02
11.500  21.750  1.4043e-02
11.500  22.000  1.4061e-02
11.500  22.250  1.4072e-02
11.500  22.500  1.4079e-02
11.500  22.750  1.4085e-02
11.500  23.000  1.4088e-02
11.500  23.250  1.4090e-02
11.500  23.500  1.4092e-02
11.500  23.750  1.4093e-02
11.500  24.000  1.4092e-02
11.750  17.000  2.7123e-02
11.750  17.250  2.6934e-02
11.750  17.500  2.6598e-02
11.750  17.750  2.6089e-02
11.750  18.000  2.5549e-02
11.750  18.250  2.5152e-02
11.750  18.500  2.4835e-02
11.750  18.750  2.4488e-02
11.750  19.000  2.4002e-02
11.750  19.250  2.3321e-02
11.750  19.500  2.2328e-02
11.750  19.750  2.0933e-02
11.750  20.000  1.8981e-02
11.750  20.250  1.6391e-02
11.750  20.500  1.3260e-02
11.750  20.750  1.2548e-02
11.750  21.000  1.2849e-02
11.750  21.250  1.3165e-02
11.750  21.500  1.3688e-02
11.750  21.750  1.4008e-02
11.750  22.000  1.4039e-02
11.750  22.250  1.4059e-02
11.750  22.500  1.4071e-02
11.750  22.750  1.4079e-02
11.750  23.000  1.4085e-02
11.750  23.250  1.4088e-02
11.750  23.500  1.4090e-02
11.750  23.750  1.4092e-02
11.750  24.000  1.4093e-02
12.000  17.000  2.6992e-02
12.000  17.250  2.6735e-02
12.000  17.500  2.6293e-02
12.000  17.750  2.5699e-02
12.000  18.000  2.5228e-02
12.000  18.250  2.4945e-02
12.000  18.500  2.4763e-02
12.000  18.750  2.4557e-02
12.000  19.000  2.4256e-02
12.000  19.250  2.3808e-02
12.000  19.500  2.3133e-02
12.000  19.750  2.2126e-02
12.000  20.000  2.0673e-02
12.000  20.250  1.8649e-02
12.000  20.500  1.5951e-02
12.000  20.750  1.2791e-02
12.000  21.000  1.2540e-02
12.000  21.250  1.2892e-02
12.000  21.500  1.3271e-02
12.000  21.750  1.3864e-02
12.000  22.000  1.4004e-02
12.000  22.250  1.4035e-02
12.000  22.500  1.4057e-02
12.000  22.750  1.4070e-02
12.000  23.000  1.4078e-02
12.000  23.250  1.4084e-02
12.000  23.500  1.4088e-02
12.000  23.750  1.4090e-02
12.000  24.000  1.4092e-02
12.250  17.000  2.6657e-02
12.250  17.250  2.6300e-02
12.250  17.500  2.5732e-02
12.250  17.750  2.5129e-02
12.250  18.000  2.4783e-02
12.250  18.250  2.4637e-02
12.250  18.500  2.4551e-02
12.250  18.750  2.4461e-02
12.250  19.000  2.4314e-02
12.250  19.250  2.4064e-02
12.250  19.500  2.3639e-02
12.250  19.750  2.2967e-02
12.250  20.000  2.1937e-02
12.250  20.250  2.0444e-02
12.250  20.500  1.8322e-02
12.250  20.750  1.5513e-02
12.250  21.000  1.2456e-02
12.250  21.250  1.2568e-02
12.250  21.500  1.2961e-02
12.250  21.750  1.3407e-02
12.250  22.000  1.3945e-02
12.250  22.250  1.3996e-02
12.250  22.500  1.4029e-02
12.250  22.750  1.4054e-02
12.250  23.000  1.4069e-02
12.250  23.250  1.4078e-02
12.250  23.500  1.4084e-02
12.250  23.750  1.4088e-02
12.250  24.000  1.4090e-02
12.500  17.000  2.5808e-02
12.500  17.250  2.5370e-02
12.500  17.500  2.4792e-02
12.500  17.750  2.4382e-02
12.500  18.000  2.4240e-02
12.500  18.250  2.4202e-02
12.500  18.500  2.4201e-02
12.500  18.750  2.4216e-02
12.500  19.000  2.4199e-02
12.500  19.250  2.4112e-02
12.500  19.500  2.3896e-02
12.500  19.750  2.3487e-02
12.500  20.000  2.2810e-02
12.500  20.250  2.1755e-02
12.500  20.500  2.0209e-02
12.500  20.750  1.8014e-02
12.500  21.000  1.5097e-02
12.500  21.250  1.1925e-02
12.500  21.500  1.2607e-02
12.500  21.750  1.3048e-02
12.500  22.000  1.3565e-02
12.500  22.250  1.3942e-02
12.500  22.500  1.3988e-02
12.500  22.750  1.4025e-02
12.500  23.000  1.4051e-02
12.500  23.250  1.4067e-02
12.500  23.500  1.4077e-02
12.500  23.750  1.4083e-02
12.500  24.000  1.4088e-02
12.750  17.000  2.3620e-02
12.750  17.250  2.3730e-02
12.750  17.500  2.3602e-02
12.750  17.750  2.3594e-02
12.750  18.000  2.3586e-02
12.750  18.250  2.3621e-02
12.750  18.500  2.3711e-02
12.750  18.750  2.3818e-02
12.750  19.000  2.3920e-02
12.750  19.250  2.3974e-02
12.750  19.500  2.3938e-02
12.750  19.750  2.3747e-02
12.750  20.000  2.3343e-02
12.750  20.250  2.2652e-02
12.750  20.500  2.1591e-02
12.750  20.750  1.9961e-02
12.750  21.000  1.7658e-02
12.750  21.250  1.4627e-02
12.750  21.500  1.1992e-02
12.750  21.750  1.2667e-02
12.750  22.000  1.3158e-02
12.750  22.250  1.3702e-02
12.750  22.500  1.3938e-02
12.750  22.750  1.3984e-02
12.750  23.000  1.4020e-02
12.750  23.250  1.4048e-02
12.750  23.500  1.4065e-02
12.750  23.750  1.4075e-02
12.750  24.000  1.4083e-02
13.000  17.000  5.3823e-03
13.000  17.250  1.0146e-02
13.000  17.500  2.2425e-02
13.000  17.750  2.2720e-02
13.000  18.000  2.2795e-02
13.000  18.250  2.2893e-02
13.000  18.500  2.3056e-02
13.000  18.750  2.3262e-02
13.000  19.000  2.3479e-02
13.000  19.250  2.3662e-02
13.000  19.500  2.3776e-02
13.000  19.750  2.3772e-02
13.000  20.000  2.3601e-02
13.000  20.250  2.3200e-02
13.000  20.500  2.2487e-02
13.000  20.750  2.1357e-02
13.000  21.000  1.9659e-02
13.000  21.250  1.7239e-02
13.000  21.500  1.4271e-02
13.000  21.750  1.2099e-02
13.000  22.000  1.2759e-02
13.000  22.250  1.3259e-02
13.000  22.500  1.3777e-02
13.000  22.750  1.3934e-02
13.000  23.000  1.3981e-02
13.000  23.250  1.4017e-02
13.000  23.500  1.4045e-02
13.000  23.750  1.4063e-02
13.000  24.000  1.4074e-02
13.250  17.000  3.2960e-03
13.250  17.250  6.0407e-03
13.250  17.500  1.3707e-02
13.250  17.750  2.0623e-02
13.250  18.000  2.1849e-02
13.250  18.250  2.2012e-02
13.250  18.500  2.2239e-02
13.250  18.750  2.2543e-02
13.250  19.000  2.2872e-02
13.250  19.250  2.3182e-02
13.250  19.500  2.3432e-02
13.250  19.750  2.3587e-02
13.250  20.000  2.3606e-02
13.250  20.250  2.3438e-02
13.250  20.500  2.3025e-02
13.250  20.750  2.2281e-02
13.250  21.000  2.1067e-02
13.250  21.250  1.9277e-02
13.250  21.500  1.6868e-02
13.250  21.750  1.3819e-02
13.250  22.000  1.2221e-02
13.250  22.250  1.2788e-02
13.250  22.500  1.3313e-02
13.250  22.750  1.3786e-02
13.250  23.000  1.3930e-02
13.250  23.250  1.3977e-02
13.250  23.500  1.4014e-02
13.250  23.750  1.4042e-02
13.250  24.000  1.4060e-02
13.500  17.000  2.0170e-03
13.500  17.250  3.8123e-03
13.500  17.500  7.9786e-03
13.500  17.750  1.4322e-02
13.500  18.000  2.0450e-02
13.500  18.250  2.0878e-02
13.500  18.500  2.1235e-02
13.500  18.750  2.1653e-02
13.500  19.000  2.2100e-02
13.500  19.250  2.2527e-02
13.500  19.500  2.2910e-02
13.500  19.750  2.3207e-02
13.500  20.000  2.3389e-02
13.500  20.250  2.3415e-02
13.500  20.500  2.3242e-02
13.500  20.750  2.2798e-02
13.500  21.000  2.1990e-02
13.500  21.250  2.0689e-02
13.500  21.500  1.8876e-02
13.500  21.750  1.6260e-02
13.500  22.000  1.3301e-02
13.500  22.250  1.2248e-02
13.500  22.500  1.2786e-02
13.500  22.750  1.3313e-02
13.500  23.000  1.3767e-02
13.500  23.250  1.3925e-02
13.500  23.500  1.3973e-02
13.500  23.750  1.4011e-02
13.500  24.000  1.4038e-02
13.750  17.000  1.2401e-03
13.750  17.250  2.3942e-03
13.750  17.500  4.9604e-03
13.750  17.750  9.1972e-03
13.750  18.000  1.5307e-02
13.750  18.250  1.8361e-02
13.750  18.500  1.9945e-02
13.750  18.750  2.0501e-02
13.750  19.000  2.1117e-02
13.750  19.250  2.1709e-02
13.750  19.500  2.2223e-02
13.750  19.750  2.2653e-02
13.750  20.000  2.2976e-02
13.750  20.250  2.3167e-02
13.750  20.500  2.3185e-02
13.750  20.750  2.2982e-02
13.750  21.000  2.2477e-02
13.750  21.250  2.1566e-02
13.750  21.500  2.0208e-02
13.750  21.750  1.8111e-02
13.750  22.000  1.5325e-02
13.750  22.250  1.2642e-02
13.750  22.500  1.2259e-02
13.750  22.750  1.2754e-02
13.750  23.000  1.3264e-02
13.750  23.250  1.3755e-02
13.750  23.500  1.3915e-02
13.750  23.750  1.3966e-02
13.750  24.000  1.4005e-02
14.000  17.000  7.5383e-04
14.000  17.250  1.4600e-03
14.000  17.500  3.1188e-03
14.000  17.750  5.7316e-03
14.000  18.000  1.0408e-02
14.000  18.250  1.5751e-02
14.000  18.500  1.8498e-02
14.000  18.750  1.9128e-02
14.000  19.000  1.9864e-02
14.000  19.250  2.0637e-02
14.000  19.500  2.1351e-02
14.000  19.750  2.1930e-02
14.000  20.000  2.2388e-02
14.000  20.250  2.2724e-02
14.000  20.500  2.2903e-02
14.000  20.750  2.2890e-02
14.000  21.000  2.2619e-02
14.000  21.250  2.2002e-02
14.000  21.500  2.0995e-02
14.000  21.750  1.9307e-02
14.000  22.000  1.6847e-02
14.000  22.250  1.3900e-02
14.000  22.500  1.1964e-02
14.000  22.750  1.2257e-02
14.000  23.000  1.2765e-02
14.000  23.250  1.3244e-02
14.000  23.500  1.3763e-02
14.000  23.750  1.3899e-02
14.000  24.000  1.3955e-02
