InwT 1073.86A  relative to Inci 1215.00A scaled to 1215A.
Hden   Phi(H)  Eq_Width (A)
7.000  17.000  2.5242e-02
7.000  17.250  2.2873e-02
7.000  17.500  2.0419e-02
7.000  17.750  1.8169e-02
7.000  18.000  1.6497e-02
7.000  18.250  1.5479e-02
7.000  18.500  1.4841e-02
7.000  18.750  1.4527e-02
7.000  19.000  1.4361e-02
7.000  19.250  1.4268e-02
7.000  19.500  1.4228e-02
7.000  19.750  1.4212e-02
7.000  20.000  1.4204e-02
7.000  20.250  1.4201e-02
7.000  20.500  1.4199e-02
7.000  20.750  1.4198e-02
7.000  21.000  1.4198e-02
7.000  21.250  1.4198e-02
7.000  21.500  1.4197e-02
7.000  21.750  1.4197e-02
7.000  22.000  1.4197e-02
7.000  22.250  1.4197e-02
7.000  22.500  1.4197e-02
7.000  22.750  1.4199e-02
7.000  23.000  1.4199e-02
7.000  23.250  1.4197e-02
7.000  23.500  1.4199e-02
7.000  23.750  1.4199e-02
7.000  24.000  1.4199e-02
7.250  17.000  2.5625e-02
7.250  17.250  2.5035e-02
7.250  17.500  2.2767e-02
7.250  17.750  2.0370e-02
7.250  18.000  1.8142e-02
7.250  18.250  1.6482e-02
7.250  18.500  1.5472e-02
7.250  18.750  1.4838e-02
7.250  19.000  1.4526e-02
7.250  19.250  1.4361e-02
7.250  19.500  1.4268e-02
7.250  19.750  1.4228e-02
7.250  20.000  1.4212e-02
7.250  20.250  1.4204e-02
7.250  20.500  1.4201e-02
7.250  20.750  1.4199e-02
7.250  21.000  1.4198e-02
7.250  21.250  1.4198e-02
7.250  21.500  1.4198e-02
7.250  21.750  1.4198e-02
7.250  22.000  1.4197e-02
7.250  22.250  1.4197e-02
7.250  22.500  1.4197e-02
7.250  22.750  1.4197e-02
7.250  23.000  1.4197e-02
7.250  23.250  1.4197e-02
7.250  23.500  1.4197e-02
7.250  23.750  1.4197e-02
7.250  24.000  1.4197e-02
7.500  17.000  2.7337e-02
7.500  17.250  2.4907e-02
7.500  17.500  2.4919e-02
7.500  17.750  2.2707e-02
7.500  18.000  2.0346e-02
7.500  18.250  1.8127e-02
7.500  18.500  1.6473e-02
7.500  18.750  1.5467e-02
7.500  19.000  1.4836e-02
7.500  19.250  1.4525e-02
7.500  19.500  1.4361e-02
7.500  19.750  1.4268e-02
7.500  20.000  1.4228e-02
7.500  20.250  1.4212e-02
7.500  20.500  1.4204e-02
7.500  20.750  1.4201e-02
7.500  21.000  1.4199e-02
7.500  21.250  1.4198e-02
7.500  21.500  1.4198e-02
7.500  21.750  1.4197e-02
7.500  22.000  1.4197e-02
7.500  22.250  1.4197e-02
7.500  22.500  1.4197e-02
7.500  22.750  1.4197e-02
7.500  23.000  1.4197e-02
7.500  23.250  1.4197e-02
7.500  23.500  1.4199e-02
7.500  23.750  1.4197e-02
7.500  24.000  1.4197e-02
7.750  17.000  2.9089e-02
7.750  17.250  2.5671e-02
7.750  17.500  2.4337e-02
7.750  17.750  2.4853e-02
7.750  18.000  2.2677e-02
7.750  18.250  2.0339e-02
7.750  18.500  1.8120e-02
7.750  18.750  1.6468e-02
7.750  19.000  1.5464e-02
7.750  19.250  1.4835e-02
7.750  19.500  1.4525e-02
7.750  19.750  1.4361e-02
7.750  20.000  1.4268e-02
7.750  20.250  1.4228e-02
7.750  20.500  1.4212e-02
7.750  20.750  1.4204e-02
7.750  21.000  1.4201e-02
7.750  21.250  1.4199e-02
7.750  21.500  1.4198e-02
7.750  21.750  1.4198e-02
7.750  22.000  1.4197e-02
7.750  22.250  1.4197e-02
7.750  22.500  1.4197e-02
7.750  22.750  1.4197e-02
7.750  23.000  1.4197e-02
7.750  23.250  1.4197e-02
7.750  23.500  1.4197e-02
7.750  23.750  1.4197e-02
7.750  24.000  1.4197e-02
8.000  17.000  3.0216e-02
8.000  17.250  2.7342e-02
8.000  17.500  2.4329e-02
8.000  17.750  2.3838e-02
8.000  18.000  2.4816e-02
8.000  18.250  2.2662e-02
8.000  18.500  2.0343e-02
8.000  18.750  1.8118e-02
8.000  19.000  1.6465e-02
8.000  19.250  1.5462e-02
8.000  19.500  1.4835e-02
8.000  19.750  1.4525e-02
8.000  20.000  1.4361e-02
8.000  20.250  1.4268e-02
8.000  20.500  1.4228e-02
8.000  20.750  1.4212e-02
8.000  21.000  1.4204e-02
8.000  21.250  1.4201e-02
8.000  21.500  1.4199e-02
8.000  21.750  1.4198e-02
8.000  22.000  1.4198e-02
8.000  22.250  1.4197e-02
8.000  22.500  1.4197e-02
8.000  22.750  1.4197e-02
8.000  23.000  1.4197e-02
8.000  23.250  1.4197e-02
8.000  23.500  1.4197e-02
8.000  23.750  1.4197e-02
8.000  24.000  1.4197e-02
8.250  17.000  3.0823e-02
8.250  17.250  2.8656e-02
8.250  17.500  2.6051e-02
8.250  17.750  2.3407e-02
8.250  18.000  2.3519e-02
8.250  18.250  2.4787e-02
8.250  18.500  2.2658e-02
8.250  18.750  2.0354e-02
8.250  19.000  1.8119e-02
8.250  19.250  1.6463e-02
8.250  19.500  1.5423e-02
8.250  19.750  1.4830e-02
8.250  20.000  1.4524e-02
8.250  20.250  1.4361e-02
8.250  20.500  1.4268e-02
8.250  20.750  1.4228e-02
8.250  21.000  1.4212e-02
8.250  21.250  1.4204e-02
8.250  21.500  1.4201e-02
8.250  21.750  1.4199e-02
8.250  22.000  1.4198e-02
8.250  22.250  1.4198e-02
8.250  22.500  1.4197e-02
8.250  22.750  1.4198e-02
8.250  23.000  1.4197e-02
8.250  23.250  1.4197e-02
8.250  23.500  1.4198e-02
8.250  23.750  1.4197e-02
8.250  24.000  1.4197e-02
8.500  17.000  3.1091e-02
8.500  17.250  2.9561e-02
8.500  17.500  2.7571e-02
8.500  17.750  2.5200e-02
8.500  18.000  2.2794e-02
8.500  18.250  2.3281e-02
8.500  18.500  2.4762e-02
8.500  18.750  2.2659e-02
8.500  19.000  2.0370e-02
8.500  19.250  1.8122e-02
8.500  19.500  1.6462e-02
8.500  19.750  1.5461e-02
8.500  20.000  1.4834e-02
8.500  20.250  1.4524e-02
8.500  20.500  1.4361e-02
8.500  20.750  1.4268e-02
8.500  21.000  1.4228e-02
8.500  21.250  1.4212e-02
8.500  21.500  1.4204e-02
8.500  21.750  1.4201e-02
8.500  22.000  1.4199e-02
8.500  22.250  1.4198e-02
8.500  22.500  1.4198e-02
8.500  22.750  1.4197e-02
8.500  23.000  1.4197e-02
8.500  23.250  1.4197e-02
8.500  23.500  1.4197e-02
8.500  23.750  1.4197e-02
8.500  24.000  1.4197e-02
8.750  17.000  3.1207e-02
8.750  17.250  3.0144e-02
8.750  17.500  2.8705e-02
8.750  17.750  2.6768e-02
8.750  18.000  2.4562e-02
8.750  18.250  2.2359e-02
8.750  18.500  2.3144e-02
8.750  18.750  2.4734e-02
8.750  19.000  2.2663e-02
8.750  19.250  2.0389e-02
8.750  19.500  1.8127e-02
8.750  19.750  1.6462e-02
8.750  20.000  1.5460e-02
8.750  20.250  1.4834e-02
8.750  20.500  1.4524e-02
8.750  20.750  1.4361e-02
8.750  21.000  1.4268e-02
8.750  21.250  1.4228e-02
8.750  21.500  1.4212e-02
8.750  21.750  1.4204e-02
8.750  22.000  1.4201e-02
8.750  22.250  1.4199e-02
8.750  22.500  1.4198e-02
8.750  22.750  1.4198e-02
8.750  23.000  1.4197e-02
8.750  23.250  1.4197e-02
8.750  23.500  1.4197e-02
8.750  23.750  1.4197e-02
8.750  24.000  1.4197e-02
9.000  17.000  3.1237e-02
9.000  17.250  3.0520e-02
9.000  17.500  2.9502e-02
9.000  17.750  2.8053e-02
9.000  18.000  2.6135e-02
9.000  18.250  2.3983e-02
9.000  18.500  2.2013e-02
9.000  18.750  2.3046e-02
9.000  19.000  2.4703e-02
9.000  19.250  2.2664e-02
9.000  19.500  2.0409e-02
9.000  19.750  1.8132e-02
9.000  20.000  1.6462e-02
9.000  20.250  1.5460e-02
9.000  20.500  1.4833e-02
9.000  20.750  1.4524e-02
9.000  21.000  1.4361e-02
9.000  21.250  1.4268e-02
9.000  21.500  1.4228e-02
9.000  21.750  1.4211e-02
9.000  22.000  1.4204e-02
9.000  22.250  1.4201e-02
9.000  22.500  1.4199e-02
9.000  22.750  1.4198e-02
9.000  23.000  1.4198e-02
9.000  23.250  1.4197e-02
9.000  23.500  1.4197e-02
9.000  23.750  1.4197e-02
9.000  24.000  1.4197e-02
9.250  17.000  3.1208e-02
9.250  17.250  3.0739e-02
9.250  17.500  3.0055e-02
9.250  17.750  2.8986e-02
9.250  18.000  2.7427e-02
9.250  18.250  2.5404e-02
9.250  18.500  2.3280e-02
9.250  18.750  2.1579e-02
9.250  19.000  2.2964e-02
9.250  19.250  2.4663e-02
9.250  19.500  2.2660e-02
9.250  19.750  2.0427e-02
9.250  20.000  1.8137e-02
9.250  20.250  1.6462e-02
9.250  20.500  1.5460e-02
9.250  20.750  1.4833e-02
9.250  21.000  1.4524e-02
9.250  21.250  1.4360e-02
9.250  21.500  1.4267e-02
9.250  21.750  1.4227e-02
9.250  22.000  1.4210e-02
9.250  22.250  1.4203e-02
9.250  22.500  1.4200e-02
9.250  22.750  1.4198e-02
9.250  23.000  1.4198e-02
9.250  23.250  1.4197e-02
9.250  23.500  1.4197e-02
9.250  23.750  1.4197e-02
9.250  24.000  1.4197e-02
9.500  17.000  3.1137e-02
9.500  17.250  3.0824e-02
9.500  17.500  3.0404e-02
9.500  17.750  2.9681e-02
9.500  18.000  2.8462e-02
9.500  18.250  2.6667e-02
9.500  18.500  2.4455e-02
9.500  18.750  2.2277e-02
9.500  19.000  2.1424e-02
9.500  19.250  2.2886e-02
9.500  19.500  2.4622e-02
9.500  19.750  2.2649e-02
9.500  20.000  2.0440e-02
9.500  20.250  1.8141e-02
9.500  20.500  1.6462e-02
9.500  20.750  1.5458e-02
9.500  21.000  1.4832e-02
9.500  21.250  1.4523e-02
9.500  21.500  1.4359e-02
9.500  21.750  1.4265e-02
9.500  22.000  1.4226e-02
9.500  22.250  1.4209e-02
9.500  22.500  1.4202e-02
9.500  22.750  1.4198e-02
9.500  23.000  1.4196e-02
9.500  23.250  1.4195e-02
9.500  23.500  1.4195e-02
9.500  23.750  1.4195e-02
9.500  24.000  1.4195e-02
9.750  17.000  3.1099e-02
9.750  17.250  3.0810e-02
9.750  17.500  3.0562e-02
9.750  17.750  3.0133e-02
9.750  18.000  2.9255e-02
9.750  18.250  2.7784e-02
9.750  18.500  2.5739e-02
9.750  18.750  2.3407e-02
9.750  19.000  2.1144e-02
9.750  19.250  2.1256e-02
9.750  19.500  2.2793e-02
9.750  19.750  2.4577e-02
9.750  20.000  2.2630e-02
9.750  20.250  2.0447e-02
9.750  20.500  1.8145e-02
9.750  20.750  1.6462e-02
9.750  21.000  1.5459e-02
9.750  21.250  1.4832e-02
9.750  21.500  1.4523e-02
9.750  21.750  1.4359e-02
9.750  22.000  1.4266e-02
9.750  22.250  1.4226e-02
9.750  22.500  1.4209e-02
9.750  22.750  1.4202e-02
9.750  23.000  1.4198e-02
9.750  23.250  1.4197e-02
9.750  23.500  1.4196e-02
9.750  23.750  1.4195e-02
9.750  24.000  1.4195e-02
10.000  17.000  3.1166e-02
10.000  17.250  3.0790e-02
10.000  17.500  3.0578e-02
10.000  17.750  3.0340e-02
10.000  18.000  2.9799e-02
10.000  18.250  2.8722e-02
10.000  18.500  2.7014e-02
10.000  18.750  2.4811e-02
10.000  19.000  2.2323e-02
10.000  19.250  2.0575e-02
10.000  19.500  2.1149e-02
10.000  19.750  2.2719e-02
10.000  20.000  2.4548e-02
10.000  20.250  2.2608e-02
10.000  20.500  2.0450e-02
10.000  20.750  1.8147e-02
10.000  21.000  1.6463e-02
10.000  21.250  1.5459e-02
10.000  21.500  1.4832e-02
10.000  21.750  1.4523e-02
10.000  22.000  1.4359e-02
10.000  22.250  1.4266e-02
10.000  22.500  1.4226e-02
10.000  22.750  1.4209e-02
10.000  23.000  1.4202e-02
10.000  23.250  1.4198e-02
10.000  23.500  1.4196e-02
10.000  23.750  1.4196e-02
10.000  24.000  1.4195e-02
10.250  17.000  3.1444e-02
10.250  17.250  3.0863e-02
10.250  17.500  3.0564e-02
10.250  17.750  3.0383e-02
10.250  18.000  3.0087e-02
10.250  18.250  2.9413e-02
10.250  18.500  2.8159e-02
10.250  18.750  2.6283e-02
10.250  19.000  2.3934e-02
10.250  19.250  2.1291e-02
10.250  19.500  2.0236e-02
10.250  19.750  2.1124e-02
10.250  20.000  2.2663e-02
10.250  20.250  2.4534e-02
10.250  20.500  2.2585e-02
10.250  20.750  2.0447e-02
10.250  21.000  1.8149e-02
10.250  21.250  1.6463e-02
10.250  21.500  1.5459e-02
10.250  21.750  1.4833e-02
10.250  22.000  1.4523e-02
10.250  22.250  1.4359e-02
10.250  22.500  1.4266e-02
10.250  22.750  1.4226e-02
10.250  23.000  1.4209e-02
10.250  23.250  1.4202e-02
10.250  23.500  1.4198e-02
10.250  23.750  1.4197e-02
10.250  24.000  1.4196e-02
10.500  17.000  3.1933e-02
10.500  17.250  3.1145e-02
10.500  17.500  3.0644e-02
10.500  17.750  3.0398e-02
10.500  18.000  3.0209e-02
10.500  18.250  2.9840e-02
10.500  18.500  2.9044e-02
10.500  18.750  2.7669e-02
10.500  19.000  2.5714e-02
10.500  19.250  2.3232e-02
10.500  19.500  2.0542e-02
10.500  19.750  2.0331e-02
10.500  20.000  2.1265e-02
10.500  20.250  2.2741e-02
10.500  20.500  2.4607e-02
10.500  20.750  2.2569e-02
10.500  21.000  2.0441e-02
10.500  21.250  1.8149e-02
10.500  21.500  1.6463e-02
10.500  21.750  1.5459e-02
10.500  22.000  1.4833e-02
10.500  22.250  1.4524e-02
10.500  22.500  1.4359e-02
10.500  22.750  1.4266e-02
10.500  23.000  1.4227e-02
10.500  23.250  1.4209e-02
10.500  23.500  1.4202e-02
10.500  23.750  1.4198e-02
10.500  24.000  1.4197e-02
10.750  17.000  3.2592e-02
10.750  17.250  3.1629e-02
10.750  17.500  3.0940e-02
10.750  17.750  3.0536e-02
10.750  18.000  3.0324e-02
10.750  18.250  3.0105e-02
10.750  18.500  2.9645e-02
10.750  18.750  2.8751e-02
10.750  19.000  2.7294e-02
10.750  19.250  2.5255e-02
10.750  19.500  2.2692e-02
10.750  19.750  1.9949e-02
10.750  20.000  2.0541e-02
10.750  20.250  2.1727e-02
10.750  20.500  2.3050e-02
10.750  20.750  2.4796e-02
10.750  21.000  2.2578e-02
10.750  21.250  2.0432e-02
10.750  21.500  1.8149e-02
10.750  21.750  1.6463e-02
10.750  22.000  1.5459e-02
10.750  22.250  1.4833e-02
10.750  22.500  1.4524e-02
10.750  22.750  1.4360e-02
10.750  23.000  1.4267e-02
10.750  23.250  1.4227e-02
10.750  23.500  1.4210e-02
10.750  23.750  1.4202e-02
10.750  24.000  1.4198e-02
11.000  17.000  3.3360e-02
11.000  17.250  3.2262e-02
11.000  17.500  3.1428e-02
11.000  17.750  3.0890e-02
11.000  18.000  3.0570e-02
11.000  18.250  3.0307e-02
11.000  18.500  3.0004e-02
11.000  18.750  2.9468e-02
11.000  19.000  2.8481e-02
11.000  19.250  2.6975e-02
11.000  19.500  2.4889e-02
11.000  19.750  2.2222e-02
11.000  20.000  1.9631e-02
11.000  20.250  2.1148e-02
11.000  20.500  2.2196e-02
11.000  20.750  2.3611e-02
11.000  21.000  2.5141e-02
11.000  21.250  2.2643e-02
11.000  21.500  2.0425e-02
11.000  21.750  1.8147e-02
11.000  22.000  1.6463e-02
11.000  22.250  1.5459e-02
11.000  22.500  1.4833e-02
11.000  22.750  1.4524e-02
11.000  23.000  1.4360e-02
11.000  23.250  1.4267e-02
11.000  23.500  1.4227e-02
11.000  23.750  1.4210e-02
11.000  24.000  1.4202e-02
11.250  17.000  3.4074e-02
11.250  17.250  3.2920e-02
11.250  17.500  3.2000e-02
11.250  17.750  3.1386e-02
11.250  18.000  3.0973e-02
11.250  18.250  3.0568e-02
11.250  18.500  3.0181e-02
11.250  18.750  2.9863e-02
11.250  19.000  2.9242e-02
11.250  19.250  2.8227e-02
11.250  19.500  2.6711e-02
11.250  19.750  2.4626e-02
11.250  20.000  2.1930e-02
11.250  20.250  2.0145e-02
11.250  20.500  2.1823e-02
11.250  20.750  2.3134e-02
11.250  21.000  2.4588e-02
11.250  21.250  2.5679e-02
11.250  21.500  2.2781e-02
11.250  21.750  2.0423e-02
11.250  22.000  1.8145e-02
11.250  22.250  1.6462e-02
11.250  22.500  1.5459e-02
11.250  22.750  1.4832e-02
11.250  23.000  1.4524e-02
11.250  23.250  1.4361e-02
11.250  23.500  1.4267e-02
11.250  23.750  1.4227e-02
11.250  24.000  1.4210e-02
11.500  17.000  3.4477e-02
11.500  17.250  3.3423e-02
11.500  17.500  3.2514e-02
11.500  17.750  3.1873e-02
11.500  18.000  3.1415e-02
11.500  18.250  3.0913e-02
11.500  18.500  3.0408e-02
11.500  18.750  3.0041e-02
11.500  19.000  2.9658e-02
11.500  19.250  2.9002e-02
11.500  19.500  2.7997e-02
11.500  19.750  2.6553e-02
11.500  20.000  2.4526e-02
11.500  20.250  2.1829e-02
11.500  20.500  2.0862e-02
11.500  20.750  2.2864e-02
11.500  21.000  2.4466e-02
11.500  21.250  2.6190e-02
11.500  21.500  2.6347e-02
11.500  21.750  2.3006e-02
11.500  22.000  2.0436e-02
11.500  22.250  1.8141e-02
11.500  22.500  1.6462e-02
11.500  22.750  1.5460e-02
11.500  23.000  1.4832e-02
11.500  23.250  1.4524e-02
11.500  23.500  1.4361e-02
11.500  23.750  1.4267e-02
11.500  24.000  1.4227e-02
11.750  17.000  3.4235e-02
11.750  17.250  3.3435e-02
11.750  17.500  3.2710e-02
11.750  17.750  3.2150e-02
11.750  18.000  3.1715e-02
11.750  18.250  3.1254e-02
11.750  18.500  3.0697e-02
11.750  18.750  3.0144e-02
11.750  19.000  2.9761e-02
11.750  19.250  2.9361e-02
11.750  19.500  2.8746e-02
11.750  19.750  2.7830e-02
11.750  20.000  2.6515e-02
11.750  20.250  2.4599e-02
11.750  20.500  2.1953e-02
11.750  20.750  2.2220e-02
11.750  21.000  2.4381e-02
11.750  21.250  2.6597e-02
11.750  21.500  2.8573e-02
11.750  21.750  2.7061e-02
11.750  22.000  2.3312e-02
11.750  22.250  2.0469e-02
11.750  22.500  1.8137e-02
11.750  22.750  1.6461e-02
11.750  23.000  1.5460e-02
11.750  23.250  1.4832e-02
11.750  23.500  1.4524e-02
11.750  23.750  1.4361e-02
11.750  24.000  1.4268e-02
12.000  17.000  3.3038e-02
12.000  17.250  3.2603e-02
12.000  17.500  3.2241e-02
12.000  17.750  3.1985e-02
12.000  18.000  3.1746e-02
12.000  18.250  3.1406e-02
12.000  18.500  3.0897e-02
12.000  18.750  3.0300e-02
12.000  19.000  2.9784e-02
12.000  19.250  2.9360e-02
12.000  19.500  2.9028e-02
12.000  19.750  2.8503e-02
12.000  20.000  2.7743e-02
12.000  20.250  2.6629e-02
12.000  20.500  2.4883e-02
12.000  20.750  2.4160e-02
12.000  21.000  2.4804e-02
12.000  21.250  2.6669e-02
12.000  21.500  2.9563e-02
12.000  21.750  3.1565e-02
12.000  22.000  2.7810e-02
12.000  22.250  2.3549e-02
12.000  22.500  2.0523e-02
12.000  22.750  1.8133e-02
12.000  23.000  1.6461e-02
12.000  23.250  1.5461e-02
12.000  23.500  1.4832e-02
12.000  23.750  1.4524e-02
12.000  24.000  1.4361e-02
12.250  17.000  3.0649e-02
12.250  17.250  3.0778e-02
12.250  17.500  3.0942e-02
12.250  17.750  3.1230e-02
12.250  18.000  3.1343e-02
12.250  18.250  3.1191e-02
12.250  18.500  3.0843e-02
12.250  18.750  3.0349e-02
12.250  19.000  2.9776e-02
12.250  19.250  2.9228e-02
12.250  19.500  2.8898e-02
12.250  19.750  2.8678e-02
12.250  20.000  2.8300e-02
12.250  20.250  2.7775e-02
12.250  20.500  2.6902e-02
12.250  20.750  2.5431e-02
12.250  21.000  2.5319e-02
12.250  21.250  2.6880e-02
12.250  21.500  2.9826e-02
12.250  21.750  3.3342e-02
12.250  22.000  3.3924e-02
12.250  22.250  2.8506e-02
12.250  22.500  2.3884e-02
12.250  22.750  2.0592e-02
12.250  23.000  1.8130e-02
12.250  23.250  1.6460e-02
12.250  23.500  1.5461e-02
12.250  23.750  1.4831e-02
12.250  24.000  1.4524e-02
12.500  17.000  2.7793e-02
12.500  17.250  2.8573e-02
12.500  17.500  2.9328e-02
12.500  17.750  2.9998e-02
12.500  18.000  3.0397e-02
12.500  18.250  3.0471e-02
12.500  18.500  3.0342e-02
12.500  18.750  3.0045e-02
12.500  19.000  2.9617e-02
12.500  19.250  2.9078e-02
12.500  19.500  2.8617e-02
12.500  19.750  2.8411e-02
12.500  20.000  2.8333e-02
12.500  20.250  2.8164e-02
12.500  20.500  2.7928e-02
12.500  20.750  2.7468e-02
12.500  21.000  2.6628e-02
12.500  21.250  2.5405e-02
12.500  21.500  2.9173e-02
12.500  21.750  3.3881e-02
12.500  22.000  3.7571e-02
12.500  22.250  3.5569e-02
12.500  22.500  2.9181e-02
12.500  22.750  2.4316e-02
12.500  23.000  2.0671e-02
12.500  23.250  1.8128e-02
12.500  23.500  1.6459e-02
12.500  23.750  1.5462e-02
12.500  24.000  1.4830e-02
12.750  17.000  2.6335e-02
12.750  17.250  2.7000e-02
12.750  17.500  2.7775e-02
12.750  17.750  2.8372e-02
12.750  18.000  2.8845e-02
12.750  18.250  2.9159e-02
12.750  18.500  2.9278e-02
12.750  18.750  2.9265e-02
12.750  19.000  2.9072e-02
12.750  19.250  2.8722e-02
12.750  19.500  2.8244e-02
12.750  19.750  2.7910e-02
12.750  20.000  2.7850e-02
12.750  20.250  2.8021e-02
12.750  20.500  2.8104e-02
12.750  20.750  2.8313e-02
12.750  21.000  2.8477e-02
12.750  21.250  2.8607e-02
12.750  21.500  2.8479e-02
12.750  21.750  3.3256e-02
12.750  22.000  3.8735e-02
12.750  22.250  4.1694e-02
12.750  22.500  3.7106e-02
12.750  22.750  2.9901e-02
12.750  23.000  2.4661e-02
12.750  23.250  2.0749e-02
12.750  23.500  1.8128e-02
12.750  23.750  1.6458e-02
12.750  24.000  1.5462e-02
13.000  17.000  2.4048e-02
13.000  17.250  2.4969e-02
13.000  17.500  2.5467e-02
13.000  17.750  2.6053e-02
13.000  18.000  2.6677e-02
13.000  18.250  2.7222e-02
13.000  18.500  2.7628e-02
13.000  18.750  2.7873e-02
13.000  19.000  2.7978e-02
13.000  19.250  2.7914e-02
13.000  19.500  2.7663e-02
13.000  19.750  2.7326e-02
13.000  20.000  2.7119e-02
13.000  20.250  2.7256e-02
13.000  20.500  2.7692e-02
13.000  20.750  2.8208e-02
13.000  21.000  2.9083e-02
13.000  21.250  3.0136e-02
13.000  21.500  3.1049e-02
13.000  21.750  3.2436e-02
13.000  22.000  3.8678e-02
13.000  22.250  4.3748e-02
13.000  22.500  4.5226e-02
13.000  22.750  3.8672e-02
13.000  23.000  3.0901e-02
13.000  23.250  2.4842e-02
13.000  23.500  2.0832e-02
13.000  23.750  1.8133e-02
13.000  24.000  1.6456e-02
13.250  17.000  2.2521e-02
13.250  17.250  2.3243e-02
13.250  17.500  2.3555e-02
13.250  17.750  2.3822e-02
13.250  18.000  2.4273e-02
13.250  18.250  2.4835e-02
13.250  18.500  2.5426e-02
13.250  18.750  2.5926e-02
13.250  19.000  2.6296e-02
13.250  19.250  2.6510e-02
13.250  19.500  2.6573e-02
13.250  19.750  2.6464e-02
13.250  20.000  2.6309e-02
13.250  20.250  2.6299e-02
13.250  20.500  2.6629e-02
13.250  20.750  2.7347e-02
13.250  21.000  2.8508e-02
13.250  21.250  2.9829e-02
13.250  21.500  3.1471e-02
13.250  21.750  3.2643e-02
13.250  22.000  3.6566e-02
13.250  22.250  4.2055e-02
13.250  22.500  4.7894e-02
13.250  22.750  4.8272e-02
13.250  23.000  4.0235e-02
13.250  23.250  3.1619e-02
13.250  23.500  2.5121e-02
13.250  23.750  2.0907e-02
13.250  24.000  1.8138e-02
13.500  17.000  2.0939e-02
13.500  17.250  2.1725e-02
13.500  17.500  2.1910e-02
13.500  17.750  2.1982e-02
13.500  18.000  2.2278e-02
13.500  18.250  2.2728e-02
13.500  18.500  2.3209e-02
13.500  18.750  2.3657e-02
13.500  19.000  2.4134e-02
13.500  19.250  2.4586e-02
13.500  19.500  2.4906e-02
13.500  19.750  2.5085e-02
13.500  20.000  2.5139e-02
13.500  20.250  2.5239e-02
13.500  20.500  2.5403e-02
13.500  20.750  2.5921e-02
13.500  21.000  2.6802e-02
13.500  21.250  2.8253e-02
13.500  21.500  2.9564e-02
13.500  21.750  3.1512e-02
13.500  22.000  3.3559e-02
13.500  22.250  3.8614e-02
13.500  22.500  4.5645e-02
13.500  22.750  5.1802e-02
13.500  23.000  5.1198e-02
13.500  23.250  4.1586e-02
13.500  23.500  3.2230e-02
13.500  23.750  2.5513e-02
13.500  24.000  2.0977e-02
13.750  17.000  1.9206e-02
13.750  17.250  2.0215e-02
13.750  17.500  2.0411e-02
13.750  17.750  2.0365e-02
13.750  18.000  2.0552e-02
13.750  18.250  2.0934e-02
13.750  18.500  2.1352e-02
13.750  18.750  2.1704e-02
13.750  19.000  2.2024e-02
13.750  19.250  2.2370e-02
13.750  19.500  2.2811e-02
13.750  19.750  2.3217e-02
13.750  20.000  2.3545e-02
13.750  20.250  2.3813e-02
13.750  20.500  2.4130e-02
13.750  20.750  2.4568e-02
13.750  21.000  2.5283e-02
13.750  21.250  2.6295e-02
13.750  21.500  2.7721e-02
13.750  21.750  2.9351e-02
13.750  22.000  3.1482e-02
13.750  22.250  3.4998e-02
13.750  22.500  4.2205e-02
13.750  22.750  4.9813e-02
13.750  23.000  5.5681e-02
13.750  23.250  5.4289e-02
13.750  23.500  4.3070e-02
13.750  23.750  3.2807e-02
13.750  24.000  2.5740e-02
14.000  17.000  1.7135e-02
14.000  17.250  1.8574e-02
14.000  17.500  1.8986e-02
14.000  17.750  1.8886e-02
14.000  18.000  1.8987e-02
14.000  18.250  1.9316e-02
14.000  18.500  1.9695e-02
14.000  18.750  2.0011e-02
14.000  19.000  2.0248e-02
14.000  19.250  2.0468e-02
14.000  19.500  2.0732e-02
14.000  19.750  2.1114e-02
14.000  20.000  2.1598e-02
14.000  20.250  2.2078e-02
14.000  20.500  2.2586e-02
14.000  20.750  2.3161e-02
14.000  21.000  2.3897e-02
14.000  21.250  2.4943e-02
14.000  21.500  2.6195e-02
14.000  21.750  2.7827e-02
14.000  22.000  2.9892e-02
14.000  22.250  3.2994e-02
14.000  22.500  3.8969e-02
14.000  22.750  4.8244e-02
14.000  23.000  5.6858e-02
14.000  23.250  6.0815e-02
14.000  23.500  5.7791e-02
14.000  23.750  4.4391e-02
14.000  24.000  3.3416e-02
