nFnu 960.000A  relative to Inci 1215.00A scaled to 1215A.
Hden   Phi(H)  Eq_Width (A)
7.000  17.000  3.0422e-02
7.000  17.250  2.8307e-02
7.000  17.500  2.5383e-02
7.000  17.750  2.1888e-02
7.000  18.000  1.8787e-02
7.000  18.250  1.6816e-02
7.000  18.500  1.5523e-02
7.000  18.750  1.4854e-02
7.000  19.000  1.4498e-02
7.000  19.250  1.4295e-02
7.000  19.500  1.4208e-02
7.000  19.750  1.4171e-02
7.000  20.000  1.4155e-02
7.000  20.250  1.4147e-02
7.000  20.500  1.4143e-02
7.000  20.750  1.4141e-02
7.000  21.000  1.4140e-02
7.000  21.250  1.4140e-02
7.000  21.500  1.4139e-02
7.000  21.750  1.4139e-02
7.000  22.000  1.4139e-02
7.000  22.250  1.4139e-02
7.000  22.500  1.4139e-02
7.000  22.750  1.4141e-02
7.000  23.000  1.4141e-02
7.000  23.250  1.4139e-02
7.000  23.500  1.4140e-02
7.000  23.750  1.4140e-02
7.000  24.000  1.4141e-02
7.250  17.000  3.2545e-02
7.250  17.250  2.9849e-02
7.250  17.500  2.8025e-02
7.250  17.750  2.5257e-02
7.250  18.000  2.1820e-02
7.250  18.250  1.8749e-02
7.250  18.500  1.6797e-02
7.250  18.750  1.5516e-02
7.250  19.000  1.4852e-02
7.250  19.250  1.4497e-02
7.250  19.500  1.4295e-02
7.250  19.750  1.4208e-02
7.250  20.000  1.4171e-02
7.250  20.250  1.4155e-02
7.250  20.500  1.4147e-02
7.250  20.750  1.4143e-02
7.250  21.000  1.4141e-02
7.250  21.250  1.4140e-02
7.250  21.500  1.4140e-02
7.250  21.750  1.4140e-02
7.250  22.000  1.4139e-02
7.250  22.250  1.4139e-02
7.250  22.500  1.4139e-02
7.250  22.750  1.4139e-02
7.250  23.000  1.4139e-02
7.250  23.250  1.4139e-02
7.250  23.500  1.4139e-02
7.250  23.750  1.4139e-02
7.250  24.000  1.4139e-02
7.500  17.000  3.6109e-02
7.500  17.250  3.0679e-02
7.500  17.500  2.9520e-02
7.500  17.750  2.7865e-02
7.500  18.000  2.5198e-02
7.500  18.250  2.1784e-02
7.500  18.500  1.8726e-02
7.500  18.750  1.6786e-02
7.500  19.000  1.5512e-02
7.500  19.250  1.4850e-02
7.500  19.500  1.4496e-02
7.500  19.750  1.4295e-02
7.500  20.000  1.4208e-02
7.500  20.250  1.4171e-02
7.500  20.500  1.4155e-02
7.500  20.750  1.4147e-02
7.500  21.000  1.4143e-02
7.500  21.250  1.4141e-02
7.500  21.500  1.4140e-02
7.500  21.750  1.4140e-02
7.500  22.000  1.4139e-02
7.500  22.250  1.4139e-02
7.500  22.500  1.4139e-02
7.500  22.750  1.4139e-02
7.500  23.000  1.4139e-02
7.500  23.250  1.4139e-02
7.500  23.500  1.4141e-02
7.500  23.750  1.4139e-02
7.500  24.000  1.4139e-02
7.750  17.000  2.8013e-02
7.750  17.250  3.2074e-02
7.750  17.500  2.9203e-02
7.750  17.750  2.9329e-02
7.750  18.000  2.7781e-02
7.750  18.250  2.5182e-02
7.750  18.500  2.1769e-02
7.750  18.750  1.8713e-02
7.750  19.000  1.6778e-02
7.750  19.250  1.5509e-02
7.750  19.500  1.4849e-02
7.750  19.750  1.4496e-02
7.750  20.000  1.4294e-02
7.750  20.250  1.4208e-02
7.750  20.500  1.4171e-02
7.750  20.750  1.4155e-02
7.750  21.000  1.4147e-02
7.750  21.250  1.4143e-02
7.750  21.500  1.4141e-02
7.750  21.750  1.4140e-02
7.750  22.000  1.4140e-02
7.750  22.250  1.4139e-02
7.750  22.500  1.4139e-02
7.750  22.750  1.4139e-02
7.750  23.000  1.4139e-02
7.750  23.250  1.4139e-02
7.750  23.500  1.4139e-02
7.750  23.750  1.4139e-02
7.750  24.000  1.4139e-02
8.000  17.000  2.0160e-02
8.000  17.250  2.4084e-02
8.000  17.500  2.8628e-02
8.000  17.750  2.7983e-02
8.000  18.000  2.9222e-02
8.000  18.250  2.7740e-02
8.000  18.500  2.5194e-02
8.000  18.750  2.1768e-02
8.000  19.000  1.8707e-02
8.000  19.250  1.6774e-02
8.000  19.500  1.5507e-02
8.000  19.750  1.4848e-02
8.000  20.000  1.4496e-02
8.000  20.250  1.4294e-02
8.000  20.500  1.4208e-02
8.000  20.750  1.4171e-02
8.000  21.000  1.4155e-02
8.000  21.250  1.4147e-02
8.000  21.500  1.4143e-02
8.000  21.750  1.4141e-02
8.000  22.000  1.4140e-02
8.000  22.250  1.4140e-02
8.000  22.500  1.4139e-02
8.000  22.750  1.4139e-02
8.000  23.000  1.4139e-02
8.000  23.250  1.4139e-02
8.000  23.500  1.4139e-02
8.000  23.750  1.4139e-02
8.000  24.000  1.4139e-02
8.250  17.000  1.4832e-02
8.250  17.250  1.7217e-02
8.250  17.500  2.1418e-02
8.250  17.750  2.6401e-02
8.250  18.000  2.7167e-02
8.250  18.250  2.9145e-02
8.250  18.500  2.7725e-02
8.250  18.750  2.5225e-02
8.250  19.000  2.1776e-02
8.250  19.250  1.8704e-02
8.250  19.500  1.6772e-02
8.250  19.750  1.5506e-02
8.250  20.000  1.4848e-02
8.250  20.250  1.4495e-02
8.250  20.500  1.4294e-02
8.250  20.750  1.4208e-02
8.250  21.000  1.4171e-02
8.250  21.250  1.4155e-02
8.250  21.500  1.4147e-02
8.250  21.750  1.4143e-02
8.250  22.000  1.4141e-02
8.250  22.250  1.4140e-02
8.250  22.500  1.4140e-02
8.250  22.750  1.4140e-02
8.250  23.000  1.4139e-02
8.250  23.250  1.4139e-02
8.250  23.500  1.4140e-02
8.250  23.750  1.4139e-02
8.250  24.000  1.4139e-02
8.500  17.000  1.1363e-02
8.500  17.250  1.2630e-02
8.500  17.500  1.5282e-02
8.500  17.750  1.9755e-02
8.500  18.000  2.4960e-02
8.500  18.250  2.6561e-02
8.500  18.500  2.9085e-02
8.500  18.750  2.7726e-02
8.500  19.000  2.5271e-02
8.500  19.250  2.1790e-02
8.500  19.500  1.8704e-02
8.500  19.750  1.6770e-02
8.500  20.000  1.5506e-02
8.500  20.250  1.4847e-02
8.500  20.500  1.4495e-02
8.500  20.750  1.4294e-02
8.500  21.000  1.4208e-02
8.500  21.250  1.4171e-02
8.500  21.500  1.4155e-02
8.500  21.750  1.4147e-02
8.500  22.000  1.4143e-02
8.500  22.250  1.4141e-02
8.500  22.500  1.4140e-02
8.500  22.750  1.4140e-02
8.500  23.000  1.4139e-02
8.500  23.250  1.4139e-02
8.500  23.500  1.4139e-02
8.500  23.750  1.4139e-02
8.500  24.000  1.4139e-02
8.750  17.000  9.1519e-03
8.750  17.250  9.7928e-03
8.750  17.500  1.1273e-02
8.750  17.750  1.4069e-02
8.750  18.000  1.8775e-02
8.750  18.250  2.4090e-02
8.750  18.500  2.6220e-02
8.750  18.750  2.9024e-02
8.750  19.000  2.7734e-02
8.750  19.250  2.5324e-02
8.750  19.500  2.1808e-02
8.750  19.750  1.8705e-02
8.750  20.000  1.6769e-02
8.750  20.250  1.5505e-02
8.750  20.500  1.4847e-02
8.750  20.750  1.4495e-02
8.750  21.000  1.4294e-02
8.750  21.250  1.4208e-02
8.750  21.500  1.4171e-02
8.750  21.750  1.4155e-02
8.750  22.000  1.4147e-02
8.750  22.250  1.4143e-02
8.750  22.500  1.4141e-02
8.750  22.750  1.4140e-02
8.750  23.000  1.4140e-02
8.750  23.250  1.4139e-02
8.750  23.500  1.4139e-02
8.750  23.750  1.4139e-02
8.750  24.000  1.4139e-02
9.000  17.000  7.7185e-03
9.000  17.250  8.0435e-03
9.000  17.500  8.8602e-03
9.000  17.750  1.0482e-02
9.000  18.000  1.3472e-02
9.000  18.250  1.8357e-02
9.000  18.500  2.3615e-02
9.000  18.750  2.5990e-02
9.000  19.000  2.8961e-02
9.000  19.250  2.7736e-02
9.000  19.500  2.5380e-02
9.000  19.750  2.1828e-02
9.000  20.000  1.8706e-02
9.000  20.250  1.6769e-02
9.000  20.500  1.5505e-02
9.000  20.750  1.4847e-02
9.000  21.000  1.4495e-02
9.000  21.250  1.4294e-02
9.000  21.500  1.4208e-02
9.000  21.750  1.4171e-02
9.000  22.000  1.4155e-02
9.000  22.250  1.4147e-02
9.000  22.500  1.4143e-02
9.000  22.750  1.4141e-02
9.000  23.000  1.4140e-02
9.000  23.250  1.4140e-02
9.000  23.500  1.4139e-02
9.000  23.750  1.4139e-02
9.000  24.000  1.4139e-02
9.250  17.000  6.7591e-03
9.250  17.250  6.9236e-03
9.250  17.500  7.4115e-03
9.250  17.750  8.3771e-03
9.250  18.000  1.0202e-02
9.250  18.250  1.3422e-02
9.250  18.500  1.8519e-02
9.250  18.750  2.3393e-02
9.250  19.000  2.5819e-02
9.250  19.250  2.8886e-02
9.250  19.500  2.7727e-02
9.250  19.750  2.5430e-02
9.250  20.000  2.1847e-02
9.250  20.250  1.8708e-02
9.250  20.500  1.6768e-02
9.250  20.750  1.5504e-02
9.250  21.000  1.4847e-02
9.250  21.250  1.4495e-02
9.250  21.500  1.4293e-02
9.250  21.750  1.4206e-02
9.250  22.000  1.4169e-02
9.250  22.250  1.4153e-02
9.250  22.500  1.4146e-02
9.250  22.750  1.4143e-02
9.250  23.000  1.4141e-02
9.250  23.250  1.4140e-02
9.250  23.500  1.4139e-02
9.250  23.750  1.4139e-02
9.250  24.000  1.4139e-02
9.500  17.000  6.1040e-03
9.500  17.250  6.1621e-03
9.500  17.500  6.4985e-03
9.500  17.750  7.1619e-03
9.500  18.000  8.3262e-03
9.500  18.250  1.0397e-02
9.500  18.500  1.4009e-02
9.500  18.750  1.9312e-02
9.500  19.000  2.3148e-02
9.500  19.250  2.5678e-02
9.500  19.500  2.8808e-02
9.500  19.750  2.7703e-02
9.500  20.000  2.5468e-02
9.500  20.250  2.1864e-02
9.500  20.500  1.8710e-02
9.500  20.750  1.6767e-02
9.500  21.000  1.5503e-02
9.500  21.250  1.4846e-02
9.500  21.500  1.4494e-02
9.500  21.750  1.4292e-02
9.500  22.000  1.4205e-02
9.500  22.250  1.4169e-02
9.500  22.500  1.4152e-02
9.500  22.750  1.4145e-02
9.500  23.000  1.4141e-02
9.500  23.250  1.4139e-02
9.500  23.500  1.4138e-02
9.500  23.750  1.4137e-02
9.500  24.000  1.4137e-02
9.750  17.000  5.7097e-03
9.750  17.250  5.6225e-03
9.750  17.500  5.8542e-03
9.750  17.750  6.3788e-03
9.750  18.000  7.2677e-03
9.750  18.250  8.7219e-03
9.750  18.500  1.1184e-02
9.750  18.750  1.5210e-02
9.750  19.000  2.0363e-02
9.750  19.250  2.2934e-02
9.750  19.500  2.5536e-02
9.750  19.750  2.8725e-02
9.750  20.000  2.7661e-02
9.750  20.250  2.5488e-02
9.750  20.500  2.1877e-02
9.750  20.750  1.8711e-02
9.750  21.000  1.6767e-02
9.750  21.250  1.5502e-02
9.750  21.500  1.4846e-02
9.750  21.750  1.4494e-02
9.750  22.000  1.4292e-02
9.750  22.250  1.4205e-02
9.750  22.500  1.4169e-02
9.750  22.750  1.4152e-02
9.750  23.000  1.4145e-02
9.750  23.250  1.4141e-02
9.750  23.500  1.4139e-02
9.750  23.750  1.4138e-02
9.750  24.000  1.4137e-02
10.000  17.000  5.5597e-03
10.000  17.250  5.2812e-03
10.000  17.500  5.3585e-03
10.000  17.750  5.7968e-03
10.000  18.000  6.6086e-03
10.000  18.250  7.7846e-03
10.000  18.500  9.5693e-03
10.000  18.750  1.2403e-02
10.000  19.000  1.6730e-02
10.000  19.250  2.0795e-02
10.000  19.500  2.2810e-02
10.000  19.750  2.5429e-02
10.000  20.000  2.8674e-02
10.000  20.250  2.7613e-02
10.000  20.500  2.5496e-02
10.000  20.750  2.1887e-02
10.000  21.000  1.8713e-02
10.000  21.250  1.6768e-02
10.000  21.500  1.5503e-02
10.000  21.750  1.4846e-02
10.000  22.000  1.4494e-02
10.000  22.250  1.4293e-02
10.000  22.500  1.4205e-02
10.000  22.750  1.4169e-02
10.000  23.000  1.4152e-02
10.000  23.250  1.4145e-02
10.000  23.500  1.4141e-02
10.000  23.750  1.4139e-02
10.000  24.000  1.4138e-02
10.250  17.000  5.6667e-03
10.250  17.250  5.1700e-03
10.250  17.500  5.0574e-03
10.250  17.750  5.3678e-03
10.250  18.000  6.1209e-03
10.250  18.250  7.1886e-03
10.250  18.500  8.6372e-03
10.250  18.750  1.0762e-02
10.250  19.000  1.4001e-02
10.250  19.250  1.8159e-02
10.250  19.500  2.1073e-02
10.250  19.750  2.2790e-02
10.250  20.000  2.5365e-02
10.250  20.250  2.8653e-02
10.250  20.500  2.7563e-02
10.250  20.750  2.5490e-02
10.250  21.000  2.1893e-02
10.250  21.250  1.8713e-02
10.250  21.500  1.6768e-02
10.250  21.750  1.5503e-02
10.250  22.000  1.4846e-02
10.250  22.250  1.4494e-02
10.250  22.500  1.4293e-02
10.250  22.750  1.4206e-02
10.250  23.000  1.4168e-02
10.250  23.250  1.4152e-02
10.250  23.500  1.4145e-02
10.250  23.750  1.4141e-02
10.250  24.000  1.4139e-02
10.500  17.000  5.9732e-03
10.500  17.250  5.3092e-03
10.500  17.500  4.9926e-03
10.500  17.750  5.1411e-03
10.500  18.000  5.7648e-03
10.500  18.250  6.7477e-03
10.500  18.500  7.9844e-03
10.500  18.750  9.5849e-03
10.500  19.000  1.1792e-02
10.500  19.250  1.5070e-02
10.500  19.500  1.8868e-02
10.500  19.750  2.1193e-02
10.500  20.000  2.2970e-02
10.500  20.250  2.5487e-02
10.500  20.500  2.8796e-02
10.500  20.750  2.7530e-02
10.500  21.000  2.5473e-02
10.500  21.250  2.1895e-02
10.500  21.500  1.8712e-02
10.500  21.750  1.6768e-02
10.500  22.000  1.5503e-02
10.500  22.250  1.4847e-02
10.500  22.500  1.4494e-02
10.500  22.750  1.4293e-02
10.500  23.000  1.4206e-02
10.500  23.250  1.4169e-02
10.500  23.500  1.4152e-02
10.500  23.750  1.4145e-02
10.500  24.000  1.4141e-02
10.750  17.000  6.4206e-03
10.750  17.250  5.6517e-03
10.750  17.500  5.1923e-03
10.750  17.750  5.1723e-03
10.750  18.000  5.5918e-03
10.750  18.250  6.3440e-03
10.750  18.500  7.3389e-03
10.750  18.750  8.5399e-03
10.750  19.000  1.0115e-02
10.750  19.250  1.2511e-02
10.750  19.500  1.5995e-02
10.750  19.750  1.9596e-02
10.750  20.000  2.1499e-02
10.750  20.250  2.3528e-02
10.750  20.500  2.5935e-02
10.750  20.750  2.9161e-02
10.750  21.000  2.7553e-02
10.750  21.250  2.5450e-02
10.750  21.500  2.1893e-02
10.750  21.750  1.8711e-02
10.750  22.000  1.6768e-02
10.750  22.250  1.5503e-02
10.750  22.500  1.4847e-02
10.750  22.750  1.4495e-02
10.750  23.000  1.4293e-02
10.750  23.250  1.4206e-02
10.750  23.500  1.4169e-02
10.750  23.750  1.4153e-02
10.750  24.000  1.4145e-02
11.000  17.000  6.9626e-03
11.000  17.250  6.1392e-03
11.000  17.500  5.6012e-03
11.000  17.750  5.4564e-03
11.000  18.000  5.6491e-03
11.000  18.250  6.0788e-03
11.000  18.500  6.7504e-03
11.000  18.750  7.6499e-03
11.000  19.000  8.8283e-03
11.000  19.250  1.0549e-02
11.000  19.500  1.3179e-02
11.000  19.750  1.6921e-02
11.000  20.000  2.0096e-02
11.000  20.250  2.2241e-02
11.000  20.500  2.4192e-02
11.000  20.750  2.6775e-02
11.000  21.000  2.9831e-02
11.000  21.250  2.7701e-02
11.000  21.500  2.5430e-02
11.000  21.750  2.1887e-02
11.000  22.000  1.8709e-02
11.000  22.250  1.6768e-02
11.000  22.500  1.5503e-02
11.000  22.750  1.4847e-02
11.000  23.000  1.4495e-02
11.000  23.250  1.4293e-02
11.000  23.500  1.4206e-02
11.000  23.750  1.4169e-02
11.000  24.000  1.4153e-02
11.250  17.000  7.5453e-03
11.250  17.250  6.7068e-03
11.250  17.500  6.1353e-03
11.250  17.750  5.9675e-03
11.250  18.000  6.1986e-03
11.250  18.250  6.7952e-03
11.250  18.500  7.7236e-03
11.250  18.750  8.9502e-03
11.250  19.000  1.0441e-02
11.250  19.250  1.2164e-02
11.250  19.500  1.4083e-02
11.250  19.750  1.6166e-02
11.250  20.000  1.8380e-02
11.250  20.250  2.0690e-02
11.250  20.500  2.3063e-02
11.250  20.750  2.5465e-02
11.250  21.000  2.8242e-02
11.250  21.250  3.0891e-02
11.250  21.500  2.8019e-02
11.250  21.750  2.5427e-02
11.250  22.000  2.1877e-02
11.250  22.250  1.8706e-02
11.250  22.500  1.6768e-02
11.250  22.750  1.5502e-02
11.250  23.000  1.4847e-02
11.250  23.250  1.4496e-02
11.250  23.500  1.4293e-02
11.250  23.750  1.4206e-02
11.250  24.000  1.4169e-02
11.500  17.000  8.0935e-03
11.500  17.250  7.3048e-03
11.500  17.500  6.7291e-03
11.500  17.750  6.4301e-03
11.500  18.000  6.4116e-03
11.500  18.250  6.6717e-03
11.500  18.500  7.2083e-03
11.500  18.750  8.0193e-03
11.500  19.000  9.1026e-03
11.500  19.250  1.0456e-02
11.500  19.500  1.2078e-02
11.500  19.750  1.3966e-02
11.500  20.000  1.6118e-02
11.500  20.250  1.8532e-02
11.500  20.500  2.1206e-02
11.500  20.750  2.4138e-02
11.500  21.000  2.7326e-02
11.500  21.250  3.0646e-02
11.500  21.500  3.2238e-02
11.500  21.750  2.8540e-02
11.500  22.000  2.5465e-02
11.500  22.250  2.1864e-02
11.500  22.500  1.8703e-02
11.500  22.750  1.6768e-02
11.500  23.000  1.5502e-02
11.500  23.250  1.4847e-02
11.500  23.500  1.4496e-02
11.500  23.750  1.4294e-02
11.500  24.000  1.4207e-02
11.750  17.000  8.4645e-03
11.750  17.250  7.8250e-03
11.750  17.500  7.3049e-03
11.750  17.750  7.0163e-03
11.750  18.000  6.8156e-03
11.750  18.250  6.5913e-03
11.750  18.500  6.3807e-03
11.750  18.750  6.4671e-03
11.750  19.000  6.9325e-03
11.750  19.250  7.7898e-03
11.750  19.500  9.0516e-03
11.750  19.750  1.0731e-02
11.750  20.000  1.2840e-02
11.750  20.250  1.5392e-02
11.750  20.500  1.8400e-02
11.750  20.750  2.1876e-02
11.750  21.000  2.5834e-02
11.750  21.250  3.0285e-02
11.750  21.500  3.4236e-02
11.750  21.750  3.3722e-02
11.750  22.000  2.9260e-02
11.750  22.250  2.5558e-02
11.750  22.500  2.1849e-02
11.750  22.750  1.8699e-02
11.750  23.000  1.6768e-02
11.750  23.250  1.5502e-02
11.750  23.500  1.4847e-02
11.750  23.750  1.4496e-02
11.750  24.000  1.4294e-02
12.000  17.000  8.4139e-03
12.000  17.250  8.0852e-03
12.000  17.500  7.7230e-03
12.000  17.750  8.0971e-03
12.000  18.000  9.3085e-03
12.000  18.250  1.1226e-02
12.000  18.500  1.3719e-02
12.000  18.750  1.6656e-02
12.000  19.000  1.9906e-02
12.000  19.250  2.3339e-02
12.000  19.500  2.6822e-02
12.000  19.750  3.0226e-02
12.000  20.000  3.3419e-02
12.000  20.250  3.6269e-02
12.000  20.500  3.8647e-02
12.000  20.750  4.0421e-02
12.000  21.000  4.1460e-02
12.000  21.250  4.1633e-02
12.000  21.500  4.0809e-02
12.000  21.750  3.8857e-02
12.000  22.000  3.5322e-02
12.000  22.250  2.9851e-02
12.000  22.500  2.5713e-02
12.000  22.750  2.1835e-02
12.000  23.000  1.8694e-02
12.000  23.250  1.6768e-02
12.000  23.500  1.5501e-02
12.000  23.750  1.4847e-02
12.000  24.000  1.4496e-02
12.250  17.000  7.4634e-03
12.250  17.250  7.8047e-03
12.250  17.500  7.7799e-03
12.250  17.750  7.7306e-03
12.250  18.000  7.6203e-03
12.250  18.250  7.4002e-03
12.250  18.500  7.0835e-03
12.250  18.750  6.7351e-03
12.250  19.000  6.4502e-03
12.250  19.250  6.5880e-03
12.250  19.500  7.2545e-03
12.250  19.750  8.4694e-03
12.250  20.000  1.0252e-02
12.250  20.250  1.2623e-02
12.250  20.500  1.5601e-02
12.250  20.750  1.9205e-02
12.250  21.000  2.3456e-02
12.250  21.250  2.8374e-02
12.250  21.500  3.3977e-02
12.250  21.750  3.9962e-02
12.250  22.000  4.2924e-02
12.250  22.250  3.6864e-02
12.250  22.500  3.0681e-02
12.250  22.750  2.5915e-02
12.250  23.000  2.1825e-02
12.250  23.250  1.8689e-02
12.250  23.500  1.6768e-02
12.250  23.750  1.5500e-02
12.250  24.000  1.4847e-02
12.500  17.000  4.3205e-03
12.500  17.250  6.5568e-03
12.500  17.500  7.2884e-03
12.500  17.750  7.5725e-03
12.500  18.000  7.6638e-03
12.500  18.250  7.5755e-03
12.500  18.500  7.3526e-03
12.500  18.750  7.0260e-03
12.500  19.000  6.6816e-03
12.500  19.250  6.3885e-03
12.500  19.500  7.2495e-03
12.500  19.750  9.3709e-03
12.500  20.000  1.2517e-02
12.500  20.250  1.6452e-02
12.500  20.500  2.0941e-02
12.500  20.750  2.5748e-02
12.500  21.000  3.0637e-02
12.500  21.250  3.5373e-02
12.500  21.500  3.9720e-02
12.500  21.750  4.3442e-02
12.500  22.000  4.6304e-02
12.500  22.250  4.6209e-02
12.500  22.500  3.8408e-02
12.500  22.750  3.1754e-02
12.500  23.000  2.6153e-02
12.500  23.250  2.1821e-02
12.500  23.500  1.8684e-02
12.500  23.750  1.6769e-02
12.500  24.000  1.5499e-02
12.750  17.000  3.7281e-03
12.750  17.250  4.1075e-03
12.750  17.500  5.9300e-03
12.750  17.750  6.8137e-03
12.750  18.000  7.2134e-03
12.750  18.250  7.3849e-03
12.750  18.500  7.3723e-03
12.750  18.750  7.2118e-03
12.750  19.000  6.9195e-03
12.750  19.250  7.9295e-03
12.750  19.500  1.0401e-02
12.750  19.750  1.4051e-02
12.750  20.000  1.8594e-02
12.750  20.250  2.3746e-02
12.750  20.500  2.9224e-02
12.750  20.750  3.4743e-02
12.750  21.000  4.0019e-02
12.750  21.250  4.4768e-02
12.750  21.500  4.8705e-02
12.750  21.750  5.1548e-02
12.750  22.000  5.3011e-02
12.750  22.250  5.2811e-02
12.750  22.500  4.9415e-02
12.750  22.750  4.0094e-02
12.750  23.000  3.2654e-02
12.750  23.250  2.6395e-02
12.750  23.500  2.1827e-02
12.750  23.750  1.8680e-02
12.750  24.000  1.6769e-02
13.000  17.000  5.5437e-03
13.000  17.250  5.2016e-03
13.000  17.500  4.3924e-03
13.000  17.750  4.3510e-03
13.000  18.000  5.7787e-03
13.000  18.250  6.5084e-03
13.000  18.500  6.9139e-03
13.000  18.750  7.0669e-03
13.000  19.000  7.3812e-03
13.000  19.250  8.0107e-03
13.000  19.500  8.9926e-03
13.000  19.750  1.0364e-02
13.000  20.000  1.2162e-02
13.000  20.250  1.4424e-02
13.000  20.500  1.7188e-02
13.000  20.750  2.0489e-02
13.000  21.000  2.4366e-02
13.000  21.250  2.8856e-02
13.000  21.500  3.3995e-02
13.000  21.750  3.9822e-02
13.000  22.000  4.6373e-02
13.000  22.250  5.3685e-02
13.000  22.500  5.8894e-02
13.000  22.750  5.2761e-02
13.000  23.000  4.2414e-02
13.000  23.250  3.3195e-02
13.000  23.500  2.6655e-02
13.000  23.750  2.1847e-02
13.000  24.000  1.8678e-02
13.250  17.000  5.2643e-03
13.250  17.250  4.9343e-03
13.250  17.500  4.6935e-03
13.250  17.750  4.5807e-03
13.250  18.000  4.6219e-03
13.250  18.250  4.8434e-03
13.250  18.500  5.2712e-03
13.250  18.750  5.9312e-03
13.250  19.000  6.8482e-03
13.250  19.250  8.0465e-03
13.250  19.500  9.5505e-03
13.250  19.750  1.1385e-02
13.250  20.000  1.3574e-02
13.250  20.250  1.6141e-02
13.250  20.500  1.9113e-02
13.250  20.750  2.2512e-02
13.250  21.000  2.6363e-02
13.250  21.250  3.0691e-02
13.250  21.500  3.5520e-02
13.250  21.750  4.0875e-02
13.250  22.000  4.6780e-02
13.250  22.250  5.3259e-02
13.250  22.500  6.0337e-02
13.250  22.750  6.4716e-02
13.250  23.000  5.6192e-02
13.250  23.250  4.4185e-02
13.250  23.500  3.3968e-02
13.250  23.750  2.6899e-02
13.250  24.000  2.1875e-02
13.500  17.000  5.1287e-03
13.500  17.250  4.6899e-03
13.500  17.500  4.4083e-03
13.500  17.750  4.3269e-03
13.500  18.000  4.4604e-03
13.500  18.250  4.8233e-03
13.500  18.500  5.4301e-03
13.500  18.750  6.2955e-03
13.500  19.000  7.4339e-03
13.500  19.250  8.8599e-03
13.500  19.500  1.0588e-02
13.500  19.750  1.2633e-02
13.500  20.000  1.5009e-02
13.500  20.250  1.7732e-02
13.500  20.500  2.0814e-02
13.500  20.750  2.4272e-02
13.500  21.000  2.8119e-02
13.500  21.250  3.2370e-02
13.500  21.500  3.7040e-02
13.500  21.750  4.2144e-02
13.500  22.000  4.7695e-02
13.500  22.250  5.3708e-02
13.500  22.500  6.0198e-02
13.500  22.750  6.7180e-02
13.500  23.000  7.0732e-02
13.500  23.250  5.9290e-02
13.500  23.500  4.5747e-02
13.500  23.750  3.5019e-02
13.500  24.000  2.7130e-02
13.750  17.000  5.0793e-03
13.750  17.250  4.6729e-03
13.750  17.500  4.4662e-03
13.750  17.750  4.5049e-03
13.750  18.000  4.7961e-03
13.750  18.250  5.3467e-03
13.750  18.500  6.1639e-03
13.750  18.750  7.2549e-03
13.750  19.000  8.6265e-03
13.750  19.250  1.0286e-02
13.750  19.500  1.2240e-02
13.750  19.750  1.4497e-02
13.750  20.000  1.7062e-02
13.750  20.250  1.9944e-02
13.750  20.500  2.3149e-02
13.750  20.750  2.6684e-02
13.750  21.000  3.0557e-02
13.750  21.250  3.4774e-02
13.750  21.500  3.9342e-02
13.750  21.750  4.4269e-02
13.750  22.000  4.9562e-02
13.750  22.250  5.5228e-02
13.750  22.500  6.1274e-02
13.750  22.750  6.7706e-02
13.750  23.000  7.4533e-02
13.750  23.250  7.7218e-02
13.750  23.500  6.2741e-02
13.750  23.750  4.7275e-02
13.750  24.000  3.5703e-02
14.000  17.000  5.0631e-03
14.000  17.250  4.8380e-03
14.000  17.500  4.9111e-03
14.000  17.750  5.3343e-03
14.000  18.000  6.0981e-03
14.000  18.250  7.1928e-03
14.000  18.500  8.6090e-03
14.000  18.750  1.0337e-02
14.000  19.000  1.2367e-02
14.000  19.250  1.4690e-02
14.000  19.500  1.7297e-02
14.000  19.750  2.0176e-02
14.000  20.000  2.3320e-02
14.000  20.250  2.6718e-02
14.000  20.500  3.0361e-02
14.000  20.750  3.4240e-02
14.000  21.000  3.8343e-02
14.000  21.250  4.2664e-02
14.000  21.500  4.7190e-02
14.000  21.750  5.1914e-02
14.000  22.000  5.6825e-02
14.000  22.250  6.1914e-02
14.000  22.500  6.7171e-02
14.000  22.750  7.2587e-02
14.000  23.000  7.8152e-02
14.000  23.250  8.3856e-02
14.000  23.500  8.4470e-02
14.000  23.750  6.5969e-02
14.000  24.000  4.8927e-02
