InwC 1073.86A  relative to Inci 1215.00A scaled to 1215A.
Hden   Phi(H)  Eq_Width (A)
7.000  17.000  1.4155e-02
7.000  17.250  1.4163e-02
7.000  17.500  1.4169e-02
7.000  17.750  1.4176e-02
7.000  18.000  1.4182e-02
7.000  18.250  1.4188e-02
7.000  18.500  1.4191e-02
7.000  18.750  1.4193e-02
7.000  19.000  1.4195e-02
7.000  19.250  1.4196e-02
7.000  19.500  1.4197e-02
7.000  19.750  1.4197e-02
7.000  20.000  1.4197e-02
7.000  20.250  1.4197e-02
7.000  20.500  1.4197e-02
7.000  20.750  1.4197e-02
7.000  21.000  1.4197e-02
7.000  21.250  1.4197e-02
7.000  21.500  1.4197e-02
7.000  21.750  1.4197e-02
7.000  22.000  1.4197e-02
7.000  22.250  1.4197e-02
7.000  22.500  1.4197e-02
7.000  22.750  1.4199e-02
7.000  23.000  1.4199e-02
7.000  23.250  1.4197e-02
7.000  23.500  1.4199e-02
7.000  23.750  1.4199e-02
7.000  24.000  1.4199e-02
7.250  17.000  1.3613e-02
7.250  17.250  1.4155e-02
7.250  17.500  1.4163e-02
7.250  17.750  1.4169e-02
7.250  18.000  1.4176e-02
7.250  18.250  1.4182e-02
7.250  18.500  1.4188e-02
7.250  18.750  1.4191e-02
7.250  19.000  1.4193e-02
7.250  19.250  1.4195e-02
7.250  19.500  1.4196e-02
7.250  19.750  1.4197e-02
7.250  20.000  1.4197e-02
7.250  20.250  1.4197e-02
7.250  20.500  1.4197e-02
7.250  20.750  1.4197e-02
7.250  21.000  1.4197e-02
7.250  21.250  1.4197e-02
7.250  21.500  1.4197e-02
7.250  21.750  1.4197e-02
7.250  22.000  1.4197e-02
7.250  22.250  1.4197e-02
7.250  22.500  1.4197e-02
7.250  22.750  1.4197e-02
7.250  23.000  1.4197e-02
7.250  23.250  1.4197e-02
7.250  23.500  1.4197e-02
7.250  23.750  1.4197e-02
7.250  24.000  1.4197e-02
7.500  17.000  1.3826e-02
7.500  17.250  1.3616e-02
7.500  17.500  1.4155e-02
7.500  17.750  1.4163e-02
7.500  18.000  1.4170e-02
7.500  18.250  1.4176e-02
7.500  18.500  1.4182e-02
7.500  18.750  1.4188e-02
7.500  19.000  1.4191e-02
7.500  19.250  1.4193e-02
7.500  19.500  1.4195e-02
7.500  19.750  1.4196e-02
7.500  20.000  1.4197e-02
7.500  20.250  1.4197e-02
7.500  20.500  1.4197e-02
7.500  20.750  1.4197e-02
7.500  21.000  1.4197e-02
7.500  21.250  1.4197e-02
7.500  21.500  1.4197e-02
7.500  21.750  1.4197e-02
7.500  22.000  1.4197e-02
7.500  22.250  1.4197e-02
7.500  22.500  1.4197e-02
7.500  22.750  1.4197e-02
7.500  23.000  1.4197e-02
7.500  23.250  1.4197e-02
7.500  23.500  1.4199e-02
7.500  23.750  1.4197e-02
7.500  24.000  1.4197e-02
7.750  17.000  1.7557e-02
7.750  17.250  1.3784e-02
7.750  17.500  1.3619e-02
7.750  17.750  1.4155e-02
7.750  18.000  1.4163e-02
7.750  18.250  1.4170e-02
7.750  18.500  1.4176e-02
7.750  18.750  1.4182e-02
7.750  19.000  1.4188e-02
7.750  19.250  1.4191e-02
7.750  19.500  1.4193e-02
7.750  19.750  1.4195e-02
7.750  20.000  1.4196e-02
7.750  20.250  1.4197e-02
7.750  20.500  1.4197e-02
7.750  20.750  1.4197e-02
7.750  21.000  1.4197e-02
7.750  21.250  1.4197e-02
7.750  21.500  1.4197e-02
7.750  21.750  1.4197e-02
7.750  22.000  1.4197e-02
7.750  22.250  1.4197e-02
7.750  22.500  1.4197e-02
7.750  22.750  1.4197e-02
7.750  23.000  1.4197e-02
7.750  23.250  1.4197e-02
7.750  23.500  1.4197e-02
7.750  23.750  1.4197e-02
7.750  24.000  1.4197e-02
8.000  17.000  2.0735e-02
8.000  17.250  1.7578e-02
8.000  17.500  1.3852e-02
8.000  17.750  1.3615e-02
8.000  18.000  1.4155e-02
8.000  18.250  1.4163e-02
8.000  18.500  1.4170e-02
8.000  18.750  1.4176e-02
8.000  19.000  1.4182e-02
8.000  19.250  1.4188e-02
8.000  19.500  1.4191e-02
8.000  19.750  1.4193e-02
8.000  20.000  1.4195e-02
8.000  20.250  1.4196e-02
8.000  20.500  1.4197e-02
8.000  20.750  1.4197e-02
8.000  21.000  1.4197e-02
8.000  21.250  1.4197e-02
8.000  21.500  1.4197e-02
8.000  21.750  1.4197e-02
8.000  22.000  1.4197e-02
8.000  22.250  1.4197e-02
8.000  22.500  1.4197e-02
8.000  22.750  1.4197e-02
8.000  23.000  1.4197e-02
8.000  23.250  1.4197e-02
8.000  23.500  1.4197e-02
8.000  23.750  1.4197e-02
8.000  24.000  1.4197e-02
8.250  17.000  2.3017e-02
8.250  17.250  2.0622e-02
8.250  17.500  1.7490e-02
8.250  17.750  1.5284e-02
8.250  18.000  1.4201e-02
8.250  18.250  1.3890e-02
8.250  18.500  1.3997e-02
8.250  18.750  1.4170e-02
8.250  19.000  1.4176e-02
8.250  19.250  1.4182e-02
8.250  19.500  1.4188e-02
8.250  19.750  1.4191e-02
8.250  20.000  1.4193e-02
8.250  20.250  1.4195e-02
8.250  20.500  1.4196e-02
8.250  20.750  1.4197e-02
8.250  21.000  1.4197e-02
8.250  21.250  1.4197e-02
8.250  21.500  1.4197e-02
8.250  21.750  1.4197e-02
8.250  22.000  1.4197e-02
8.250  22.250  1.4197e-02
8.250  22.500  1.4197e-02
8.250  22.750  1.4198e-02
8.250  23.000  1.4197e-02
8.250  23.250  1.4197e-02
8.250  23.500  1.4198e-02
8.250  23.750  1.4197e-02
8.250  24.000  1.4197e-02
8.500  17.000  2.4547e-02
8.500  17.250  2.2900e-02
8.500  17.500  2.0482e-02
8.500  17.750  1.7388e-02
8.500  18.000  1.3799e-02
8.500  18.250  1.3618e-02
8.500  18.500  1.4155e-02
8.500  18.750  1.4163e-02
8.500  19.000  1.4170e-02
8.500  19.250  1.4176e-02
8.500  19.500  1.4182e-02
8.500  19.750  1.4188e-02
8.500  20.000  1.4191e-02
8.500  20.250  1.4193e-02
8.500  20.500  1.4195e-02
8.500  20.750  1.4196e-02
8.500  21.000  1.4197e-02
8.500  21.250  1.4197e-02
8.500  21.500  1.4197e-02
8.500  21.750  1.4197e-02
8.500  22.000  1.4197e-02
8.500  22.250  1.4197e-02
8.500  22.500  1.4197e-02
8.500  22.750  1.4197e-02
8.500  23.000  1.4197e-02
8.500  23.250  1.4197e-02
8.500  23.500  1.4197e-02
8.500  23.750  1.4197e-02
8.500  24.000  1.4197e-02
8.750  17.000  2.5481e-02
8.750  17.250  2.4430e-02
8.750  17.500  2.2736e-02
8.750  17.750  2.0267e-02
8.750  18.000  1.7194e-02
8.750  18.250  1.3719e-02
8.750  18.500  1.3618e-02
8.750  18.750  1.4155e-02
8.750  19.000  1.4163e-02
8.750  19.250  1.4170e-02
8.750  19.500  1.4176e-02
8.750  19.750  1.4182e-02
8.750  20.000  1.4188e-02
8.750  20.250  1.4191e-02
8.750  20.500  1.4193e-02
8.750  20.750  1.4195e-02
8.750  21.000  1.4196e-02
8.750  21.250  1.4197e-02
8.750  21.500  1.4197e-02
8.750  21.750  1.4197e-02
8.750  22.000  1.4197e-02
8.750  22.250  1.4197e-02
8.750  22.500  1.4197e-02
8.750  22.750  1.4197e-02
8.750  23.000  1.4197e-02
8.750  23.250  1.4197e-02
8.750  23.500  1.4197e-02
8.750  23.750  1.4197e-02
8.750  24.000  1.4197e-02
9.000  17.000  2.5950e-02
9.000  17.250  2.5365e-02
9.000  17.500  2.4255e-02
9.000  17.750  2.2468e-02
9.000  18.000  1.9931e-02
9.000  18.250  1.6851e-02
9.000  18.500  1.3575e-02
9.000  18.750  1.3618e-02
9.000  19.000  1.4155e-02
9.000  19.250  1.4163e-02
9.000  19.500  1.4170e-02
9.000  19.750  1.4176e-02
9.000  20.000  1.4183e-02
9.000  20.250  1.4188e-02
9.000  20.500  1.4191e-02
9.000  20.750  1.4193e-02
9.000  21.000  1.4195e-02
9.000  21.250  1.4196e-02
9.000  21.500  1.4197e-02
9.000  21.750  1.4197e-02
9.000  22.000  1.4197e-02
9.000  22.250  1.4197e-02
9.000  22.500  1.4197e-02
9.000  22.750  1.4197e-02
9.000  23.000  1.4197e-02
9.000  23.250  1.4197e-02
9.000  23.500  1.4197e-02
9.000  23.750  1.4197e-02
9.000  24.000  1.4197e-02
9.250  17.000  2.6047e-02
9.250  17.250  2.5836e-02
9.250  17.500  2.5180e-02
9.250  17.750  2.3946e-02
9.250  18.000  2.1995e-02
9.250  18.250  1.9320e-02
9.250  18.500  1.6248e-02
9.250  18.750  1.3242e-02
9.250  19.000  1.3617e-02
9.250  19.250  1.4154e-02
9.250  19.500  1.4163e-02
9.250  19.750  1.4170e-02
9.250  20.000  1.4176e-02
9.250  20.250  1.4183e-02
9.250  20.500  1.4188e-02
9.250  20.750  1.4191e-02
9.250  21.000  1.4193e-02
9.250  21.250  1.4195e-02
9.250  21.500  1.4195e-02
9.250  21.750  1.4195e-02
9.250  22.000  1.4195e-02
9.250  22.250  1.4195e-02
9.250  22.500  1.4196e-02
9.250  22.750  1.4196e-02
9.250  23.000  1.4197e-02
9.250  23.250  1.4197e-02
9.250  23.500  1.4197e-02
9.250  23.750  1.4197e-02
9.250  24.000  1.4197e-02
9.500  17.000  2.5831e-02
9.500  17.250  2.5923e-02
9.500  17.500  2.5641e-02
9.500  17.750  2.4858e-02
9.500  18.000  2.3415e-02
9.500  18.250  2.1206e-02
9.500  18.500  1.8347e-02
9.500  18.750  1.5243e-02
9.500  19.000  1.3216e-02
9.500  19.250  1.3613e-02
9.500  19.500  1.4153e-02
9.500  19.750  1.4163e-02
9.500  20.000  1.4170e-02
9.500  20.250  1.4176e-02
9.500  20.500  1.4183e-02
9.500  20.750  1.4187e-02
9.500  21.000  1.4190e-02
9.500  21.250  1.4192e-02
9.500  21.500  1.4193e-02
9.500  21.750  1.4194e-02
9.500  22.000  1.4194e-02
9.500  22.250  1.4194e-02
9.500  22.500  1.4194e-02
9.500  22.750  1.4194e-02
9.500  23.000  1.4194e-02
9.500  23.250  1.4194e-02
9.500  23.500  1.4194e-02
9.500  23.750  1.4194e-02
9.500  24.000  1.4194e-02
9.750  17.000  2.5351e-02
9.750  17.250  2.5694e-02
9.750  17.500  2.5715e-02
9.750  17.750  2.5296e-02
9.750  18.000  2.4264e-02
9.750  18.250  2.2537e-02
9.750  18.500  2.0119e-02
9.750  18.750  1.7220e-02
9.750  19.000  1.4075e-02
9.750  19.250  1.3212e-02
9.750  19.500  1.3606e-02
9.750  19.750  1.4152e-02
9.750  20.000  1.4163e-02
9.750  20.250  1.4170e-02
9.750  20.500  1.4176e-02
9.750  20.750  1.4183e-02
9.750  21.000  1.4188e-02
9.750  21.250  1.4190e-02
9.750  21.500  1.4192e-02
9.750  21.750  1.4193e-02
9.750  22.000  1.4194e-02
9.750  22.250  1.4194e-02
9.750  22.500  1.4194e-02
9.750  22.750  1.4194e-02
9.750  23.000  1.4194e-02
9.750  23.250  1.4194e-02
9.750  23.500  1.4194e-02
9.750  23.750  1.4194e-02
9.750  24.000  1.4194e-02
10.000  17.000  2.4643e-02
10.000  17.250  2.5191e-02
10.000  17.500  2.5453e-02
10.000  17.750  2.5312e-02
10.000  18.000  2.4626e-02
10.000  18.250  2.3365e-02
10.000  18.500  2.1480e-02
10.000  18.750  1.9021e-02
10.000  19.000  1.6045e-02
10.000  19.250  1.3443e-02
10.000  19.500  1.3212e-02
10.000  19.750  1.3597e-02
10.000  20.000  1.4150e-02
10.000  20.250  1.4162e-02
10.000  20.500  1.4170e-02
10.000  20.750  1.4177e-02
10.000  21.000  1.4183e-02
10.000  21.250  1.4188e-02
10.000  21.500  1.4190e-02
10.000  21.750  1.4192e-02
10.000  22.000  1.4193e-02
10.000  22.250  1.4194e-02
10.000  22.500  1.4194e-02
10.000  22.750  1.4194e-02
10.000  23.000  1.4194e-02
10.000  23.250  1.4194e-02
10.000  23.500  1.4194e-02
10.000  23.750  1.4194e-02
10.000  24.000  1.4194e-02
10.250  17.000  2.3726e-02
10.250  17.250  2.4443e-02
10.250  17.500  2.4890e-02
10.250  17.750  2.4949e-02
10.250  18.000  2.4535e-02
10.250  18.250  2.3715e-02
10.250  18.500  2.2393e-02
10.250  18.750  2.0478e-02
10.250  19.000  1.7973e-02
10.250  19.250  1.4907e-02
10.250  19.500  1.2983e-02
10.250  19.750  1.3212e-02
10.250  20.000  1.3589e-02
10.250  20.250  1.4148e-02
10.250  20.500  1.4161e-02
10.250  20.750  1.4170e-02
10.250  21.000  1.4177e-02
10.250  21.250  1.4183e-02
10.250  21.500  1.4188e-02
10.250  21.750  1.4191e-02
10.250  22.000  1.4192e-02
10.250  22.250  1.4193e-02
10.250  22.500  1.4195e-02
10.250  22.750  1.4194e-02
10.250  23.000  1.4194e-02
10.250  23.250  1.4194e-02
10.250  23.500  1.4194e-02
10.250  23.750  1.4194e-02
10.250  24.000  1.4194e-02
10.500  17.000  2.2585e-02
10.500  17.250  2.3457e-02
10.500  17.500  2.4035e-02
10.500  17.750  2.4220e-02
10.500  18.000  2.4009e-02
10.500  18.250  2.3543e-02
10.500  18.500  2.2805e-02
10.500  18.750  2.1546e-02
10.500  19.000  1.9687e-02
10.500  19.250  1.7125e-02
10.500  19.500  1.4077e-02
10.500  19.750  1.2996e-02
10.500  20.000  1.3211e-02
10.500  20.250  1.3583e-02
10.500  20.500  1.4145e-02
10.500  20.750  1.4160e-02
10.500  21.000  1.4169e-02
10.500  21.250  1.4177e-02
10.500  21.500  1.4183e-02
10.500  21.750  1.4188e-02
10.500  22.000  1.4191e-02
10.500  22.250  1.4193e-02
10.500  22.500  1.4194e-02
10.500  22.750  1.4195e-02
10.500  23.000  1.4195e-02
10.500  23.250  1.4194e-02
10.500  23.500  1.4194e-02
10.500  23.750  1.4194e-02
10.500  24.000  1.4194e-02
10.750  17.000  2.1203e-02
10.750  17.250  2.2224e-02
10.750  17.500  2.2892e-02
10.750  17.750  2.3129e-02
10.750  18.000  2.3076e-02
10.750  18.250  2.2956e-02
10.750  18.500  2.2708e-02
10.750  18.750  2.2074e-02
10.750  19.000  2.0926e-02
10.750  19.250  1.9055e-02
10.750  19.500  1.6445e-02
10.750  19.750  1.3282e-02
10.750  20.000  1.3001e-02
10.750  20.250  1.3216e-02
10.750  20.500  1.3583e-02
10.750  20.750  1.4142e-02
10.750  21.000  1.4159e-02
10.750  21.250  1.4169e-02
10.750  21.500  1.4176e-02
10.750  21.750  1.4183e-02
10.750  22.000  1.4188e-02
10.750  22.250  1.4191e-02
10.750  22.500  1.4193e-02
10.750  22.750  1.4194e-02
10.750  23.000  1.4195e-02
10.750  23.250  1.4195e-02
10.750  23.500  1.4195e-02
10.750  23.750  1.4195e-02
10.750  24.000  1.4194e-02
11.000  17.000  1.9539e-02
11.000  17.250  2.0711e-02
11.000  17.500  2.1431e-02
11.000  17.750  2.1694e-02
11.000  18.000  2.1777e-02
11.000  18.250  2.1926e-02
11.000  18.500  2.2075e-02
11.000  18.750  2.2026e-02
11.000  19.000  2.1538e-02
11.000  19.250  2.0422e-02
11.000  19.500  1.8527e-02
11.000  19.750  1.5745e-02
11.000  20.000  1.2749e-02
11.000  20.250  1.3004e-02
11.000  20.500  1.3223e-02
11.000  20.750  1.3593e-02
11.000  21.000  1.4140e-02
11.000  21.250  1.4158e-02
11.000  21.500  1.4168e-02
11.000  21.750  1.4176e-02
11.000  22.000  1.4183e-02
11.000  22.250  1.4188e-02
11.000  22.500  1.4191e-02
11.000  22.750  1.4193e-02
11.000  23.000  1.4195e-02
11.000  23.250  1.4195e-02
11.000  23.500  1.4195e-02
11.000  23.750  1.4195e-02
11.000  24.000  1.4195e-02
11.250  17.000  1.7450e-02
11.250  17.250  1.8862e-02
11.250  17.500  1.9633e-02
11.250  17.750  1.9909e-02
11.250  18.000  2.0112e-02
11.250  18.250  2.0498e-02
11.250  18.500  2.1002e-02
11.250  18.750  2.1398e-02
11.250  19.000  2.1502e-02
11.250  19.250  2.1076e-02
11.250  19.500  1.9962e-02
11.250  19.750  1.7989e-02
11.250  20.000  1.5077e-02
11.250  20.250  1.2787e-02
11.250  20.500  1.3012e-02
11.250  20.750  1.3235e-02
11.250  21.000  1.3622e-02
11.250  21.250  1.4138e-02
11.250  21.500  1.4156e-02
11.250  21.750  1.4168e-02
11.250  22.000  1.4176e-02
11.250  22.250  1.4183e-02
11.250  22.500  1.4188e-02
11.250  22.750  1.4191e-02
11.250  23.000  1.4193e-02
11.250  23.250  1.4195e-02
11.250  23.500  1.4195e-02
11.250  23.750  1.4195e-02
11.250  24.000  1.4195e-02
11.500  17.000  1.4770e-02
11.500  17.250  1.6505e-02
11.500  17.500  1.7419e-02
11.500  17.750  1.7747e-02
11.500  18.000  1.8097e-02
11.500  18.250  1.8737e-02
11.500  18.500  1.9499e-02
11.500  18.750  2.0233e-02
11.500  19.000  2.0823e-02
11.500  19.250  2.1018e-02
11.500  19.500  2.0665e-02
11.500  19.750  1.9544e-02
11.500  20.000  1.7488e-02
11.500  20.250  1.4413e-02
11.500  20.500  1.2828e-02
11.500  20.750  1.3021e-02
11.500  21.000  1.3261e-02
11.500  21.250  1.3692e-02
11.500  21.500  1.4136e-02
11.500  21.750  1.4155e-02
11.500  22.000  1.4167e-02
11.500  22.250  1.4176e-02
11.500  22.500  1.4182e-02
11.500  22.750  1.4188e-02
11.500  23.000  1.4191e-02
11.500  23.250  1.4193e-02
11.500  23.500  1.4195e-02
11.500  23.750  1.4196e-02
11.500  24.000  1.4195e-02
11.750  17.000  1.1507e-02
11.750  17.250  1.3518e-02
11.750  17.500  1.4668e-02
11.750  17.750  1.5176e-02
11.750  18.000  1.5777e-02
11.750  18.250  1.6657e-02
11.750  18.500  1.7640e-02
11.750  18.750  1.8650e-02
11.750  19.000  1.9561e-02
11.750  19.250  2.0281e-02
11.750  19.500  2.0558e-02
11.750  19.750  2.0255e-02
11.750  20.000  1.9134e-02
11.750  20.250  1.7006e-02
11.750  20.500  1.3781e-02
11.750  20.750  1.2819e-02
11.750  21.000  1.3039e-02
11.750  21.250  1.3325e-02
11.750  21.500  1.3830e-02
11.750  21.750  1.4134e-02
11.750  22.000  1.4153e-02
11.750  22.250  1.4166e-02
11.750  22.500  1.4175e-02
11.750  22.750  1.4182e-02
11.750  23.000  1.4188e-02
11.750  23.250  1.4191e-02
11.750  23.500  1.4193e-02
11.750  23.750  1.4195e-02
11.750  24.000  1.4196e-02
12.000  17.000  7.9509e-03
12.000  17.250  1.0008e-02
12.000  17.500  1.1404e-02
12.000  17.750  1.2293e-02
12.000  18.000  1.3236e-02
12.000  18.250  1.4285e-02
12.000  18.500  1.5449e-02
12.000  18.750  1.6638e-02
12.000  19.000  1.7803e-02
12.000  19.250  1.8892e-02
12.000  19.500  1.9735e-02
12.000  19.750  2.0111e-02
12.000  20.000  1.9851e-02
12.000  20.250  1.8744e-02
12.000  20.500  1.6558e-02
12.000  20.750  1.3288e-02
12.000  21.000  1.2819e-02
12.000  21.250  1.3084e-02
12.000  21.500  1.3435e-02
12.000  21.750  1.4011e-02
12.000  22.000  1.4132e-02
12.000  22.250  1.4151e-02
12.000  22.500  1.4165e-02
12.000  22.750  1.4175e-02
12.000  23.000  1.4182e-02
12.000  23.250  1.4187e-02
12.000  23.500  1.4191e-02
12.000  23.750  1.4193e-02
12.000  24.000  1.4195e-02
12.250  17.000  4.7459e-03
12.250  17.250  6.5147e-03
12.250  17.500  8.0132e-03
12.250  17.750  9.2961e-03
12.250  18.000  1.0508e-02
12.250  18.250  1.1672e-02
12.250  18.500  1.2904e-02
12.250  18.750  1.4236e-02
12.250  19.000  1.5617e-02
12.250  19.250  1.6999e-02
12.250  19.500  1.8246e-02
12.250  19.750  1.9212e-02
12.250  20.000  1.9674e-02
12.250  20.250  1.9473e-02
12.250  20.500  1.8359e-02
12.250  20.750  1.6111e-02
12.250  21.000  1.2937e-02
12.250  21.250  1.2849e-02
12.250  21.500  1.3157e-02
12.250  21.750  1.3576e-02
12.250  22.000  1.4097e-02
12.250  22.250  1.4128e-02
12.250  22.500  1.4148e-02
12.250  22.750  1.4164e-02
12.250  23.000  1.4174e-02
12.250  23.250  1.4182e-02
12.250  23.500  1.4187e-02
12.250  23.750  1.4191e-02
12.250  24.000  1.4193e-02
12.500  17.000  2.6838e-03
12.500  17.250  3.9160e-03
12.500  17.500  5.2438e-03
12.500  17.750  6.5194e-03
12.500  18.000  7.6974e-03
12.500  18.250  8.8640e-03
12.500  18.500  1.0103e-02
12.500  18.750  1.1535e-02
12.500  19.000  1.3084e-02
12.500  19.250  1.4684e-02
12.500  19.500  1.6235e-02
12.500  19.750  1.7617e-02
12.500  20.000  1.8689e-02
12.500  20.250  1.9229e-02
12.500  20.500  1.9081e-02
12.500  20.750  1.7989e-02
12.500  21.000  1.5684e-02
12.500  21.250  1.2328e-02
12.500  21.500  1.2893e-02
12.500  21.750  1.3246e-02
12.500  22.000  1.3741e-02
12.500  22.250  1.4097e-02
12.500  22.500  1.4124e-02
12.500  22.750  1.4146e-02
12.500  23.000  1.4162e-02
12.500  23.250  1.4173e-02
12.500  23.500  1.4181e-02
12.500  23.750  1.4187e-02
12.500  24.000  1.4191e-02
12.750  17.000  1.6846e-03
12.750  17.250  2.4480e-03
12.750  17.500  3.2890e-03
12.750  17.750  4.1426e-03
12.750  18.000  5.0549e-03
12.750  18.250  6.0733e-03
12.750  18.500  7.2733e-03
12.750  18.750  8.6742e-03
12.750  19.000  1.0295e-02
12.750  19.250  1.2043e-02
12.750  19.500  1.3817e-02
12.750  19.750  1.5500e-02
12.750  20.000  1.6988e-02
12.750  20.250  1.8152e-02
12.750  20.500  1.8788e-02
12.750  20.750  1.8674e-02
12.750  21.000  1.7577e-02
12.750  21.250  1.5193e-02
12.750  21.500  1.2405e-02
12.750  21.750  1.2949e-02
12.750  22.000  1.3360e-02
12.750  22.250  1.3884e-02
12.750  22.500  1.4095e-02
12.750  22.750  1.4123e-02
12.750  23.000  1.4144e-02
12.750  23.250  1.4161e-02
12.750  23.500  1.4172e-02
12.750  23.750  1.4180e-02
12.750  24.000  1.4187e-02
13.000  17.000  1.0243e-03
13.000  17.250  1.4709e-03
13.000  17.500  1.8949e-03
13.000  17.750  2.3653e-03
13.000  18.000  2.9393e-03
13.000  18.250  3.6978e-03
13.000  18.500  4.6816e-03
13.000  18.750  5.9259e-03
13.000  19.000  7.4581e-03
13.000  19.250  9.2165e-03
13.000  19.500  1.1100e-02
13.000  19.750  1.2977e-02
13.000  20.000  1.4762e-02
13.000  20.250  1.6348e-02
13.000  20.500  1.7596e-02
13.000  20.750  1.8269e-02
13.000  21.000  1.8215e-02
13.000  21.250  1.7097e-02
13.000  21.500  1.4823e-02
13.000  21.750  1.2513e-02
13.000  22.000  1.3037e-02
13.000  22.250  1.3466e-02
13.000  22.500  1.3962e-02
13.000  22.750  1.4093e-02
13.000  23.000  1.4121e-02
13.000  23.250  1.4142e-02
13.000  23.500  1.4159e-02
13.000  23.750  1.4171e-02
13.000  24.000  1.4180e-02
13.250  17.000  6.4510e-04
13.250  17.250  8.9819e-04
13.250  17.500  1.1276e-03
13.250  17.750  1.3500e-03
13.250  18.000  1.6534e-03
13.250  18.250  2.0920e-03
13.250  18.500  2.7291e-03
13.250  18.750  3.6415e-03
13.250  19.000  4.8765e-03
13.250  19.250  6.4407e-03
13.250  19.500  8.2537e-03
13.250  19.750  1.0195e-02
13.250  20.000  1.2143e-02
13.250  20.250  1.3989e-02
13.250  20.500  1.5658e-02
13.250  20.750  1.6972e-02
13.250  21.000  1.7707e-02
13.250  21.250  1.7653e-02
13.250  21.500  1.6661e-02
13.250  21.750  1.4327e-02
13.250  22.000  1.2625e-02
13.250  22.250  1.3062e-02
13.250  22.500  1.3525e-02
13.250  22.750  1.3973e-02
13.250  23.000  1.4091e-02
13.250  23.250  1.4119e-02
13.250  23.500  1.4141e-02
13.250  23.750  1.4158e-02
13.250  24.000  1.4170e-02
13.500  17.000  4.2733e-04
13.500  17.250  5.7556e-04
13.500  17.500  7.0790e-04
13.500  17.750  8.1992e-04
13.500  18.000  9.7399e-04
13.500  18.250  1.2185e-03
13.500  18.500  1.5855e-03
13.500  18.750  2.1238e-03
13.500  19.000  2.9188e-03
13.500  19.250  4.0588e-03
13.500  19.500  5.5574e-03
13.500  19.750  7.3399e-03
13.500  20.000  9.2784e-03
13.500  20.250  1.1264e-02
13.500  20.500  1.3150e-02
13.500  20.750  1.4870e-02
13.500  21.000  1.6214e-02
13.500  21.250  1.6982e-02
13.500  21.500  1.7048e-02
13.500  21.750  1.5944e-02
13.500  22.000  1.3751e-02
13.500  22.250  1.2644e-02
13.500  22.500  1.3054e-02
13.500  22.750  1.3527e-02
13.500  23.000  1.3956e-02
13.500  23.250  1.4088e-02
13.500  23.500  1.4117e-02
13.500  23.750  1.4139e-02
13.500  24.000  1.4156e-02
13.750  17.000  2.9844e-04
13.750  17.250  3.9053e-04
13.750  17.500  4.6971e-04
13.750  17.750  5.3078e-04
13.750  18.000  6.1218e-04
13.750  18.250  7.4708e-04
13.750  18.500  9.5235e-04
13.750  18.750  1.2602e-03
13.750  19.000  1.7218e-03
13.750  19.250  2.4101e-03
13.750  19.500  3.4153e-03
13.750  19.750  4.7891e-03
13.750  20.000  6.4759e-03
13.750  20.250  8.3572e-03
13.750  20.500  1.0313e-02
13.750  20.750  1.2220e-02
13.750  21.000  1.3929e-02
13.750  21.250  1.5264e-02
13.750  21.500  1.6138e-02
13.750  21.750  1.6050e-02
13.750  22.000  1.4907e-02
13.750  22.250  1.3030e-02
13.750  22.500  1.2642e-02
13.750  22.750  1.3024e-02
13.750  23.000  1.3481e-02
13.750  23.250  1.3947e-02
13.750  23.500  1.4083e-02
13.750  23.750  1.4113e-02
13.750  24.000  1.4136e-02
14.000  17.000  2.1761e-04
14.000  17.250  2.8107e-04
14.000  17.500  3.3218e-04
14.000  17.750  3.6872e-04
14.000  18.000  4.1243e-04
14.000  18.250  4.8593e-04
14.000  18.500  6.0058e-04
14.000  18.750  7.7440e-04
14.000  19.000  1.0365e-03
14.000  19.250  1.4328e-03
14.000  19.500  2.0286e-03
14.000  19.750  2.8954e-03
14.000  20.000  4.1133e-03
14.000  20.250  5.6684e-03
14.000  20.500  7.4472e-03
14.000  20.750  9.3305e-03
14.000  21.000  1.1170e-02
14.000  21.250  1.2843e-02
14.000  21.500  1.4244e-02
14.000  21.750  1.4875e-02
14.000  22.000  1.4626e-02
14.000  22.250  1.3470e-02
14.000  22.500  1.2307e-02
14.000  22.750  1.2637e-02
14.000  23.000  1.3041e-02
14.000  23.250  1.3471e-02
14.000  23.500  1.3964e-02
14.000  23.750  1.4074e-02
14.000  24.000  1.4106e-02
