InwC 7500.00A  relative to Inci 1215.00A scaled to 1215A.
Hden   Phi(H)  Eq_Width (A)
7.000  17.000  4.4313e-03
7.000  17.250  4.4339e-03
7.000  17.500  4.4358e-03
7.000  17.750  4.4379e-03
7.000  18.000  4.4398e-03
7.000  18.250  4.4416e-03
7.000  18.500  4.4427e-03
7.000  18.750  4.4433e-03
7.000  19.000  4.4438e-03
7.000  19.250  4.4442e-03
7.000  19.500  4.4443e-03
7.000  19.750  4.4444e-03
7.000  20.000  4.4444e-03
7.000  20.250  4.4444e-03
7.000  20.500  4.4444e-03
7.000  20.750  4.4445e-03
7.000  21.000  4.4445e-03
7.000  21.250  4.4445e-03
7.000  21.500  4.4445e-03
7.000  21.750  4.4445e-03
7.000  22.000  4.4445e-03
7.000  22.250  4.4446e-03
7.000  22.500  4.4445e-03
7.000  22.750  4.4450e-03
7.000  23.000  4.4450e-03
7.000  23.250  4.4446e-03
7.000  23.500  4.4449e-03
7.000  23.750  4.4449e-03
7.000  24.000  4.4452e-03
7.250  17.000  4.2719e-03
7.250  17.250  4.4314e-03
7.250  17.500  4.4339e-03
7.250  17.750  4.4359e-03
7.250  18.000  4.4379e-03
7.250  18.250  4.4398e-03
7.250  18.500  4.4416e-03
7.250  18.750  4.4427e-03
7.250  19.000  4.4433e-03
7.250  19.250  4.4438e-03
7.250  19.500  4.4442e-03
7.250  19.750  4.4443e-03
7.250  20.000  4.4444e-03
7.250  20.250  4.4444e-03
7.250  20.500  4.4444e-03
7.250  20.750  4.4444e-03
7.250  21.000  4.4444e-03
7.250  21.250  4.4445e-03
7.250  21.500  4.4445e-03
7.250  21.750  4.4446e-03
7.250  22.000  4.4445e-03
7.250  22.250  4.4445e-03
7.250  22.500  4.4445e-03
7.250  22.750  4.4445e-03
7.250  23.000  4.4445e-03
7.250  23.250  4.4445e-03
7.250  23.500  4.4445e-03
7.250  23.750  4.4445e-03
7.250  24.000  4.4445e-03
7.500  17.000  3.9993e-03
7.500  17.250  4.2725e-03
7.500  17.500  4.4314e-03
7.500  17.750  4.4339e-03
7.500  18.000  4.4359e-03
7.500  18.250  4.4379e-03
7.500  18.500  4.4398e-03
7.500  18.750  4.4416e-03
7.500  19.000  4.4427e-03
7.500  19.250  4.4433e-03
7.500  19.500  4.4438e-03
7.500  19.750  4.4442e-03
7.500  20.000  4.4443e-03
7.500  20.250  4.4444e-03
7.500  20.500  4.4444e-03
7.500  20.750  4.4444e-03
7.500  21.000  4.4444e-03
7.500  21.250  4.4444e-03
7.500  21.500  4.4444e-03
7.500  21.750  4.4444e-03
7.500  22.000  4.4444e-03
7.500  22.250  4.4445e-03
7.500  22.500  4.4445e-03
7.500  22.750  4.4445e-03
7.500  23.000  4.4445e-03
7.500  23.250  4.4445e-03
7.500  23.500  4.4450e-03
7.500  23.750  4.4445e-03
7.500  24.000  4.4445e-03
7.750  17.000  2.8886e-03
7.750  17.250  4.0109e-03
7.750  17.500  4.2732e-03
7.750  17.750  4.4314e-03
7.750  18.000  4.4339e-03
7.750  18.250  4.4359e-03
7.750  18.500  4.4379e-03
7.750  18.750  4.4398e-03
7.750  19.000  4.4416e-03
7.750  19.250  4.4427e-03
7.750  19.500  4.4433e-03
7.750  19.750  4.4438e-03
7.750  20.000  4.4442e-03
7.750  20.250  4.4443e-03
7.750  20.500  4.4444e-03
7.750  20.750  4.4444e-03
7.750  21.000  4.4444e-03
7.750  21.250  4.4444e-03
7.750  21.500  4.4444e-03
7.750  21.750  4.4444e-03
7.750  22.000  4.4444e-03
7.750  22.250  4.4444e-03
7.750  22.500  4.4444e-03
7.750  22.750  4.4445e-03
7.750  23.000  4.4444e-03
7.750  23.250  4.4445e-03
7.750  23.500  4.4445e-03
7.750  23.750  4.4445e-03
7.750  24.000  4.4445e-03
8.000  17.000  2.0278e-03
8.000  17.250  2.8786e-03
8.000  17.500  3.9890e-03
8.000  17.750  4.2720e-03
8.000  18.000  4.4314e-03
8.000  18.250  4.4339e-03
8.000  18.500  4.4359e-03
8.000  18.750  4.4379e-03
8.000  19.000  4.4398e-03
8.000  19.250  4.4416e-03
8.000  19.500  4.4427e-03
8.000  19.750  4.4433e-03
8.000  20.000  4.4438e-03
8.000  20.250  4.4442e-03
8.000  20.500  4.4443e-03
8.000  20.750  4.4444e-03
8.000  21.000  4.4444e-03
8.000  21.250  4.4444e-03
8.000  21.500  4.4444e-03
8.000  21.750  4.4444e-03
8.000  22.000  4.4444e-03
8.000  22.250  4.4444e-03
8.000  22.500  4.4444e-03
8.000  22.750  4.4444e-03
8.000  23.000  4.4444e-03
8.000  23.250  4.4444e-03
8.000  23.500  4.4444e-03
8.000  23.750  4.4444e-03
8.000  24.000  4.4445e-03
8.250  17.000  1.4206e-03
8.250  17.250  2.0493e-03
8.250  17.500  2.8953e-03
8.250  17.750  3.9950e-03
8.250  18.000  4.2724e-03
8.250  18.250  4.4314e-03
8.250  18.500  4.4339e-03
8.250  18.750  4.4359e-03
8.250  19.000  4.4379e-03
8.250  19.250  4.4399e-03
8.250  19.500  4.4416e-03
8.250  19.750  4.4427e-03
8.250  20.000  4.4433e-03
8.250  20.250  4.4438e-03
8.250  20.500  4.4442e-03
8.250  20.750  4.4443e-03
8.250  21.000  4.4444e-03
8.250  21.250  4.4444e-03
8.250  21.500  4.4444e-03
8.250  21.750  4.4444e-03
8.250  22.000  4.4444e-03
8.250  22.250  4.4444e-03
8.250  22.500  4.4444e-03
8.250  22.750  4.4447e-03
8.250  23.000  4.4444e-03
8.250  23.250  4.4445e-03
8.250  23.500  4.4447e-03
8.250  23.750  4.4444e-03
8.250  24.000  4.4445e-03
8.500  17.000  9.9547e-04
8.500  17.250  1.4410e-03
8.500  17.500  2.0749e-03
8.500  17.750  2.9151e-03
8.500  18.000  4.0026e-03
8.500  18.250  4.2728e-03
8.500  18.500  4.4314e-03
8.500  18.750  4.4339e-03
8.500  19.000  4.4359e-03
8.500  19.250  4.4379e-03
8.500  19.500  4.4399e-03
8.500  19.750  4.4416e-03
8.500  20.000  4.4427e-03
8.500  20.250  4.4433e-03
8.500  20.500  4.4438e-03
8.500  20.750  4.4442e-03
8.500  21.000  4.4443e-03
8.500  21.250  4.4444e-03
8.500  21.500  4.4444e-03
8.500  21.750  4.4444e-03
8.500  22.000  4.4444e-03
8.500  22.250  4.4444e-03
8.500  22.500  4.4444e-03
8.500  22.750  4.4444e-03
8.500  23.000  4.4444e-03
8.500  23.250  4.4444e-03
8.500  23.500  4.4444e-03
8.500  23.750  4.4444e-03
8.500  24.000  4.4444e-03
8.750  17.000  6.9918e-04
8.750  17.250  1.0129e-03
8.750  17.500  1.4677e-03
8.750  17.750  2.1135e-03
8.750  18.000  2.9532e-03
8.750  18.250  4.0227e-03
8.750  18.500  4.2728e-03
8.750  18.750  4.4314e-03
8.750  19.000  4.4339e-03
8.750  19.250  4.4360e-03
8.750  19.500  4.4379e-03
8.750  19.750  4.4399e-03
8.750  20.000  4.4416e-03
8.750  20.250  4.4427e-03
8.750  20.500  4.4433e-03
8.750  20.750  4.4438e-03
8.750  21.000  4.4442e-03
8.750  21.250  4.4443e-03
8.750  21.500  4.4444e-03
8.750  21.750  4.4444e-03
8.750  22.000  4.4444e-03
8.750  22.250  4.4444e-03
8.750  22.500  4.4444e-03
8.750  22.750  4.4444e-03
8.750  23.000  4.4444e-03
8.750  23.250  4.4444e-03
8.750  23.500  4.4445e-03
8.750  23.750  4.4444e-03
8.750  24.000  4.4444e-03
9.000  17.000  4.9218e-04
9.000  17.250  7.1358e-04
9.000  17.500  1.0388e-03
9.000  17.750  1.5135e-03
9.000  18.000  2.1759e-03
9.000  18.250  3.0249e-03
9.000  18.500  4.0611e-03
9.000  18.750  4.2723e-03
9.000  19.000  4.4313e-03
9.000  19.250  4.4339e-03
9.000  19.500  4.4360e-03
9.000  19.750  4.4380e-03
9.000  20.000  4.4399e-03
9.000  20.250  4.4416e-03
9.000  20.500  4.4427e-03
9.000  20.750  4.4433e-03
9.000  21.000  4.4438e-03
9.000  21.250  4.4442e-03
9.000  21.500  4.4443e-03
9.000  21.750  4.4444e-03
9.000  22.000  4.4444e-03
9.000  22.250  4.4444e-03
9.000  22.500  4.4444e-03
9.000  22.750  4.4444e-03
9.000  23.000  4.4444e-03
9.000  23.250  4.4444e-03
9.000  23.500  4.4444e-03
9.000  23.750  4.4444e-03
9.000  24.000  4.4444e-03
9.250  17.000  3.4716e-04
9.250  17.250  5.0321e-04
9.250  17.500  7.3638e-04
9.250  17.750  1.0856e-03
9.250  18.000  1.5953e-03
9.250  18.250  2.2931e-03
9.250  18.500  3.1608e-03
9.250  18.750  4.1537e-03
9.250  19.000  4.2713e-03
9.250  19.250  4.4311e-03
9.250  19.500  4.4339e-03
9.250  19.750  4.4360e-03
9.250  20.000  4.4380e-03
9.250  20.250  4.4399e-03
9.250  20.500  4.4416e-03
9.250  20.750  4.4427e-03
9.250  21.000  4.4433e-03
9.250  21.250  4.4438e-03
9.250  21.500  4.4438e-03
9.250  21.750  4.4439e-03
9.250  22.000  4.4438e-03
9.250  22.250  4.4440e-03
9.250  22.500  4.4442e-03
9.250  22.750  4.4443e-03
9.250  23.000  4.4444e-03
9.250  23.250  4.4444e-03
9.250  23.500  4.4444e-03
9.250  23.750  4.4444e-03
9.250  24.000  4.4444e-03
9.500  17.000  2.4535e-04
9.500  17.250  3.5605e-04
9.500  17.500  5.2313e-04
9.500  17.750  7.8058e-04
9.500  18.000  1.1715e-03
9.500  18.250  1.7403e-03
9.500  18.500  2.4957e-03
9.500  18.750  3.4116e-03
9.500  19.000  4.1525e-03
9.500  19.250  4.2686e-03
9.500  19.500  4.4305e-03
9.500  19.750  4.4338e-03
9.500  20.000  4.4360e-03
9.500  20.250  4.4380e-03
9.500  20.500  4.4399e-03
9.500  20.750  4.4413e-03
9.500  21.000  4.4423e-03
9.500  21.250  4.4428e-03
9.500  21.500  4.4433e-03
9.500  21.750  4.4435e-03
9.500  22.000  4.4435e-03
9.500  22.250  4.4436e-03
9.500  22.500  4.4436e-03
9.500  22.750  4.4436e-03
9.500  23.000  4.4436e-03
9.500  23.250  4.4436e-03
9.500  23.500  4.4436e-03
9.500  23.750  4.4436e-03
9.500  24.000  4.4436e-03
9.750  17.000  1.7350e-04
9.750  17.250  2.5160e-04
9.750  17.500  3.7128e-04
9.750  17.750  5.6099e-04
9.750  18.000  8.6387e-04
9.750  18.250  1.3201e-03
9.750  18.500  1.9528e-03
9.750  18.750  2.7526e-03
9.750  19.000  3.7336e-03
9.750  19.250  4.1447e-03
9.750  19.500  4.2629e-03
9.750  19.750  4.4292e-03
9.750  20.000  4.4336e-03
9.750  20.250  4.4359e-03
9.750  20.500  4.4379e-03
9.750  20.750  4.4399e-03
9.750  21.000  4.4415e-03
9.750  21.250  4.4423e-03
9.750  21.500  4.4428e-03
9.750  21.750  4.4434e-03
9.750  22.000  4.4435e-03
9.750  22.250  4.4435e-03
9.750  22.500  4.4436e-03
9.750  22.750  4.4436e-03
9.750  23.000  4.4437e-03
9.750  23.250  4.4437e-03
9.750  23.500  4.4437e-03
9.750  23.750  4.4437e-03
9.750  24.000  4.4437e-03
10.000  17.000  1.2263e-04
10.000  17.250  1.7819e-04
10.000  17.500  2.6395e-04
10.000  17.750  4.0387e-04
10.000  18.000  6.3786e-04
10.000  18.250  9.9638e-04
10.000  18.500  1.5077e-03
10.000  18.750  2.1814e-03
10.000  19.000  3.0431e-03
10.000  19.250  3.9188e-03
10.000  19.500  4.1369e-03
10.000  19.750  4.2559e-03
10.000  20.000  4.4279e-03
10.000  20.250  4.4333e-03
10.000  20.500  4.4358e-03
10.000  20.750  4.4379e-03
10.000  21.000  4.4399e-03
10.000  21.250  4.4416e-03
10.000  21.500  4.4424e-03
10.000  21.750  4.4429e-03
10.000  22.000  4.4434e-03
10.000  22.250  4.4436e-03
10.000  22.500  4.4435e-03
10.000  22.750  4.4436e-03
10.000  23.000  4.4436e-03
10.000  23.250  4.4436e-03
10.000  23.500  4.4436e-03
10.000  23.750  4.4437e-03
10.000  24.000  4.4437e-03
10.250  17.000  8.6667e-05
10.250  17.250  1.2617e-04
10.250  17.500  1.8823e-04
10.250  17.750  2.9235e-04
10.250  18.000  4.7103e-04
10.250  18.250  7.4700e-04
10.250  18.500  1.1445e-03
10.250  18.750  1.6910e-03
10.250  19.000  2.4073e-03
10.250  19.250  3.3405e-03
10.250  19.500  4.0500e-03
10.250  19.750  4.1253e-03
10.250  20.000  4.2427e-03
10.250  20.250  4.4230e-03
10.250  20.500  4.4323e-03
10.250  20.750  4.4356e-03
10.250  21.000  4.4379e-03
10.250  21.250  4.4399e-03
10.250  21.500  4.4416e-03
10.250  21.750  4.4426e-03
10.250  22.000  4.4429e-03
10.250  22.250  4.4434e-03
10.250  22.500  4.4437e-03
10.250  22.750  4.4437e-03
10.250  23.000  4.4436e-03
10.250  23.250  4.4437e-03
10.250  23.500  4.4437e-03
10.250  23.750  4.4437e-03
10.250  24.000  4.4437e-03
10.500  17.000  6.1399e-05
10.500  17.250  8.9712e-05
10.500  17.500  1.3481e-04
10.500  17.750  2.1276e-04
10.500  18.000  3.4807e-04
10.500  18.250  5.5975e-04
10.500  18.500  8.5671e-04
10.500  18.750  1.2771e-03
10.500  19.000  1.8549e-03
10.500  19.250  2.6207e-03
10.500  19.500  3.5782e-03
10.500  19.750  4.0437e-03
10.500  20.000  4.1135e-03
10.500  20.250  4.2349e-03
10.500  20.500  4.4190e-03
10.500  20.750  4.4297e-03
10.500  21.000  4.4352e-03
10.500  21.250  4.4378e-03
10.500  21.500  4.4398e-03
10.500  21.750  4.4415e-03
10.500  22.000  4.4426e-03
10.500  22.250  4.4431e-03
10.500  22.500  4.4434e-03
10.500  22.750  4.4437e-03
10.500  23.000  4.4438e-03
10.500  23.250  4.4437e-03
10.500  23.500  4.4436e-03
10.500  23.750  4.4437e-03
10.500  24.000  4.4437e-03
10.750  17.000  4.3539e-05
10.750  17.250  6.3868e-05
10.750  17.500  9.7037e-05
10.750  17.750  1.5547e-04
10.750  18.000  2.5654e-04
10.750  18.250  4.1259e-04
10.750  18.500  6.3473e-04
10.750  18.750  9.5350e-04
10.750  19.000  1.3920e-03
10.750  19.250  1.9948e-03
10.750  19.500  2.7950e-03
10.750  19.750  3.7821e-03
10.750  20.000  4.0327e-03
10.750  20.250  4.1118e-03
10.750  20.500  4.2283e-03
10.750  20.750  4.4135e-03
10.750  21.000  4.4263e-03
10.750  21.250  4.4344e-03
10.750  21.500  4.4376e-03
10.750  21.750  4.4397e-03
10.750  22.000  4.4414e-03
10.750  22.250  4.4426e-03
10.750  22.500  4.4432e-03
10.750  22.750  4.4435e-03
10.750  23.000  4.4438e-03
10.750  23.250  4.4438e-03
10.750  23.500  4.4438e-03
10.750  23.750  4.4437e-03
10.750  24.000  4.4437e-03
11.000  17.000  3.0947e-05
11.000  17.250  4.5514e-05
11.000  17.500  6.9877e-05
11.000  17.750  1.1350e-04
11.000  18.000  1.8765e-04
11.000  18.250  3.0132e-04
11.000  18.500  4.6700e-04
11.000  18.750  7.0189e-04
11.000  19.000  1.0291e-03
11.000  19.250  1.4855e-03
11.000  19.500  2.1134e-03
11.000  19.750  2.9642e-03
11.000  20.000  3.9228e-03
11.000  20.250  4.0255e-03
11.000  20.500  4.1019e-03
11.000  20.750  4.2272e-03
11.000  21.000  4.4072e-03
11.000  21.250  4.4224e-03
11.000  21.500  4.4332e-03
11.000  21.750  4.4371e-03
11.000  22.000  4.4393e-03
11.000  22.250  4.4412e-03
11.000  22.500  4.4426e-03
11.000  22.750  4.4431e-03
11.000  23.000  4.4437e-03
11.000  23.250  4.4438e-03
11.000  23.500  4.4439e-03
11.000  23.750  4.4439e-03
11.000  24.000  4.4438e-03
11.250  17.000  2.2140e-05
11.250  17.250  3.2428e-05
11.250  17.500  5.0206e-05
11.250  17.750  8.2140e-05
11.250  18.000  1.3605e-04
11.250  18.250  2.1794e-04
11.250  18.500  3.3630e-04
11.250  18.750  5.0996e-04
11.250  19.000  7.5004e-04
11.250  19.250  1.0910e-03
11.250  19.500  1.5663e-03
11.250  19.750  2.2236e-03
11.250  20.000  3.1150e-03
11.250  20.250  3.9398e-03
11.250  20.500  4.0200e-03
11.250  20.750  4.1015e-03
11.250  21.000  4.2313e-03
11.250  21.250  4.4038e-03
11.250  21.500  4.4193e-03
11.250  21.750  4.4308e-03
11.250  22.000  4.4362e-03
11.250  22.250  4.4388e-03
11.250  22.500  4.4409e-03
11.250  22.750  4.4425e-03
11.250  23.000  4.4431e-03
11.250  23.250  4.4437e-03
11.250  23.500  4.4438e-03
11.250  23.750  4.4439e-03
11.250  24.000  4.4440e-03
11.500  17.000  1.5967e-05
11.500  17.250  2.3292e-05
11.500  17.500  3.6049e-05
11.500  17.750  5.9095e-05
11.500  18.000  9.7531e-05
11.500  18.250  1.5556e-04
11.500  18.500  2.4091e-04
11.500  18.750  3.6609e-04
11.500  19.000  5.4288e-04
11.500  19.250  7.9103e-04
11.500  19.500  1.1379e-03
11.500  19.750  1.6310e-03
11.500  20.000  2.3185e-03
11.500  20.250  3.2586e-03
11.500  20.500  3.9379e-03
11.500  20.750  4.0165e-03
11.500  21.000  4.1049e-03
11.500  21.250  4.2515e-03
11.500  21.500  4.4011e-03
11.500  21.750  4.4162e-03
11.500  22.000  4.4280e-03
11.500  22.250  4.4347e-03
11.500  22.500  4.4379e-03
11.500  22.750  4.4404e-03
11.500  23.000  4.4423e-03
11.500  23.250  4.4430e-03
11.500  23.500  4.4437e-03
11.500  23.750  4.4440e-03
11.500  24.000  4.4439e-03
11.750  17.000  1.1770e-05
11.750  17.250  1.6872e-05
11.750  17.500  2.6008e-05
11.750  17.750  4.2305e-05
11.750  18.000  6.8889e-05
11.750  18.250  1.0963e-04
11.750  18.500  1.7053e-04
11.750  18.750  2.5893e-04
11.750  19.000  3.8790e-04
11.750  19.250  5.6823e-04
11.750  19.500  8.2329e-04
11.750  19.750  1.1799e-03
11.750  20.000  1.6894e-03
11.750  20.250  2.4031e-03
11.750  20.500  3.3842e-03
11.750  20.750  3.9202e-03
11.750  21.000  4.0147e-03
11.750  21.250  4.1208e-03
11.750  21.500  4.2942e-03
11.750  21.750  4.3974e-03
11.750  22.000  4.4125e-03
11.750  22.250  4.4247e-03
11.750  22.500  4.4324e-03
11.750  22.750  4.4364e-03
11.750  23.000  4.4396e-03
11.750  23.250  4.4420e-03
11.750  23.500  4.4429e-03
11.750  23.750  4.4436e-03
11.750  24.000  4.4441e-03
12.000  17.000  8.8889e-06
12.000  17.250  1.2428e-05
12.000  17.500  1.8765e-05
12.000  17.750  2.9959e-05
12.000  18.000  4.8066e-05
12.000  18.250  7.6461e-05
12.000  18.500  1.1934e-04
12.000  18.750  1.8305e-04
12.000  19.000  2.7588e-04
12.000  19.250  4.0617e-04
12.000  19.500  5.9053e-04
12.000  19.750  8.4971e-04
12.000  20.000  1.2165e-03
12.000  20.250  1.7367e-03
12.000  20.500  2.4686e-03
12.000  20.750  3.4685e-03
12.000  21.000  3.8985e-03
12.000  21.250  4.0186e-03
12.000  21.500  4.1557e-03
12.000  21.750  4.3467e-03
12.000  22.000  4.3933e-03
12.000  22.250  4.4083e-03
12.000  22.500  4.4211e-03
12.000  22.750  4.4298e-03
12.000  23.000  4.4342e-03
12.000  23.250  4.4384e-03
12.000  23.500  4.4416e-03
12.000  23.750  4.4426e-03
12.000  24.000  4.4435e-03
12.250  17.000  6.8313e-06
12.250  17.250  9.3004e-06
12.250  17.500  1.3663e-05
12.250  17.750  2.1070e-05
12.250  18.000  3.3251e-05
12.250  18.250  5.3004e-05
12.250  18.500  8.3539e-05
12.250  18.750  1.2914e-04
12.250  19.000  1.9556e-04
12.250  19.250  2.8897e-04
12.250  19.500  4.2091e-04
12.250  19.750  6.0774e-04
12.250  20.000  8.6996e-04
12.250  20.250  1.2433e-03
12.250  20.500  1.7740e-03
12.250  20.750  2.5253e-03
12.250  21.000  3.5117e-03
12.250  21.250  3.8756e-03
12.250  21.500  4.0393e-03
12.250  21.750  4.1934e-03
12.250  22.000  4.3674e-03
12.250  22.250  4.3873e-03
12.250  22.500  4.4034e-03
12.250  22.750  4.4169e-03
12.250  23.000  4.4262e-03
12.250  23.250  4.4314e-03
12.250  23.500  4.4368e-03
12.250  23.750  4.4410e-03
12.250  24.000  4.4424e-03
12.500  17.000  5.2675e-06
12.500  17.250  7.0782e-06
12.500  17.500  9.8765e-06
12.500  17.750  1.4733e-05
12.500  18.000  2.3128e-05
12.500  18.250  3.6790e-05
12.500  18.500  5.8436e-05
12.500  18.750  9.0782e-05
12.500  19.000  1.3827e-04
12.500  19.250  2.0551e-04
12.500  19.500  2.9992e-04
12.500  19.750  4.3350e-04
12.500  20.000  6.2173e-04
12.500  20.250  8.8675e-04
12.500  20.500  1.2635e-03
12.500  20.750  1.8004e-03
12.500  21.000  2.5634e-03
12.500  21.250  3.5795e-03
12.500  21.500  3.8687e-03
12.500  21.750  4.0516e-03
12.500  22.000  4.2332e-03
12.500  22.250  4.3583e-03
12.500  22.500  4.3789e-03
12.500  22.750  4.3965e-03
12.500  23.000  4.4113e-03
12.500  23.250  4.4214e-03
12.500  23.500  4.4278e-03
12.500  23.750  4.4346e-03
12.500  24.000  4.4402e-03
12.750  17.000  3.9506e-06
12.750  17.250  5.1852e-06
12.750  17.500  7.1605e-06
12.750  17.750  1.0535e-05
12.750  18.000  1.6214e-05
12.750  18.250  2.5761e-05
12.750  18.500  4.0823e-05
12.750  18.750  6.3868e-05
12.750  19.000  9.7531e-05
12.750  19.250  1.4576e-04
12.750  19.500  2.1309e-04
12.750  19.750  3.0831e-04
12.750  20.000  4.4272e-04
12.750  20.250  6.3309e-04
12.750  20.500  8.9523e-04
12.750  20.750  1.2770e-03
12.750  21.000  1.8192e-03
12.750  21.250  2.5993e-03
12.750  21.500  3.5477e-03
12.750  21.750  3.8379e-03
12.750  22.000  4.0626e-03
12.750  22.250  4.2574e-03
12.750  22.500  4.3430e-03
12.750  22.750  4.3664e-03
12.750  23.000  4.3867e-03
12.750  23.250  4.4031e-03
12.750  23.500  4.4147e-03
12.750  23.750  4.4224e-03
12.750  24.000  4.4314e-03
13.000  17.000  1.2346e-06
13.000  17.250  2.3868e-06
13.000  17.500  5.2675e-06
13.000  17.750  7.7366e-06
13.000  18.000  1.1605e-05
13.000  18.250  1.8189e-05
13.000  18.500  2.8642e-05
13.000  18.750  4.4774e-05
13.000  19.000  6.8560e-05
13.000  19.250  1.0296e-04
13.000  19.500  1.5136e-04
13.000  19.750  2.1926e-04
13.000  20.000  3.1399e-04
13.000  20.250  4.4864e-04
13.000  20.500  6.3852e-04
13.000  20.750  9.0716e-04
13.000  21.000  1.2870e-03
13.000  21.250  1.8364e-03
13.000  21.500  2.6180e-03
13.000  21.750  3.4760e-03
13.000  22.000  3.8049e-03
13.000  22.250  4.0556e-03
13.000  22.500  4.2503e-03
13.000  22.750  4.3192e-03
13.000  23.000  4.3477e-03
13.000  23.250  4.3718e-03
13.000  23.500  4.3912e-03
13.000  23.750  4.4046e-03
13.000  24.000  4.4142e-03
13.250  17.000  1.0000e-07
13.250  17.250  1.3992e-06
13.250  17.500  3.0453e-06
13.250  17.750  5.5144e-06
13.250  18.000  8.3951e-06
13.250  18.250  1.2922e-05
13.250  18.500  2.0165e-05
13.250  18.750  3.1358e-05
13.250  19.000  4.8148e-05
13.250  19.250  7.2346e-05
13.250  19.500  1.0683e-04
13.250  19.750  1.5531e-04
13.250  20.000  2.2337e-04
13.250  20.250  3.1934e-04
13.250  20.500  4.5383e-04
13.250  20.750  6.4288e-04
13.250  21.000  9.1317e-04
13.250  21.250  1.2909e-03
13.250  21.500  1.8398e-03
13.250  21.750  2.5954e-03
13.250  22.000  3.3773e-03
13.250  22.250  3.7177e-03
13.250  22.500  4.0071e-03
13.250  22.750  4.2069e-03
13.250  23.000  4.2822e-03
13.250  23.250  4.3186e-03
13.250  23.500  4.3491e-03
13.250  23.750  4.3729e-03
13.250  24.000  4.3891e-03
13.500  17.000  1.0000e-07
13.500  17.250  1.0000e-07
13.500  17.500  1.7284e-06
13.500  17.750  3.4568e-06
13.500  18.000  6.1728e-06
13.500  18.250  9.3004e-06
13.500  18.500  1.4156e-05
13.500  18.750  2.1893e-05
13.500  19.000  3.3580e-05
13.500  19.250  5.0864e-05
13.500  19.500  7.5226e-05
13.500  19.750  1.0971e-04
13.500  20.000  1.5794e-04
13.500  20.250  2.2658e-04
13.500  20.500  3.2189e-04
13.500  20.750  4.5605e-04
13.500  21.000  6.4428e-04
13.500  21.250  9.0798e-04
13.500  21.500  1.2828e-03
13.500  21.750  1.8095e-03
13.500  22.000  2.5216e-03
13.500  22.250  3.2123e-03
13.500  22.500  3.5966e-03
13.500  22.750  3.9160e-03
13.500  23.000  4.1336e-03
13.500  23.250  4.2253e-03
13.500  23.500  4.2742e-03
13.500  23.750  4.3151e-03
13.500  24.000  4.3446e-03
13.750  17.000  1.0000e-07
13.750  17.250  1.0000e-07
13.750  17.500  9.8765e-07
13.750  17.750  2.0576e-06
13.750  18.000  4.0329e-06
13.750  18.250  6.5844e-06
13.750  18.500  1.0123e-05
13.750  18.750  1.5309e-05
13.750  19.000  2.3292e-05
13.750  19.250  3.5226e-05
13.750  19.500  5.2510e-05
13.750  19.750  7.7037e-05
13.750  20.000  1.1160e-04
13.750  20.250  1.6016e-04
13.750  20.500  2.2864e-04
13.750  20.750  3.2379e-04
13.750  21.000  4.5695e-04
13.750  21.250  6.4082e-04
13.750  21.500  9.0230e-04
13.750  21.750  1.2601e-03
13.750  22.000  1.7519e-03
13.750  22.250  2.4117e-03
13.750  22.500  3.0220e-03
13.750  22.750  3.4330e-03
13.750  23.000  3.7815e-03
13.750  23.250  4.0322e-03
13.750  23.500  4.1407e-03
13.750  23.750  4.2083e-03
13.750  24.000  4.2633e-03
14.000  17.000  1.0000e-07
14.000  17.250  1.0000e-07
14.000  17.500  1.0000e-07
14.000  17.750  1.2346e-06
14.000  18.000  2.5514e-06
14.000  18.250  4.6091e-06
14.000  18.500  7.3251e-06
14.000  18.750  1.0864e-05
14.000  19.000  1.6296e-05
14.000  19.250  2.4444e-05
14.000  19.500  3.6379e-05
14.000  19.750  5.3745e-05
14.000  20.000  7.8354e-05
14.000  20.250  1.1292e-04
14.000  20.500  1.6173e-04
14.000  20.750  2.2963e-04
14.000  21.000  3.2428e-04
14.000  21.250  4.5473e-04
14.000  21.500  6.3811e-04
14.000  21.750  8.8543e-04
14.000  22.000  1.2153e-03
14.000  22.250  1.6547e-03
14.000  22.500  2.2618e-03
14.000  22.750  2.8033e-03
14.000  23.000  3.2514e-03
14.000  23.250  3.6112e-03
14.000  23.500  3.8942e-03
14.000  23.750  4.0182e-03
14.000  24.000  4.1124e-03
