nFnu 1035.92A  relative to Inci 1215.00A scaled to 1215A.
Hden   Phi(H)  Eq_Width (A)
7.000  17.000  3.4335e-02
7.000  17.250  3.0525e-02
7.000  17.500  2.6265e-02
7.000  17.750  2.2075e-02
7.000  18.000  1.8803e-02
7.000  18.250  1.6784e-02
7.000  18.500  1.5502e-02
7.000  18.750  1.4862e-02
7.000  19.000  1.4523e-02
7.000  19.250  1.4332e-02
7.000  19.500  1.4250e-02
7.000  19.750  1.4215e-02
7.000  20.000  1.4200e-02
7.000  20.250  1.4193e-02
7.000  20.500  1.4189e-02
7.000  20.750  1.4187e-02
7.000  21.000  1.4187e-02
7.000  21.250  1.4186e-02
7.000  21.500  1.4186e-02
7.000  21.750  1.4185e-02
7.000  22.000  1.4185e-02
7.000  22.250  1.4186e-02
7.000  22.500  1.4185e-02
7.000  22.750  1.4187e-02
7.000  23.000  1.4187e-02
7.000  23.250  1.4186e-02
7.000  23.500  1.4187e-02
7.000  23.750  1.4187e-02
7.000  24.000  1.4187e-02
7.250  17.000  3.5786e-02
7.250  17.250  3.3880e-02
7.250  17.500  3.0294e-02
7.250  17.750  2.6160e-02
7.250  18.000  2.2017e-02
7.250  18.250  1.8772e-02
7.250  18.500  1.6768e-02
7.250  18.750  1.5496e-02
7.250  19.000  1.4860e-02
7.250  19.250  1.4523e-02
7.250  19.500  1.4331e-02
7.250  19.750  1.4250e-02
7.250  20.000  1.4215e-02
7.250  20.250  1.4200e-02
7.250  20.500  1.4193e-02
7.250  20.750  1.4189e-02
7.250  21.000  1.4187e-02
7.250  21.250  1.4186e-02
7.250  21.500  1.4186e-02
7.250  21.750  1.4186e-02
7.250  22.000  1.4185e-02
7.250  22.250  1.4185e-02
7.250  22.500  1.4185e-02
7.250  22.750  1.4185e-02
7.250  23.000  1.4185e-02
7.250  23.250  1.4185e-02
7.250  23.500  1.4185e-02
7.250  23.750  1.4185e-02
7.250  24.000  1.4185e-02
7.500  17.000  3.8387e-02
7.500  17.250  3.4221e-02
7.500  17.500  3.3622e-02
7.500  17.750  3.0164e-02
7.500  18.000  2.6110e-02
7.500  18.250  2.1986e-02
7.500  18.500  1.8752e-02
7.500  18.750  1.6759e-02
7.500  19.000  1.5493e-02
7.500  19.250  1.4859e-02
7.500  19.500  1.4522e-02
7.500  19.750  1.4331e-02
7.500  20.000  1.4250e-02
7.500  20.250  1.4215e-02
7.500  20.500  1.4200e-02
7.500  20.750  1.4193e-02
7.500  21.000  1.4189e-02
7.500  21.250  1.4187e-02
7.500  21.500  1.4186e-02
7.500  21.750  1.4186e-02
7.500  22.000  1.4185e-02
7.500  22.250  1.4185e-02
7.500  22.500  1.4185e-02
7.500  22.750  1.4185e-02
7.500  23.000  1.4185e-02
7.500  23.250  1.4185e-02
7.500  23.500  1.4187e-02
7.500  23.750  1.4185e-02
7.500  24.000  1.4185e-02
7.750  17.000  2.9920e-02
7.750  17.250  3.4939e-02
7.750  17.500  3.2979e-02
7.750  17.750  3.3474e-02
7.750  18.000  3.0097e-02
7.750  18.250  2.6096e-02
7.750  18.500  2.1971e-02
7.750  18.750  1.8741e-02
7.750  19.000  1.6753e-02
7.750  19.250  1.5490e-02
7.750  19.500  1.4858e-02
7.750  19.750  1.4522e-02
7.750  20.000  1.4331e-02
7.750  20.250  1.4250e-02
7.750  20.500  1.4215e-02
7.750  20.750  1.4200e-02
7.750  21.000  1.4193e-02
7.750  21.250  1.4189e-02
7.750  21.500  1.4187e-02
7.750  21.750  1.4186e-02
7.750  22.000  1.4186e-02
7.750  22.250  1.4185e-02
7.750  22.500  1.4185e-02
7.750  22.750  1.4185e-02
7.750  23.000  1.4185e-02
7.750  23.250  1.4185e-02
7.750  23.500  1.4185e-02
7.750  23.750  1.4185e-02
7.750  24.000  1.4185e-02
8.000  17.000  2.1871e-02
8.000  17.250  2.6465e-02
8.000  17.500  3.1920e-02
8.000  17.750  3.1918e-02
8.000  18.000  3.3392e-02
8.000  18.250  3.0066e-02
8.000  18.500  2.6105e-02
8.000  18.750  2.1968e-02
8.000  19.000  1.8734e-02
8.000  19.250  1.6749e-02
8.000  19.500  1.5489e-02
8.000  19.750  1.4857e-02
8.000  20.000  1.4522e-02
8.000  20.250  1.4331e-02
8.000  20.500  1.4250e-02
8.000  20.750  1.4215e-02
8.000  21.000  1.4200e-02
8.000  21.250  1.4193e-02
8.000  21.500  1.4189e-02
8.000  21.750  1.4187e-02
8.000  22.000  1.4186e-02
8.000  22.250  1.4186e-02
8.000  22.500  1.4185e-02
8.000  22.750  1.4185e-02
8.000  23.000  1.4185e-02
8.000  23.250  1.4185e-02
8.000  23.500  1.4185e-02
8.000  23.750  1.4185e-02
8.000  24.000  1.4185e-02
8.250  17.000  1.6517e-02
8.250  17.250  1.9298e-02
8.250  17.500  2.4158e-02
8.250  17.750  3.0013e-02
8.250  18.000  3.1226e-02
8.250  18.250  3.3329e-02
8.250  18.500  3.0056e-02
8.250  18.750  2.6130e-02
8.250  19.000  2.1972e-02
8.250  19.250  1.8731e-02
8.250  19.500  1.6747e-02
8.250  19.750  1.5488e-02
8.250  20.000  1.4857e-02
8.250  20.250  1.4522e-02
8.250  20.500  1.4331e-02
8.250  20.750  1.4250e-02
8.250  21.000  1.4215e-02
8.250  21.250  1.4200e-02
8.250  21.500  1.4193e-02
8.250  21.750  1.4189e-02
8.250  22.000  1.4187e-02
8.250  22.250  1.4186e-02
8.250  22.500  1.4186e-02
8.250  22.750  1.4186e-02
8.250  23.000  1.4185e-02
8.250  23.250  1.4185e-02
8.250  23.500  1.4186e-02
8.250  23.750  1.4185e-02
8.250  24.000  1.4185e-02
8.500  17.000  1.3137e-02
8.500  17.250  1.4573e-02
8.500  17.500  1.7605e-02
8.500  17.750  2.2724e-02
8.500  18.000  2.8781e-02
8.500  18.250  3.0709e-02
8.500  18.500  3.3276e-02
8.500  18.750  3.0058e-02
8.500  19.000  2.6166e-02
8.500  19.250  2.1981e-02
8.500  19.500  1.8730e-02
8.500  19.750  1.6745e-02
8.500  20.000  1.5487e-02
8.500  20.250  1.4857e-02
8.500  20.500  1.4522e-02
8.500  20.750  1.4331e-02
8.500  21.000  1.4250e-02
8.500  21.250  1.4215e-02
8.500  21.500  1.4200e-02
8.500  21.750  1.4193e-02
8.500  22.000  1.4189e-02
8.500  22.250  1.4187e-02
8.500  22.500  1.4186e-02
8.500  22.750  1.4186e-02
8.500  23.000  1.4185e-02
8.500  23.250  1.4185e-02
8.500  23.500  1.4185e-02
8.500  23.750  1.4185e-02
8.500  24.000  1.4185e-02
8.750  17.000  1.1117e-02
8.750  17.250  1.1737e-02
8.750  17.500  1.3377e-02
8.750  17.750  1.6548e-02
8.750  18.000  2.1887e-02
8.750  18.250  2.8048e-02
8.750  18.500  3.0413e-02
8.750  18.750  3.3218e-02
8.750  19.000  3.0066e-02
8.750  19.250  2.6209e-02
8.750  19.500  2.1993e-02
8.750  19.750  1.8730e-02
8.750  20.000  1.6744e-02
8.750  20.250  1.5487e-02
8.750  20.500  1.4857e-02
8.750  20.750  1.4521e-02
8.750  21.000  1.4331e-02
8.750  21.250  1.4250e-02
8.750  21.500  1.4215e-02
8.750  21.750  1.4200e-02
8.750  22.000  1.4193e-02
8.750  22.250  1.4189e-02
8.750  22.500  1.4187e-02
8.750  22.750  1.4186e-02
8.750  23.000  1.4186e-02
8.750  23.250  1.4185e-02
8.750  23.500  1.4185e-02
8.750  23.750  1.4185e-02
8.750  24.000  1.4185e-02
9.000  17.000  9.9850e-03
9.000  17.250  1.0118e-02
9.000  17.500  1.0913e-02
9.000  17.750  1.2692e-02
9.000  18.000  1.6057e-02
9.000  18.250  2.1574e-02
9.000  18.500  2.7667e-02
9.000  18.750  3.0208e-02
9.000  19.000  3.3156e-02
9.000  19.250  3.0068e-02
9.000  19.500  2.6254e-02
9.000  19.750  2.2006e-02
9.000  20.000  1.8730e-02
9.000  20.250  1.6744e-02
9.000  20.500  1.5487e-02
9.000  20.750  1.4856e-02
9.000  21.000  1.4521e-02
9.000  21.250  1.4331e-02
9.000  21.500  1.4250e-02
9.000  21.750  1.4215e-02
9.000  22.000  1.4200e-02
9.000  22.250  1.4193e-02
9.000  22.500  1.4189e-02
9.000  22.750  1.4187e-02
9.000  23.000  1.4186e-02
9.000  23.250  1.4186e-02
9.000  23.500  1.4185e-02
9.000  23.750  1.4185e-02
9.000  24.000  1.4185e-02
9.250  17.000  9.4519e-03
9.250  17.250  9.2591e-03
9.250  17.500  9.5664e-03
9.250  17.750  1.0518e-02
9.250  18.000  1.2510e-02
9.250  18.250  1.6117e-02
9.250  18.500  2.1860e-02
9.250  18.750  2.7532e-02
9.250  19.000  3.0042e-02
9.250  19.250  3.3078e-02
9.250  19.500  3.0060e-02
9.250  19.750  2.6295e-02
9.250  20.000  2.2019e-02
9.250  20.250  1.8731e-02
9.250  20.500  1.6743e-02
9.250  20.750  1.5486e-02
9.250  21.000  1.4856e-02
9.250  21.250  1.4521e-02
9.250  21.500  1.4330e-02
9.250  21.750  1.4248e-02
9.250  22.000  1.4213e-02
9.250  22.250  1.4198e-02
9.250  22.500  1.4192e-02
9.250  22.750  1.4189e-02
9.250  23.000  1.4187e-02
9.250  23.250  1.4186e-02
9.250  23.500  1.4186e-02
9.250  23.750  1.4185e-02
9.250  24.000  1.4185e-02
9.500  17.000  9.3505e-03
9.500  17.250  8.8973e-03
9.500  17.500  8.9001e-03
9.500  17.750  9.4069e-03
9.500  18.000  1.0581e-02
9.500  18.250  1.2846e-02
9.500  18.500  1.6872e-02
9.500  18.750  2.2824e-02
9.500  19.000  2.7282e-02
9.500  19.250  2.9894e-02
9.500  19.500  3.2997e-02
9.500  19.750  3.0037e-02
9.500  20.000  2.6324e-02
9.500  20.250  2.2030e-02
9.500  20.500  1.8732e-02
9.500  20.750  1.6742e-02
9.500  21.000  1.5485e-02
9.500  21.250  1.4855e-02
9.500  21.500  1.4520e-02
9.500  21.750  1.4329e-02
9.500  22.000  1.4247e-02
9.500  22.250  1.4213e-02
9.500  22.500  1.4198e-02
9.500  22.750  1.4190e-02
9.500  23.000  1.4187e-02
9.500  23.250  1.4185e-02
9.500  23.500  1.4184e-02
9.500  23.750  1.4183e-02
9.500  24.000  1.4183e-02
9.750  17.000  9.6292e-03
9.750  17.250  8.8869e-03
9.750  17.500  8.6451e-03
9.750  17.750  8.8882e-03
9.750  18.000  9.6752e-03
9.750  18.250  1.1176e-02
9.750  18.500  1.3854e-02
9.750  18.750  1.8296e-02
9.750  19.000  2.4083e-02
9.750  19.250  2.6992e-02
9.750  19.500  2.9728e-02
9.750  19.750  3.2910e-02
9.750  20.000  2.9998e-02
9.750  20.250  2.6340e-02
9.750  20.500  2.2038e-02
9.750  20.750  1.8732e-02
9.750  21.000  1.6742e-02
9.750  21.250  1.5484e-02
9.750  21.500  1.4855e-02
9.750  21.750  1.4520e-02
9.750  22.000  1.4329e-02
9.750  22.250  1.4247e-02
9.750  22.500  1.4213e-02
9.750  22.750  1.4197e-02
9.750  23.000  1.4190e-02
9.750  23.250  1.4187e-02
9.750  23.500  1.4185e-02
9.750  23.750  1.4184e-02
9.750  24.000  1.4183e-02
10.000  17.000  1.0282e-02
10.000  17.250  9.2044e-03
10.000  17.500  8.6778e-03
10.000  17.750  8.7274e-03
10.000  18.000  9.3570e-03
10.000  18.250  1.0470e-02
10.000  18.500  1.2316e-02
10.000  18.750  1.5346e-02
10.000  19.000  2.0067e-02
10.000  19.250  2.4663e-02
10.000  19.500  2.6811e-02
10.000  19.750  2.9600e-02
10.000  20.000  3.2856e-02
10.000  20.250  2.9953e-02
10.000  20.500  2.6346e-02
10.000  20.750  2.2045e-02
10.000  21.000  1.8733e-02
10.000  21.250  1.6742e-02
10.000  21.500  1.5484e-02
10.000  21.750  1.4855e-02
10.000  22.000  1.4520e-02
10.000  22.250  1.4329e-02
10.000  22.500  1.4247e-02
10.000  22.750  1.4213e-02
10.000  23.000  1.4197e-02
10.000  23.250  1.4190e-02
10.000  23.500  1.4187e-02
10.000  23.750  1.4185e-02
10.000  24.000  1.4184e-02
10.250  17.000  1.1374e-02
10.250  17.250  9.8964e-03
10.250  17.500  9.0537e-03
10.250  17.750  8.8926e-03
10.250  18.000  9.4073e-03
10.250  18.250  1.0328e-02
10.250  18.500  1.1711e-02
10.250  18.750  1.3867e-02
10.250  19.000  1.7280e-02
10.250  19.250  2.1758e-02
10.250  19.500  2.5092e-02
10.250  19.750  2.6774e-02
10.250  20.000  2.9511e-02
10.250  20.250  3.2831e-02
10.250  20.500  2.9906e-02
10.250  20.750  2.6341e-02
10.250  21.000  2.2049e-02
10.250  21.250  1.8733e-02
10.250  21.500  1.6742e-02
10.250  21.750  1.5485e-02
10.250  22.000  1.4855e-02
10.250  22.250  1.4520e-02
10.250  22.500  1.4330e-02
10.250  22.750  1.4248e-02
10.250  23.000  1.4213e-02
10.250  23.250  1.4198e-02
10.250  23.500  1.4190e-02
10.250  23.750  1.4187e-02
10.250  24.000  1.4185e-02
10.500  17.000  1.2888e-02
10.500  17.250  1.1047e-02
10.500  17.500  9.9909e-03
10.500  17.750  9.7839e-03
10.500  18.000  1.0310e-02
10.500  18.250  1.1454e-02
10.500  18.500  1.3100e-02
10.500  18.750  1.5132e-02
10.500  19.000  1.7433e-02
10.500  19.250  1.9889e-02
10.500  19.500  2.2383e-02
10.500  19.750  2.4800e-02
10.500  20.000  2.7024e-02
10.500  20.250  2.9663e-02
10.500  20.500  3.2982e-02
10.500  20.750  2.9875e-02
10.500  21.000  2.6327e-02
10.500  21.250  2.2050e-02
10.500  21.500  1.8733e-02
10.500  21.750  1.6742e-02
10.500  22.000  1.5485e-02
10.500  22.250  1.4856e-02
10.500  22.500  1.4520e-02
10.500  22.750  1.4330e-02
10.500  23.000  1.4248e-02
10.500  23.250  1.4213e-02
10.500  23.500  1.4197e-02
10.500  23.750  1.4190e-02
10.500  24.000  1.4187e-02
10.750  17.000  1.4788e-02
10.750  17.250  1.2641e-02
10.750  17.500  1.1162e-02
10.750  17.750  1.0525e-02
10.750  18.000  1.0653e-02
10.750  18.250  1.1435e-02
10.750  18.500  1.2758e-02
10.750  18.750  1.4511e-02
10.750  19.000  1.6584e-02
10.750  19.250  1.8863e-02
10.750  19.500  2.1239e-02
10.750  19.750  2.3598e-02
10.750  20.000  2.5831e-02
10.750  20.250  2.7824e-02
10.750  20.500  3.0230e-02
10.750  20.750  3.3362e-02
10.750  21.000  2.9896e-02
10.750  21.250  2.6309e-02
10.750  21.500  2.2049e-02
10.750  21.750  1.8733e-02
10.750  22.000  1.6742e-02
10.750  22.250  1.5485e-02
10.750  22.500  1.4856e-02
10.750  22.750  1.4521e-02
10.750  23.000  1.4330e-02
10.750  23.250  1.4248e-02
10.750  23.500  1.4213e-02
10.750  23.750  1.4198e-02
10.750  24.000  1.4190e-02
11.000  17.000  1.7054e-02
11.000  17.250  1.4643e-02
11.000  17.500  1.2968e-02
11.000  17.750  1.2044e-02
11.000  18.000  1.1778e-02
11.000  18.250  1.2093e-02
11.000  18.500  1.2915e-02
11.000  18.750  1.4168e-02
11.000  19.000  1.5776e-02
11.000  19.250  1.7665e-02
11.000  19.500  1.9758e-02
11.000  19.750  2.1981e-02
11.000  20.000  2.4258e-02
11.000  20.250  2.6514e-02
11.000  20.500  2.8673e-02
11.000  20.750  3.1262e-02
11.000  21.000  3.4056e-02
11.000  21.250  3.0034e-02
11.000  21.500  2.6293e-02
11.000  21.750  2.2045e-02
11.000  22.000  1.8732e-02
11.000  22.250  1.6742e-02
11.000  22.500  1.5485e-02
11.000  22.750  1.4856e-02
11.000  23.000  1.4521e-02
11.000  23.250  1.4330e-02
11.000  23.500  1.4248e-02
11.000  23.750  1.4213e-02
11.000  24.000  1.4198e-02
11.250  17.000  1.9655e-02
11.250  17.250  1.6985e-02
11.250  17.500  1.5176e-02
11.250  17.750  1.4242e-02
11.250  18.000  1.3745e-02
11.250  18.250  1.3239e-02
11.250  18.500  1.2758e-02
11.250  18.750  1.2714e-02
11.250  19.000  1.3367e-02
11.250  19.250  1.4692e-02
11.250  19.500  1.6608e-02
11.250  19.750  1.9031e-02
11.250  20.000  2.1878e-02
11.250  20.250  2.4986e-02
11.250  20.500  2.7898e-02
11.250  20.750  3.0349e-02
11.250  21.000  3.3049e-02
11.250  21.250  3.5141e-02
11.250  21.500  3.0327e-02
11.250  21.750  2.6291e-02
11.250  22.000  2.2039e-02
11.250  22.250  1.8731e-02
11.250  22.500  1.6743e-02
11.250  22.750  1.5484e-02
11.250  23.000  1.4856e-02
11.250  23.250  1.4522e-02
11.250  23.500  1.4330e-02
11.250  23.750  1.4248e-02
11.250  24.000  1.4214e-02
11.500  17.000  2.2498e-02
11.500  17.250  1.9658e-02
11.500  17.500  1.7724e-02
11.500  17.750  1.6682e-02
11.500  18.000  1.5937e-02
11.500  18.250  1.4964e-02
11.500  18.500  1.3982e-02
11.500  18.750  1.3363e-02
11.500  19.000  1.3096e-02
11.500  19.250  1.3784e-02
11.500  19.500  1.5396e-02
11.500  19.750  1.7678e-02
11.500  20.000  2.0379e-02
11.500  20.250  2.3246e-02
11.500  20.500  2.6259e-02
11.500  20.750  2.9748e-02
11.500  21.000  3.2740e-02
11.500  21.250  3.5961e-02
11.500  21.500  3.6497e-02
11.500  21.750  3.0804e-02
11.500  22.000  2.6321e-02
11.500  22.250  2.2030e-02
11.500  22.500  1.8729e-02
11.500  22.750  1.6743e-02
11.500  23.000  1.5484e-02
11.500  23.250  1.4856e-02
11.500  23.500  1.4522e-02
11.500  23.750  1.4331e-02
11.500  24.000  1.4248e-02
11.750  17.000  2.5250e-02
11.750  17.250  2.2450e-02
11.750  17.500  2.0481e-02
11.750  17.750  1.9333e-02
11.750  18.000  1.8323e-02
11.750  18.250  1.7093e-02
11.750  18.500  1.5740e-02
11.750  18.750  1.4485e-02
11.750  19.000  1.3711e-02
11.750  19.250  1.3316e-02
11.750  19.500  1.3429e-02
11.750  19.750  1.4887e-02
11.750  20.000  1.7560e-02
11.750  20.250  2.1016e-02
11.750  20.500  2.4824e-02
11.750  20.750  2.8636e-02
11.750  21.000  3.2443e-02
11.750  21.250  3.6541e-02
11.750  21.500  4.0272e-02
11.750  21.750  3.7959e-02
11.750  22.000  3.1457e-02
11.750  22.250  2.6396e-02
11.750  22.500  2.2020e-02
11.750  22.750  1.8727e-02
11.750  23.000  1.6744e-02
11.750  23.250  1.5483e-02
11.750  23.500  1.4856e-02
11.750  23.750  1.4522e-02
11.750  24.000  1.4331e-02
12.000  17.000  2.7075e-02
12.000  17.250  2.4835e-02
12.000  17.500  2.3039e-02
12.000  17.750  2.1860e-02
12.000  18.000  2.0721e-02
12.000  18.250  1.9416e-02
12.000  18.500  1.7832e-02
12.000  18.750  1.6224e-02
12.000  19.000  1.4893e-02
12.000  19.250  1.3874e-02
12.000  19.500  1.3831e-02
12.000  19.750  1.4848e-02
12.000  20.000  1.6806e-02
12.000  20.250  1.9585e-02
12.000  20.500  2.3063e-02
12.000  20.750  2.7121e-02
12.000  21.000  3.1639e-02
12.000  21.250  3.6496e-02
12.000  21.500  4.1841e-02
12.000  21.750  4.5717e-02
12.000  22.000  3.9508e-02
12.000  22.250  3.1972e-02
12.000  22.500  2.6520e-02
12.000  22.750  2.2011e-02
12.000  23.000  1.8725e-02
12.000  23.250  1.6745e-02
12.000  23.500  1.5483e-02
12.000  23.750  1.4856e-02
12.000  24.000  1.4522e-02
12.250  17.000  2.5492e-02
12.250  17.250  2.5616e-02
12.250  17.500  2.4606e-02
12.250  17.750  2.3747e-02
12.250  18.000  2.2822e-02
12.250  18.250  2.1623e-02
12.250  18.500  2.0085e-02
12.250  18.750  1.8329e-02
12.250  19.000  1.6585e-02
12.250  19.250  1.4977e-02
12.250  19.500  1.3963e-02
12.250  19.750  1.4015e-02
12.250  20.000  1.5180e-02
12.250  20.250  1.7397e-02
12.250  20.500  2.0603e-02
12.250  20.750  2.4738e-02
12.250  21.000  2.9740e-02
12.250  21.250  3.5547e-02
12.250  21.500  4.2099e-02
12.250  21.750  4.8646e-02
12.250  22.000  5.0202e-02
12.250  22.250  4.0963e-02
12.250  22.500  3.2700e-02
12.250  22.750  2.6679e-02
12.250  23.000  2.2004e-02
12.250  23.250  1.8723e-02
12.250  23.500  1.6746e-02
12.250  23.750  1.5482e-02
12.250  24.000  1.4856e-02
12.500  17.000  1.3131e-02
12.500  17.250  2.2131e-02
12.500  17.500  2.4140e-02
12.500  17.750  2.4402e-02
12.500  18.000  2.4149e-02
12.500  18.250  2.3356e-02
12.500  18.500  2.2104e-02
12.500  18.750  2.0403e-02
12.500  19.000  1.8529e-02
12.500  19.250  1.6641e-02
12.500  19.500  1.4998e-02
12.500  19.750  1.3997e-02
12.500  20.000  1.4212e-02
12.500  20.250  1.5731e-02
12.500  20.500  1.8502e-02
12.500  20.750  2.2474e-02
12.500  21.000  2.7593e-02
12.500  21.250  3.3809e-02
12.500  21.500  4.1069e-02
12.500  21.750  4.9320e-02
12.500  22.000  5.6329e-02
12.500  22.250  5.3528e-02
12.500  22.500  4.2390e-02
12.500  22.750  3.3636e-02
12.500  23.000  2.6863e-02
12.500  23.250  2.2001e-02
12.500  23.500  1.8720e-02
12.500  23.750  1.6747e-02
12.500  24.000  1.5481e-02
12.750  17.000  1.2142e-02
12.750  17.250  1.2560e-02
12.750  17.500  1.9947e-02
12.750  17.750  2.2976e-02
12.750  18.000  2.3850e-02
12.750  18.250  2.3893e-02
12.750  18.500  2.3283e-02
12.750  18.750  2.2116e-02
12.750  19.000  2.0412e-02
12.750  19.250  1.8508e-02
12.750  19.500  1.6507e-02
12.750  19.750  1.4846e-02
12.750  20.000  1.3912e-02
12.750  20.250  1.4682e-02
12.750  20.500  1.7232e-02
12.750  20.750  2.1348e-02
12.750  21.000  2.6819e-02
12.750  21.250  3.3433e-02
12.750  21.500  4.0978e-02
12.750  21.750  4.9240e-02
12.750  22.000  5.8009e-02
12.750  22.250  6.3951e-02
12.750  22.500  5.6677e-02
12.750  22.750  4.3920e-02
12.750  23.000  3.4397e-02
12.750  23.250  2.7047e-02
12.750  23.500  2.2005e-02
12.750  23.750  1.8718e-02
12.750  24.000  1.6747e-02
13.000  17.000  2.1865e-02
13.000  17.250  1.9394e-02
13.000  17.500  1.4651e-02
13.000  17.750  1.3479e-02
13.000  18.000  1.9204e-02
13.000  18.250  2.1560e-02
13.000  18.500  2.2535e-02
13.000  18.750  2.2528e-02
13.000  19.000  2.1646e-02
13.000  19.250  2.1207e-02
13.000  19.500  2.1518e-02
13.000  19.750  2.2555e-02
13.000  20.000  2.4290e-02
13.000  20.250  2.6697e-02
13.000  20.500  2.9752e-02
13.000  20.750  3.3429e-02
13.000  21.000  3.7700e-02
13.000  21.250  4.2541e-02
13.000  21.500  4.7925e-02
13.000  21.750  5.3827e-02
13.000  22.000  6.0221e-02
13.000  22.250  6.7080e-02
13.000  22.500  7.0691e-02
13.000  22.750  5.9910e-02
13.000  23.000  4.6039e-02
13.000  23.250  3.4815e-02
13.000  23.500  2.7243e-02
13.000  23.750  2.2018e-02
13.000  24.000  1.8717e-02
13.250  17.000  2.0857e-02
13.250  17.250  1.8925e-02
13.250  17.500  1.6975e-02
13.250  17.750  1.5337e-02
13.250  18.000  1.4430e-02
13.250  18.250  1.4671e-02
13.250  18.500  1.6477e-02
13.250  18.750  1.9824e-02
13.250  19.000  2.3298e-02
13.250  19.250  2.6569e-02
13.250  19.500  2.9692e-02
13.250  19.750  3.2718e-02
13.250  20.000  3.5702e-02
13.250  20.250  3.8695e-02
13.250  20.500  4.1751e-02
13.250  20.750  4.4923e-02
13.250  21.000  4.8264e-02
13.250  21.250  5.1827e-02
13.250  21.500  5.5666e-02
13.250  21.750  5.9832e-02
13.250  22.000  6.4379e-02
13.250  22.250  6.9360e-02
13.250  22.500  7.4829e-02
13.250  22.750  7.6750e-02
13.250  23.000  6.3163e-02
13.250  23.250  4.7590e-02
13.250  23.500  3.5443e-02
13.250  23.750  2.7424e-02
13.250  24.000  2.2035e-02
13.500  17.000  1.9903e-02
13.500  17.250  1.7927e-02
13.500  17.500  1.6509e-02
13.500  17.750  1.5733e-02
13.500  18.000  1.5565e-02
13.500  18.250  1.5971e-02
13.500  18.500  1.6916e-02
13.500  18.750  1.8366e-02
13.500  19.000  2.0288e-02
13.500  19.250  2.2647e-02
13.500  19.500  2.5408e-02
13.500  19.750  2.8538e-02
13.500  20.000  3.2002e-02
13.500  20.250  3.5766e-02
13.500  20.500  3.9796e-02
13.500  20.750  4.4057e-02
13.500  21.000  4.8516e-02
13.500  21.250  5.3139e-02
13.500  21.500  5.7890e-02
13.500  21.750  6.2736e-02
13.500  22.000  6.7643e-02
13.500  22.250  7.2576e-02
13.500  22.500  7.7502e-02
13.500  22.750  8.2385e-02
13.500  23.000  8.2735e-02
13.500  23.250  6.6018e-02
13.500  23.500  4.8927e-02
13.500  23.750  3.6314e-02
13.500  24.000  2.7592e-02
13.750  17.000  1.8748e-02
13.750  17.250  1.7436e-02
13.750  17.500  1.6670e-02
13.750  17.750  1.6529e-02
13.750  18.000  1.6974e-02
13.750  18.250  1.7967e-02
13.750  18.500  1.9470e-02
13.750  18.750  2.1444e-02
13.750  19.000  2.3853e-02
13.750  19.250  2.6656e-02
13.750  19.500  2.9816e-02
13.750  19.750  3.3295e-02
13.750  20.000  3.7055e-02
13.750  20.250  4.1057e-02
13.750  20.500  4.5263e-02
13.750  20.750  4.9634e-02
13.750  21.000  5.4134e-02
13.750  21.250  5.8722e-02
13.750  21.500  6.3362e-02
13.750  21.750  6.8015e-02
13.750  22.000  7.2642e-02
13.750  22.250  7.7206e-02
13.750  22.500  8.1668e-02
13.750  22.750  8.5989e-02
13.750  23.000  9.0133e-02
13.750  23.250  8.9089e-02
13.750  23.500  6.9172e-02
13.750  23.750  5.0206e-02
13.750  24.000  3.6843e-02
14.000  17.000  1.7133e-02
14.000  17.250  1.7204e-02
14.000  17.500  1.1118e-02
14.000  17.750  9.4285e-03
14.000  18.000  9.2891e-03
14.000  18.250  9.1557e-03
14.000  18.500  9.0884e-03
14.000  18.750  9.1472e-03
14.000  19.000  9.3924e-03
14.000  19.250  9.8840e-03
14.000  19.500  1.0682e-02
14.000  19.750  1.1847e-02
14.000  20.000  1.3550e-02
14.000  20.250  1.6408e-02
14.000  20.500  2.0972e-02
14.000  20.750  2.7087e-02
14.000  21.000  3.4418e-02
14.000  21.250  4.2634e-02
14.000  21.500  5.1400e-02
14.000  21.750  6.0383e-02
14.000  22.000  6.9251e-02
14.000  22.250  7.7671e-02
14.000  22.500  8.5309e-02
14.000  22.750  9.1831e-02
14.000  23.000  9.6906e-02
14.000  23.250  1.0020e-01
14.000  23.500  9.6235e-02
14.000  23.750  7.2032e-02
14.000  24.000  5.1572e-02
