nFnu 1113.22A  relative to Inci 1215.00A scaled to 1215A.
Hden   Phi(H)  Eq_Width (A)
7.000  17.000  3.8259e-02
7.000  17.250  3.2515e-02
7.000  17.500  2.6959e-02
7.000  17.750  2.2174e-02
7.000  18.000  1.8778e-02
7.000  18.250  1.6730e-02
7.000  18.500  1.5463e-02
7.000  18.750  1.4849e-02
7.000  19.000  1.4525e-02
7.000  19.250  1.4342e-02
7.000  19.500  1.4265e-02
7.000  19.750  1.4232e-02
7.000  20.000  1.4218e-02
7.000  20.250  1.4211e-02
7.000  20.500  1.4208e-02
7.000  20.750  1.4206e-02
7.000  21.000  1.4205e-02
7.000  21.250  1.4204e-02
7.000  21.500  1.4204e-02
7.000  21.750  1.4204e-02
7.000  22.000  1.4204e-02
7.000  22.250  1.4204e-02
7.000  22.500  1.4204e-02
7.000  22.750  1.4205e-02
7.000  23.000  1.4205e-02
7.000  23.250  1.4204e-02
7.000  23.500  1.4205e-02
7.000  23.750  1.4205e-02
7.000  24.000  1.4206e-02
7.250  17.000  3.9517e-02
7.250  17.250  3.7886e-02
7.250  17.500  3.2320e-02
7.250  17.750  2.6867e-02
7.250  18.000  2.2124e-02
7.250  18.250  1.8750e-02
7.250  18.500  1.6717e-02
7.250  18.750  1.5459e-02
7.250  19.000  1.4847e-02
7.250  19.250  1.4524e-02
7.250  19.500  1.4342e-02
7.250  19.750  1.4265e-02
7.250  20.000  1.4232e-02
7.250  20.250  1.4218e-02
7.250  20.500  1.4211e-02
7.250  20.750  1.4208e-02
7.250  21.000  1.4206e-02
7.250  21.250  1.4205e-02
7.250  21.500  1.4204e-02
7.250  21.750  1.4204e-02
7.250  22.000  1.4204e-02
7.250  22.250  1.4204e-02
7.250  22.500  1.4204e-02
7.250  22.750  1.4204e-02
7.250  23.000  1.4204e-02
7.250  23.250  1.4204e-02
7.250  23.500  1.4204e-02
7.250  23.750  1.4204e-02
7.250  24.000  1.4204e-02
7.500  17.000  4.3634e-02
7.500  17.250  3.8200e-02
7.500  17.500  3.7679e-02
7.500  17.750  3.2211e-02
7.500  18.000  2.6822e-02
7.500  18.250  2.2095e-02
7.500  18.500  1.8733e-02
7.500  18.750  1.6708e-02
7.500  19.000  1.5455e-02
7.500  19.250  1.4846e-02
7.500  19.500  1.4524e-02
7.500  19.750  1.4342e-02
7.500  20.000  1.4265e-02
7.500  20.250  1.4232e-02
7.500  20.500  1.4218e-02
7.500  20.750  1.4211e-02
7.500  21.000  1.4207e-02
7.500  21.250  1.4206e-02
7.500  21.500  1.4205e-02
7.500  21.750  1.4204e-02
7.500  22.000  1.4204e-02
7.500  22.250  1.4204e-02
7.500  22.500  1.4204e-02
7.500  22.750  1.4204e-02
7.500  23.000  1.4204e-02
7.500  23.250  1.4204e-02
7.500  23.500  1.4205e-02
7.500  23.750  1.4204e-02
7.500  24.000  1.4204e-02
7.750  17.000  5.0250e-02
7.750  17.250  4.0518e-02
7.750  17.500  3.7153e-02
7.750  17.750  3.7561e-02
7.750  18.000  3.2155e-02
7.750  18.250  2.6808e-02
7.750  18.500  2.2081e-02
7.750  18.750  1.8723e-02
7.750  19.000  1.6703e-02
7.750  19.250  1.5453e-02
7.750  19.500  1.4845e-02
7.750  19.750  1.4524e-02
7.750  20.000  1.4342e-02
7.750  20.250  1.4265e-02
7.750  20.500  1.4232e-02
7.750  20.750  1.4218e-02
7.750  21.000  1.4211e-02
7.750  21.250  1.4207e-02
7.750  21.500  1.4206e-02
7.750  21.750  1.4205e-02
7.750  22.000  1.4204e-02
7.750  22.250  1.4204e-02
7.750  22.500  1.4204e-02
7.750  22.750  1.4204e-02
7.750  23.000  1.4204e-02
7.750  23.250  1.4204e-02
7.750  23.500  1.4204e-02
7.750  23.750  1.4204e-02
7.750  24.000  1.4204e-02
8.000  17.000  5.4938e-02
8.000  17.250  4.7037e-02
8.000  17.500  3.8073e-02
8.000  17.750  3.6220e-02
8.000  18.000  3.7496e-02
8.000  18.250  3.2129e-02
8.000  18.500  2.6813e-02
8.000  18.750  2.2076e-02
8.000  19.000  1.8717e-02
8.000  19.250  1.6700e-02
8.000  19.500  1.5452e-02
8.000  19.750  1.4844e-02
8.000  20.000  1.4524e-02
8.000  20.250  1.4342e-02
8.000  20.500  1.4265e-02
8.000  20.750  1.4232e-02
8.000  21.000  1.4218e-02
8.000  21.250  1.4211e-02
8.000  21.500  1.4207e-02
8.000  21.750  1.4206e-02
8.000  22.000  1.4205e-02
8.000  22.250  1.4204e-02
8.000  22.500  1.4204e-02
8.000  22.750  1.4204e-02
8.000  23.000  1.4204e-02
8.000  23.250  1.4204e-02
8.000  23.500  1.4204e-02
8.000  23.750  1.4204e-02
8.000  24.000  1.4204e-02
8.250  17.000  5.7935e-02
8.250  17.250  5.1999e-02
8.250  17.500  4.4597e-02
8.250  17.750  3.6347e-02
8.250  18.000  3.5634e-02
8.250  18.250  3.7444e-02
8.250  18.500  3.2121e-02
8.250  18.750  2.6831e-02
8.250  19.000  2.2887e-02
8.250  19.250  1.9876e-02
8.250  19.500  1.7670e-02
8.250  19.750  1.6144e-02
8.250  20.000  1.5167e-02
8.250  20.250  1.4614e-02
8.250  20.500  1.4355e-02
8.250  20.750  1.4265e-02
8.250  21.000  1.4232e-02
8.250  21.250  1.4218e-02
8.250  21.500  1.4211e-02
8.250  21.750  1.4207e-02
8.250  22.000  1.4206e-02
8.250  22.250  1.4205e-02
8.250  22.500  1.4204e-02
8.250  22.750  1.4205e-02
8.250  23.000  1.4204e-02
8.250  23.250  1.4204e-02
8.250  23.500  1.4204e-02
8.250  23.750  1.4204e-02
8.250  24.000  1.4204e-02
8.500  17.000  5.9732e-02
8.500  17.250  5.5550e-02
8.500  17.500  4.9908e-02
8.500  17.750  4.2953e-02
8.500  18.000  3.5187e-02
8.500  18.250  3.5194e-02
8.500  18.500  3.7396e-02
8.500  18.750  3.2124e-02
8.500  19.000  2.6859e-02
8.500  19.250  2.2081e-02
8.500  19.500  1.8712e-02
8.500  19.750  1.6696e-02
8.500  20.000  1.5451e-02
8.500  20.250  1.4844e-02
8.500  20.500  1.4523e-02
8.500  20.750  1.4342e-02
8.500  21.000  1.4265e-02
8.500  21.250  1.4232e-02
8.500  21.500  1.4218e-02
8.500  21.750  1.4211e-02
8.500  22.000  1.4207e-02
8.500  22.250  1.4206e-02
8.500  22.500  1.4205e-02
8.500  22.750  1.4204e-02
8.500  23.000  1.4204e-02
8.500  23.250  1.4204e-02
8.500  23.500  1.4204e-02
8.500  23.750  1.4204e-02
8.500  24.000  1.4204e-02
8.750  17.000  6.0811e-02
8.750  17.250  5.7940e-02
8.750  17.500  5.3875e-02
8.750  17.750  4.8278e-02
8.750  18.000  4.1630e-02
8.750  18.250  3.4313e-02
8.750  18.500  3.4940e-02
8.750  18.750  3.7342e-02
8.750  19.000  3.2131e-02
8.750  19.250  2.6892e-02
8.750  19.500  2.2087e-02
8.750  19.750  1.8710e-02
8.750  20.000  1.6695e-02
8.750  20.250  1.5450e-02
8.750  20.500  1.4844e-02
8.750  20.750  1.4523e-02
8.750  21.000  1.4342e-02
8.750  21.250  1.4265e-02
8.750  21.500  1.4232e-02
8.750  21.750  1.4218e-02
8.750  22.000  1.4211e-02
8.750  22.250  1.4207e-02
8.750  22.500  1.4206e-02
8.750  22.750  1.4205e-02
8.750  23.000  1.4204e-02
8.750  23.250  1.4204e-02
8.750  23.500  1.4204e-02
8.750  23.750  1.4204e-02
8.750  24.000  1.4204e-02
9.000  17.000  6.1388e-02
9.000  17.250  5.9513e-02
9.000  17.500  5.6664e-02
9.000  17.750  5.2494e-02
9.000  18.000  4.6863e-02
9.000  18.250  4.0293e-02
9.000  18.500  3.3544e-02
9.000  18.750  3.4757e-02
9.000  19.000  3.7282e-02
9.000  19.250  3.2132e-02
9.000  19.500  2.6926e-02
9.000  19.750  2.2095e-02
9.000  20.000  1.8710e-02
9.000  20.250  1.6695e-02
9.000  20.500  1.5450e-02
9.000  20.750  1.4844e-02
9.000  21.000  1.4523e-02
9.000  21.250  1.4342e-02
9.000  21.500  1.4265e-02
9.000  21.750  1.4232e-02
9.000  22.000  1.4218e-02
9.000  22.250  1.4211e-02
9.000  22.500  1.4207e-02
9.000  22.750  1.4206e-02
9.000  23.000  1.4205e-02
9.000  23.250  1.4204e-02
9.000  23.500  1.4204e-02
9.000  23.750  1.4204e-02
9.000  24.000  1.4204e-02
9.250  17.000  6.1580e-02
9.250  17.250  6.0455e-02
9.250  17.500  5.8577e-02
9.250  17.750  5.5523e-02
9.250  18.000  5.0998e-02
9.250  18.250  4.5052e-02
9.250  18.500  3.8511e-02
9.250  18.750  3.2441e-02
9.250  19.000  3.4599e-02
9.250  19.250  3.7205e-02
9.250  19.500  3.2125e-02
9.250  19.750  2.6957e-02
9.250  20.000  2.2102e-02
9.250  20.250  1.8709e-02
9.250  20.500  1.6694e-02
9.250  20.750  1.5450e-02
9.250  21.000  1.4844e-02
9.250  21.250  1.4523e-02
9.250  21.500  1.4340e-02
9.250  21.750  1.4263e-02
9.250  22.000  1.4230e-02
9.250  22.250  1.4216e-02
9.250  22.500  1.4210e-02
9.250  22.750  1.4207e-02
9.250  23.000  1.4205e-02
9.250  23.250  1.4205e-02
9.250  23.500  1.4204e-02
9.250  23.750  1.4204e-02
9.250  24.000  1.4204e-02
9.500  17.000  6.1457e-02
9.500  17.250  6.0875e-02
9.500  17.500  5.9779e-02
9.500  17.750  5.7705e-02
9.500  18.000  5.4185e-02
9.500  18.250  4.8998e-02
9.500  18.500  4.2524e-02
9.500  18.750  3.5800e-02
9.500  19.000  3.2121e-02
9.500  19.250  3.4446e-02
9.500  19.500  3.7124e-02
9.500  19.750  3.2104e-02
9.500  20.000  2.6979e-02
9.500  20.250  2.2108e-02
9.500  20.500  1.8709e-02
9.500  20.750  1.6693e-02
9.500  21.000  1.5448e-02
9.500  21.250  1.4842e-02
9.500  21.500  1.4522e-02
9.500  21.750  1.4339e-02
9.500  22.000  1.4262e-02
9.500  22.250  1.4229e-02
9.500  22.500  1.4215e-02
9.500  22.750  1.4208e-02
9.500  23.000  1.4205e-02
9.500  23.250  1.4203e-02
9.500  23.500  1.4202e-02
9.500  23.750  1.4202e-02
9.500  24.000  1.4201e-02
9.750  17.000  6.1177e-02
9.750  17.250  6.0878e-02
9.750  17.500  6.0353e-02
9.750  17.750  5.9113e-02
9.750  18.000  5.6537e-02
9.750  18.250  5.2281e-02
9.750  18.500  4.6407e-02
9.750  18.750  3.9640e-02
9.750  19.000  3.2667e-02
9.750  19.250  3.1740e-02
9.750  19.500  3.4257e-02
9.750  19.750  3.7037e-02
9.750  20.000  3.2069e-02
9.750  20.250  2.6991e-02
9.750  20.500  2.2113e-02
9.750  20.750  1.8709e-02
9.750  21.000  1.6693e-02
9.750  21.250  1.5448e-02
9.750  21.500  1.4842e-02
9.750  21.750  1.4522e-02
9.750  22.000  1.4340e-02
9.750  22.250  1.4262e-02
9.750  22.500  1.4229e-02
9.750  22.750  1.4215e-02
9.750  23.000  1.4208e-02
9.750  23.250  1.4205e-02
9.750  23.500  1.4203e-02
9.750  23.750  1.4202e-02
9.750  24.000  1.4202e-02
10.000  17.000  6.0873e-02
10.000  17.250  6.0651e-02
10.000  17.500  6.0437e-02
10.000  17.750  5.9800e-02
10.000  18.000  5.8110e-02
10.000  18.250  5.4901e-02
10.000  18.500  4.9978e-02
10.000  18.750  4.3736e-02
10.000  19.000  3.6595e-02
10.000  19.250  3.1093e-02
10.000  19.500  3.1491e-02
10.000  19.750  3.4110e-02
10.000  20.000  3.6982e-02
10.000  20.250  3.2028e-02
10.000  20.500  2.6995e-02
10.000  20.750  2.2117e-02
10.000  21.000  1.8709e-02
10.000  21.250  1.6693e-02
10.000  21.500  1.5448e-02
10.000  21.750  1.4842e-02
10.000  22.000  1.4522e-02
10.000  22.250  1.4340e-02
10.000  22.500  1.4262e-02
10.000  22.750  1.4230e-02
10.000  23.000  1.4215e-02
10.000  23.250  1.4208e-02
10.000  23.500  1.4205e-02
10.000  23.750  1.4203e-02
10.000  24.000  1.4202e-02
10.250  17.000  6.0784e-02
10.250  17.250  6.0391e-02
10.250  17.500  6.0239e-02
10.250  17.750  5.9927e-02
10.250  18.000  5.8911e-02
10.250  18.250  5.6721e-02
10.250  18.500  5.2990e-02
10.250  18.750  4.7675e-02
10.250  19.000  4.1136e-02
10.250  19.250  3.3640e-02
10.250  19.500  3.0136e-02
10.250  19.750  3.1427e-02
10.250  20.000  3.3993e-02
10.250  20.250  3.6955e-02
10.250  20.500  3.1985e-02
10.250  20.750  2.6991e-02
10.250  21.000  2.2119e-02
10.250  21.250  1.8709e-02
10.250  21.500  1.6693e-02
10.250  21.750  1.5448e-02
10.250  22.000  1.4843e-02
10.250  22.250  1.4522e-02
10.250  22.500  1.4340e-02
10.250  22.750  1.4262e-02
10.250  23.000  1.4229e-02
10.250  23.250  1.4215e-02
10.250  23.500  1.4208e-02
10.250  23.750  1.4205e-02
10.250  24.000  1.4203e-02
10.500  17.000  6.0918e-02
10.500  17.250  6.0345e-02
10.500  17.500  6.0004e-02
10.500  17.750  5.9754e-02
10.500  18.000  5.9110e-02
10.500  18.250  5.7658e-02
10.500  18.500  5.5146e-02
10.500  18.750  5.1196e-02
10.500  19.000  4.5795e-02
10.500  19.250  3.8999e-02
10.500  19.500  3.1568e-02
10.500  19.750  3.0325e-02
10.500  20.000  3.1741e-02
10.500  20.250  3.4164e-02
10.500  20.500  3.7104e-02
10.500  20.750  3.1957e-02
10.500  21.000  2.6980e-02
10.500  21.250  2.2120e-02
10.500  21.500  1.8710e-02
10.500  21.750  1.6693e-02
10.500  22.000  1.5448e-02
10.500  22.250  1.4843e-02
10.500  22.500  1.4522e-02
10.500  22.750  1.4340e-02
10.500  23.000  1.4263e-02
10.500  23.250  1.4230e-02
10.500  23.500  1.4215e-02
10.500  23.750  1.4208e-02
10.500  24.000  1.4205e-02
10.750  17.000  6.1222e-02
10.750  17.250  6.0531e-02
10.750  17.500  5.9994e-02
10.750  17.750  5.9560e-02
10.750  18.000  5.9001e-02
10.750  18.250  5.8050e-02
10.750  18.500  5.6454e-02
10.750  18.750  5.3812e-02
10.750  19.000  4.9841e-02
10.750  19.250  4.4305e-02
10.750  19.500  3.7367e-02
10.750  19.750  3.2229e-02
10.750  20.000  3.0758e-02
10.750  20.250  3.2788e-02
10.750  20.500  3.4832e-02
10.750  20.750  3.7479e-02
10.750  21.000  3.1975e-02
10.750  21.250  2.6966e-02
10.750  21.500  2.2120e-02
10.750  21.750  1.8710e-02
10.750  22.000  1.6693e-02
10.750  22.250  1.5448e-02
10.750  22.500  1.4844e-02
10.750  22.750  1.4523e-02
10.750  23.000  1.4340e-02
10.750  23.250  1.4263e-02
10.750  23.500  1.4230e-02
10.750  23.750  1.4215e-02
10.750  24.000  1.4208e-02
11.000  17.000  6.1639e-02
11.000  17.250  6.0886e-02
11.000  17.500  6.0217e-02
11.000  17.750  5.9578e-02
11.000  18.000  5.8897e-02
11.000  18.250  5.8087e-02
11.000  18.500  5.7064e-02
11.000  18.750  5.5462e-02
11.000  19.000  5.2799e-02
11.000  19.250  4.8736e-02
11.000  19.500  4.3103e-02
11.000  19.750  3.5833e-02
11.000  20.000  3.2178e-02
11.000  20.250  3.2125e-02
11.000  20.500  3.3786e-02
11.000  20.750  3.6017e-02
11.000  21.000  3.8160e-02
11.000  21.250  3.2098e-02
11.000  21.500  2.6953e-02
11.000  21.750  2.2117e-02
11.000  22.000  1.8710e-02
11.000  22.250  1.6693e-02
11.000  22.500  1.5448e-02
11.000  22.750  1.4844e-02
11.000  23.000  1.4523e-02
11.000  23.250  1.4340e-02
11.000  23.500  1.4263e-02
11.000  23.750  1.4230e-02
11.000  24.000  1.4216e-02
11.250  17.000  6.2141e-02
11.250  17.250  6.1332e-02
11.250  17.500  6.0587e-02
11.250  17.750  5.9820e-02
11.250  18.000  5.8969e-02
11.250  18.250  5.8083e-02
11.250  18.500  5.7271e-02
11.250  18.750  5.6293e-02
11.250  19.000  5.4669e-02
11.250  19.250  5.1920e-02
11.250  19.500  4.7805e-02
11.250  19.750  4.2100e-02
11.250  20.000  3.4699e-02
11.250  20.250  3.0003e-02
11.250  20.500  3.3583e-02
11.250  20.750  3.5829e-02
11.250  21.000  3.8065e-02
11.250  21.250  3.9215e-02
11.250  21.500  3.2358e-02
11.250  21.750  2.6951e-02
11.250  22.000  2.2114e-02
11.250  22.250  1.8710e-02
11.250  22.500  1.6694e-02
11.250  22.750  1.5448e-02
11.250  23.000  1.4844e-02
11.250  23.250  1.4524e-02
11.250  23.500  1.4341e-02
11.250  23.750  1.4263e-02
11.250  24.000  1.4230e-02
11.500  17.000  6.2743e-02
11.500  17.250  6.1843e-02
11.500  17.500  6.1032e-02
11.500  17.750  6.0184e-02
11.500  18.000  5.9214e-02
11.500  18.250  5.8221e-02
11.500  18.500  5.7333e-02
11.500  18.750  5.6551e-02
11.500  19.000  5.5597e-02
11.500  19.250  5.3930e-02
11.500  19.500  5.1242e-02
11.500  19.750  4.7196e-02
11.500  20.000  4.1507e-02
11.500  20.250  3.3958e-02
11.500  20.500  3.1638e-02
11.500  20.750  3.5859e-02
11.500  21.000  3.8697e-02
11.500  21.250  4.1402e-02
11.500  21.500  4.0515e-02
11.500  21.750  3.2776e-02
11.500  22.000  2.6975e-02
11.500  22.250  2.2109e-02
11.500  22.500  1.8710e-02
11.500  22.750  1.6695e-02
11.500  23.000  1.5447e-02
11.500  23.250  1.4844e-02
11.500  23.500  1.4524e-02
11.500  23.750  1.4341e-02
11.500  24.000  1.4263e-02
11.750  17.000  6.3494e-02
11.750  17.250  6.2406e-02
11.750  17.500  6.1490e-02
11.750  17.750  6.0537e-02
11.750  18.000  5.9481e-02
11.750  18.250  5.8448e-02
11.750  18.500  5.7473e-02
11.750  18.750  5.6616e-02
11.750  19.000  5.5865e-02
11.750  19.250  5.4954e-02
11.750  19.500  5.3331e-02
11.750  19.750  5.0775e-02
11.750  20.000  4.6914e-02
11.750  20.250  4.1324e-02
11.750  20.500  3.7795e-02
11.750  20.750  3.7164e-02
11.750  21.000  3.9175e-02
11.750  21.250  4.3276e-02
11.750  21.500  4.6327e-02
11.750  21.750  4.1891e-02
11.750  22.000  3.3344e-02
11.750  22.250  2.7033e-02
11.750  22.500  2.2103e-02
11.750  22.750  1.8711e-02
11.750  23.000  1.6696e-02
11.750  23.250  1.5447e-02
11.750  23.500  1.4844e-02
11.750  23.750  1.4524e-02
11.750  24.000  1.4342e-02
12.000  17.000  6.4527e-02
12.000  17.250  6.3033e-02
12.000  17.500  6.1872e-02
12.000  17.750  6.0740e-02
12.000  18.000  5.9652e-02
12.000  18.250  5.8648e-02
12.000  18.500  5.7688e-02
12.000  18.750  5.6738e-02
12.000  19.000  5.5900e-02
12.000  19.250  5.5228e-02
12.000  19.500  5.4426e-02
12.000  19.750  5.2962e-02
12.000  20.000  5.0615e-02
12.000  20.250  4.7063e-02
12.000  20.500  4.1687e-02
12.000  20.750  3.9259e-02
12.000  21.000  4.0383e-02
12.000  21.250  4.4153e-02
12.000  21.500  4.9598e-02
12.000  21.750  5.2470e-02
12.000  22.000  4.3325e-02
12.000  22.250  3.3776e-02
12.000  22.500  2.7127e-02
12.000  22.750  2.2097e-02
12.000  23.000  1.8710e-02
12.000  23.250  1.6698e-02
12.000  23.500  1.5446e-02
12.000  23.750  1.4844e-02
12.000  24.000  1.4524e-02
12.250  17.000  6.6013e-02
12.250  17.250  6.3736e-02
12.250  17.500  6.2064e-02
12.250  17.750  6.0703e-02
12.250  18.000  5.9641e-02
12.250  18.250  5.8771e-02
12.250  18.500  5.7911e-02
12.250  18.750  5.6992e-02
12.250  19.000  5.6064e-02
12.250  19.250  5.5299e-02
12.250  19.500  5.4767e-02
12.250  19.750  5.4130e-02
12.250  20.000  5.2880e-02
12.250  20.250  5.0873e-02
12.250  20.500  4.7640e-02
12.250  20.750  4.2651e-02
12.250  21.000  4.1570e-02
12.250  21.250  4.4825e-02
12.250  21.500  5.0998e-02
12.250  21.750  5.7615e-02
12.250  22.000  5.7217e-02
12.250  22.250  4.4643e-02
12.250  22.500  3.4389e-02
12.250  22.750  2.7245e-02
12.250  23.000  2.2093e-02
12.250  23.250  1.8710e-02
12.250  23.500  1.6699e-02
12.250  23.750  1.5445e-02
12.250  24.000  1.4843e-02
12.500  17.000  6.7859e-02
12.500  17.250  6.4484e-02
12.500  17.500  6.2011e-02
12.500  17.750  6.0430e-02
12.500  18.000  5.9516e-02
12.500  18.250  5.8804e-02
12.500  18.500  5.8098e-02
12.500  18.750  5.8034e-02
12.500  19.000  5.8670e-02
12.500  19.250  5.9857e-02
12.500  19.500  6.1445e-02
12.500  19.750  6.3285e-02
12.500  20.000  6.5227e-02
12.500  20.250  6.7122e-02
12.500  20.500  6.8820e-02
12.500  20.750  7.0171e-02
12.500  21.000  7.1027e-02
12.500  21.250  7.1238e-02
12.500  21.500  7.0654e-02
12.500  21.750  6.9125e-02
12.500  22.000  6.6503e-02
12.500  22.250  6.0433e-02
12.500  22.500  4.5908e-02
12.500  22.750  3.5176e-02
12.500  23.000  2.7381e-02
12.500  23.250  2.2091e-02
12.500  23.500  1.8709e-02
12.500  23.750  1.6700e-02
12.500  24.000  1.5444e-02
12.750  17.000  6.6481e-02
12.750  17.250  6.4496e-02
12.750  17.500  6.1790e-02
12.750  17.750  6.0283e-02
12.750  18.000  5.9374e-02
12.750  18.250  5.8765e-02
12.750  18.500  5.9420e-02
12.750  18.750  6.1384e-02
12.750  19.000  6.4387e-02
12.750  19.250  6.8158e-02
12.750  19.500  7.2428e-02
12.750  19.750  7.6926e-02
12.750  20.000  8.1384e-02
12.750  20.250  8.5529e-02
12.750  20.500  8.9093e-02
12.750  20.750  9.1805e-02
12.750  21.000  9.3396e-02
12.750  21.250  9.3594e-02
12.750  21.500  9.2131e-02
12.750  21.750  8.8736e-02
12.750  22.000  8.3139e-02
12.750  22.250  7.5070e-02
12.750  22.500  6.3395e-02
12.750  22.750  4.7244e-02
12.750  23.000  3.5794e-02
12.750  23.250  2.7513e-02
12.750  23.500  2.2093e-02
12.750  23.750  1.8708e-02
12.750  24.000  1.6701e-02
13.000  17.000  2.4060e-02
13.000  17.250  3.5245e-02
13.000  17.500  6.1694e-02
13.000  17.750  6.0678e-02
13.000  18.000  5.9436e-02
13.000  18.250  5.8693e-02
13.000  18.500  5.8211e-02
13.000  18.750  5.7739e-02
13.000  19.000  5.7164e-02
13.000  19.250  5.6485e-02
13.000  19.500  5.5716e-02
13.000  19.750  5.4997e-02
13.000  20.000  5.4531e-02
13.000  20.250  5.4446e-02
13.000  20.500  5.4616e-02
13.000  20.750  5.4587e-02
13.000  21.000  5.4859e-02
13.000  21.250  5.5003e-02
13.000  21.500  5.4800e-02
13.000  21.750  5.6896e-02
13.000  22.000  7.0932e-02
13.000  22.250  8.1074e-02
13.000  22.500  8.2252e-02
13.000  22.750  6.6392e-02
13.000  23.000  4.9110e-02
13.000  23.250  3.6100e-02
13.000  23.500  2.7651e-02
13.000  23.750  2.2099e-02
13.000  24.000  1.8707e-02
13.250  17.000  1.9831e-02
13.250  17.250  2.6806e-02
13.250  17.500  4.5160e-02
13.250  17.750  5.8365e-02
13.250  18.000  5.9451e-02
13.250  18.250  5.8606e-02
13.250  18.500  5.8043e-02
13.250  18.750  5.7677e-02
13.250  19.000  5.7296e-02
13.250  19.250  5.6793e-02
13.250  19.500  5.6186e-02
13.250  19.750  5.5507e-02
13.250  20.000  5.4886e-02
13.250  20.250  5.4490e-02
13.250  20.500  5.4538e-02
13.250  20.750  5.5045e-02
13.250  21.000  5.6035e-02
13.250  21.250  5.6980e-02
13.250  21.500  5.8219e-02
13.250  21.750  5.8231e-02
13.250  22.000  6.6455e-02
13.250  22.250  7.8198e-02
13.250  22.500  8.9745e-02
13.250  22.750  8.8286e-02
13.250  23.000  6.9358e-02
13.250  23.250  5.0420e-02
13.250  23.500  3.6588e-02
13.250  23.750  2.7776e-02
13.250  24.000  2.2108e-02
13.500  17.000  1.7218e-02
13.500  17.250  2.2503e-02
13.500  17.500  3.3765e-02
13.500  17.750  4.7224e-02
13.500  18.000  5.7963e-02
13.500  18.250  5.7672e-02
13.500  18.500  5.7308e-02
13.500  18.750  5.7187e-02
13.500  19.000  5.7070e-02
13.500  19.250  5.6855e-02
13.500  19.500  5.6445e-02
13.500  19.750  5.5940e-02
13.500  20.000  5.5395e-02
13.500  20.250  5.4946e-02
13.500  20.500  5.4644e-02
13.500  20.750  5.4722e-02
13.500  21.000  5.5194e-02
13.500  21.250  5.6460e-02
13.500  21.500  5.6981e-02
13.500  21.750  5.8326e-02
13.500  22.000  6.0130e-02
13.500  22.250  7.1247e-02
13.500  22.500  8.5829e-02
13.500  22.750  9.7751e-02
13.500  23.000  9.3970e-02
13.500  23.250  7.1891e-02
13.500  23.500  5.1522e-02
13.500  23.750  3.7283e-02
13.500  24.000  2.7889e-02
13.750  17.000  1.5668e-02
13.750  17.250  1.9767e-02
13.750  17.500  2.7911e-02
13.750  17.750  3.8014e-02
13.750  18.000  4.9471e-02
13.750  18.250  5.3931e-02
13.750  18.500  5.5777e-02
13.750  18.750  5.5860e-02
13.750  19.000  5.6134e-02
13.750  19.250  5.6341e-02
13.750  19.500  5.6308e-02
13.750  19.750  5.6077e-02
13.750  20.000  5.5773e-02
13.750  20.250  5.5466e-02
13.750  20.500  5.5238e-02
13.750  20.750  5.5146e-02
13.750  21.000  5.5294e-02
13.750  21.250  5.5652e-02
13.750  21.500  5.6433e-02
13.750  21.750  5.7041e-02
13.750  22.000  5.8236e-02
13.750  22.250  6.3268e-02
13.750  22.500  7.9481e-02
13.750  22.750  9.4737e-02
13.750  23.000  1.0552e-01
13.750  23.250  9.9945e-02
13.750  23.500  7.4669e-02
13.750  23.750  5.2553e-02
13.750  24.000  3.7670e-02
14.000  17.000  1.4635e-02
14.000  17.250  1.7780e-02
14.000  17.500  2.4419e-02
14.000  17.750  3.1627e-02
14.000  18.000  4.1420e-02
14.000  18.250  4.9880e-02
14.000  18.500  5.3560e-02
14.000  18.750  5.3890e-02
14.000  19.000  5.4356e-02
14.000  19.250  5.5000e-02
14.000  19.500  5.5533e-02
14.000  19.750  5.5765e-02
14.000  20.000  5.5786e-02
14.000  20.250  5.5753e-02
14.000  20.500  5.5786e-02
14.000  20.750  5.5902e-02
14.000  21.000  5.6153e-02
14.000  21.250  5.6620e-02
14.000  21.500  5.7083e-02
14.000  21.750  5.7760e-02
14.000  22.000  5.8593e-02
14.000  22.250  6.1291e-02
14.000  22.500  7.2340e-02
14.000  22.750  9.3304e-02
14.000  23.000  1.0998e-01
14.000  23.250  1.1596e-01
14.000  23.500  1.0676e-01
14.000  23.750  7.7113e-02
14.000  24.000  5.3638e-02
