InwC 4400.00A  relative to Inci 1215.00A scaled to 1215A.
Hden   Phi(H)  Eq_Width (A)
7.000  17.000  8.7860e-03
7.000  17.250  8.7912e-03
7.000  17.500  8.7950e-03
7.000  17.750  8.7990e-03
7.000  18.000  8.8030e-03
7.000  18.250  8.8064e-03
7.000  18.500  8.8086e-03
7.000  18.750  8.8097e-03
7.000  19.000  8.8108e-03
7.000  19.250  8.8115e-03
7.000  19.500  8.8118e-03
7.000  19.750  8.8119e-03
7.000  20.000  8.8120e-03
7.000  20.250  8.8121e-03
7.000  20.500  8.8121e-03
7.000  20.750  8.8122e-03
7.000  21.000  8.8122e-03
7.000  21.250  8.8122e-03
7.000  21.500  8.8122e-03
7.000  21.750  8.8122e-03
7.000  22.000  8.8122e-03
7.000  22.250  8.8123e-03
7.000  22.500  8.8122e-03
7.000  22.750  8.8133e-03
7.000  23.000  8.8133e-03
7.000  23.250  8.8123e-03
7.000  23.500  8.8131e-03
7.000  23.750  8.8131e-03
7.000  24.000  8.8135e-03
7.250  17.000  8.4698e-03
7.250  17.250  8.7860e-03
7.250  17.500  8.7912e-03
7.250  17.750  8.7950e-03
7.250  18.000  8.7990e-03
7.250  18.250  8.8030e-03
7.250  18.500  8.8064e-03
7.250  18.750  8.8086e-03
7.250  19.000  8.8097e-03
7.250  19.250  8.8108e-03
7.250  19.500  8.8115e-03
7.250  19.750  8.8118e-03
7.250  20.000  8.8119e-03
7.250  20.250  8.8120e-03
7.250  20.500  8.8120e-03
7.250  20.750  8.8121e-03
7.250  21.000  8.8121e-03
7.250  21.250  8.8121e-03
7.250  21.500  8.8122e-03
7.250  21.750  8.8123e-03
7.250  22.000  8.8122e-03
7.250  22.250  8.8122e-03
7.250  22.500  8.8122e-03
7.250  22.750  8.8122e-03
7.250  23.000  8.8122e-03
7.250  23.250  8.8122e-03
7.250  23.500  8.8122e-03
7.250  23.750  8.8122e-03
7.250  24.000  8.8122e-03
7.500  17.000  7.9300e-03
7.500  17.250  8.4712e-03
7.500  17.500  8.7861e-03
7.500  17.750  8.7912e-03
7.500  18.000  8.7951e-03
7.500  18.250  8.7990e-03
7.500  18.500  8.8030e-03
7.500  18.750  8.8064e-03
7.500  19.000  8.8086e-03
7.500  19.250  8.8097e-03
7.500  19.500  8.8108e-03
7.500  19.750  8.8115e-03
7.500  20.000  8.8118e-03
7.500  20.250  8.8119e-03
7.500  20.500  8.8120e-03
7.500  20.750  8.8120e-03
7.500  21.000  8.8120e-03
7.500  21.250  8.8120e-03
7.500  21.500  8.8121e-03
7.500  21.750  8.8121e-03
7.500  22.000  8.8121e-03
7.500  22.250  8.8122e-03
7.500  22.500  8.8122e-03
7.500  22.750  8.8122e-03
7.500  23.000  8.8122e-03
7.500  23.250  8.8122e-03
7.500  23.500  8.8133e-03
7.500  23.750  8.8122e-03
7.500  24.000  8.8122e-03
7.750  17.000  5.7326e-03
7.750  17.250  7.9533e-03
7.750  17.500  8.4724e-03
7.750  17.750  8.7861e-03
7.750  18.000  8.7912e-03
7.750  18.250  8.7951e-03
7.750  18.500  8.7991e-03
7.750  18.750  8.8030e-03
7.750  19.000  8.8064e-03
7.750  19.250  8.8086e-03
7.750  19.500  8.8097e-03
7.750  19.750  8.8108e-03
7.750  20.000  8.8115e-03
7.750  20.250  8.8118e-03
7.750  20.500  8.8119e-03
7.750  20.750  8.8120e-03
7.750  21.000  8.8120e-03
7.750  21.250  8.8120e-03
7.750  21.500  8.8120e-03
7.750  21.750  8.8120e-03
7.750  22.000  8.8120e-03
7.750  22.250  8.8121e-03
7.750  22.500  8.8121e-03
7.750  22.750  8.8122e-03
7.750  23.000  8.8121e-03
7.750  23.250  8.8121e-03
7.750  23.500  8.8123e-03
7.750  23.750  8.8123e-03
7.750  24.000  8.8122e-03
8.000  17.000  4.0295e-03
8.000  17.250  5.7128e-03
8.000  17.500  7.9099e-03
8.000  17.750  8.4701e-03
8.000  18.000  8.7861e-03
8.000  18.250  8.7912e-03
8.000  18.500  8.7951e-03
8.000  18.750  8.7991e-03
8.000  19.000  8.8030e-03
8.000  19.250  8.8064e-03
8.000  19.500  8.8086e-03
8.000  19.750  8.8097e-03
8.000  20.000  8.8108e-03
8.000  20.250  8.8115e-03
8.000  20.500  8.8118e-03
8.000  20.750  8.8119e-03
8.000  21.000  8.8120e-03
8.000  21.250  8.8120e-03
8.000  21.500  8.8120e-03
8.000  21.750  8.8120e-03
8.000  22.000  8.8120e-03
8.000  22.250  8.8120e-03
8.000  22.500  8.8120e-03
8.000  22.750  8.8120e-03
8.000  23.000  8.8121e-03
8.000  23.250  8.8121e-03
8.000  23.500  8.8120e-03
8.000  23.750  8.8120e-03
8.000  24.000  8.8122e-03
8.250  17.000  2.8281e-03
8.250  17.250  4.0721e-03
8.250  17.500  5.7459e-03
8.250  17.750  7.9218e-03
8.250  18.000  8.4710e-03
8.250  18.250  8.7861e-03
8.250  18.500  8.7913e-03
8.250  18.750  8.7951e-03
8.250  19.000  8.7991e-03
8.250  19.250  8.8030e-03
8.250  19.500  8.8064e-03
8.250  19.750  8.8086e-03
8.250  20.000  8.8097e-03
8.250  20.250  8.8108e-03
8.250  20.500  8.8115e-03
8.250  20.750  8.8118e-03
8.250  21.000  8.8119e-03
8.250  21.250  8.8120e-03
8.250  21.500  8.8120e-03
8.250  21.750  8.8120e-03
8.250  22.000  8.8120e-03
8.250  22.250  8.8120e-03
8.250  22.500  8.8120e-03
8.250  22.750  8.8124e-03
8.250  23.000  8.8120e-03
8.250  23.250  8.8122e-03
8.250  23.500  8.8125e-03
8.250  23.750  8.8120e-03
8.250  24.000  8.8122e-03
8.500  17.000  1.9873e-03
8.500  17.250  2.8687e-03
8.500  17.500  4.1231e-03
8.500  17.750  5.7857e-03
8.500  18.000  7.9374e-03
8.500  18.250  8.4718e-03
8.500  18.500  8.7861e-03
8.500  18.750  8.7913e-03
8.500  19.000  8.7951e-03
8.500  19.250  8.7992e-03
8.500  19.500  8.8030e-03
8.500  19.750  8.8064e-03
8.500  20.000  8.8086e-03
8.500  20.250  8.8097e-03
8.500  20.500  8.8108e-03
8.500  20.750  8.8115e-03
8.500  21.000  8.8118e-03
8.500  21.250  8.8119e-03
8.500  21.500  8.8120e-03
8.500  21.750  8.8120e-03
8.500  22.000  8.8120e-03
8.500  22.250  8.8120e-03
8.500  22.500  8.8120e-03
8.500  22.750  8.8120e-03
8.500  23.000  8.8120e-03
8.500  23.250  8.8120e-03
8.500  23.500  8.8120e-03
8.500  23.750  8.8120e-03
8.500  24.000  8.8120e-03
8.750  17.000  1.4012e-03
8.750  17.250  2.0221e-03
8.750  17.500  2.9223e-03
8.750  17.750  4.2005e-03
8.750  18.000  5.8625e-03
8.750  18.250  7.9784e-03
8.750  18.500  8.4721e-03
8.750  18.750  8.7861e-03
8.750  19.000  8.7913e-03
8.750  19.250  8.7951e-03
8.750  19.500  8.7992e-03
8.750  19.750  8.8031e-03
8.750  20.000  8.8064e-03
8.750  20.250  8.8086e-03
8.750  20.500  8.8097e-03
8.750  20.750  8.8108e-03
8.750  21.000  8.8115e-03
8.750  21.250  8.8118e-03
8.750  21.500  8.8119e-03
8.750  21.750  8.8120e-03
8.750  22.000  8.8120e-03
8.750  22.250  8.8120e-03
8.750  22.500  8.8120e-03
8.750  22.750  8.8120e-03
8.750  23.000  8.8120e-03
8.750  23.250  8.8120e-03
8.750  23.500  8.8122e-03
8.750  23.750  8.8120e-03
8.750  24.000  8.8120e-03
9.000  17.000  9.9185e-04
9.000  17.250  1.4300e-03
9.000  17.500  2.0739e-03
9.000  17.750  3.0142e-03
9.000  18.000  4.3270e-03
9.000  18.250  6.0083e-03
9.000  18.500  8.0569e-03
9.000  18.750  8.4718e-03
9.000  19.000  8.7861e-03
9.000  19.250  8.7913e-03
9.000  19.500  8.7952e-03
9.000  19.750  8.7993e-03
9.000  20.000  8.8031e-03
9.000  20.250  8.8064e-03
9.000  20.500  8.8086e-03
9.000  20.750  8.8097e-03
9.000  21.000  8.8108e-03
9.000  21.250  8.8115e-03
9.000  21.500  8.8118e-03
9.000  21.750  8.8119e-03
9.000  22.000  8.8119e-03
9.000  22.250  8.8120e-03
9.000  22.500  8.8120e-03
9.000  22.750  8.8120e-03
9.000  23.000  8.8120e-03
9.000  23.250  8.8120e-03
9.000  23.500  8.8120e-03
9.000  23.750  8.8120e-03
9.000  24.000  8.8120e-03
9.250  17.000  7.0494e-04
9.250  17.250  1.0137e-03
9.250  17.500  1.4757e-03
9.250  17.750  2.1682e-03
9.250  18.000  3.1803e-03
9.250  18.250  4.5658e-03
9.250  18.500  6.2848e-03
9.250  18.750  8.2464e-03
9.250  19.000  8.4705e-03
9.250  19.250  8.7859e-03
9.250  19.500  8.7913e-03
9.250  19.750  8.7952e-03
9.250  20.000  8.7993e-03
9.250  20.250  8.8031e-03
9.250  20.500  8.8064e-03
9.250  20.750  8.8086e-03
9.250  21.000  8.8097e-03
9.250  21.250  8.8108e-03
9.250  21.500  8.8107e-03
9.250  21.750  8.8109e-03
9.250  22.000  8.8108e-03
9.250  22.250  8.8110e-03
9.250  22.500  8.8116e-03
9.250  22.750  8.8117e-03
9.250  23.000  8.8119e-03
9.250  23.250  8.8119e-03
9.250  23.500  8.8119e-03
9.250  23.750  8.8120e-03
9.250  24.000  8.8119e-03
9.500  17.000  5.0346e-04
9.500  17.250  7.2280e-04
9.500  17.500  1.0540e-03
9.500  17.750  1.5650e-03
9.500  18.000  2.3428e-03
9.500  18.250  3.4755e-03
9.500  18.500  4.9784e-03
9.500  18.750  6.7932e-03
9.500  19.000  8.2531e-03
9.500  19.250  8.4676e-03
9.500  19.500  8.7857e-03
9.500  19.750  8.7912e-03
9.500  20.000  8.7953e-03
9.500  20.250  8.7993e-03
9.500  20.500  8.8032e-03
9.500  20.750  8.8058e-03
9.500  21.000  8.8078e-03
9.500  21.250  8.8088e-03
9.500  21.500  8.8098e-03
9.500  21.750  8.8100e-03
9.500  22.000  8.8103e-03
9.500  22.250  8.8105e-03
9.500  22.500  8.8105e-03
9.500  22.750  8.8105e-03
9.500  23.000  8.8105e-03
9.500  23.250  8.8105e-03
9.500  23.500  8.8105e-03
9.500  23.750  8.8105e-03
9.500  24.000  8.8105e-03
9.750  17.000  3.6140e-04
9.750  17.250  5.1613e-04
9.750  17.500  7.5350e-04
9.750  17.750  1.1306e-03
9.750  18.000  1.7338e-03
9.750  18.250  2.6449e-03
9.750  18.500  3.9090e-03
9.750  18.750  5.5024e-03
9.750  19.000  7.4477e-03
9.750  19.250  8.2484e-03
9.750  19.500  8.4623e-03
9.750  19.750  8.7849e-03
9.750  20.000  8.7911e-03
9.750  20.250  8.7952e-03
9.750  20.500  8.7993e-03
9.750  20.750  8.8031e-03
9.750  21.000  8.8062e-03
9.750  21.250  8.8078e-03
9.750  21.500  8.8089e-03
9.750  21.750  8.8099e-03
9.750  22.000  8.8103e-03
9.750  22.250  8.8103e-03
9.750  22.500  8.8105e-03
9.750  22.750  8.8105e-03
9.750  23.000  8.8105e-03
9.750  23.250  8.8105e-03
9.750  23.500  8.8105e-03
9.750  23.750  8.8105e-03
9.750  24.000  8.8105e-03
10.000  17.000  2.6066e-04
10.000  17.250  3.7070e-04
10.000  17.500  5.4099e-04
10.000  17.750  8.1942e-04
10.000  18.000  1.2861e-03
10.000  18.250  2.0035e-03
10.000  18.500  3.0289e-03
10.000  18.750  4.3792e-03
10.000  19.000  6.0987e-03
10.000  19.250  7.8362e-03
10.000  19.500  8.2427e-03
10.000  19.750  8.4555e-03
10.000  20.000  8.7841e-03
10.000  20.250  8.7909e-03
10.000  20.500  8.7952e-03
10.000  20.750  8.7993e-03
10.000  21.000  8.8032e-03
10.000  21.250  8.8063e-03
10.000  21.500  8.8080e-03
10.000  21.750  8.8089e-03
10.000  22.000  8.8099e-03
10.000  22.250  8.8105e-03
10.000  22.500  8.8103e-03
10.000  22.750  8.8105e-03
10.000  23.000  8.8105e-03
10.000  23.250  8.8105e-03
10.000  23.500  8.8105e-03
10.000  23.750  8.8105e-03
10.000  24.000  8.8105e-03
10.250  17.000  1.8955e-04
10.250  17.250  2.6790e-04
10.250  17.500  3.9111e-04
10.250  17.750  5.9852e-04
10.250  18.000  9.5531e-04
10.250  18.250  1.5085e-03
10.250  18.500  2.3080e-03
10.250  18.750  3.4091e-03
10.250  19.000  4.8486e-03
10.250  19.250  6.7133e-03
10.250  19.500  8.1182e-03
10.250  19.750  8.2347e-03
10.250  20.000  8.4451e-03
10.250  20.250  8.7816e-03
10.250  20.500  8.7904e-03
10.250  20.750  8.7951e-03
10.250  21.000  8.7994e-03
10.250  21.250  8.8032e-03
10.250  21.500  8.8064e-03
10.250  21.750  8.8084e-03
10.250  22.000  8.8091e-03
10.250  22.250  8.8100e-03
10.250  22.500  8.8105e-03
10.250  22.750  8.8105e-03
10.250  23.000  8.8104e-03
10.250  23.250  8.8105e-03
10.250  23.500  8.8105e-03
10.250  23.750  8.8105e-03
10.250  24.000  8.8105e-03
10.500  17.000  1.3951e-04
10.500  17.250  1.9564e-04
10.500  17.500  2.8535e-04
10.500  17.750  4.4066e-04
10.500  18.000  7.1119e-04
10.500  18.250  1.1359e-03
10.500  18.500  1.7342e-03
10.500  18.750  2.5827e-03
10.500  19.000  3.7486e-03
10.500  19.250  5.2904e-03
10.500  19.500  7.2036e-03
10.500  19.750  8.1142e-03
10.500  20.000  8.2266e-03
10.500  20.250  8.4384e-03
10.500  20.500  8.7793e-03
10.500  20.750  8.7891e-03
10.500  21.000  8.7950e-03
10.500  21.250  8.7993e-03
10.500  21.500  8.8032e-03
10.500  21.750  8.8064e-03
10.500  22.000  8.8086e-03
10.500  22.250  8.8095e-03
10.500  22.500  8.8100e-03
10.500  22.750  8.8106e-03
10.500  23.000  8.8107e-03
10.500  23.250  8.8105e-03
10.500  23.500  8.8105e-03
10.500  23.750  8.8105e-03
10.500  24.000  8.8105e-03
10.750  17.000  1.0420e-04
10.750  17.250  1.4444e-04
10.750  17.500  2.1037e-04
10.750  17.750  3.2708e-04
10.750  18.000  5.2930e-04
10.750  18.250  8.4263e-04
10.750  18.500  1.2900e-03
10.750  18.750  1.9333e-03
10.750  19.000  2.8202e-03
10.750  19.250  4.0400e-03
10.750  19.500  5.6554e-03
10.750  19.750  7.6440e-03
10.750  20.000  8.1073e-03
10.750  20.250  8.2248e-03
10.750  20.500  8.4347e-03
10.750  20.750  8.7764e-03
10.750  21.000  8.7874e-03
10.750  21.250  8.7945e-03
10.750  21.500  8.7993e-03
10.750  21.750  8.8032e-03
10.750  22.000  8.8063e-03
10.750  22.250  8.8086e-03
10.750  22.500  8.8096e-03
10.750  22.750  8.8103e-03
10.750  23.000  8.8107e-03
10.750  23.250  8.8109e-03
10.750  23.500  8.8108e-03
10.750  23.750  8.8106e-03
10.750  24.000  8.8105e-03
11.000  17.000  7.9177e-05
11.000  17.250  1.0807e-04
11.000  17.500  1.5663e-04
11.000  17.750  2.4354e-04
11.000  18.000  3.9210e-04
11.000  18.250  6.2033e-04
11.000  18.500  9.5366e-04
11.000  18.750  1.4277e-03
11.000  19.000  2.0896e-03
11.000  19.250  3.0153e-03
11.000  19.500  4.2903e-03
11.000  19.750  6.0154e-03
11.000  20.000  7.9497e-03
11.000  20.250  8.1032e-03
11.000  20.500  8.2204e-03
11.000  20.750  8.4386e-03
11.000  21.000  8.7732e-03
11.000  21.250  8.7853e-03
11.000  21.500  8.7938e-03
11.000  21.750  8.7990e-03
11.000  22.000  8.8030e-03
11.000  22.250  8.8063e-03
11.000  22.500  8.8086e-03
11.000  22.750  8.8096e-03
11.000  23.000  8.8106e-03
11.000  23.250  8.8107e-03
11.000  23.500  8.8109e-03
11.000  23.750  8.8109e-03
11.000  24.000  8.8108e-03
11.250  17.000  6.1564e-05
11.250  17.250  8.2058e-05
11.250  17.500  1.1753e-04
11.250  17.750  1.8140e-04
11.250  18.000  2.8930e-04
11.250  18.250  4.5358e-04
11.250  18.500  6.9169e-04
11.250  18.750  1.0420e-03
11.250  19.000  1.5274e-03
11.250  19.250  2.2193e-03
11.250  19.500  3.1865e-03
11.250  19.750  4.5280e-03
11.250  20.000  6.3458e-03
11.250  20.250  7.9988e-03
11.250  20.500  8.1011e-03
11.250  20.750  8.2243e-03
11.250  21.000  8.4546e-03
11.250  21.250  8.7715e-03
11.250  21.500  8.7836e-03
11.250  21.750  8.7927e-03
11.250  22.000  8.7986e-03
11.250  22.250  8.8027e-03
11.250  22.500  8.8061e-03
11.250  22.750  8.8085e-03
11.250  23.000  8.8096e-03
11.250  23.250  8.8107e-03
11.250  23.500  8.8109e-03
11.250  23.750  8.8109e-03
11.250  24.000  8.8110e-03
11.500  17.000  4.9383e-05
11.500  17.250  6.3868e-05
11.500  17.500  8.9383e-05
11.500  17.750  1.3539e-04
11.500  18.000  2.1226e-04
11.500  18.250  3.2872e-04
11.500  18.500  5.0033e-04
11.500  18.750  7.5267e-04
11.500  19.000  1.1100e-03
11.500  19.250  1.6129e-03
11.500  19.500  2.3193e-03
11.500  19.750  3.3282e-03
11.500  20.000  4.7403e-03
11.500  20.250  6.6724e-03
11.500  20.500  8.0164e-03
11.500  20.750  8.1021e-03
11.500  21.000  8.2378e-03
11.500  21.250  8.4978e-03
11.500  21.500  8.7700e-03
11.500  21.750  8.7819e-03
11.500  22.000  8.7911e-03
11.500  22.250  8.7977e-03
11.500  22.500  8.8022e-03
11.500  22.750  8.8058e-03
11.500  23.000  8.8084e-03
11.500  23.250  8.8095e-03
11.500  23.500  8.8107e-03
11.500  23.750  8.8113e-03
11.500  24.000  8.8109e-03
11.750  17.000  4.0988e-05
11.750  17.250  5.1193e-05
11.750  17.500  6.9300e-05
11.750  17.750  1.0181e-04
11.750  18.000  1.5514e-04
11.750  18.250  2.3687e-04
11.750  18.500  3.5926e-04
11.750  18.750  5.3728e-04
11.750  19.000  7.9761e-04
11.750  19.250  1.1630e-03
11.750  19.500  1.6818e-03
11.750  19.750  2.4118e-03
11.750  20.000  3.4614e-03
11.750  20.250  4.9413e-03
11.750  20.500  6.9766e-03
11.750  20.750  8.0081e-03
11.750  21.000  8.1088e-03
11.750  21.250  8.2741e-03
11.750  21.500  8.5823e-03
11.750  21.750  8.7677e-03
11.750  22.000  8.7797e-03
11.750  22.250  8.7893e-03
11.750  22.500  8.7965e-03
11.750  22.750  8.8014e-03
11.750  23.000  8.8053e-03
11.750  23.250  8.8082e-03
11.750  23.500  8.8095e-03
11.750  23.750  8.8107e-03
11.750  24.000  8.8114e-03
12.000  17.000  3.5226e-05
12.000  17.250  4.2305e-05
12.000  17.500  5.4897e-05
12.000  17.750  7.7202e-05
12.000  18.000  1.1350e-04
12.000  18.250  1.7045e-04
12.000  18.500  2.5663e-04
12.000  18.750  3.8469e-04
12.000  19.000  5.7218e-04
12.000  19.250  8.3588e-04
12.000  19.500  1.2105e-03
12.000  19.750  1.7405e-03
12.000  20.000  2.4965e-03
12.000  20.250  3.5796e-03
12.000  20.500  5.1164e-03
12.000  20.750  7.2156e-03
12.000  21.000  8.0004e-03
12.000  21.250  8.1298e-03
12.000  21.500  8.3398e-03
12.000  21.750  8.6921e-03
12.000  22.000  8.7645e-03
12.000  22.250  8.7768e-03
12.000  22.500  8.7871e-03
12.000  22.750  8.7950e-03
12.000  23.000  8.8002e-03
12.000  23.250  8.8046e-03
12.000  23.500  8.8080e-03
12.000  23.750  8.8094e-03
12.000  24.000  8.8106e-03
12.250  17.000  3.1193e-05
12.250  17.250  3.6049e-05
12.250  17.500  4.4609e-05
12.250  17.750  5.9424e-05
12.250  18.000  8.3868e-05
12.250  18.250  1.2337e-04
12.250  18.500  1.8469e-04
12.250  18.750  2.7654e-04
12.250  19.000  4.1045e-04
12.250  19.250  5.9942e-04
12.250  19.500  8.6733e-04
12.250  19.750  1.2489e-03
12.250  20.000  1.7891e-03
12.250  20.250  2.5672e-03
12.250  20.500  3.6886e-03
12.250  20.750  5.2956e-03
12.250  21.000  7.3964e-03
12.250  21.250  7.9994e-03
12.250  21.500  8.1683e-03
12.250  21.750  8.4216e-03
12.250  22.000  8.7413e-03
12.250  22.250  8.7598e-03
12.250  22.500  8.7731e-03
12.250  22.750  8.7843e-03
12.250  23.000  8.7927e-03
12.250  23.250  8.7984e-03
12.250  23.500  8.8036e-03
12.250  23.750  8.8077e-03
12.250  24.000  8.8092e-03
12.500  17.000  2.8148e-05
12.500  17.250  3.1523e-05
12.500  17.500  3.7119e-05
12.500  17.750  4.6831e-05
12.500  18.000  6.3457e-05
12.500  18.250  9.0864e-05
12.500  18.500  1.3432e-04
12.500  18.750  1.9951e-04
12.500  19.000  2.9539e-04
12.500  19.250  4.3136e-04
12.500  19.500  6.2280e-04
12.500  19.750  8.9539e-04
12.500  20.000  1.2826e-03
12.500  20.250  1.8349e-03
12.500  20.500  2.6332e-03
12.500  20.750  3.7923e-03
12.500  21.000  5.4649e-03
12.500  21.250  7.6850e-03
12.500  21.500  8.0038e-03
12.500  21.750  8.2098e-03
12.500  22.000  8.5152e-03
12.500  22.250  8.7350e-03
12.500  22.500  8.7532e-03
12.500  22.750  8.7678e-03
12.500  23.000  8.7802e-03
12.500  23.250  8.7895e-03
12.500  23.500  8.7960e-03
12.500  23.750  8.8022e-03
12.500  24.000  8.8072e-03
12.750  17.000  2.5185e-05
12.750  17.250  2.7984e-05
12.750  17.500  3.1770e-05
12.750  17.750  3.8354e-05
12.750  18.000  4.9712e-05
12.750  18.250  6.8724e-05
12.750  18.500  9.8930e-05
12.750  18.750  1.4535e-04
12.750  19.000  2.1333e-04
12.750  19.250  3.1095e-04
12.750  19.500  4.4749e-04
12.750  19.750  6.4156e-04
12.750  20.000  9.1794e-04
12.750  20.250  1.3144e-03
12.750  20.500  1.8701e-03
12.750  20.750  2.6980e-03
12.750  21.000  3.9046e-03
12.750  21.250  5.6720e-03
12.750  21.500  7.6834e-03
12.750  21.750  8.0005e-03
12.750  22.000  8.2602e-03
12.750  22.250  8.5891e-03
12.750  22.500  8.7235e-03
12.750  22.750  8.7436e-03
12.750  23.000  8.7604e-03
12.750  23.250  8.7742e-03
12.750  23.500  8.7847e-03
12.750  23.750  8.7922e-03
12.750  24.000  8.8000e-03
13.000  17.000  6.2551e-06
13.000  17.250  1.2263e-05
13.000  17.500  2.7984e-05
13.000  17.750  3.2840e-05
13.000  18.000  4.0576e-05
13.000  18.250  5.3580e-05
13.000  18.500  7.4568e-05
13.000  18.750  1.0700e-04
13.000  19.000  1.5498e-04
13.000  19.250  2.2461e-04
13.000  19.500  3.2280e-04
13.000  19.750  4.6123e-04
13.000  20.000  6.5597e-04
13.000  20.250  9.3613e-04
13.000  20.500  1.3385e-03
13.000  20.750  1.9225e-03
13.000  21.000  2.7747e-03
13.000  21.250  4.0495e-03
13.000  21.500  5.8026e-03
13.000  21.750  7.6683e-03
13.000  22.000  8.0031e-03
13.000  22.250  8.2950e-03
13.000  22.500  8.6144e-03
13.000  22.750  8.7056e-03
13.000  23.000  8.7296e-03
13.000  23.250  8.7493e-03
13.000  23.500  8.7654e-03
13.000  23.750  8.7774e-03
13.000  24.000  8.7863e-03
13.250  17.000  3.7037e-06
13.250  17.250  7.1605e-06
13.250  17.500  1.6790e-05
13.250  17.750  2.7572e-05
13.250  18.000  3.4239e-05
13.250  18.250  4.3128e-05
13.250  18.500  5.7613e-05
13.250  18.750  8.0082e-05
13.250  19.000  1.1383e-04
13.250  19.250  1.6272e-04
13.250  19.500  2.3276e-04
13.250  19.750  3.3160e-04
13.250  20.000  4.7160e-04
13.250  20.250  6.7111e-04
13.250  20.500  9.5597e-04
13.250  20.750  1.3673e-03
13.250  21.000  1.9768e-03
13.250  21.250  2.8666e-03
13.250  21.500  4.1316e-03
13.250  21.750  5.9519e-03
13.250  22.000  7.6198e-03
13.250  22.250  7.9418e-03
13.250  22.500  8.2815e-03
13.250  22.750  8.5861e-03
13.250  23.000  8.6777e-03
13.250  23.250  8.7078e-03
13.250  23.500  8.7327e-03
13.250  23.750  8.7521e-03
13.250  24.000  8.7661e-03
13.500  17.000  2.2222e-06
13.500  17.250  4.3621e-06
13.500  17.500  9.5473e-06
13.500  17.750  1.8601e-05
13.500  18.000  2.9630e-05
13.500  18.250  3.5885e-05
13.500  18.500  4.5514e-05
13.500  18.750  6.0988e-05
13.500  19.000  8.4527e-05
13.500  19.250  1.1951e-04
13.500  19.500  1.6897e-04
13.500  19.750  2.3926e-04
13.500  20.000  3.3844e-04
13.500  20.250  4.8123e-04
13.500  20.500  6.8313e-04
13.500  20.750  9.7514e-04
13.500  21.000  1.4009e-03
13.500  21.250  2.0287e-03
13.500  21.500  2.9097e-03
13.500  21.750  4.2482e-03
13.500  22.000  6.0528e-03
13.500  22.250  7.4830e-03
13.500  22.500  7.8398e-03
13.500  22.750  8.2123e-03
13.500  23.000  8.5234e-03
13.500  23.250  8.6341e-03
13.500  23.500  8.6743e-03
13.500  23.750  8.7073e-03
13.500  24.000  8.7314e-03
13.750  17.000  1.3169e-06
13.750  17.250  2.6337e-06
13.750  17.500  5.7613e-06
13.750  17.750  1.1605e-05
13.750  18.000  2.1481e-05
13.750  18.250  2.9300e-05
13.750  18.500  3.7531e-05
13.750  18.750  4.7901e-05
13.750  19.000  6.3786e-05
13.750  19.250  8.7819e-05
13.750  19.500  1.2296e-04
13.750  19.750  1.7300e-04
13.750  20.000  2.4412e-04
13.750  20.250  3.4510e-04
13.750  20.500  4.9029e-04
13.750  20.750  6.9770e-04
13.750  21.000  1.0001e-03
13.750  21.250  1.4416e-03
13.750  21.500  2.0652e-03
13.750  21.750  3.0151e-03
13.750  22.000  4.3928e-03
13.750  22.250  6.1431e-03
13.750  22.500  7.3044e-03
13.750  22.750  7.6928e-03
13.750  23.000  8.0886e-03
13.750  23.250  8.4421e-03
13.750  23.500  8.5684e-03
13.750  23.750  8.6240e-03
13.750  24.000  8.6685e-03
14.000  17.000  1.0000e-07
14.000  17.250  1.5638e-06
14.000  17.500  3.4568e-06
14.000  17.750  6.9136e-06
14.000  18.000  1.4156e-05
14.000  18.250  2.4115e-05
14.000  18.500  3.2016e-05
14.000  18.750  3.9012e-05
14.000  19.000  4.9712e-05
14.000  19.250  6.6091e-05
14.000  19.500  9.0288e-05
14.000  19.750  1.2576e-04
14.000  20.000  1.7638e-04
14.000  20.250  2.4831e-04
14.000  20.500  3.5210e-04
14.000  20.750  5.0058e-04
14.000  21.000  7.1638e-04
14.000  21.250  1.0326e-03
14.000  21.500  1.4760e-03
14.000  21.750  2.1583e-03
14.000  22.000  3.1701e-03
14.000  22.250  4.5808e-03
14.000  22.500  6.1864e-03
14.000  22.750  7.0853e-03
14.000  23.000  7.5356e-03
14.000  23.250  7.9458e-03
14.000  23.500  8.3396e-03
14.000  23.750  8.4709e-03
14.000  24.000  8.5495e-03
