InwT 1324.00A  relative to Inci 1215.00A scaled to 1215A.
Hden   Phi(H)  Eq_Width (A)
7.000  17.000  3.1111e-02
7.000  17.250  2.5307e-02
7.000  17.500  2.1036e-02
7.000  17.750  1.8098e-02
7.000  18.000  1.6329e-02
7.000  18.250  1.5310e-02
7.000  18.500  1.4709e-02
7.000  18.750  1.4433e-02
7.000  19.000  1.4289e-02
7.000  19.250  1.4209e-02
7.000  19.500  1.4175e-02
7.000  19.750  1.4161e-02
7.000  20.000  1.4155e-02
7.000  20.250  1.4152e-02
7.000  20.500  1.4150e-02
7.000  20.750  1.4150e-02
7.000  21.000  1.4149e-02
7.000  21.250  1.4149e-02
7.000  21.500  1.4149e-02
7.000  21.750  1.4149e-02
7.000  22.000  1.4149e-02
7.000  22.250  1.4149e-02
7.000  22.500  1.4149e-02
7.000  22.750  1.4151e-02
7.000  23.000  1.4150e-02
7.000  23.250  1.4149e-02
7.000  23.500  1.4150e-02
7.000  23.750  1.4150e-02
7.000  24.000  1.4151e-02
7.250  17.000  3.2463e-02
7.250  17.250  3.0993e-02
7.250  17.500  2.5240e-02
7.250  17.750  2.1002e-02
7.250  18.000  1.8079e-02
7.250  18.250  1.6319e-02
7.250  18.500  1.5305e-02
7.250  18.750  1.4707e-02
7.250  19.000  1.4432e-02
7.250  19.250  1.4289e-02
7.250  19.500  1.4209e-02
7.250  19.750  1.4175e-02
7.250  20.000  1.4161e-02
7.250  20.250  1.4155e-02
7.250  20.500  1.4152e-02
7.250  20.750  1.4150e-02
7.250  21.000  1.4150e-02
7.250  21.250  1.4149e-02
7.250  21.500  1.4149e-02
7.250  21.750  1.4149e-02
7.250  22.000  1.4149e-02
7.250  22.250  1.4149e-02
7.250  22.500  1.4149e-02
7.250  22.750  1.4149e-02
7.250  23.000  1.4149e-02
7.250  23.250  1.4149e-02
7.250  23.500  1.4149e-02
7.250  23.750  1.4149e-02
7.250  24.000  1.4149e-02
7.500  17.000  3.6889e-02
7.500  17.250  3.2070e-02
7.500  17.500  3.0930e-02
7.500  17.750  2.5202e-02
7.500  18.000  2.0984e-02
7.500  18.250  1.8068e-02
7.500  18.500  1.6313e-02
7.500  18.750  1.5302e-02
7.500  19.000  1.4706e-02
7.500  19.250  1.4432e-02
7.500  19.500  1.4289e-02
7.500  19.750  1.4209e-02
7.500  20.000  1.4175e-02
7.500  20.250  1.4161e-02
7.500  20.500  1.4155e-02
7.500  20.750  1.4152e-02
7.500  21.000  1.4150e-02
7.500  21.250  1.4150e-02
7.500  21.500  1.4149e-02
7.500  21.750  1.4149e-02
7.500  22.000  1.4149e-02
7.500  22.250  1.4149e-02
7.500  22.500  1.4149e-02
7.500  22.750  1.4149e-02
7.500  23.000  1.4149e-02
7.500  23.250  1.4149e-02
7.500  23.500  1.4150e-02
7.500  23.750  1.4149e-02
7.500  24.000  1.4149e-02
7.750  17.000  4.9758e-02
7.750  17.250  3.5804e-02
7.750  17.500  3.1758e-02
7.750  17.750  3.0894e-02
7.750  18.000  2.5182e-02
7.750  18.250  2.0975e-02
7.750  18.500  1.8061e-02
7.750  18.750  1.6309e-02
7.750  19.000  1.5300e-02
7.750  19.250  1.4706e-02
7.750  19.500  1.4431e-02
7.750  19.750  1.4289e-02
7.750  20.000  1.4209e-02
7.750  20.250  1.4175e-02
7.750  20.500  1.4161e-02
7.750  20.750  1.4155e-02
7.750  21.000  1.4152e-02
7.750  21.250  1.4150e-02
7.750  21.500  1.4150e-02
7.750  21.750  1.4149e-02
7.750  22.000  1.4149e-02
7.750  22.250  1.4149e-02
7.750  22.500  1.4149e-02
7.750  22.750  1.4149e-02
7.750  23.000  1.4149e-02
7.750  23.250  1.4149e-02
7.750  23.500  1.4149e-02
7.750  23.750  1.4149e-02
7.750  24.000  1.4149e-02
8.000  17.000  5.9903e-02
8.000  17.250  4.8660e-02
8.000  17.500  3.5119e-02
8.000  17.750  3.1422e-02
8.000  18.000  3.0875e-02
8.000  18.250  2.5172e-02
8.000  18.500  2.0972e-02
8.000  18.750  1.8056e-02
8.000  19.000  1.6306e-02
8.000  19.250  1.5299e-02
8.000  19.500  1.4705e-02
8.000  19.750  1.4431e-02
8.000  20.000  1.4289e-02
8.000  20.250  1.4209e-02
8.000  20.500  1.4175e-02
8.000  20.750  1.4161e-02
8.000  21.000  1.4155e-02
8.000  21.250  1.4152e-02
8.000  21.500  1.4150e-02
8.000  21.750  1.4149e-02
8.000  22.000  1.4149e-02
8.000  22.250  1.4149e-02
8.000  22.500  1.4149e-02
8.000  22.750  1.4149e-02
8.000  23.000  1.4149e-02
8.000  23.250  1.4149e-02
8.000  23.500  1.4149e-02
8.000  23.750  1.4149e-02
8.000  24.000  1.4149e-02
8.250  17.000  6.7174e-02
8.250  17.250  5.8690e-02
8.250  17.500  4.7665e-02
8.250  17.750  3.4517e-02
8.250  18.000  3.1250e-02
8.250  18.250  3.0858e-02
8.250  18.500  2.5169e-02
8.250  18.750  2.0973e-02
8.250  19.000  1.8053e-02
8.250  19.250  1.6304e-02
8.250  19.500  1.5298e-02
8.250  19.750  1.4705e-02
8.250  20.000  1.4431e-02
8.250  20.250  1.4289e-02
8.250  20.500  1.4209e-02
8.250  20.750  1.4175e-02
8.250  21.000  1.4161e-02
8.250  21.250  1.4155e-02
8.250  21.500  1.4152e-02
8.250  21.750  1.4150e-02
8.250  22.000  1.4149e-02
8.250  22.250  1.4149e-02
8.250  22.500  1.4149e-02
8.250  22.750  1.4149e-02
8.250  23.000  1.4149e-02
8.250  23.250  1.4149e-02
8.250  23.500  1.4149e-02
8.250  23.750  1.4149e-02
8.250  24.000  1.4149e-02
8.500  17.000  7.2198e-02
8.500  17.250  6.6151e-02
8.500  17.500  5.7696e-02
8.500  17.750  4.6895e-02
8.500  18.000  3.4075e-02
8.500  18.250  3.1121e-02
8.500  18.500  3.0841e-02
8.500  18.750  2.5169e-02
8.500  19.000  2.0977e-02
8.500  19.250  1.8051e-02
8.500  19.500  1.6303e-02
8.500  19.750  1.5298e-02
8.500  20.000  1.4705e-02
8.500  20.250  1.4431e-02
8.500  20.500  1.4289e-02
8.500  20.750  1.4209e-02
8.500  21.000  1.4175e-02
8.500  21.250  1.4161e-02
8.500  21.500  1.4155e-02
8.500  21.750  1.4152e-02
8.500  22.000  1.4150e-02
8.500  22.250  1.4149e-02
8.500  22.500  1.4149e-02
8.500  22.750  1.4149e-02
8.500  23.000  1.4149e-02
8.500  23.250  1.4149e-02
8.500  23.500  1.4149e-02
8.500  23.750  1.4149e-02
8.500  24.000  1.4149e-02
8.750  17.000  7.5623e-02
8.750  17.250  7.1401e-02
8.750  17.500  6.5266e-02
8.750  17.750  5.6663e-02
8.750  18.000  4.5995e-02
8.750  18.250  3.3599e-02
8.750  18.500  3.1046e-02
8.750  18.750  3.0821e-02
8.750  19.000  2.5170e-02
8.750  19.250  2.0982e-02
8.750  19.500  1.8049e-02
8.750  19.750  1.6301e-02
8.750  20.000  1.5297e-02
8.750  20.250  1.4704e-02
8.750  20.500  1.4431e-02
8.750  20.750  1.4289e-02
8.750  21.000  1.4209e-02
8.750  21.250  1.4175e-02
8.750  21.500  1.4161e-02
8.750  21.750  1.4155e-02
8.750  22.000  1.4152e-02
8.750  22.250  1.4150e-02
8.750  22.500  1.4149e-02
8.750  22.750  1.4149e-02
8.750  23.000  1.4149e-02
8.750  23.250  1.4149e-02
8.750  23.500  1.4149e-02
8.750  23.750  1.4149e-02
8.750  24.000  1.4149e-02
9.000  17.000  7.7879e-02
9.000  17.250  7.5028e-02
9.000  17.500  7.0662e-02
9.000  17.750  6.4245e-02
9.000  18.000  5.5417e-02
9.000  18.250  4.4706e-02
9.000  18.500  3.2973e-02
9.000  18.750  3.0986e-02
9.000  19.000  3.0796e-02
9.000  19.250  2.5170e-02
9.000  19.500  2.0988e-02
9.000  19.750  1.8048e-02
9.000  20.000  1.6300e-02
9.000  20.250  1.5297e-02
9.000  20.500  1.4704e-02
9.000  20.750  1.4431e-02
9.000  21.000  1.4289e-02
9.000  21.250  1.4209e-02
9.000  21.500  1.4175e-02
9.000  21.750  1.4161e-02
9.000  22.000  1.4155e-02
9.000  22.250  1.4152e-02
9.000  22.500  1.4150e-02
9.000  22.750  1.4149e-02
9.000  23.000  1.4149e-02
9.000  23.250  1.4149e-02
9.000  23.500  1.4149e-02
9.000  23.750  1.4149e-02
9.000  24.000  1.4149e-02
9.250  17.000  7.9225e-02
9.250  17.250  7.7425e-02
9.250  17.500  7.4432e-02
9.250  17.750  6.9699e-02
9.250  18.000  6.2707e-02
9.250  18.250  5.3361e-02
9.250  18.500  4.2631e-02
9.250  18.750  3.1690e-02
9.250  19.000  3.0921e-02
9.250  19.250  3.0765e-02
9.250  19.500  2.5167e-02
9.250  19.750  2.0992e-02
9.250  20.000  1.8046e-02
9.250  20.250  1.6299e-02
9.250  20.500  1.5296e-02
9.250  20.750  1.4704e-02
9.250  21.000  1.4431e-02
9.250  21.250  1.4289e-02
9.250  21.500  1.4207e-02
9.250  21.750  1.4173e-02
9.250  22.000  1.4159e-02
9.250  22.250  1.4153e-02
9.250  22.500  1.4151e-02
9.250  22.750  1.4150e-02
9.250  23.000  1.4149e-02
9.250  23.250  1.4149e-02
9.250  23.500  1.4149e-02
9.250  23.750  1.4149e-02
9.250  24.000  1.4149e-02
9.500  17.000  7.9830e-02
9.500  17.250  7.8831e-02
9.500  17.500  7.6937e-02
9.500  17.750  7.3606e-02
9.500  18.000  6.8168e-02
9.500  18.250  6.0225e-02
9.500  18.500  5.0175e-02
9.500  18.750  3.9271e-02
9.500  19.000  3.1329e-02
9.500  19.250  3.0840e-02
9.500  19.500  3.0731e-02
9.500  19.750  2.5160e-02
9.500  20.000  2.0996e-02
9.500  20.250  1.8045e-02
9.500  20.500  1.6298e-02
9.500  20.750  1.5295e-02
9.500  21.000  1.4703e-02
9.500  21.250  1.4430e-02
9.500  21.500  1.4287e-02
9.500  21.750  1.4206e-02
9.500  22.000  1.4173e-02
9.500  22.250  1.4158e-02
9.500  22.500  1.4152e-02
9.500  22.750  1.4149e-02
9.500  23.000  1.4148e-02
9.500  23.250  1.4147e-02
9.500  23.500  1.4147e-02
9.500  23.750  1.4146e-02
9.500  24.000  1.4146e-02
9.750  17.000  7.9863e-02
9.750  17.250  7.9408e-02
9.750  17.500  7.8365e-02
9.750  17.750  7.6191e-02
9.750  18.000  7.2111e-02
9.750  18.250  6.5681e-02
9.750  18.500  5.6883e-02
9.750  18.750  4.6524e-02
9.750  19.000  3.5351e-02
9.750  19.250  3.0958e-02
9.750  19.500  3.0716e-02
9.750  19.750  3.0692e-02
9.750  20.000  2.5148e-02
9.750  20.250  2.0997e-02
9.750  20.500  1.8044e-02
9.750  20.750  1.6297e-02
9.750  21.000  1.5296e-02
9.750  21.250  1.4703e-02
9.750  21.500  1.4430e-02
9.750  21.750  1.4287e-02
9.750  22.000  1.4207e-02
9.750  22.250  1.4173e-02
9.750  22.500  1.4158e-02
9.750  22.750  1.4152e-02
9.750  23.000  1.4149e-02
9.750  23.250  1.4148e-02
9.750  23.500  1.4147e-02
9.750  23.750  1.4147e-02
9.750  24.000  1.4146e-02
10.000  17.000  7.9473e-02
10.000  17.250  7.9341e-02
10.000  17.500  7.8885e-02
10.000  17.750  7.7641e-02
10.000  18.000  7.4816e-02
10.000  18.250  6.9922e-02
10.000  18.500  6.2650e-02
10.000  18.750  5.3436e-02
10.000  19.000  4.2727e-02
10.000  19.250  3.3443e-02
10.000  19.500  3.0707e-02
10.000  19.750  3.0616e-02
10.000  20.000  3.0667e-02
10.000  20.250  2.5134e-02
10.000  20.500  2.0998e-02
10.000  20.750  1.8043e-02
10.000  21.000  1.6297e-02
10.000  21.250  1.5296e-02
10.000  21.500  1.4703e-02
10.000  21.750  1.4430e-02
10.000  22.000  1.4287e-02
10.000  22.250  1.4207e-02
10.000  22.500  1.4173e-02
10.000  22.750  1.4158e-02
10.000  23.000  1.4152e-02
10.000  23.250  1.4149e-02
10.000  23.500  1.4148e-02
10.000  23.750  1.4147e-02
10.000  24.000  1.4147e-02
10.250  17.000  7.9048e-02
10.250  17.250  7.8863e-02
10.250  17.500  7.8747e-02
10.250  17.750  7.8140e-02
10.250  18.000  7.6384e-02
10.250  18.250  7.2917e-02
10.250  18.500  6.7310e-02
10.250  18.750  5.9560e-02
10.250  19.000  5.0041e-02
10.250  19.250  3.8956e-02
10.250  19.500  3.2087e-02
10.250  19.750  3.0610e-02
10.250  20.000  3.0507e-02
10.250  20.250  3.0651e-02
10.250  20.500  2.5119e-02
10.250  20.750  2.0996e-02
10.250  21.000  1.8042e-02
10.250  21.250  1.6297e-02
10.250  21.500  1.5296e-02
10.250  21.750  1.4703e-02
10.250  22.000  1.4430e-02
10.250  22.250  1.4287e-02
10.250  22.500  1.4207e-02
10.250  22.750  1.4173e-02
10.250  23.000  1.4158e-02
10.250  23.250  1.4152e-02
10.250  23.500  1.4149e-02
10.250  23.750  1.4148e-02
10.250  24.000  1.4147e-02
10.500  17.000  7.8707e-02
10.500  17.250  7.8388e-02
10.500  17.500  7.8225e-02
10.500  17.750  7.7992e-02
10.500  18.000  7.6947e-02
10.500  18.250  7.4508e-02
10.500  18.500  7.0510e-02
10.500  18.750  6.4589e-02
10.500  19.000  5.6778e-02
10.500  19.250  4.7081e-02
10.500  19.500  3.6286e-02
10.500  19.750  3.2162e-02
10.500  20.000  3.0844e-02
10.500  20.250  3.0599e-02
10.500  20.500  3.0708e-02
10.500  20.750  2.5108e-02
10.500  21.000  2.0994e-02
10.500  21.250  1.8042e-02
10.500  21.500  1.6297e-02
10.500  21.750  1.5296e-02
10.500  22.000  1.4703e-02
10.500  22.250  1.4431e-02
10.500  22.500  1.4287e-02
10.500  22.750  1.4207e-02
10.500  23.000  1.4173e-02
10.500  23.250  1.4159e-02
10.500  23.500  1.4152e-02
10.500  23.750  1.4149e-02
10.500  24.000  1.4148e-02
10.750  17.000  7.8515e-02
10.750  17.250  7.8087e-02
10.750  17.500  7.7767e-02
10.750  17.750  7.7477e-02
10.750  18.000  7.6680e-02
10.750  18.250  7.4974e-02
10.750  18.500  7.2193e-02
10.750  18.750  6.8013e-02
10.750  19.000  6.2261e-02
10.750  19.250  5.4488e-02
10.750  19.500  4.4755e-02
10.750  19.750  3.3766e-02
10.750  20.000  3.2362e-02
10.750  20.250  3.1721e-02
10.750  20.500  3.1038e-02
10.750  20.750  3.0855e-02
10.750  21.000  2.5112e-02
10.750  21.250  2.0990e-02
10.750  21.500  1.8042e-02
10.750  21.750  1.6298e-02
10.750  22.000  1.5296e-02
10.750  22.250  1.4703e-02
10.750  22.500  1.4431e-02
10.750  22.750  1.4288e-02
10.750  23.000  1.4207e-02
10.750  23.250  1.4173e-02
10.750  23.500  1.4159e-02
10.750  23.750  1.4152e-02
10.750  24.000  1.4149e-02
11.000  17.000  7.8440e-02
11.000  17.250  7.7997e-02
11.000  17.500  7.7507e-02
11.000  17.750  7.6846e-02
11.000  18.000  7.5880e-02
11.000  18.250  7.4458e-02
11.000  18.500  7.2563e-02
11.000  18.750  6.9929e-02
11.000  19.000  6.6070e-02
11.000  19.250  6.0429e-02
11.000  19.500  5.2623e-02
11.000  19.750  4.2381e-02
11.000  20.000  3.1945e-02
11.000  20.250  3.3493e-02
11.000  20.500  3.2343e-02
11.000  20.750  3.1771e-02
11.000  21.000  3.1122e-02
11.000  21.250  2.5148e-02
11.000  21.500  2.0987e-02
11.000  21.750  1.8042e-02
11.000  22.000  1.6299e-02
11.000  22.250  1.5296e-02
11.000  22.500  1.4703e-02
11.000  22.750  1.4431e-02
11.000  23.000  1.4288e-02
11.000  23.250  1.4207e-02
11.000  23.500  1.4173e-02
11.000  23.750  1.4159e-02
11.000  24.000  1.4153e-02
11.250  17.000  7.8459e-02
11.250  17.250  7.8037e-02
11.250  17.500  7.7319e-02
11.250  17.750  7.6227e-02
11.250  18.000  7.4845e-02
11.250  18.250  7.3387e-02
11.250  18.500  7.2114e-02
11.250  18.750  7.0602e-02
11.250  19.000  6.8323e-02
11.250  19.250  6.4547e-02
11.250  19.500  5.8862e-02
11.250  19.750  5.0845e-02
11.250  20.000  4.0278e-02
11.250  20.250  3.2715e-02
11.250  20.500  3.4468e-02
11.250  20.750  3.3803e-02
11.250  21.000  3.3051e-02
11.250  21.250  3.1524e-02
11.250  21.500  2.5225e-02
11.250  21.750  2.0986e-02
11.250  22.000  1.8043e-02
11.250  22.250  1.6300e-02
11.250  22.500  1.5296e-02
11.250  22.750  1.4703e-02
11.250  23.000  1.4431e-02
11.250  23.250  1.4289e-02
11.250  23.500  1.4207e-02
11.250  23.750  1.4174e-02
11.250  24.000  1.4159e-02
11.500  17.000  7.8575e-02
11.500  17.250  7.8075e-02
11.500  17.500  7.7083e-02
11.500  17.750  7.5577e-02
11.500  18.000  7.3765e-02
11.500  18.250  7.2204e-02
11.500  18.500  7.1152e-02
11.500  18.750  7.0333e-02
11.500  19.000  6.9247e-02
11.500  19.250  6.7078e-02
11.500  19.500  6.3392e-02
11.500  19.750  5.7661e-02
11.500  20.000  4.9459e-02
11.500  20.250  3.8503e-02
11.500  20.500  3.3802e-02
11.500  20.750  3.6117e-02
11.500  21.000  3.5780e-02
11.500  21.250  3.5165e-02
11.500  21.500  3.1999e-02
11.500  21.750  2.5347e-02
11.500  22.000  2.0989e-02
11.500  22.250  1.8044e-02
11.500  22.500  1.6301e-02
11.500  22.750  1.5297e-02
11.500  23.000  1.4703e-02
11.500  23.250  1.4431e-02
11.500  23.500  1.4289e-02
11.500  23.750  1.4208e-02
11.500  24.000  1.4174e-02
11.750  17.000  7.8757e-02
11.750  17.250  7.7993e-02
11.750  17.500  7.6660e-02
11.750  17.750  7.4733e-02
11.750  18.000  7.2664e-02
11.750  18.250  7.1112e-02
11.750  18.500  7.0140e-02
11.750  18.750  6.9647e-02
11.750  19.000  6.9212e-02
11.750  19.250  6.8319e-02
11.750  19.500  6.6182e-02
11.750  19.750  6.2532e-02
11.750  20.000  5.6819e-02
11.750  20.250  4.8485e-02
11.750  20.500  3.7291e-02
11.750  20.750  3.5145e-02
11.750  21.000  3.8559e-02
11.750  21.250  3.9020e-02
11.750  21.500  3.8313e-02
11.750  21.750  3.2475e-02
11.750  22.000  2.5506e-02
11.750  22.250  2.0997e-02
11.750  22.500  1.8044e-02
11.750  22.750  1.6303e-02
11.750  23.000  1.5298e-02
11.750  23.250  1.4703e-02
11.750  23.500  1.4431e-02
11.750  23.750  1.4289e-02
11.750  24.000  1.4208e-02
12.000  17.000  7.8817e-02
12.000  17.250  7.7664e-02
12.000  17.500  7.5849e-02
12.000  17.750  7.3526e-02
12.000  18.000  7.1509e-02
12.000  18.250  7.0103e-02
12.000  18.500  6.8374e-02
12.000  18.750  6.6157e-02
12.000  19.000  6.3570e-02
12.000  19.250  6.0732e-02
12.000  19.500  5.7762e-02
12.000  19.750  5.4778e-02
12.000  20.000  5.1897e-02
12.000  20.250  4.9240e-02
12.000  20.500  4.6923e-02
12.000  20.750  4.5066e-02
12.000  21.000  4.3786e-02
12.000  21.250  4.3203e-02
12.000  21.500  4.3435e-02
12.000  21.750  4.2165e-02
12.000  22.000  3.2950e-02
12.000  22.250  2.5611e-02
12.000  22.500  2.1010e-02
12.000  22.750  1.8044e-02
12.000  23.000  1.6304e-02
12.000  23.250  1.5299e-02
12.000  23.500  1.4702e-02
12.000  23.750  1.4431e-02
12.000  24.000  1.4289e-02
12.250  17.000  7.8338e-02
12.250  17.250  7.6683e-02
12.250  17.500  7.4339e-02
12.250  17.750  7.1878e-02
12.250  18.000  7.0139e-02
12.250  18.250  6.9108e-02
12.250  18.500  6.8524e-02
12.250  18.750  6.8181e-02
12.250  19.000  6.7643e-02
12.250  19.250  6.6825e-02
12.250  19.500  6.5752e-02
12.250  19.750  6.4450e-02
12.250  20.000  6.2946e-02
12.250  20.250  6.1265e-02
12.250  20.500  5.9434e-02
12.250  20.750  5.7478e-02
12.250  21.000  5.5423e-02
12.250  21.250  5.3295e-02
12.250  21.500  5.1121e-02
12.250  21.750  4.8926e-02
12.250  22.000  4.4638e-02
12.250  22.250  3.3353e-02
12.250  22.500  2.5762e-02
12.250  22.750  2.1024e-02
12.250  23.000  1.8044e-02
12.250  23.250  1.6306e-02
12.250  23.500  1.5300e-02
12.250  23.750  1.4702e-02
12.250  24.000  1.4431e-02
12.500  17.000  7.6323e-02
12.500  17.250  7.4254e-02
12.500  17.500  7.1759e-02
12.500  17.750  6.9947e-02
12.500  18.000  6.9018e-02
12.500  18.250  6.8825e-02
12.500  18.500  6.9221e-02
12.500  18.750  7.0061e-02
12.500  19.000  7.1199e-02
12.500  19.250  7.2488e-02
12.500  19.500  7.3782e-02
12.500  19.750  7.4935e-02
12.500  20.000  7.5800e-02
12.500  20.250  7.6232e-02
12.500  20.500  7.6084e-02
12.500  20.750  7.5210e-02
12.500  21.000  7.3464e-02
12.500  21.250  7.0700e-02
12.500  21.500  6.6771e-02
12.500  21.750  6.1531e-02
12.500  22.000  5.4834e-02
12.500  22.250  4.5809e-02
12.500  22.500  3.3713e-02
12.500  22.750  2.5955e-02
12.500  23.000  2.1037e-02
12.500  23.250  1.8043e-02
12.500  23.500  1.6307e-02
12.500  23.750  1.5301e-02
12.500  24.000  1.4701e-02
12.750  17.000  7.0284e-02
12.750  17.250  6.9672e-02
12.750  17.500  6.8334e-02
12.750  17.750  6.7444e-02
12.750  18.000  6.6819e-02
12.750  18.250  6.6538e-02
12.750  18.500  6.6569e-02
12.750  18.750  6.6758e-02
12.750  19.000  6.7005e-02
12.750  19.250  6.7248e-02
12.750  19.500  6.7574e-02
12.750  19.750  6.8031e-02
12.750  20.000  6.8337e-02
12.750  20.250  6.8069e-02
12.750  20.500  6.6591e-02
12.750  20.750  6.3854e-02
12.750  21.000  5.9552e-02
12.750  21.250  5.3823e-02
12.750  21.500  5.1938e-02
12.750  21.750  5.5278e-02
12.750  22.000  6.1536e-02
12.750  22.250  6.0164e-02
12.750  22.500  4.6807e-02
12.750  22.750  3.4076e-02
12.750  23.000  2.6085e-02
12.750  23.250  2.1046e-02
12.750  23.500  1.8040e-02
12.750  23.750  1.6307e-02
12.750  24.000  1.5301e-02
13.000  17.000  1.8153e-02
13.000  17.250  3.1312e-02
13.000  17.500  6.4950e-02
13.000  17.750  6.5074e-02
13.000  18.000  6.4834e-02
13.000  18.250  6.4834e-02
13.000  18.500  6.5127e-02
13.000  18.750  6.5630e-02
13.000  19.000  6.6227e-02
13.000  19.250  6.6792e-02
13.000  19.500  6.7298e-02
13.000  19.750  6.7824e-02
13.000  20.000  6.8424e-02
13.000  20.250  6.8924e-02
13.000  20.500  6.8986e-02
13.000  20.750  6.7972e-02
13.000  21.000  6.6300e-02
13.000  21.250  6.3307e-02
13.000  21.500  5.8648e-02
13.000  21.750  5.9876e-02
13.000  22.000  6.5247e-02
13.000  22.250  6.9246e-02
13.000  22.500  6.3975e-02
13.000  22.750  4.7773e-02
13.000  23.000  3.4599e-02
13.000  23.250  2.6114e-02
13.000  23.500  2.1053e-02
13.000  23.750  1.8036e-02
13.000  24.000  1.6306e-02
13.250  17.000  1.1628e-02
13.250  17.250  1.9286e-02
13.250  17.500  4.0696e-02
13.250  17.750  5.9559e-02
13.250  18.000  6.2589e-02
13.250  18.250  6.2822e-02
13.250  18.500  6.3331e-02
13.250  18.750  6.4124e-02
13.250  19.000  6.5052e-02
13.250  19.250  6.6000e-02
13.250  19.500  6.6871e-02
13.250  19.750  6.7639e-02
13.250  20.000  6.8372e-02
13.250  20.250  6.9086e-02
13.250  20.500  6.9788e-02
13.250  20.750  7.0236e-02
13.250  21.000  7.0238e-02
13.250  21.250  6.9094e-02
13.250  21.500  6.6857e-02
13.250  21.750  6.1963e-02
13.250  22.000  6.4704e-02
13.250  22.250  7.0500e-02
13.250  22.500  7.4557e-02
13.250  22.750  6.6424e-02
13.250  23.000  4.8678e-02
13.250  23.250  3.4913e-02
13.250  23.500  2.6194e-02
13.250  23.750  2.1055e-02
13.250  24.000  1.8030e-02
13.500  17.000  7.6241e-03
13.500  17.250  1.2718e-02
13.500  17.500  2.4515e-02
13.500  17.750  4.2297e-02
13.500  18.000  5.9274e-02
13.500  18.250  6.0273e-02
13.500  18.500  6.1124e-02
13.500  18.750  6.2218e-02
13.500  19.000  6.3471e-02
13.500  19.250  6.4765e-02
13.500  19.500  6.6031e-02
13.500  19.750  6.7204e-02
13.500  20.000  6.8285e-02
13.500  20.250  6.9333e-02
13.500  20.500  7.0219e-02
13.500  20.750  7.0974e-02
13.500  21.000  7.1362e-02
13.500  21.250  7.1619e-02
13.500  21.500  6.9593e-02
13.500  21.750  6.7192e-02
13.500  22.000  6.3978e-02
13.500  22.250  6.9187e-02
13.500  22.500  7.5460e-02
13.500  22.750  7.8584e-02
13.500  23.000  6.8289e-02
13.500  23.250  4.9378e-02
13.500  23.500  3.5149e-02
13.500  23.750  2.6324e-02
13.500  24.000  2.1054e-02
13.750  17.000  5.2090e-03
13.750  17.250  8.5483e-03
13.750  17.500  1.5942e-02
13.750  17.750  2.8052e-02
13.750  18.000  4.5439e-02
13.750  18.250  5.3952e-02
13.750  18.500  5.8269e-02
13.750  18.750  5.9706e-02
13.750  19.000  6.1386e-02
13.750  19.250  6.3112e-02
13.750  19.500  6.4768e-02
13.750  19.750  6.6352e-02
13.750  20.000  6.7870e-02
13.750  20.250  6.9332e-02
13.750  20.500  7.0714e-02
13.750  20.750  7.1915e-02
13.750  21.000  7.2755e-02
13.750  21.250  7.2950e-02
13.750  21.500  7.2404e-02
13.750  21.750  7.0443e-02
13.750  22.000  6.7751e-02
13.750  22.250  7.0509e-02
13.750  22.500  7.6350e-02
13.750  22.750  8.1037e-02
13.750  23.000  8.1553e-02
13.750  23.250  7.0256e-02
13.750  23.500  5.0120e-02
13.750  23.750  3.5341e-02
13.750  24.000  2.6356e-02
14.000  17.000  3.7182e-03
14.000  17.250  5.8128e-03
14.000  17.500  1.0716e-02
14.000  17.750  1.8319e-02
14.000  18.000  3.1933e-02
14.000  18.250  4.7319e-02
14.000  18.500  5.5038e-02
14.000  18.750  5.6670e-02
14.000  19.000  5.8645e-02
14.000  19.250  6.0840e-02
14.000  19.500  6.3037e-02
14.000  19.750  6.5064e-02
14.000  20.000  6.7001e-02
14.000  20.250  6.8922e-02
14.000  20.500  7.0837e-02
14.000  20.750  7.2665e-02
14.000  21.000  7.4251e-02
14.000  21.250  7.5422e-02
14.000  21.500  7.5516e-02
14.000  21.750  7.4760e-02
14.000  22.000  7.2880e-02
14.000  22.250  7.1715e-02
14.000  22.500  7.7640e-02
14.000  22.750  8.8324e-02
14.000  23.000  9.1387e-02
14.000  23.250  8.6373e-02
14.000  23.500  7.2754e-02
14.000  23.750  5.0686e-02
14.000  24.000  3.5520e-02
