nFnu 913.000A  relative to Inci 1215.00A scaled to 1215A.
Hden   Phi(H)  Eq_Width (A)
7.000  17.000  2.8790e-02
7.000  17.250  2.7235e-02
7.000  17.500  2.4880e-02
7.000  17.750  2.1752e-02
7.000  18.000  1.8755e-02
7.000  18.250  1.6820e-02
7.000  18.500  1.5524e-02
7.000  18.750  1.4838e-02
7.000  19.000  1.4472e-02
7.000  19.250  1.4262e-02
7.000  19.500  1.4172e-02
7.000  19.750  1.4134e-02
7.000  20.000  1.4117e-02
7.000  20.250  1.4109e-02
7.000  20.500  1.4105e-02
7.000  20.750  1.4103e-02
7.000  21.000  1.4102e-02
7.000  21.250  1.4102e-02
7.000  21.500  1.4101e-02
7.000  21.750  1.4101e-02
7.000  22.000  1.4101e-02
7.000  22.250  1.4101e-02
7.000  22.500  1.4101e-02
7.000  22.750  1.4103e-02
7.000  23.000  1.4103e-02
7.000  23.250  1.4101e-02
7.000  23.500  1.4102e-02
7.000  23.750  1.4102e-02
7.000  24.000  1.4103e-02
7.250  17.000  3.1457e-02
7.250  17.250  2.8138e-02
7.250  17.500  2.6917e-02
7.250  17.750  2.4740e-02
7.250  18.000  2.1676e-02
7.250  18.250  1.8713e-02
7.250  18.500  1.6799e-02
7.250  18.750  1.5516e-02
7.250  19.000  1.4836e-02
7.250  19.250  1.4471e-02
7.250  19.500  1.4262e-02
7.250  19.750  1.4172e-02
7.250  20.000  1.4134e-02
7.250  20.250  1.4117e-02
7.250  20.500  1.4109e-02
7.250  20.750  1.4105e-02
7.250  21.000  1.4103e-02
7.250  21.250  1.4102e-02
7.250  21.500  1.4102e-02
7.250  21.750  1.4101e-02
7.250  22.000  1.4101e-02
7.250  22.250  1.4101e-02
7.250  22.500  1.4101e-02
7.250  22.750  1.4101e-02
7.250  23.000  1.4101e-02
7.250  23.250  1.4101e-02
7.250  23.500  1.4101e-02
7.250  23.750  1.4101e-02
7.250  24.000  1.4101e-02
7.500  17.000  3.5590e-02
7.500  17.250  2.9416e-02
7.500  17.500  2.7760e-02
7.500  17.750  2.6735e-02
7.500  18.000  2.4673e-02
7.500  18.250  2.1637e-02
7.500  18.500  1.8688e-02
7.500  18.750  1.6786e-02
7.500  19.000  1.5512e-02
7.500  19.250  1.4834e-02
7.500  19.500  1.4470e-02
7.500  19.750  1.4262e-02
7.500  20.000  1.4172e-02
7.500  20.250  1.4134e-02
7.500  20.500  1.4117e-02
7.500  20.750  1.4109e-02
7.500  21.000  1.4105e-02
7.500  21.250  1.4103e-02
7.500  21.500  1.4102e-02
7.500  21.750  1.4101e-02
7.500  22.000  1.4101e-02
7.500  22.250  1.4101e-02
7.500  22.500  1.4101e-02
7.500  22.750  1.4101e-02
7.500  23.000  1.4101e-02
7.500  23.250  1.4101e-02
7.500  23.500  1.4102e-02
7.500  23.750  1.4101e-02
7.500  24.000  1.4101e-02
7.750  17.000  2.7577e-02
7.750  17.250  3.1225e-02
7.750  17.500  2.7804e-02
7.750  17.750  2.7540e-02
7.750  18.000  2.6639e-02
7.750  18.250  2.4654e-02
7.750  18.500  2.1621e-02
7.750  18.750  1.8674e-02
7.750  19.000  1.6778e-02
7.750  19.250  1.5508e-02
7.750  19.500  1.4833e-02
7.750  19.750  1.4470e-02
7.750  20.000  1.4262e-02
7.750  20.250  1.4172e-02
7.750  20.500  1.4134e-02
7.750  20.750  1.4117e-02
7.750  21.000  1.4109e-02
7.750  21.250  1.4105e-02
7.750  21.500  1.4103e-02
7.750  21.750  1.4102e-02
7.750  22.000  1.4101e-02
7.750  22.250  1.4101e-02
7.750  22.500  1.4101e-02
7.750  22.750  1.4101e-02
7.750  23.000  1.4101e-02
7.750  23.250  1.4101e-02
7.750  23.500  1.4101e-02
7.750  23.750  1.4101e-02
7.750  24.000  1.4101e-02
8.000  17.000  1.9741e-02
8.000  17.250  2.3371e-02
8.000  17.500  2.7529e-02
8.000  17.750  2.6490e-02
8.000  18.000  2.7414e-02
8.000  18.250  2.6591e-02
8.000  18.500  2.4667e-02
8.000  18.750  2.1621e-02
8.000  19.000  1.8668e-02
8.000  19.250  1.6773e-02
8.000  19.500  1.5507e-02
8.000  19.750  1.4832e-02
8.000  20.000  1.4469e-02
8.000  20.250  1.4262e-02
8.000  20.500  1.4172e-02
8.000  20.750  1.4134e-02
8.000  21.000  1.4117e-02
8.000  21.250  1.4109e-02
8.000  21.500  1.4105e-02
8.000  21.750  1.4103e-02
8.000  22.000  1.4102e-02
8.000  22.250  1.4101e-02
8.000  22.500  1.4101e-02
8.000  22.750  1.4101e-02
8.000  23.000  1.4101e-02
8.000  23.250  1.4101e-02
8.000  23.500  1.4101e-02
8.000  23.750  1.4101e-02
8.000  24.000  1.4101e-02
8.250  17.000  1.4402e-02
8.250  17.250  1.6582e-02
8.250  17.500  2.0500e-02
8.250  17.750  2.5124e-02
8.250  18.000  2.5603e-02
8.250  18.250  2.7328e-02
8.250  18.500  2.6572e-02
8.250  18.750  2.4700e-02
8.250  19.000  2.1631e-02
8.250  19.250  1.8665e-02
8.250  19.500  1.6771e-02
8.250  19.750  1.5505e-02
8.250  20.000  1.4831e-02
8.250  20.250  1.4469e-02
8.250  20.500  1.4262e-02
8.250  20.750  1.4172e-02
8.250  21.000  1.4134e-02
8.250  21.250  1.4117e-02
8.250  21.500  1.4109e-02
8.250  21.750  1.4105e-02
8.250  22.000  1.4103e-02
8.250  22.250  1.4102e-02
8.250  22.500  1.4101e-02
8.250  22.750  1.4102e-02
8.250  23.000  1.4101e-02
8.250  23.250  1.4101e-02
8.250  23.500  1.4101e-02
8.250  23.750  1.4101e-02
8.250  24.000  1.4101e-02
8.500  17.000  1.0919e-02
8.500  17.250  1.2042e-02
8.500  17.500  1.4505e-02
8.500  17.750  1.8709e-02
8.500  18.000  2.3567e-02
8.500  18.250  2.4947e-02
8.500  18.500  2.7263e-02
8.500  18.750  2.6571e-02
8.500  19.000  2.4750e-02
8.500  19.250  2.1648e-02
8.500  19.500  1.8665e-02
8.500  19.750  1.6769e-02
8.500  20.000  1.5505e-02
8.500  20.250  1.4831e-02
8.500  20.500  1.4469e-02
8.500  20.750  1.4262e-02
8.500  21.000  1.4172e-02
8.500  21.250  1.4134e-02
8.500  21.500  1.4117e-02
8.500  21.750  1.4109e-02
8.500  22.000  1.4105e-02
8.500  22.250  1.4103e-02
8.500  22.500  1.4102e-02
8.500  22.750  1.4101e-02
8.500  23.000  1.4101e-02
8.500  23.250  1.4101e-02
8.500  23.500  1.4101e-02
8.500  23.750  1.4101e-02
8.500  24.000  1.4101e-02
8.750  17.000  8.7034e-03
8.750  17.250  9.2360e-03
8.750  17.500  1.0586e-02
8.750  17.750  1.3201e-02
8.750  18.000  1.7649e-02
8.750  18.250  2.2623e-02
8.750  18.500  2.4581e-02
8.750  18.750  2.7202e-02
8.750  19.000  2.6578e-02
8.750  19.250  2.4808e-02
8.750  19.500  2.1670e-02
8.750  19.750  1.8667e-02
8.750  20.000  1.6768e-02
8.750  20.250  1.5504e-02
8.750  20.500  1.4831e-02
8.750  20.750  1.4469e-02
8.750  21.000  1.4262e-02
8.750  21.250  1.4172e-02
8.750  21.500  1.4134e-02
8.750  21.750  1.4117e-02
8.750  22.000  1.4109e-02
8.750  22.250  1.4105e-02
8.750  22.500  1.4103e-02
8.750  22.750  1.4102e-02
8.750  23.000  1.4101e-02
8.750  23.250  1.4101e-02
8.750  23.500  1.4101e-02
8.750  23.750  1.4101e-02
8.750  24.000  1.4101e-02
9.000  17.000  7.2765e-03
9.000  17.250  7.5119e-03
9.000  17.500  8.2323e-03
9.000  17.750  9.7323e-03
9.000  18.000  1.2548e-02
9.000  18.250  1.7176e-02
9.000  18.500  2.2101e-02
9.000  18.750  2.4339e-02
9.000  19.000  2.7140e-02
9.000  19.250  2.6580e-02
9.000  19.500  2.4869e-02
9.000  19.750  2.1693e-02
9.000  20.000  1.8670e-02
9.000  20.250  1.6768e-02
9.000  20.500  1.5504e-02
9.000  20.750  1.4831e-02
9.000  21.000  1.4469e-02
9.000  21.250  1.4262e-02
9.000  21.500  1.4172e-02
9.000  21.750  1.4134e-02
9.000  22.000  1.4117e-02
9.000  22.250  1.4109e-02
9.000  22.500  1.4105e-02
9.000  22.750  1.4103e-02
9.000  23.000  1.4102e-02
9.000  23.250  1.4101e-02
9.000  23.500  1.4101e-02
9.000  23.750  1.4101e-02
9.000  24.000  1.4101e-02
9.250  17.000  6.3283e-03
9.250  17.250  6.4166e-03
9.250  17.500  6.8235e-03
9.250  17.750  7.6984e-03
9.250  18.000  9.4033e-03
9.250  18.250  1.2447e-02
9.250  18.500  1.7284e-02
9.250  18.750  2.1841e-02
9.250  19.000  2.4164e-02
9.250  19.250  2.7067e-02
9.250  19.500  2.6571e-02
9.250  19.750  2.4924e-02
9.250  20.000  2.1716e-02
9.250  20.250  1.8673e-02
9.250  20.500  1.6768e-02
9.250  20.750  1.5504e-02
9.250  21.000  1.4831e-02
9.250  21.250  1.4469e-02
9.250  21.500  1.4261e-02
9.250  21.750  1.4171e-02
9.250  22.000  1.4132e-02
9.250  22.250  1.4116e-02
9.250  22.500  1.4109e-02
9.250  22.750  1.4105e-02
9.250  23.000  1.4103e-02
9.250  23.250  1.4102e-02
9.250  23.500  1.4101e-02
9.250  23.750  1.4101e-02
9.250  24.000  1.4101e-02
9.500  17.000  5.6753e-03
9.500  17.250  5.6770e-03
9.500  17.500  5.9422e-03
9.500  17.750  6.5260e-03
9.500  18.000  7.5984e-03
9.500  18.250  9.5442e-03
9.500  18.500  1.2970e-02
9.500  18.750  1.8013e-02
9.500  19.000  2.1596e-02
9.500  19.250  2.4027e-02
9.500  19.500  2.6993e-02
9.500  19.750  2.6546e-02
9.500  20.000  2.4964e-02
9.500  20.250  2.1736e-02
9.500  20.500  1.8675e-02
9.500  20.750  1.6766e-02
9.500  21.000  1.5502e-02
9.500  21.250  1.4829e-02
9.500  21.500  1.4467e-02
9.500  21.750  1.4260e-02
9.500  22.000  1.4170e-02
9.500  22.250  1.4132e-02
9.500  22.500  1.4115e-02
9.500  22.750  1.4107e-02
9.500  23.000  1.4103e-02
9.500  23.250  1.4101e-02
9.500  23.500  1.4100e-02
9.500  23.750  1.4099e-02
9.500  24.000  1.4099e-02
9.750  17.000  5.2593e-03
9.750  17.250  5.1493e-03
9.750  17.500  5.3249e-03
9.750  17.750  5.7730e-03
9.750  18.000  6.5737e-03
9.750  18.250  7.9273e-03
9.750  18.500  1.0257e-02
9.750  18.750  1.4093e-02
9.750  19.000  1.8989e-02
9.750  19.250  2.1413e-02
9.750  19.500  2.3896e-02
9.750  19.750  2.6915e-02
9.750  20.000  2.6504e-02
9.750  20.250  2.4987e-02
9.750  20.500  2.1751e-02
9.750  20.750  1.8677e-02
9.750  21.000  1.6767e-02
9.750  21.250  1.5502e-02
9.750  21.500  1.4829e-02
9.750  21.750  1.4467e-02
9.750  22.000  1.4260e-02
9.750  22.250  1.4170e-02
9.750  22.500  1.4132e-02
9.750  22.750  1.4115e-02
9.750  23.000  1.4107e-02
9.750  23.250  1.4103e-02
9.750  23.500  1.4101e-02
9.750  23.750  1.4100e-02
9.750  24.000  1.4099e-02
10.000  17.000  5.0445e-03
10.000  17.250  4.7928e-03
10.000  17.500  4.8447e-03
10.000  17.750  5.2151e-03
10.000  18.000  5.9328e-03
10.000  18.250  7.0120e-03
10.000  18.500  8.6909e-03
10.000  18.750  1.1392e-02
10.000  19.000  1.5527e-02
10.000  19.250  1.9365e-02
10.000  19.500  2.1311e-02
10.000  19.750  2.3797e-02
10.000  20.000  2.6867e-02
10.000  20.250  2.6456e-02
10.000  20.500  2.4995e-02
10.000  20.750  2.1763e-02
10.000  21.000  1.8678e-02
10.000  21.250  1.6767e-02
10.000  21.500  1.5502e-02
10.000  21.750  1.4829e-02
10.000  22.000  1.4468e-02
10.000  22.250  1.4260e-02
10.000  22.500  1.4170e-02
10.000  22.750  1.4132e-02
10.000  23.000  1.4115e-02
10.000  23.250  1.4107e-02
10.000  23.500  1.4103e-02
10.000  23.750  1.4101e-02
10.000  24.000  1.4100e-02
10.250  17.000  5.0242e-03
10.250  17.250  4.6193e-03
10.250  17.500  4.5272e-03
10.250  17.750  4.7933e-03
10.250  18.000  5.4546e-03
10.250  18.250  6.4219e-03
10.250  18.500  7.7723e-03
10.250  18.750  9.7923e-03
10.250  19.000  1.2894e-02
10.250  19.250  1.6865e-02
10.250  19.500  1.9581e-02
10.250  19.750  2.1293e-02
10.250  20.000  2.3740e-02
10.250  20.250  2.6846e-02
10.250  20.500  2.6405e-02
10.250  20.750  2.4989e-02
10.250  21.000  2.1770e-02
10.250  21.250  1.8678e-02
10.250  21.500  1.6767e-02
10.250  21.750  1.5502e-02
10.250  22.000  1.4830e-02
10.250  22.250  1.4468e-02
10.250  22.500  1.4260e-02
10.250  22.750  1.4170e-02
10.250  23.000  1.4132e-02
10.250  23.250  1.4115e-02
10.250  23.500  1.4107e-02
10.250  23.750  1.4103e-02
10.250  24.000  1.4101e-02
10.500  17.000  5.1325e-03
10.500  17.250  4.6267e-03
10.500  17.500  4.3897e-03
10.500  17.750  4.5314e-03
10.500  18.000  5.0844e-03
10.500  18.250  5.9702e-03
10.500  18.500  7.1171e-03
10.500  18.750  8.6267e-03
10.500  19.000  1.0739e-02
10.500  19.250  1.3888e-02
10.500  19.500  1.7522e-02
10.500  19.750  1.9671e-02
10.500  20.000  2.1430e-02
10.500  20.250  2.3838e-02
10.500  20.500  2.6979e-02
10.500  20.750  2.6373e-02
10.500  21.000  2.4971e-02
10.500  21.250  2.1773e-02
10.500  21.500  1.8678e-02
10.500  21.750  1.6767e-02
10.500  22.000  1.5502e-02
10.500  22.250  1.4830e-02
10.500  22.500  1.4468e-02
10.500  22.750  1.4260e-02
10.500  23.000  1.4171e-02
10.500  23.250  1.4132e-02
10.500  23.500  1.4115e-02
10.500  23.750  1.4107e-02
10.500  24.000  1.4103e-02
10.750  17.000  5.3123e-03
10.750  17.250  4.7632e-03
10.750  17.500  4.4366e-03
10.750  17.750  4.4556e-03
10.750  18.000  4.8447e-03
10.750  18.250  5.5333e-03
10.750  18.500  6.4561e-03
10.750  18.750  7.5812e-03
10.750  19.000  9.0928e-03
10.750  19.250  1.1402e-02
10.750  19.500  1.4757e-02
10.750  19.750  1.8167e-02
10.750  20.000  1.9924e-02
10.750  20.250  2.1864e-02
10.750  20.500  2.4211e-02
10.750  20.750  2.7320e-02
10.750  21.000  2.6396e-02
10.750  21.250  2.4946e-02
10.750  21.500  2.1771e-02
10.750  21.750  1.8676e-02
10.750  22.000  1.6767e-02
10.750  22.250  1.5502e-02
10.750  22.500  1.4831e-02
10.750  22.750  1.4468e-02
10.750  23.000  1.4260e-02
10.750  23.250  1.4171e-02
10.750  23.500  1.4132e-02
10.750  23.750  1.4115e-02
10.750  24.000  1.4107e-02
11.000  17.000  5.5165e-03
11.000  17.250  4.9712e-03
11.000  17.500  4.6086e-03
11.000  17.750  4.5412e-03
11.000  18.000  4.7555e-03
11.000  18.250  5.1785e-03
11.000  18.500  5.8181e-03
11.000  18.750  6.6758e-03
11.000  19.000  7.8156e-03
11.000  19.250  9.4807e-03
11.000  19.500  1.2018e-02
11.000  19.750  1.5602e-02
11.000  20.000  1.8592e-02
11.000  20.250  2.0509e-02
11.000  20.500  2.2415e-02
11.000  20.750  2.4931e-02
11.000  21.000  2.7952e-02
11.000  21.250  2.6544e-02
11.000  21.500  2.4924e-02
11.000  21.750  2.1763e-02
11.000  22.000  1.8673e-02
11.000  22.250  1.6767e-02
11.000  22.500  1.5502e-02
11.000  22.750  1.4831e-02
11.000  23.000  1.4469e-02
11.000  23.250  1.4261e-02
11.000  23.500  1.4171e-02
11.000  23.750  1.4132e-02
11.000  24.000  1.4115e-02
11.250  17.000  5.6857e-03
11.250  17.250  5.1892e-03
11.250  17.500  4.8271e-03
11.250  17.750  4.7113e-03
11.250  18.000  4.7944e-03
11.250  18.250  4.9712e-03
11.250  18.500  5.2936e-03
11.250  18.750  5.9199e-03
11.250  19.000  6.7884e-03
11.250  19.250  8.0213e-03
11.250  19.500  9.8564e-03
11.250  19.750  1.2654e-02
11.250  20.000  1.6456e-02
11.250  20.250  1.9209e-02
11.250  20.500  2.1267e-02
11.250  20.750  2.3468e-02
11.250  21.000  2.6207e-02
11.250  21.250  2.8960e-02
11.250  21.500  2.6864e-02
11.250  21.750  2.4921e-02
11.250  22.000  2.1751e-02
11.250  22.250  1.8669e-02
11.250  22.500  1.6767e-02
11.250  22.750  1.5501e-02
11.250  23.000  1.4831e-02
11.250  23.250  1.4469e-02
11.250  23.500  1.4261e-02
11.250  23.750  1.4171e-02
11.250  24.000  1.4133e-02
11.500  17.000  5.7432e-03
11.500  17.250  5.3576e-03
11.500  17.500  5.0290e-03
11.500  17.750  4.8895e-03
11.500  18.000  4.8848e-03
11.500  18.250  4.8998e-03
11.500  18.500  4.8633e-03
11.500  18.750  4.9164e-03
11.500  19.000  5.2536e-03
11.500  19.250  6.0696e-03
11.500  19.500  7.5591e-03
11.500  19.750  9.9167e-03
11.500  20.000  1.3337e-02
11.500  20.250  1.7369e-02
11.500  20.500  2.0027e-02
11.500  20.750  2.2414e-02
11.500  21.000  2.5040e-02
11.500  21.250  2.8322e-02
11.500  21.500  3.0256e-02
11.500  21.750  2.7392e-02
11.500  22.000  2.4961e-02
11.500  22.250  2.1736e-02
11.500  22.500  1.8665e-02
11.500  22.750  1.6767e-02
11.500  23.000  1.5501e-02
11.500  23.250  1.4831e-02
11.500  23.500  1.4469e-02
11.500  23.750  1.4261e-02
11.500  24.000  1.4171e-02
11.750  17.000  5.5760e-03
11.750  17.250  5.3809e-03
11.750  17.500  5.1430e-03
11.750  17.750  5.0174e-03
11.750  18.000  4.9722e-03
11.750  18.250  5.1461e-03
11.750  18.500  5.5811e-03
11.750  18.750  6.2764e-03
11.750  19.000  7.2313e-03
11.750  19.250  8.4450e-03
11.750  19.500  9.9169e-03
11.750  19.750  1.1646e-02
11.750  20.000  1.3632e-02
11.750  20.250  1.5874e-02
11.750  20.500  1.8371e-02
11.750  20.750  2.1122e-02
11.750  21.000  2.4110e-02
11.750  21.250  2.7563e-02
11.750  21.500  3.1516e-02
11.750  21.750  3.1704e-02
11.750  22.000  2.8128e-02
11.750  22.250  2.5063e-02
11.750  22.500  2.1718e-02
11.750  22.750  1.8659e-02
11.750  23.000  1.6767e-02
11.750  23.250  1.5501e-02
11.750  23.500  1.4831e-02
11.750  23.750  1.4470e-02
11.750  24.000  1.4262e-02
12.000  17.000  5.0478e-03
12.000  17.250  5.1356e-03
12.000  17.500  5.0742e-03
12.000  17.750  5.0384e-03
12.000  18.000  5.0215e-03
12.000  18.250  4.9791e-03
12.000  18.500  4.9038e-03
12.000  18.750  4.8669e-03
12.000  19.000  4.9708e-03
12.000  19.250  5.3127e-03
12.000  19.500  5.9993e-03
12.000  19.750  7.0258e-03
12.000  20.000  8.6167e-03
12.000  20.250  1.1130e-02
12.000  20.500  1.4937e-02
12.000  20.750  1.9508e-02
12.000  21.000  2.2775e-02
12.000  21.250  2.6703e-02
12.000  21.500  3.1190e-02
12.000  21.750  3.5678e-02
12.000  22.000  3.3281e-02
12.000  22.250  2.8744e-02
12.000  22.500  2.5233e-02
12.000  22.750  2.1701e-02
12.000  23.000  1.8653e-02
12.000  23.250  1.6766e-02
12.000  23.500  1.5500e-02
12.000  23.750  1.4830e-02
12.000  24.000  1.4470e-02
12.250  17.000  4.0578e-03
12.250  17.250  4.5187e-03
12.250  17.500  4.7308e-03
12.250  17.750  4.8755e-03
12.250  18.000  4.9512e-03
12.250  18.250  4.9394e-03
12.250  18.500  4.8696e-03
12.250  18.750  4.7946e-03
12.250  19.000  4.7749e-03
12.250  19.250  4.8831e-03
12.250  19.500  5.2644e-03
12.250  19.750  5.9960e-03
12.250  20.000  7.1051e-03
12.250  20.250  8.8737e-03
12.250  20.500  1.1680e-02
12.250  20.750  1.5985e-02
12.250  21.000  2.1212e-02
12.250  21.250  2.5422e-02
12.250  21.500  3.0356e-02
12.250  21.750  3.5987e-02
12.250  22.000  3.9460e-02
12.250  22.250  3.4824e-02
12.250  22.500  2.9608e-02
12.250  22.750  2.5456e-02
12.250  23.000  2.1689e-02
12.250  23.250  1.8646e-02
12.250  23.500  1.6766e-02
12.250  23.750  1.5499e-02
12.250  24.000  1.4830e-02
12.500  17.000  2.5193e-03
12.500  17.250  3.5439e-03
12.500  17.500  4.1069e-03
12.500  17.750  4.4430e-03
12.500  18.000  4.6375e-03
12.500  18.250  4.7182e-03
12.500  18.500  4.7214e-03
12.500  18.750  4.6863e-03
12.500  19.000  4.6500e-03
12.500  19.250  4.6588e-03
12.500  19.500  4.7993e-03
12.500  19.750  5.2174e-03
12.500  20.000  5.9962e-03
12.500  20.250  7.2107e-03
12.500  20.500  9.1918e-03
12.500  20.750  1.2414e-02
12.500  21.000  1.7568e-02
12.500  21.250  2.3994e-02
12.500  21.500  2.9078e-02
12.500  21.750  3.5133e-02
12.500  22.000  4.1612e-02
12.500  22.250  4.2636e-02
12.500  22.500  3.6389e-02
12.500  22.750  3.0729e-02
12.500  23.000  2.5719e-02
12.500  23.250  2.1685e-02
12.500  23.500  1.8640e-02
12.500  23.750  1.6766e-02
12.500  24.000  1.5498e-02
12.750  17.000  1.9515e-03
12.750  17.250  2.3582e-03
12.750  17.500  3.1489e-03
12.750  17.750  3.6699e-03
12.750  18.000  4.0149e-03
12.750  18.250  4.2510e-03
12.750  18.500  4.4002e-03
12.750  18.750  4.4795e-03
12.750  19.000  4.5040e-03
12.750  19.250  4.5130e-03
12.750  19.500  4.5426e-03
12.750  19.750  4.7055e-03
12.750  20.000  5.1553e-03
12.750  20.250  6.0155e-03
12.750  20.500  7.3553e-03
12.750  20.750  9.6443e-03
12.750  21.000  1.3471e-02
12.750  21.250  1.9872e-02
12.750  21.500  2.7378e-02
12.750  21.750  3.3629e-02
12.750  22.000  4.1017e-02
12.750  22.250  4.7487e-02
12.750  22.500  4.5788e-02
12.750  22.750  3.8116e-02
12.750  23.000  3.1687e-02
12.750  23.250  2.5990e-02
12.750  23.500  2.1693e-02
12.750  23.750  1.8634e-02
12.750  24.000  1.6765e-02
13.000  17.000  2.1184e-03
13.000  17.250  2.2404e-03
13.000  17.500  3.0556e-03
13.000  17.750  4.6274e-03
13.000  18.000  6.8618e-03
13.000  18.250  9.6646e-03
13.000  18.500  1.2942e-02
13.000  18.750  1.6599e-02
13.000  19.000  2.0543e-02
13.000  19.250  2.4679e-02
13.000  19.500  2.8913e-02
13.000  19.750  3.3151e-02
13.000  20.000  3.7299e-02
13.000  20.250  4.1264e-02
13.000  20.500  4.4949e-02
13.000  20.750  4.8263e-02
13.000  21.000  5.1110e-02
13.000  21.250  5.3397e-02
13.000  21.500  5.5030e-02
13.000  21.750  5.5914e-02
13.000  22.000  5.5955e-02
13.000  22.250  5.5060e-02
13.000  22.500  5.3134e-02
13.000  22.750  4.9111e-02
13.000  23.000  4.0489e-02
13.000  23.250  3.2287e-02
13.000  23.500  2.6284e-02
13.000  23.750  2.1717e-02
13.000  24.000  1.8632e-02
13.250  17.000  1.8397e-03
13.250  17.250  1.9004e-03
13.250  17.500  2.8144e-03
13.250  17.750  4.6597e-03
13.250  18.000  7.3204e-03
13.250  18.250  1.0681e-02
13.250  18.500  1.4625e-02
13.250  18.750  1.9036e-02
13.250  19.000  2.3800e-02
13.250  19.250  2.8800e-02
13.250  19.500  3.3920e-02
13.250  19.750  3.9044e-02
13.250  20.000  4.4057e-02
13.250  20.250  4.8843e-02
13.250  20.500  5.3285e-02
13.250  20.750  5.7268e-02
13.250  21.000  6.0677e-02
13.250  21.250  6.3394e-02
13.250  21.500  6.5305e-02
13.250  21.750  6.6293e-02
13.250  22.000  6.6243e-02
13.250  22.250  6.5038e-02
13.250  22.500  6.2564e-02
13.250  22.750  5.8703e-02
13.250  23.000  5.2557e-02
13.250  23.250  4.2341e-02
13.250  23.500  3.3127e-02
13.250  23.750  2.6560e-02
13.250  24.000  2.1750e-02
13.500  17.000  1.6746e-03
13.500  17.250  1.6637e-03
13.500  17.500  2.7020e-03
13.500  17.750  4.8862e-03
13.500  18.000  8.0745e-03
13.500  18.250  1.2125e-02
13.500  18.500  1.6897e-02
13.500  18.750  2.2248e-02
13.500  19.000  2.8036e-02
13.500  19.250  3.4121e-02
13.500  19.500  4.0359e-02
13.500  19.750  4.6611e-02
13.500  20.000  5.2733e-02
13.500  20.250  5.8585e-02
13.500  20.500  6.4025e-02
13.500  20.750  6.8910e-02
13.500  21.000  7.3100e-02
13.500  21.250  7.6453e-02
13.500  21.500  7.8828e-02
13.500  21.750  8.0081e-02
13.500  22.000  8.0073e-02
13.500  22.250  7.8661e-02
13.500  22.500  7.5704e-02
13.500  22.750  7.1059e-02
13.500  23.000  6.4586e-02
13.500  23.250  5.5718e-02
13.500  23.500  4.3997e-02
13.500  23.750  3.4258e-02
13.500  24.000  2.6826e-02
13.750  17.000  1.5774e-03
13.750  17.250  1.5492e-03
13.750  17.500  2.7488e-03
13.750  17.750  5.2914e-03
13.750  18.000  9.0140e-03
13.750  18.250  1.3753e-02
13.750  18.500  1.9347e-02
13.750  18.750  2.5631e-02
13.750  19.000  3.2442e-02
13.750  19.250  3.9619e-02
13.750  19.500  4.6997e-02
13.750  19.750  5.4414e-02
13.750  20.000  6.1706e-02
13.750  20.250  6.8711e-02
13.750  20.500  7.5265e-02
13.750  20.750  8.1206e-02
13.750  21.000  8.6370e-02
13.750  21.250  9.0594e-02
13.750  21.500  9.3716e-02
13.750  21.750  9.5572e-02
13.750  22.000  9.5999e-02
13.750  22.250  9.4835e-02
13.750  22.500  9.1915e-02
13.750  22.750  8.7078e-02
13.750  23.000  8.0159e-02
13.750  23.250  7.0997e-02
13.750  23.500  5.9259e-02
13.750  23.750  4.5634e-02
13.750  24.000  3.5019e-02
14.000  17.000  1.5185e-03
14.000  17.250  1.5222e-03
14.000  17.500  1.2145e-03
14.000  17.750  1.1766e-03
14.000  18.000  1.2689e-03
14.000  18.250  1.4011e-03
14.000  18.500  1.5639e-03
14.000  18.750  1.7478e-03
14.000  19.000  1.9432e-03
14.000  19.250  2.1407e-03
14.000  19.500  2.3568e-03
14.000  19.750  2.6892e-03
14.000  20.000  3.3250e-03
14.000  20.250  4.8728e-03
14.000  20.500  7.4138e-03
14.000  20.750  1.0859e-02
14.000  21.000  1.5120e-02
14.000  21.250  2.0108e-02
14.000  21.500  2.5733e-02
14.000  21.750  3.1907e-02
14.000  22.000  3.8541e-02
14.000  22.250  4.5547e-02
14.000  22.500  5.2834e-02
14.000  22.750  6.0315e-02
14.000  23.000  6.7900e-02
14.000  23.250  7.5500e-02
14.000  23.500  7.8175e-02
14.000  23.750  6.2626e-02
14.000  24.000  4.7417e-02
