InwT 1356.96A  relative to Inci 1215.00A scaled to 1215A.
Hden   Phi(H)  Eq_Width (A)
7.000  17.000  3.1952e-02
7.000  17.250  2.5614e-02
7.000  17.500  2.1093e-02
7.000  17.750  1.8071e-02
7.000  18.000  1.6293e-02
7.000  18.250  1.5275e-02
7.000  18.500  1.4679e-02
7.000  18.750  1.4407e-02
7.000  19.000  1.4266e-02
7.000  19.250  1.4187e-02
7.000  19.500  1.4154e-02
7.000  19.750  1.4140e-02
7.000  20.000  1.4134e-02
7.000  20.250  1.4131e-02
7.000  20.500  1.4130e-02
7.000  20.750  1.4129e-02
7.000  21.000  1.4129e-02
7.000  21.250  1.4129e-02
7.000  21.500  1.4129e-02
7.000  21.750  1.4129e-02
7.000  22.000  1.4129e-02
7.000  22.250  1.4129e-02
7.000  22.500  1.4129e-02
7.000  22.750  1.4130e-02
7.000  23.000  1.4130e-02
7.000  23.250  1.4129e-02
7.000  23.500  1.4130e-02
7.000  23.750  1.4130e-02
7.000  24.000  1.4131e-02
7.250  17.000  3.3603e-02
7.250  17.250  3.1841e-02
7.250  17.500  2.5550e-02
7.250  17.750  2.1060e-02
7.250  18.000  1.8053e-02
7.250  18.250  1.6284e-02
7.250  18.500  1.5271e-02
7.250  18.750  1.4678e-02
7.250  19.000  1.4407e-02
7.250  19.250  1.4266e-02
7.250  19.500  1.4187e-02
7.250  19.750  1.4154e-02
7.250  20.000  1.4140e-02
7.250  20.250  1.4134e-02
7.250  20.500  1.4131e-02
7.250  20.750  1.4130e-02
7.250  21.000  1.4129e-02
7.250  21.250  1.4129e-02
7.250  21.500  1.4129e-02
7.250  21.750  1.4129e-02
7.250  22.000  1.4129e-02
7.250  22.250  1.4129e-02
7.250  22.500  1.4129e-02
7.250  22.750  1.4129e-02
7.250  23.000  1.4129e-02
7.250  23.250  1.4129e-02
7.250  23.500  1.4129e-02
7.250  23.750  1.4129e-02
7.250  24.000  1.4129e-02
7.500  17.000  3.7259e-02
7.500  17.250  3.3242e-02
7.500  17.500  3.1780e-02
7.500  17.750  2.5514e-02
7.500  18.000  2.1042e-02
7.500  18.250  1.8042e-02
7.500  18.500  1.6278e-02
7.500  18.750  1.5268e-02
7.500  19.000  1.4677e-02
7.500  19.250  1.4406e-02
7.500  19.500  1.4266e-02
7.500  19.750  1.4187e-02
7.500  20.000  1.4154e-02
7.500  20.250  1.4140e-02
7.500  20.500  1.4134e-02
7.500  20.750  1.4131e-02
7.500  21.000  1.4130e-02
7.500  21.250  1.4129e-02
7.500  21.500  1.4129e-02
7.500  21.750  1.4129e-02
7.500  22.000  1.4129e-02
7.500  22.250  1.4129e-02
7.500  22.500  1.4129e-02
7.500  22.750  1.4129e-02
7.500  23.000  1.4129e-02
7.500  23.250  1.4129e-02
7.500  23.500  1.4130e-02
7.500  23.750  1.4129e-02
7.500  24.000  1.4129e-02
7.750  17.000  4.3268e-02
7.750  17.250  3.6322e-02
7.750  17.500  3.2956e-02
7.750  17.750  3.1746e-02
7.750  18.000  2.5494e-02
7.750  18.250  2.1032e-02
7.750  18.500  1.8035e-02
7.750  18.750  1.6274e-02
7.750  19.000  1.5266e-02
7.750  19.250  1.4676e-02
7.750  19.500  1.4406e-02
7.750  19.750  1.4266e-02
7.750  20.000  1.4187e-02
7.750  20.250  1.4154e-02
7.750  20.500  1.4140e-02
7.750  20.750  1.4134e-02
7.750  21.000  1.4131e-02
7.750  21.250  1.4130e-02
7.750  21.500  1.4129e-02
7.750  21.750  1.4129e-02
7.750  22.000  1.4129e-02
7.750  22.250  1.4128e-02
7.750  22.500  1.4128e-02
7.750  22.750  1.4129e-02
7.750  23.000  1.4128e-02
7.750  23.250  1.4128e-02
7.750  23.500  1.4129e-02
7.750  23.750  1.4129e-02
7.750  24.000  1.4128e-02
8.000  17.000  4.7820e-02
8.000  17.250  4.2168e-02
8.000  17.500  3.5545e-02
8.000  17.750  3.2634e-02
8.000  18.000  3.1728e-02
8.000  18.250  2.5485e-02
8.000  18.500  2.1028e-02
8.000  18.750  1.8030e-02
8.000  19.000  1.6271e-02
8.000  19.250  1.5265e-02
8.000  19.500  1.4676e-02
8.000  19.750  1.4406e-02
8.000  20.000  1.4266e-02
8.000  20.250  1.4187e-02
8.000  20.500  1.4154e-02
8.000  20.750  1.4140e-02
8.000  21.000  1.4134e-02
8.000  21.250  1.4131e-02
8.000  21.500  1.4130e-02
8.000  21.750  1.4129e-02
8.000  22.000  1.4129e-02
8.000  22.250  1.4129e-02
8.000  22.500  1.4128e-02
8.000  22.750  1.4128e-02
8.000  23.000  1.4128e-02
8.000  23.250  1.4128e-02
8.000  23.500  1.4128e-02
8.000  23.750  1.4128e-02
8.000  24.000  1.4129e-02
8.250  17.000  5.1062e-02
8.250  17.250  4.6839e-02
8.250  17.500  4.1360e-02
8.250  17.750  3.5023e-02
8.250  18.000  3.2477e-02
8.250  18.250  3.1712e-02
8.250  18.500  2.5481e-02
8.250  18.750  2.1028e-02
8.250  19.000  1.8026e-02
8.250  19.250  1.6081e-02
8.250  19.500  1.5038e-02
8.250  19.750  1.4584e-02
8.250  20.000  1.4406e-02
8.250  20.250  1.4266e-02
8.250  20.500  1.4187e-02
8.250  20.750  1.4154e-02
8.250  21.000  1.4140e-02
8.250  21.250  1.4134e-02
8.250  21.500  1.4131e-02
8.250  21.750  1.4130e-02
8.250  22.000  1.4129e-02
8.250  22.250  1.4129e-02
8.250  22.500  1.4129e-02
8.250  22.750  1.4129e-02
8.250  23.000  1.4128e-02
8.250  23.250  1.4129e-02
8.250  23.500  1.4129e-02
8.250  23.750  1.4128e-02
8.250  24.000  1.4128e-02
8.500  17.000  5.3222e-02
8.500  17.250  5.0258e-02
8.500  17.500  4.6096e-02
8.500  17.750  4.0782e-02
8.500  18.000  3.4661e-02
8.500  18.250  3.2359e-02
8.500  18.500  3.1696e-02
8.500  18.750  2.5480e-02
8.500  19.000  2.1030e-02
8.500  19.250  1.8024e-02
8.500  19.500  1.6267e-02
8.500  19.750  1.5264e-02
8.500  20.000  1.4675e-02
8.500  20.250  1.4406e-02
8.500  20.500  1.4266e-02
8.500  20.750  1.4187e-02
8.500  21.000  1.4154e-02
8.500  21.250  1.4140e-02
8.500  21.500  1.4134e-02
8.500  21.750  1.4131e-02
8.500  22.000  1.4130e-02
8.500  22.250  1.4129e-02
8.500  22.500  1.4129e-02
8.500  22.750  1.4129e-02
8.500  23.000  1.4128e-02
8.500  23.250  1.4128e-02
8.500  23.500  1.4128e-02
8.500  23.750  1.4128e-02
8.500  24.000  1.4128e-02
8.750  17.000  5.4628e-02
8.750  17.250  5.2621e-02
8.750  17.500  4.9639e-02
8.750  17.750  4.5412e-02
8.750  18.000  4.0207e-02
8.750  18.250  3.4346e-02
8.750  18.500  3.2292e-02
8.750  18.750  3.1677e-02
8.750  19.000  2.5481e-02
8.750  19.250  2.1033e-02
8.750  19.500  1.8021e-02
8.750  19.750  1.6266e-02
8.750  20.000  1.5263e-02
8.750  20.250  1.4675e-02
8.750  20.500  1.4406e-02
8.750  20.750  1.4266e-02
8.750  21.000  1.4187e-02
8.750  21.250  1.4154e-02
8.750  21.500  1.4140e-02
8.750  21.750  1.4134e-02
8.750  22.000  1.4131e-02
8.750  22.250  1.4130e-02
8.750  22.500  1.4129e-02
8.750  22.750  1.4129e-02
8.750  23.000  1.4129e-02
8.750  23.250  1.4128e-02
8.750  23.500  1.4129e-02
8.750  23.750  1.4128e-02
8.750  24.000  1.4128e-02
9.000  17.000  5.5455e-02
9.000  17.250  5.4209e-02
9.000  17.500  5.2149e-02
9.000  17.750  4.9033e-02
9.000  18.000  4.4700e-02
9.000  18.250  3.9493e-02
9.000  18.500  3.3998e-02
9.000  18.750  3.2236e-02
9.000  19.000  3.1654e-02
9.000  19.250  2.5481e-02
9.000  19.500  2.1037e-02
9.000  19.750  1.8019e-02
9.000  20.000  1.6264e-02
9.000  20.250  1.5263e-02
9.000  20.500  1.4675e-02
9.000  20.750  1.4406e-02
9.000  21.000  1.4266e-02
9.000  21.250  1.4187e-02
9.000  21.500  1.4154e-02
9.000  21.750  1.4140e-02
9.000  22.000  1.4134e-02
9.000  22.250  1.4131e-02
9.000  22.500  1.4130e-02
9.000  22.750  1.4129e-02
9.000  23.000  1.4129e-02
9.000  23.250  1.4129e-02
9.000  23.500  1.4128e-02
9.000  23.750  1.4128e-02
9.000  24.000  1.4128e-02
9.250  17.000  5.5774e-02
9.250  17.250  5.5155e-02
9.250  17.500  5.3872e-02
9.250  17.750  5.1638e-02
9.250  18.000  4.8214e-02
9.250  18.250  4.3611e-02
9.250  18.500  3.8457e-02
9.250  18.750  3.3352e-02
9.250  19.000  3.2174e-02
9.250  19.250  3.1625e-02
9.250  19.500  2.5478e-02
9.250  19.750  2.1040e-02
9.250  20.000  1.8016e-02
9.250  20.250  1.6263e-02
9.250  20.500  1.5262e-02
9.250  20.750  1.4675e-02
9.250  21.000  1.4406e-02
9.250  21.250  1.4266e-02
9.250  21.500  1.4186e-02
9.250  21.750  1.4153e-02
9.250  22.000  1.4138e-02
9.250  22.250  1.4133e-02
9.250  22.500  1.4131e-02
9.250  22.750  1.4129e-02
9.250  23.000  1.4129e-02
9.250  23.250  1.4129e-02
9.250  23.500  1.4128e-02
9.250  23.750  1.4128e-02
9.250  24.000  1.4128e-02
9.500  17.000  5.5622e-02
9.500  17.250  5.5521e-02
9.500  17.500  5.4915e-02
9.500  17.750  5.3494e-02
9.500  18.000  5.0884e-02
9.500  18.250  4.6949e-02
9.500  18.500  4.2030e-02
9.500  18.750  3.6920e-02
9.500  19.000  3.3014e-02
9.500  19.250  3.2093e-02
9.500  19.500  3.1593e-02
9.500  19.750  2.5471e-02
9.500  20.000  2.1042e-02
9.500  20.250  1.8014e-02
9.500  20.500  1.6262e-02
9.500  20.750  1.5261e-02
9.500  21.000  1.4673e-02
9.500  21.250  1.4404e-02
9.500  21.500  1.4264e-02
9.500  21.750  1.4185e-02
9.500  22.000  1.4152e-02
9.500  22.250  1.4138e-02
9.500  22.500  1.4132e-02
9.500  22.750  1.4129e-02
9.500  23.000  1.4127e-02
9.500  23.250  1.4127e-02
9.500  23.500  1.4126e-02
9.500  23.750  1.4126e-02
9.500  24.000  1.4126e-02
9.750  17.000  5.5071e-02
9.750  17.250  5.5322e-02
9.750  17.500  5.5281e-02
9.750  17.750  5.4596e-02
9.750  18.000  5.2799e-02
9.750  18.250  4.9699e-02
9.750  18.500  4.5362e-02
9.750  18.750  4.0356e-02
9.750  19.000  3.5249e-02
9.750  19.250  3.2619e-02
9.750  19.500  3.1965e-02
9.750  19.750  3.1556e-02
9.750  20.000  2.5461e-02
9.750  20.250  2.1043e-02
9.750  20.500  1.8013e-02
9.750  20.750  1.6261e-02
9.750  21.000  1.5262e-02
9.750  21.250  1.4673e-02
9.750  21.500  1.4404e-02
9.750  21.750  1.4264e-02
9.750  22.000  1.4185e-02
9.750  22.250  1.4152e-02
9.750  22.500  1.4138e-02
9.750  22.750  1.4132e-02
9.750  23.000  1.4129e-02
9.750  23.250  1.4128e-02
9.750  23.500  1.4127e-02
9.750  23.750  1.4126e-02
9.750  24.000  1.4126e-02
10.000  17.000  5.4204e-02
10.000  17.250  5.4649e-02
10.000  17.500  5.5000e-02
10.000  17.750  5.4967e-02
10.000  18.000  5.4015e-02
10.000  18.250  5.1861e-02
10.000  18.500  4.8324e-02
10.000  18.750  4.3800e-02
10.000  19.000  3.8745e-02
10.000  19.250  3.4669e-02
10.000  19.500  3.2347e-02
10.000  19.750  3.1862e-02
10.000  20.000  3.1532e-02
10.000  20.250  2.5448e-02
10.000  20.500  2.1043e-02
10.000  20.750  1.8011e-02
10.000  21.000  1.6261e-02
10.000  21.250  1.5262e-02
10.000  21.500  1.4673e-02
10.000  21.750  1.4404e-02
10.000  22.000  1.4264e-02
10.000  22.250  1.4185e-02
10.000  22.500  1.4152e-02
10.000  22.750  1.4138e-02
10.000  23.000  1.4132e-02
10.000  23.250  1.4129e-02
10.000  23.500  1.4127e-02
10.000  23.750  1.4127e-02
10.000  24.000  1.4126e-02
10.250  17.000  5.3410e-02
10.250  17.250  5.3678e-02
10.250  17.500  5.4240e-02
10.250  17.750  5.4652e-02
10.250  18.000  5.4476e-02
10.250  18.250  5.3257e-02
10.250  18.500  5.0688e-02
10.250  18.750  4.6892e-02
10.250  19.000  4.2260e-02
10.250  19.250  3.7152e-02
10.250  19.500  3.4276e-02
10.250  19.750  3.2238e-02
10.250  20.000  3.1744e-02
10.250  20.250  3.1515e-02
10.250  20.500  2.5435e-02
10.250  20.750  2.1041e-02
10.250  21.000  1.8011e-02
10.250  21.250  1.6261e-02
10.250  21.500  1.5262e-02
10.250  21.750  1.4674e-02
10.250  22.000  1.4405e-02
10.250  22.250  1.4264e-02
10.250  22.500  1.4186e-02
10.250  22.750  1.4152e-02
10.250  23.000  1.4138e-02
10.250  23.250  1.4132e-02
10.250  23.500  1.4129e-02
10.250  23.750  1.4128e-02
10.250  24.000  1.4127e-02
10.500  17.000  5.2802e-02
10.500  17.250  5.2827e-02
10.500  17.500  5.3220e-02
10.500  17.750  5.3879e-02
10.500  18.000  5.4186e-02
10.500  18.250  5.3630e-02
10.500  18.500  5.2035e-02
10.500  18.750  4.9236e-02
10.500  19.000  4.5431e-02
10.500  19.250  4.0869e-02
10.500  19.500  3.6178e-02
10.500  19.750  3.4346e-02
10.500  20.000  3.2478e-02
10.500  20.250  3.1833e-02
10.500  20.500  3.1566e-02
10.500  20.750  2.5424e-02
10.500  21.000  2.1039e-02
10.500  21.250  1.8010e-02
10.500  21.500  1.6261e-02
10.500  21.750  1.5262e-02
10.500  22.000  1.4674e-02
10.500  22.250  1.4405e-02
10.500  22.500  1.4264e-02
10.500  22.750  1.4186e-02
10.500  23.000  1.4152e-02
10.500  23.250  1.4138e-02
10.500  23.500  1.4132e-02
10.500  23.750  1.4129e-02
10.500  24.000  1.4128e-02
10.750  17.000  5.2445e-02
10.750  17.250  5.2266e-02
10.750  17.500  5.2395e-02
10.750  17.750  5.2879e-02
10.750  18.000  5.3237e-02
10.750  18.250  5.3054e-02
10.750  18.500  5.2164e-02
10.750  18.750  5.0400e-02
10.750  19.000  4.7784e-02
10.750  19.250  4.4193e-02
10.750  19.500  3.9824e-02
10.750  19.750  3.5184e-02
10.750  20.000  3.4528e-02
10.750  20.250  3.3402e-02
10.750  20.500  3.2278e-02
10.750  20.750  3.1701e-02
10.750  21.000  2.5427e-02
10.750  21.250  2.1037e-02
10.750  21.500  1.8010e-02
10.750  21.750  1.6262e-02
10.750  22.000  1.5262e-02
10.750  22.250  1.4674e-02
10.750  22.500  1.4406e-02
10.750  22.750  1.4265e-02
10.750  23.000  1.4186e-02
10.750  23.250  1.4153e-02
10.750  23.500  1.4138e-02
10.750  23.750  1.4132e-02
10.750  24.000  1.4129e-02
11.000  17.000  5.2292e-02
11.000  17.250  5.2029e-02
11.000  17.500  5.1903e-02
11.000  17.750  5.1880e-02
11.000  18.000  5.1864e-02
11.000  18.250  5.1664e-02
11.000  18.500  5.1252e-02
11.000  18.750  5.0461e-02
11.000  19.000  4.9026e-02
11.000  19.250  4.6647e-02
11.000  19.500  4.3208e-02
11.000  19.750  3.8698e-02
11.000  20.000  3.4312e-02
11.000  20.250  3.5720e-02
11.000  20.500  3.4026e-02
11.000  20.750  3.3016e-02
11.000  21.000  3.1947e-02
11.000  21.250  2.5457e-02
11.000  21.500  2.1034e-02
11.000  21.750  1.8011e-02
11.000  22.000  1.6263e-02
11.000  22.250  1.5262e-02
11.000  22.500  1.4674e-02
11.000  22.750  1.4406e-02
11.000  23.000  1.4266e-02
11.000  23.250  1.4186e-02
11.000  23.500  1.4153e-02
11.000  23.750  1.4139e-02
11.000  24.000  1.4132e-02
11.250  17.000  5.2315e-02
11.250  17.250  5.2026e-02
11.250  17.500  5.1603e-02
11.250  17.750  5.1024e-02
11.250  18.000  5.0399e-02
11.250  18.250  4.9891e-02
11.250  18.500  4.9740e-02
11.250  18.750  4.9658e-02
11.250  19.000  4.9229e-02
11.250  19.250  4.7965e-02
11.250  19.500  4.5686e-02
11.250  19.750  4.2273e-02
11.250  20.000  3.7736e-02
11.250  20.250  3.5150e-02
11.250  20.500  3.6710e-02
11.250  20.750  3.5533e-02
11.250  21.000  3.4312e-02
11.250  21.250  3.2313e-02
11.250  21.500  2.5524e-02
11.250  21.750  2.1033e-02
11.250  22.000  1.8012e-02
11.250  22.250  1.6264e-02
11.250  22.500  1.5262e-02
11.250  22.750  1.4674e-02
11.250  23.000  1.4406e-02
11.250  23.250  1.4266e-02
11.250  23.500  1.4186e-02
11.250  23.750  1.4153e-02
11.250  24.000  1.4139e-02
11.500  17.000  5.2510e-02
11.500  17.250  5.2114e-02
11.500  17.500  5.1364e-02
11.500  17.750  5.0283e-02
11.500  18.000  4.9066e-02
11.500  18.250  4.8195e-02
11.500  18.500  4.7980e-02
11.500  18.750  4.8246e-02
11.500  19.000  4.8582e-02
11.500  19.250  4.8305e-02
11.500  19.500  4.7177e-02
11.500  19.750  4.5008e-02
11.500  20.000  4.1665e-02
11.500  20.250  3.7097e-02
11.500  20.500  3.6247e-02
11.500  20.750  3.8415e-02
11.500  21.000  3.7565e-02
11.500  21.250  3.6463e-02
11.500  21.500  3.2745e-02
11.500  21.750  2.5628e-02
11.500  22.000  2.1034e-02
11.500  22.250  1.8013e-02
11.500  22.500  1.6266e-02
11.500  22.750  1.5263e-02
11.500  23.000  1.4673e-02
11.500  23.250  1.4406e-02
11.500  23.500  1.4266e-02
11.500  23.750  1.4187e-02
11.500  24.000  1.4153e-02
11.750  17.000  5.2845e-02
11.750  17.250  5.2161e-02
11.750  17.500  5.1049e-02
11.750  17.750  4.9513e-02
11.750  18.000  4.7910e-02
11.750  18.250  4.6828e-02
11.750  18.500  4.6425e-02
11.750  18.750  4.6707e-02
11.750  19.000  4.7354e-02
11.750  19.250  4.7886e-02
11.750  19.500  4.7684e-02
11.750  19.750  4.6684e-02
11.750  20.000  4.4691e-02
11.750  20.250  4.1461e-02
11.750  20.500  3.6991e-02
11.750  20.750  3.7591e-02
11.750  21.000  4.0953e-02
11.750  21.250  4.0919e-02
11.750  21.500  3.9679e-02
11.750  21.750  3.3172e-02
11.750  22.000  2.5763e-02
11.750  22.250  2.1039e-02
11.750  22.500  1.8014e-02
11.750  22.750  1.6268e-02
11.750  23.000  1.5264e-02
11.750  23.250  1.4673e-02
11.750  23.500  1.4406e-02
11.750  23.750  1.4266e-02
11.750  24.000  1.4187e-02
12.000  17.000  5.3144e-02
12.000  17.250  5.2059e-02
12.000  17.500  5.0485e-02
12.000  17.750  4.8549e-02
12.000  18.000  4.6833e-02
12.000  18.250  4.5456e-02
12.000  18.500  4.4389e-02
12.000  18.750  4.3604e-02
12.000  19.000  4.3072e-02
12.000  19.250  4.2765e-02
12.000  19.500  4.2656e-02
12.000  19.750  4.2716e-02
12.000  20.000  4.2916e-02
12.000  20.250  4.3228e-02
12.000  20.500  4.3625e-02
12.000  20.750  4.4078e-02
12.000  21.000  4.4558e-02
12.000  21.250  4.5038e-02
12.000  21.500  4.5489e-02
12.000  21.750  4.3607e-02
12.000  22.000  3.3593e-02
12.000  22.250  2.5848e-02
12.000  22.500  2.1047e-02
12.000  22.750  1.8015e-02
12.000  23.000  1.6269e-02
12.000  23.250  1.5265e-02
12.000  23.500  1.4673e-02
12.000  23.750  1.4406e-02
12.000  24.000  1.4266e-02
12.250  17.000  5.3095e-02
12.250  17.250  5.1504e-02
12.250  17.500  4.9433e-02
12.250  17.750  4.7320e-02
12.250  18.000  4.5794e-02
12.250  18.250  4.4901e-02
12.250  18.500  4.4504e-02
12.250  18.750  4.4719e-02
12.250  19.000  4.5479e-02
12.250  19.250  4.6648e-02
12.250  19.500  4.8093e-02
12.250  19.750  4.9677e-02
12.250  20.000  5.1265e-02
12.250  20.250  5.2722e-02
12.250  20.500  5.3914e-02
12.250  20.750  5.4706e-02
12.250  21.000  5.4961e-02
12.250  21.250  5.4545e-02
12.250  21.500  5.3324e-02
12.250  21.750  5.1161e-02
12.250  22.000  4.6051e-02
12.250  22.250  3.3944e-02
12.250  22.500  2.5971e-02
12.250  22.750  2.1053e-02
12.250  23.000  1.8015e-02
12.250  23.250  1.6271e-02
12.250  23.500  1.5266e-02
12.250  23.750  1.4672e-02
12.250  24.000  1.4405e-02
12.500  17.000  5.1901e-02
12.500  17.250  4.9886e-02
12.500  17.500  4.7616e-02
12.500  17.750  4.6463e-02
12.500  18.000  4.6635e-02
12.500  18.250  4.7921e-02
12.500  18.500  5.0109e-02
12.500  18.750  5.2989e-02
12.500  19.000  5.6349e-02
12.500  19.250  5.9977e-02
12.500  19.500  6.3664e-02
12.500  19.750  6.7197e-02
12.500  20.000  7.0365e-02
12.500  20.250  7.2958e-02
12.500  20.500  7.4764e-02
12.500  20.750  7.5571e-02
12.500  21.000  7.5170e-02
12.500  21.250  7.3347e-02
12.500  21.500  6.9893e-02
12.500  21.750  6.4596e-02
12.500  22.000  5.7245e-02
12.500  22.250  4.7118e-02
12.500  22.500  3.4252e-02
12.500  22.750  2.6128e-02
12.500  23.000  2.1058e-02
12.500  23.250  1.8013e-02
12.500  23.500  1.6272e-02
12.500  23.750  1.5267e-02
12.500  24.000  1.4672e-02
12.750  17.000  4.7679e-02
12.750  17.250  4.6629e-02
12.750  17.500  4.5160e-02
12.750  17.750  4.4015e-02
12.750  18.000  4.3377e-02
12.750  18.250  4.3200e-02
12.750  18.500  4.3438e-02
12.750  18.750  4.4046e-02
12.750  19.000  4.4978e-02
12.750  19.250  4.6190e-02
12.750  19.500  4.7635e-02
12.750  19.750  4.9268e-02
12.750  20.000  5.1044e-02
12.750  20.250  5.2917e-02
12.750  20.500  5.4842e-02
12.750  20.750  5.6774e-02
12.750  21.000  5.8666e-02
12.750  21.250  6.0474e-02
12.750  21.500  6.2151e-02
12.750  21.750  6.3654e-02
12.750  22.000  6.4935e-02
12.750  22.250  6.2683e-02
12.750  22.500  4.8011e-02
12.750  22.750  3.4560e-02
12.750  23.000  2.6227e-02
12.750  23.250  2.1058e-02
12.750  23.500  1.8010e-02
12.750  23.750  1.6272e-02
12.750  24.000  1.5267e-02
13.000  17.000  1.3430e-02
13.000  17.250  2.1653e-02
13.000  17.500  4.2808e-02
13.000  17.750  4.2551e-02
13.000  18.000  4.2167e-02
13.000  18.250  4.2059e-02
13.000  18.500  4.2245e-02
13.000  18.750  4.2656e-02
13.000  19.000  4.3208e-02
13.000  19.250  4.3818e-02
13.000  19.500  4.4510e-02
13.000  19.750  4.5452e-02
13.000  20.000  4.6768e-02
13.000  20.250  4.8367e-02
13.000  20.500  5.0031e-02
13.000  20.750  5.1306e-02
13.000  21.000  5.3018e-02
13.000  21.250  5.4987e-02
13.000  21.500  5.6781e-02
13.000  21.750  6.0008e-02
13.000  22.000  6.9451e-02
13.000  22.250  7.2967e-02
13.000  22.500  6.6467e-02
13.000  22.750  4.8869e-02
13.000  23.000  3.5007e-02
13.000  23.250  2.6239e-02
13.000  23.500  2.1055e-02
13.000  23.750  1.8005e-02
13.000  24.000  1.6271e-02
13.250  17.000  9.0450e-03
13.250  17.250  1.3849e-02
13.250  17.500  2.7327e-02
13.250  17.750  3.9059e-02
13.250  18.000  4.0803e-02
13.250  18.250  4.0865e-02
13.250  18.500  4.1189e-02
13.250  18.750  4.1777e-02
13.250  19.000  4.2532e-02
13.250  19.250  4.3373e-02
13.250  19.500  4.4254e-02
13.250  19.750  4.5199e-02
13.250  20.000  4.6352e-02
13.250  20.250  4.7807e-02
13.250  20.500  4.9663e-02
13.250  20.750  5.1819e-02
13.250  21.000  5.4372e-02
13.250  21.250  5.6872e-02
13.250  21.500  5.9635e-02
13.250  21.750  6.1538e-02
13.250  22.000  6.9560e-02
13.250  22.250  7.4963e-02
13.250  22.500  7.8371e-02
13.250  22.750  6.8760e-02
13.250  23.000  4.9661e-02
13.250  23.250  3.5263e-02
13.250  23.500  2.6292e-02
13.250  23.750  2.1049e-02
13.250  24.000  1.7998e-02
13.500  17.000  6.3649e-03
13.500  17.250  9.6217e-03
13.500  17.500  1.7103e-02
13.500  17.750  2.8230e-02
13.500  18.000  3.8814e-02
13.500  18.250  3.9366e-02
13.500  18.500  3.9901e-02
13.500  18.750  4.0675e-02
13.500  19.000  4.1626e-02
13.500  19.250  4.2684e-02
13.500  19.500  4.3802e-02
13.500  19.750  4.4971e-02
13.500  20.000  4.6245e-02
13.500  20.250  4.7763e-02
13.500  20.500  4.9427e-02
13.500  20.750  5.1402e-02
13.500  21.000  5.3608e-02
13.500  21.250  5.6606e-02
13.500  21.500  5.8130e-02
13.500  21.750  6.1230e-02
13.500  22.000  6.5007e-02
13.500  22.250  7.4483e-02
13.500  22.500  8.0058e-02
13.500  22.750  8.2310e-02
13.500  23.000  7.0410e-02
13.500  23.250  5.0259e-02
13.500  23.500  3.5447e-02
13.500  23.750  2.6387e-02
13.500  24.000  2.1039e-02
13.750  17.000  4.7632e-03
13.750  17.250  6.9586e-03
13.750  17.500  1.1739e-02
13.750  17.750  1.9390e-02
13.750  18.000  3.0278e-02
13.750  18.250  3.5550e-02
13.750  18.500  3.8250e-02
13.750  18.750  3.9214e-02
13.750  19.000  4.0419e-02
13.750  19.250  4.1745e-02
13.750  19.500  4.3113e-02
13.750  19.750  4.4540e-02
13.750  20.000  4.6077e-02
13.750  20.250  4.7779e-02
13.750  20.500  4.9689e-02
13.750  20.750  5.1760e-02
13.750  21.000  5.3929e-02
13.750  21.250  5.6085e-02
13.750  21.500  5.8246e-02
13.750  21.750  6.0431e-02
13.750  22.000  6.3679e-02
13.750  22.250  7.0691e-02
13.750  22.500  8.2177e-02
13.750  22.750  8.5740e-02
13.750  23.000  8.5017e-02
13.750  23.250  7.2166e-02
13.750  23.500  5.0887e-02
13.750  23.750  3.5588e-02
13.750  24.000  2.6394e-02
14.000  17.000  3.7845e-03
14.000  17.250  5.2156e-03
14.000  17.500  8.5032e-03
14.000  17.750  1.3390e-02
14.000  18.000  2.2012e-02
14.000  18.250  3.1614e-02
14.000  18.500  3.6411e-02
14.000  18.750  3.7465e-02
14.000  19.000  3.8825e-02
14.000  19.250  4.0432e-02
14.000  19.500  4.2147e-02
14.000  19.750  4.3869e-02
14.000  20.000  4.5668e-02
14.000  20.250  4.7649e-02
14.000  20.500  4.9884e-02
14.000  20.750  5.2331e-02
14.000  21.000  5.4924e-02
14.000  21.250  5.7623e-02
14.000  21.500  5.9765e-02
14.000  21.750  6.2270e-02
14.000  22.000  6.5242e-02
14.000  22.250  7.0731e-02
14.000  22.500  8.3226e-02
14.000  22.750  9.4949e-02
14.000  23.000  9.6402e-02
14.000  23.250  8.9663e-02
14.000  23.500  7.4479e-02
14.000  23.750  5.1345e-02
14.000  24.000  3.5711e-02
