InwC 9500.00A  relative to Inci 1215.00A scaled to 1215A.
Hden   Phi(H)  Eq_Width (A)
7.000  17.000  2.2063e-02
7.000  17.250  3.1992e-02
7.000  17.500  4.5096e-02
7.000  17.750  5.7469e-02
7.000  18.000  6.8528e-02
7.000  18.250  7.0415e-02
7.000  18.500  7.1191e-02
7.000  18.750  7.1130e-02
7.000  19.000  7.1057e-02
7.000  19.250  7.1046e-02
7.000  19.500  7.1027e-02
7.000  19.750  7.1028e-02
7.000  20.000  7.1028e-02
7.000  20.250  7.1028e-02
7.000  20.500  7.1029e-02
7.000  20.750  7.1028e-02
7.000  21.000  7.1029e-02
7.000  21.250  7.1029e-02
7.000  21.500  7.1028e-02
7.000  21.750  7.1029e-02
7.000  22.000  7.1029e-02
7.000  22.250  7.1029e-02
7.000  22.500  7.1029e-02
7.000  22.750  7.1029e-02
7.000  23.000  7.1029e-02
7.000  23.250  7.1029e-02
7.000  23.500  7.1029e-02
7.000  23.750  7.1029e-02
7.000  24.000  7.1030e-02
7.250  17.000  1.5266e-02
7.250  17.250  2.2667e-02
7.250  17.500  3.2979e-02
7.250  17.750  4.6356e-02
7.250  18.000  5.8400e-02
7.250  18.250  6.8539e-02
7.250  18.500  7.0426e-02
7.250  18.750  7.1190e-02
7.250  19.000  7.1130e-02
7.250  19.250  7.1057e-02
7.250  19.500  7.1045e-02
7.250  19.750  7.1026e-02
7.250  20.000  7.1027e-02
7.250  20.250  7.1028e-02
7.250  20.500  7.1029e-02
7.250  20.750  7.1028e-02
7.250  21.000  7.1029e-02
7.250  21.250  7.1029e-02
7.250  21.500  7.1029e-02
7.250  21.750  7.1029e-02
7.250  22.000  7.1029e-02
7.250  22.250  7.1029e-02
7.250  22.500  7.1029e-02
7.250  22.750  7.1029e-02
7.250  23.000  7.1029e-02
7.250  23.250  7.1029e-02
7.250  23.500  7.1029e-02
7.250  23.750  7.1029e-02
7.250  24.000  7.1029e-02
7.500  17.000  1.0511e-02
7.500  17.250  1.5756e-02
7.500  17.500  2.3634e-02
7.500  17.750  3.4484e-02
7.500  18.000  4.8214e-02
7.500  18.250  5.9411e-02
7.500  18.500  6.8545e-02
7.500  18.750  7.0442e-02
7.500  19.000  7.1190e-02
7.500  19.250  7.1129e-02
7.500  19.500  7.1057e-02
7.500  19.750  7.1045e-02
7.500  20.000  7.1027e-02
7.500  20.250  7.1028e-02
7.500  20.500  7.1029e-02
7.500  20.750  7.1029e-02
7.500  21.000  7.1029e-02
7.500  21.250  7.1028e-02
7.500  21.500  7.1029e-02
7.500  21.750  7.1028e-02
7.500  22.000  7.1029e-02
7.500  22.250  7.1029e-02
7.500  22.500  7.1029e-02
7.500  22.750  7.1029e-02
7.500  23.000  7.1029e-02
7.500  23.250  7.1029e-02
7.500  23.500  7.1029e-02
7.500  23.750  7.1029e-02
7.500  24.000  7.1035e-02
7.750  17.000  7.3120e-03
7.750  17.250  1.0895e-02
7.750  17.500  1.6566e-02
7.750  17.750  2.5202e-02
7.750  18.000  3.6791e-02
7.750  18.250  5.0767e-02
7.750  18.500  6.0648e-02
7.750  18.750  6.8553e-02
7.750  19.000  7.0457e-02
7.750  19.250  7.1191e-02
7.750  19.500  7.1129e-02
7.750  19.750  7.1055e-02
7.750  20.000  7.1047e-02
7.750  20.250  7.1027e-02
7.750  20.500  7.1028e-02
7.750  20.750  7.1028e-02
7.750  21.000  7.1028e-02
7.750  21.250  7.1029e-02
7.750  21.500  7.1029e-02
7.750  21.750  7.1029e-02
7.750  22.000  7.1029e-02
7.750  22.250  7.1029e-02
7.750  22.500  7.1028e-02
7.750  22.750  7.1029e-02
7.750  23.000  7.1029e-02
7.750  23.250  7.1029e-02
7.750  23.500  7.1028e-02
7.750  23.750  7.1028e-02
7.750  24.000  7.1028e-02
8.000  17.000  5.1719e-03
8.000  17.250  7.5772e-03
8.000  17.500  1.1503e-02
8.000  17.750  1.7932e-02
8.000  18.000  2.7719e-02
8.000  18.250  4.0280e-02
8.000  18.500  5.3364e-02
8.000  18.750  6.1767e-02
8.000  19.000  6.8556e-02
8.000  19.250  7.0466e-02
8.000  19.500  7.1191e-02
8.000  19.750  7.1130e-02
8.000  20.000  7.1055e-02
8.000  20.250  7.1047e-02
8.000  20.500  7.1027e-02
8.000  20.750  7.1028e-02
8.000  21.000  7.1028e-02
8.000  21.250  7.1028e-02
8.000  21.500  7.1029e-02
8.000  21.750  7.1029e-02
8.000  22.000  7.1029e-02
8.000  22.250  7.1029e-02
8.000  22.500  7.1029e-02
8.000  22.750  7.1029e-02
8.000  23.000  7.1028e-02
8.000  23.250  7.1029e-02
8.000  23.500  7.1029e-02
8.000  23.750  7.1029e-02
8.000  24.000  7.1029e-02
8.250  17.000  3.7207e-03
8.250  17.250  5.3810e-03
8.250  17.500  8.0699e-03
8.250  17.750  1.2658e-02
8.250  18.000  2.0400e-02
8.250  18.250  3.1772e-02
8.250  18.500  4.4592e-02
8.250  18.750  5.6564e-02
8.250  19.000  6.3084e-02
8.250  19.250  6.8561e-02
8.250  19.500  7.0487e-02
8.250  19.750  7.1191e-02
8.250  20.000  7.1132e-02
8.250  20.250  7.1057e-02
8.250  20.500  7.1045e-02
8.250  20.750  7.1026e-02
8.250  21.000  7.1028e-02
8.250  21.250  7.1028e-02
8.250  21.500  7.1028e-02
8.250  21.750  7.1028e-02
8.250  22.000  7.1029e-02
8.250  22.250  7.1029e-02
8.250  22.500  7.1029e-02
8.250  22.750  7.1029e-02
8.250  23.000  7.1029e-02
8.250  23.250  7.1029e-02
8.250  23.500  7.1029e-02
8.250  23.750  7.1029e-02
8.250  24.000  7.1029e-02
8.500  17.000  2.7002e-03
8.500  17.250  3.8766e-03
8.500  17.500  5.7478e-03
8.500  17.750  8.9721e-03
8.500  18.000  1.4755e-02
8.500  18.250  2.4323e-02
8.500  18.500  3.6451e-02
8.500  18.750  4.8672e-02
8.500  19.000  5.8947e-02
8.500  19.250  6.4082e-02
8.500  19.500  6.8559e-02
8.500  19.750  7.0511e-02
8.500  20.000  7.1190e-02
8.500  20.250  7.1129e-02
8.500  20.500  7.1057e-02
8.500  20.750  7.1045e-02
8.500  21.000  7.1027e-02
8.500  21.250  7.1028e-02
8.500  21.500  7.1029e-02
8.500  21.750  7.1029e-02
8.500  22.000  7.1028e-02
8.500  22.250  7.1029e-02
8.500  22.500  7.1028e-02
8.500  22.750  7.1028e-02
8.500  23.000  7.1028e-02
8.500  23.250  7.1028e-02
8.500  23.500  7.1029e-02
8.500  23.750  7.1029e-02
8.500  24.000  7.1029e-02
8.750  17.000  1.9609e-03
8.750  17.250  2.8156e-03
8.750  17.500  4.1463e-03
8.750  17.750  6.4230e-03
8.750  18.000  1.0589e-02
8.750  18.250  1.8057e-02
8.750  18.500  2.8747e-02
8.750  18.750  4.0793e-02
8.750  19.000  5.2453e-02
8.750  19.250  6.0004e-02
8.750  19.500  6.5153e-02
8.750  19.750  6.8549e-02
8.750  20.000  7.0541e-02
8.750  20.250  7.1190e-02
8.750  20.500  7.1128e-02
8.750  20.750  7.1057e-02
8.750  21.000  7.1045e-02
8.750  21.250  7.1027e-02
8.750  21.500  7.1028e-02
8.750  21.750  7.1028e-02
8.750  22.000  7.1029e-02
8.750  22.250  7.1029e-02
8.750  22.500  7.1029e-02
8.750  22.750  7.1029e-02
8.750  23.000  7.1029e-02
8.750  23.250  7.1029e-02
8.750  23.500  7.1029e-02
8.750  23.750  7.1029e-02
8.750  24.000  7.1029e-02
9.000  17.000  1.4218e-03
9.000  17.250  2.0467e-03
9.000  17.500  3.0145e-03
9.000  17.750  4.6555e-03
9.000  18.000  7.6994e-03
9.000  18.250  1.3276e-02
9.000  18.500  2.1983e-02
9.000  18.750  3.2823e-02
9.000  19.000  4.4696e-02
9.000  19.250  5.5960e-02
9.000  19.500  6.1366e-02
9.000  19.750  6.5987e-02
9.000  20.000  6.8515e-02
9.000  20.250  7.0574e-02
9.000  20.500  7.1190e-02
9.000  20.750  7.1128e-02
9.000  21.000  7.1055e-02
9.000  21.250  7.1045e-02
9.000  21.500  7.1027e-02
9.000  21.750  7.1028e-02
9.000  22.000  7.1028e-02
9.000  22.250  7.1028e-02
9.000  22.500  7.1028e-02
9.000  22.750  7.1028e-02
9.000  23.000  7.1028e-02
9.000  23.250  7.1029e-02
9.000  23.500  7.1029e-02
9.000  23.750  7.1029e-02
9.000  24.000  7.1029e-02
9.250  17.000  1.0268e-03
9.250  17.250  1.4850e-03
9.250  17.500  2.1949e-03
9.250  17.750  3.3977e-03
9.250  18.000  5.6836e-03
9.250  18.250  9.8665e-03
9.250  18.500  1.6465e-02
9.250  18.750  2.5396e-02
9.250  19.000  3.6108e-02
9.250  19.250  4.7366e-02
9.250  19.500  5.7300e-02
9.250  19.750  6.2324e-02
9.250  20.000  6.6921e-02
9.250  20.250  6.8460e-02
9.250  20.500  7.0609e-02
9.250  20.750  7.1189e-02
9.250  21.000  7.1126e-02
9.250  21.250  7.1056e-02
9.250  21.500  7.1046e-02
9.250  21.750  7.1015e-02
9.250  22.000  7.0963e-02
9.250  22.250  7.1016e-02
9.250  22.500  7.1028e-02
9.250  22.750  7.1028e-02
9.250  23.000  7.1028e-02
9.250  23.250  7.1028e-02
9.250  23.500  7.1029e-02
9.250  23.750  7.1029e-02
9.250  24.000  7.1028e-02
9.500  17.000  7.3893e-04
9.500  17.250  1.0741e-03
9.500  17.500  1.5989e-03
9.500  17.750  2.4912e-03
9.500  18.000  4.2235e-03
9.500  18.250  7.4313e-03
9.500  18.500  1.2426e-02
9.500  18.750  1.9180e-02
9.500  19.000  2.7919e-02
9.500  19.250  3.8611e-02
9.500  19.500  4.9774e-02
9.500  19.750  5.8389e-02
9.500  20.000  6.3449e-02
9.500  20.250  6.6857e-02
9.500  20.500  6.8401e-02
9.500  20.750  7.0646e-02
9.500  21.000  7.1182e-02
9.500  21.250  7.1117e-02
9.500  21.500  7.1025e-02
9.500  21.750  7.0962e-02
9.500  22.000  7.0870e-02
9.500  22.250  7.0823e-02
9.500  22.500  7.0794e-02
9.500  22.750  7.0773e-02
9.500  23.000  7.0758e-02
9.500  23.250  7.0752e-02
9.500  23.500  7.0865e-02
9.500  23.750  7.0864e-02
9.500  24.000  7.0864e-02
9.750  17.000  5.3045e-04
9.750  17.250  7.7481e-04
9.750  17.500  1.1596e-03
9.750  17.750  1.8298e-03
9.750  18.000  3.1456e-03
9.750  18.250  5.6015e-03
9.750  18.500  9.3995e-03
9.750  18.750  1.4444e-02
9.750  19.000  2.1047e-02
9.750  19.250  2.9766e-02
9.750  19.500  4.0438e-02
9.750  19.750  5.2785e-02
9.750  20.000  5.9571e-02
9.750  20.250  6.4241e-02
9.750  20.500  6.6715e-02
9.750  20.750  6.8367e-02
9.750  21.000  7.0684e-02
9.750  21.250  7.1180e-02
9.750  21.500  7.1122e-02
9.750  21.750  7.1044e-02
9.750  22.000  7.0962e-02
9.750  22.250  7.0880e-02
9.750  22.500  7.0843e-02
9.750  22.750  7.0825e-02
9.750  23.000  7.0810e-02
9.750  23.250  7.0798e-02
9.750  23.500  7.0794e-02
9.750  23.750  7.0789e-02
9.750  24.000  7.0786e-02
10.000  17.000  3.7975e-04
10.000  17.250  5.5638e-04
10.000  17.500  8.3860e-04
10.000  17.750  1.3390e-03
10.000  18.000  2.3235e-03
10.000  18.250  4.1789e-03
10.000  18.500  7.0384e-03
10.000  18.750  1.0776e-02
10.000  19.000  1.5679e-02
10.000  19.250  2.2303e-02
10.000  19.500  3.1081e-02
10.000  19.750  4.3035e-02
10.000  20.000  5.3621e-02
10.000  20.250  6.0538e-02
10.000  20.500  6.5060e-02
10.000  20.750  6.6581e-02
10.000  21.000  6.8351e-02
10.000  21.250  7.0737e-02
10.000  21.500  7.1173e-02
10.000  21.750  7.1121e-02
10.000  22.000  7.1049e-02
10.000  22.250  7.0990e-02
10.000  22.500  7.0885e-02
10.000  22.750  7.0855e-02
10.000  23.000  7.0844e-02
10.000  23.250  7.0835e-02
10.000  23.500  7.0827e-02
10.000  23.750  7.0825e-02
10.000  24.000  7.0821e-02
10.250  17.000  2.7259e-04
10.250  17.250  3.9844e-04
10.250  17.500  6.0305e-04
10.250  17.750  9.7621e-04
10.250  18.000  1.7249e-03
10.250  18.250  3.0884e-03
10.250  18.500  5.1833e-03
10.250  18.750  7.9237e-03
10.250  19.000  1.1560e-02
10.250  19.250  1.6480e-02
10.250  19.500  2.3247e-02
10.250  19.750  3.2482e-02
10.250  20.000  4.4377e-02
10.250  20.250  5.4213e-02
10.250  20.500  6.1356e-02
10.250  20.750  6.5105e-02
10.250  21.000  6.6474e-02
10.250  21.250  6.8379e-02
10.250  21.500  7.0793e-02
10.250  21.750  7.1159e-02
10.250  22.000  7.1120e-02
10.250  22.250  7.1050e-02
10.250  22.500  7.1026e-02
10.250  22.750  7.0895e-02
10.250  23.000  7.0861e-02
10.250  23.250  7.0855e-02
10.250  23.500  7.0850e-02
10.250  23.750  7.0844e-02
10.250  24.000  7.0844e-02
10.500  17.000  1.9638e-04
10.500  17.250  2.8560e-04
10.500  17.500  4.3243e-04
10.500  17.750  7.0593e-04
10.500  18.000  1.2607e-03
10.500  18.250  2.2578e-03
10.500  18.500  3.7546e-03
10.500  18.750  5.7247e-03
10.500  19.000  8.3516e-03
10.500  19.250  1.1987e-02
10.500  19.500  1.7020e-02
10.500  19.750  2.4001e-02
10.500  20.000  3.3431e-02
10.500  20.250  4.5216e-02
10.500  20.500  5.4961e-02
10.500  20.750  6.2212e-02
10.500  21.000  6.4904e-02
10.500  21.250  6.6369e-02
10.500  21.500  6.8576e-02
10.500  21.750  7.0778e-02
10.500  22.000  7.1130e-02
10.500  22.250  7.1111e-02
10.500  22.500  7.1047e-02
10.500  22.750  7.1037e-02
10.500  23.000  7.0967e-02
10.500  23.250  7.0870e-02
10.500  23.500  7.0860e-02
10.500  23.750  7.0859e-02
10.500  24.000  7.0856e-02
10.750  17.000  1.4206e-04
10.750  17.250  2.0510e-04
10.750  17.500  3.0988e-04
10.750  17.750  5.0765e-04
10.750  18.000  9.1144e-04
10.750  18.250  1.6338e-03
10.750  18.500  2.6853e-03
10.750  18.750  4.0752e-03
10.750  19.000  5.9901e-03
10.750  19.250  8.6620e-03
10.750  19.500  1.2349e-02
10.750  19.750  1.7510e-02
10.750  20.000  2.4582e-02
10.750  20.250  3.4101e-02
10.750  20.500  4.5885e-02
10.750  20.750  5.5634e-02
10.750  21.000  6.2680e-02
10.750  21.250  6.4627e-02
10.750  21.500  6.6440e-02
10.750  21.750  6.8822e-02
10.750  22.000  7.0710e-02
10.750  22.250  7.1090e-02
10.750  22.500  7.1097e-02
10.750  22.750  7.1042e-02
10.750  23.000  7.1039e-02
10.750  23.250  7.1006e-02
10.750  23.500  7.0926e-02
10.750  23.750  7.0874e-02
10.750  24.000  7.0863e-02
11.000  17.000  1.0255e-04
11.000  17.250  1.4774e-04
11.000  17.500  2.2189e-04
11.000  17.750  3.6247e-04
11.000  18.000  6.4543e-04
11.000  18.250  1.1449e-03
11.000  18.500  1.8630e-03
11.000  18.750  2.8358e-03
11.000  19.000  4.2091e-03
11.000  19.250  6.1600e-03
11.000  19.500  8.8896e-03
11.000  19.750  1.2647e-02
11.000  20.000  1.7841e-02
11.000  20.250  2.4973e-02
11.000  20.500  3.4527e-02
11.000  20.750  4.6236e-02
11.000  21.000  5.6019e-02
11.000  21.250  6.2574e-02
11.000  21.500  6.4575e-02
11.000  21.750  6.6442e-02
11.000  22.000  6.9095e-02
11.000  22.250  7.0585e-02
11.000  22.500  7.1027e-02
11.000  22.750  7.1080e-02
11.000  23.000  7.1033e-02
11.000  23.250  7.1037e-02
11.000  23.500  7.1018e-02
11.000  23.750  7.0994e-02
11.000  24.000  7.0934e-02
11.250  17.000  7.5309e-05
11.250  17.250  1.0593e-04
11.250  17.500  1.5877e-04
11.250  17.750  2.5687e-04
11.250  18.000  4.5226e-04
11.250  18.250  7.8510e-04
11.250  18.500  1.2528e-03
11.250  18.750  1.9649e-03
11.250  19.000  2.9372e-03
11.250  19.250  4.3300e-03
11.250  19.500  6.2993e-03
11.250  19.750  9.0469e-03
11.250  20.000  1.2849e-02
11.250  20.250  1.8089e-02
11.250  20.500  2.5217e-02
11.250  20.750  3.4591e-02
11.250  21.000  4.6087e-02
11.250  21.250  5.5875e-02
11.250  21.500  6.2170e-02
11.250  21.750  6.4183e-02
11.250  22.000  6.6382e-02
11.250  22.250  6.9174e-02
11.250  22.500  7.0362e-02
11.250  22.750  7.0936e-02
11.250  23.000  7.1052e-02
11.250  23.250  7.1020e-02
11.250  23.500  7.1033e-02
11.250  23.750  7.1021e-02
11.250  24.000  7.1016e-02
11.500  17.000  5.6708e-05
11.500  17.250  7.7284e-05
11.500  17.500  1.1284e-04
11.500  17.750  1.8025e-04
11.500  18.000  3.1160e-04
11.500  18.250  5.2897e-04
11.500  18.500  8.4658e-04
11.500  18.750  1.3272e-03
11.500  19.000  2.0242e-03
11.500  19.250  3.0114e-03
11.500  19.500  4.4240e-03
11.500  19.750  6.4085e-03
11.500  20.000  9.1823e-03
11.500  20.250  1.2992e-02
11.500  20.500  1.8206e-02
11.500  20.750  2.5150e-02
11.500  21.000  3.4086e-02
11.500  21.250  4.5154e-02
11.500  21.500  5.5389e-02
11.500  21.750  6.1055e-02
11.500  22.000  6.3581e-02
11.500  22.250  6.6141e-02
11.500  22.500  6.8902e-02
11.500  22.750  7.0044e-02
11.500  23.000  7.0806e-02
11.500  23.250  7.1009e-02
11.500  23.500  7.0998e-02
11.500  23.750  7.1027e-02
11.500  24.000  7.1020e-02
11.750  17.000  4.0247e-05
11.750  17.250  5.8025e-05
11.750  17.500  8.1481e-05
11.750  17.750  1.2576e-04
11.750  18.000  2.1152e-04
11.750  18.250  3.5251e-04
11.750  18.500  5.6527e-04
11.750  18.750  8.9663e-04
11.750  19.000  1.3735e-03
11.750  19.250  2.0734e-03
11.750  19.500  3.0714e-03
11.750  19.750  4.4917e-03
11.750  20.000  6.4974e-03
11.750  20.250  9.2746e-03
11.750  20.500  1.3077e-02
11.750  20.750  1.8123e-02
11.750  21.000  2.4643e-02
11.750  21.250  3.2807e-02
11.750  21.500  4.3598e-02
11.750  21.750  5.3792e-02
11.750  22.000  5.9429e-02
11.750  22.250  6.2604e-02
11.750  22.500  6.5581e-02
11.750  22.750  6.8290e-02
11.750  23.000  6.9583e-02
11.750  23.250  7.0607e-02
11.750  23.500  7.0955e-02
11.750  23.750  7.0965e-02
11.750  24.000  7.1017e-02
12.000  17.000  1.9918e-05
12.000  17.250  4.3210e-05
12.000  17.500  6.0741e-05
12.000  17.750  8.8971e-05
12.000  18.000  1.4313e-04
12.000  18.250  2.3465e-04
12.000  18.500  3.8123e-04
12.000  18.750  6.0272e-04
12.000  19.000  9.3078e-04
12.000  19.250  1.4050e-03
12.000  19.500  2.1029e-03
12.000  19.750  3.1126e-03
12.000  20.000  4.5411e-03
12.000  20.250  6.5552e-03
12.000  20.500  9.3085e-03
12.000  20.750  1.2999e-02
12.000  21.000  1.7720e-02
12.000  21.250  2.3491e-02
12.000  21.500  3.1045e-02
12.000  21.750  4.1026e-02
12.000  22.000  5.0965e-02
12.000  22.250  5.7092e-02
12.000  22.500  6.1022e-02
12.000  22.750  6.4629e-02
12.000  23.000  6.7320e-02
12.000  23.250  6.8902e-02
12.000  23.500  7.0300e-02
12.000  23.750  7.0865e-02
12.000  24.000  7.0914e-02
12.250  17.000  9.4650e-06
12.250  17.250  2.2469e-05
12.250  17.500  4.6255e-05
12.250  17.750  6.5679e-05
12.250  18.000  9.9424e-05
12.250  18.250  1.5959e-04
12.250  18.500  2.5712e-04
12.250  18.750  4.0198e-04
12.250  19.000  6.2099e-04
12.250  19.250  9.4510e-04
12.250  19.500  1.4272e-03
12.250  19.750  2.1316e-03
12.250  20.000  3.1449e-03
12.250  20.250  4.5801e-03
12.250  20.500  6.5746e-03
12.250  20.750  9.2412e-03
12.250  21.000  1.2707e-02
12.250  21.250  1.6843e-02
12.250  21.500  2.1969e-02
12.250  21.750  2.8282e-02
12.250  22.000  3.7425e-02
12.250  22.250  4.7031e-02
12.250  22.500  5.3920e-02
12.250  22.750  5.8665e-02
12.250  23.000  6.2857e-02
12.250  23.250  6.5875e-02
12.250  23.500  6.7900e-02
12.250  23.750  6.9832e-02
12.250  24.000  7.0727e-02
12.500  17.000  4.7737e-06
12.500  17.250  1.0370e-05
12.500  17.500  2.4444e-05
12.500  17.750  5.0123e-05
12.500  18.000  7.3498e-05
12.500  18.250  1.1193e-04
12.500  18.500  1.7317e-04
12.500  18.750  2.6790e-04
12.500  19.000  4.1350e-04
12.500  19.250  6.3267e-04
12.500  19.500  9.5901e-04
12.500  19.750  1.4418e-03
12.500  20.000  2.1505e-03
12.500  20.250  3.1666e-03
12.500  20.500  4.5899e-03
12.500  20.750  6.5297e-03
12.500  21.000  9.0478e-03
12.500  21.250  1.2074e-02
12.500  21.500  1.5684e-02
12.500  21.750  1.9524e-02
12.500  22.000  2.4686e-02
12.500  22.250  3.3092e-02
12.500  22.500  4.2730e-02
12.500  22.750  4.9572e-02
12.500  23.000  5.5145e-02
12.500  23.250  6.0143e-02
12.500  23.500  6.3786e-02
12.500  23.750  6.6427e-02
12.500  24.000  6.9124e-02
12.750  17.000  2.3868e-06
12.750  17.250  5.1029e-06
12.750  17.500  1.1358e-05
12.750  17.750  2.4527e-05
12.750  18.000  5.0041e-05
12.750  18.250  7.9588e-05
12.750  18.500  1.1786e-04
12.750  18.750  1.7819e-04
12.750  19.000  2.7333e-04
12.750  19.250  4.1934e-04
12.750  19.500  6.3926e-04
12.750  19.750  9.6922e-04
12.750  20.000  1.4563e-03
12.750  20.250  2.1643e-03
12.750  20.500  3.1678e-03
12.750  20.750  4.5625e-03
12.750  21.000  6.3977e-03
12.750  21.250  8.6219e-03
12.750  21.500  1.1247e-02
12.750  21.750  1.3691e-02
12.750  22.000  1.6332e-02
12.750  22.250  2.0674e-02
12.750  22.500  2.8512e-02
12.750  22.750  3.6979e-02
12.750  23.000  4.3776e-02
12.750  23.250  5.0400e-02
12.750  23.500  5.6418e-02
12.750  23.750  6.0840e-02
12.750  24.000  6.4280e-02
13.000  17.000  1.0000e-07
13.000  17.250  1.4815e-06
13.000  17.500  4.2798e-06
13.000  17.750  1.0123e-05
13.000  18.000  2.1893e-05
13.000  18.250  4.3210e-05
13.000  18.500  7.3333e-05
13.000  18.750  1.1449e-04
13.000  19.000  1.7942e-04
13.000  19.250  2.7580e-04
13.000  19.500  4.2346e-04
13.000  19.750  6.4477e-04
13.000  20.000  9.7564e-04
13.000  20.250  1.4608e-03
13.000  20.500  2.1658e-03
13.000  20.750  3.1549e-03
13.000  21.000  4.4770e-03
13.000  21.250  6.1116e-03
13.000  21.500  8.0478e-03
13.000  21.750  9.6974e-03
13.000  22.000  1.0978e-02
13.000  22.250  1.2853e-02
13.000  22.500  1.6921e-02
13.000  22.750  2.3437e-02
13.000  23.000  3.0378e-02
13.000  23.250  3.7236e-02
13.000  23.500  4.4715e-02
13.000  23.750  5.1596e-02
13.000  24.000  5.6829e-02
13.250  17.000  1.0000e-07
13.250  17.250  1.0000e-07
13.250  17.500  1.7284e-06
13.250  17.750  4.0329e-06
13.250  18.000  9.8765e-06
13.250  18.250  2.1811e-05
13.250  18.500  4.4527e-05
13.250  18.750  7.5967e-05
13.250  19.000  1.1868e-04
13.250  19.250  1.8280e-04
13.250  19.500  2.7481e-04
13.250  19.750  4.2568e-04
13.250  20.000  6.4724e-04
13.250  20.250  9.7728e-04
13.250  20.500  1.4611e-03
13.250  20.750  2.1542e-03
13.250  21.000  3.1003e-03
13.250  21.250  4.2872e-03
13.250  21.500  5.7226e-03
13.250  21.750  6.8936e-03
13.250  22.000  7.4885e-03
13.250  22.250  8.0905e-03
13.250  22.500  9.8521e-03
13.250  22.750  1.3341e-02
13.250  23.000  1.8384e-02
13.250  23.250  2.4137e-02
13.250  23.500  3.0809e-02
13.250  23.750  3.8296e-02
13.250  24.000  4.5706e-02
13.500  17.000  1.0000e-07
13.500  17.250  1.0000e-07
13.500  17.500  9.8765e-07
13.500  17.750  2.0576e-06
13.500  18.000  5.0206e-06
13.500  18.250  1.1029e-05
13.500  18.500  2.2634e-05
13.500  18.750  4.4938e-05
13.500  19.000  7.9424e-05
13.500  19.250  1.2189e-04
13.500  19.500  1.8288e-04
13.500  19.750  2.7918e-04
13.500  20.000  4.2584e-04
13.500  20.250  6.4724e-04
13.500  20.500  9.7588e-04
13.500  20.750  1.4532e-03
13.500  21.000  2.1182e-03
13.500  21.250  2.9775e-03
13.500  21.500  4.0230e-03
13.500  21.750  4.8787e-03
13.500  22.000  5.1570e-03
13.500  22.250  5.1710e-03
13.500  22.500  5.8287e-03
13.500  22.750  7.6333e-03
13.500  23.000  1.0450e-02
13.500  23.250  1.4308e-02
13.500  23.500  1.9092e-02
13.500  23.750  2.4507e-02
13.500  24.000  3.1558e-02
13.750  17.000  1.0000e-07
13.750  17.250  1.0000e-07
13.750  17.500  1.0000e-07
13.750  17.750  1.1523e-06
13.750  18.000  2.5514e-06
13.750  18.250  5.7613e-06
13.750  18.500  1.1934e-05
13.750  18.750  2.3951e-05
13.750  19.000  4.6337e-05
13.750  19.250  8.4691e-05
13.750  19.500  1.2362e-04
13.750  19.750  1.8362e-04
13.750  20.000  2.7951e-04
13.750  20.250  4.2551e-04
13.750  20.500  6.4568e-04
13.750  20.750  9.6963e-04
13.750  21.000  1.4300e-03
13.750  21.250  2.0387e-03
13.750  21.500  2.7980e-03
13.750  21.750  3.4258e-03
13.750  22.000  3.5784e-03
13.750  22.250  3.3671e-03
13.750  22.500  3.5016e-03
13.750  22.750  4.4245e-03
13.750  23.000  5.9979e-03
13.750  23.250  8.1724e-03
13.750  23.500  1.1078e-02
13.750  23.750  1.4443e-02
13.750  24.000  1.8937e-02
14.000  17.000  1.0000e-07
14.000  17.250  1.0000e-07
14.000  17.500  1.0000e-07
14.000  17.750  1.0000e-07
14.000  18.000  1.3992e-06
14.000  18.250  3.0453e-06
14.000  18.500  6.3374e-06
14.000  18.750  1.2675e-05
14.000  19.000  2.5021e-05
14.000  19.250  5.3992e-05
14.000  19.500  8.4198e-05
14.000  19.750  1.2412e-04
14.000  20.000  1.8436e-04
14.000  20.250  2.7885e-04
14.000  20.500  4.2420e-04
14.000  20.750  6.4156e-04
14.000  21.000  9.5580e-04
14.000  21.250  1.3811e-03
14.000  21.500  1.9249e-03
14.000  21.750  2.3830e-03
14.000  22.000  2.4799e-03
14.000  22.250  2.2326e-03
14.000  22.500  2.1350e-03
14.000  22.750  2.5793e-03
14.000  23.000  3.4905e-03
14.000  23.250  4.6924e-03
14.000  23.500  6.3170e-03
14.000  23.750  8.3133e-03
14.000  24.000  1.0736e-02
