InwC 1.10000m  relative to Inci 1215.00A scaled to 1215A.
Hden   Phi(H)  Eq_Width (A)
7.000  17.000  1.5454e-02
7.000  17.250  2.2409e-02
7.000  17.500  3.1588e-02
7.000  17.750  4.0256e-02
7.000  18.000  4.8003e-02
7.000  18.250  4.9324e-02
7.000  18.500  4.9868e-02
7.000  18.750  4.9825e-02
7.000  19.000  4.9774e-02
7.000  19.250  4.9766e-02
7.000  19.500  4.9753e-02
7.000  19.750  4.9754e-02
7.000  20.000  4.9754e-02
7.000  20.250  4.9754e-02
7.000  20.500  4.9754e-02
7.000  20.750  4.9754e-02
7.000  21.000  4.9754e-02
7.000  21.250  4.9754e-02
7.000  21.500  4.9754e-02
7.000  21.750  4.9754e-02
7.000  22.000  4.9755e-02
7.000  22.250  4.9754e-02
7.000  22.500  4.9754e-02
7.000  22.750  4.9755e-02
7.000  23.000  4.9755e-02
7.000  23.250  4.9754e-02
7.000  23.500  4.9754e-02
7.000  23.750  4.9754e-02
7.000  24.000  4.9755e-02
7.250  17.000  1.0692e-02
7.250  17.250  1.5876e-02
7.250  17.500  2.3100e-02
7.250  17.750  3.2471e-02
7.250  18.000  4.0907e-02
7.250  18.250  4.8010e-02
7.250  18.500  4.9332e-02
7.250  18.750  4.9867e-02
7.250  19.000  4.9825e-02
7.250  19.250  4.9774e-02
7.250  19.500  4.9765e-02
7.250  19.750  4.9753e-02
7.250  20.000  4.9753e-02
7.250  20.250  4.9754e-02
7.250  20.500  4.9754e-02
7.250  20.750  4.9754e-02
7.250  21.000  4.9754e-02
7.250  21.250  4.9754e-02
7.250  21.500  4.9754e-02
7.250  21.750  4.9754e-02
7.250  22.000  4.9754e-02
7.250  22.250  4.9754e-02
7.250  22.500  4.9754e-02
7.250  22.750  4.9754e-02
7.250  23.000  4.9754e-02
7.250  23.250  4.9754e-02
7.250  23.500  4.9754e-02
7.250  23.750  4.9754e-02
7.250  24.000  4.9755e-02
7.500  17.000  7.3609e-03
7.500  17.250  1.1036e-02
7.500  17.500  1.6554e-02
7.500  17.750  2.4154e-02
7.500  18.000  3.3772e-02
7.500  18.250  4.1616e-02
7.500  18.500  4.8014e-02
7.500  18.750  4.9343e-02
7.500  19.000  4.9867e-02
7.500  19.250  4.9825e-02
7.500  19.500  4.9774e-02
7.500  19.750  4.9766e-02
7.500  20.000  4.9753e-02
7.500  20.250  4.9753e-02
7.500  20.500  4.9754e-02
7.500  20.750  4.9754e-02
7.500  21.000  4.9754e-02
7.500  21.250  4.9754e-02
7.500  21.500  4.9754e-02
7.500  21.750  4.9754e-02
7.500  22.000  4.9754e-02
7.500  22.250  4.9754e-02
7.500  22.500  4.9754e-02
7.500  22.750  4.9754e-02
7.500  23.000  4.9754e-02
7.500  23.250  4.9754e-02
7.500  23.500  4.9754e-02
7.500  23.750  4.9754e-02
7.500  24.000  4.9758e-02
7.750  17.000  5.1200e-03
7.750  17.250  7.6299e-03
7.750  17.500  1.1603e-02
7.750  17.750  1.7652e-02
7.750  18.000  2.5770e-02
7.750  18.250  3.5559e-02
7.750  18.500  4.2481e-02
7.750  18.750  4.8020e-02
7.750  19.000  4.9353e-02
7.750  19.250  4.9868e-02
7.750  19.500  4.9825e-02
7.750  19.750  4.9773e-02
7.750  20.000  4.9767e-02
7.750  20.250  4.9753e-02
7.750  20.500  4.9754e-02
7.750  20.750  4.9754e-02
7.750  21.000  4.9754e-02
7.750  21.250  4.9754e-02
7.750  21.500  4.9754e-02
7.750  21.750  4.9754e-02
7.750  22.000  4.9754e-02
7.750  22.250  4.9754e-02
7.750  22.500  4.9754e-02
7.750  22.750  4.9754e-02
7.750  23.000  4.9754e-02
7.750  23.250  4.9754e-02
7.750  23.500  4.9754e-02
7.750  23.750  4.9754e-02
7.750  24.000  4.9754e-02
8.000  17.000  3.6208e-03
8.000  17.250  5.3060e-03
8.000  17.500  8.0565e-03
8.000  17.750  1.2560e-02
8.000  18.000  1.9414e-02
8.000  18.250  2.8208e-02
8.000  18.500  3.7370e-02
8.000  18.750  4.3260e-02
8.000  19.000  4.8021e-02
8.000  19.250  4.9360e-02
8.000  19.500  4.9868e-02
8.000  19.750  4.9825e-02
8.000  20.000  4.9773e-02
8.000  20.250  4.9767e-02
8.000  20.500  4.9753e-02
8.000  20.750  4.9754e-02
8.000  21.000  4.9754e-02
8.000  21.250  4.9754e-02
8.000  21.500  4.9754e-02
8.000  21.750  4.9754e-02
8.000  22.000  4.9754e-02
8.000  22.250  4.9754e-02
8.000  22.500  4.9754e-02
8.000  22.750  4.9754e-02
8.000  23.000  4.9754e-02
8.000  23.250  4.9754e-02
8.000  23.500  4.9754e-02
8.000  23.750  4.9754e-02
8.000  24.000  4.9754e-02
8.250  17.000  2.6044e-03
8.250  17.250  3.7675e-03
8.250  17.500  5.6514e-03
8.250  17.750  8.8654e-03
8.250  18.000  1.4286e-02
8.250  18.250  2.2241e-02
8.250  18.500  3.1208e-02
8.250  18.750  3.9587e-02
8.250  19.000  4.4171e-02
8.250  19.250  4.8023e-02
8.250  19.500  4.9374e-02
8.250  19.750  4.9867e-02
8.250  20.000  4.9827e-02
8.250  20.250  4.9774e-02
8.250  20.500  4.9766e-02
8.250  20.750  4.9753e-02
8.250  21.000  4.9754e-02
8.250  21.250  4.9754e-02
8.250  21.500  4.9754e-02
8.250  21.750  4.9754e-02
8.250  22.000  4.9754e-02
8.250  22.250  4.9754e-02
8.250  22.500  4.9754e-02
8.250  22.750  4.9754e-02
8.250  23.000  4.9754e-02
8.250  23.250  4.9754e-02
8.250  23.500  4.9754e-02
8.250  23.750  4.9754e-02
8.250  24.000  4.9754e-02
8.500  17.000  1.8895e-03
8.500  17.250  2.7137e-03
8.500  17.500  4.0248e-03
8.500  17.750  6.2834e-03
8.500  18.000  1.0332e-02
8.500  18.250  1.7019e-02
8.500  18.500  2.5485e-02
8.500  18.750  3.4016e-02
8.500  19.000  4.1213e-02
8.500  19.250  4.4846e-02
8.500  19.500  4.8016e-02
8.500  19.750  4.9391e-02
8.500  20.000  4.9867e-02
8.500  20.250  4.9825e-02
8.500  20.500  4.9774e-02
8.500  20.750  4.9766e-02
8.500  21.000  4.9753e-02
8.500  21.250  4.9753e-02
8.500  21.500  4.9754e-02
8.500  21.750  4.9754e-02
8.500  22.000  4.9754e-02
8.500  22.250  4.9754e-02
8.500  22.500  4.9754e-02
8.500  22.750  4.9754e-02
8.500  23.000  4.9754e-02
8.500  23.250  4.9754e-02
8.500  23.500  4.9754e-02
8.500  23.750  4.9754e-02
8.500  24.000  4.9754e-02
8.750  17.000  1.3716e-03
8.750  17.250  1.9705e-03
8.750  17.500  2.9029e-03
8.750  17.750  4.4978e-03
8.750  18.000  7.4134e-03
8.750  18.250  1.2630e-02
8.750  18.500  2.0080e-02
8.750  18.750  2.8460e-02
8.750  19.000  3.6588e-02
8.750  19.250  4.1898e-02
8.750  19.500  4.5567e-02
8.750  19.750  4.8001e-02
8.750  20.000  4.9410e-02
8.750  20.250  4.9867e-02
8.750  20.500  4.9824e-02
8.750  20.750  4.9774e-02
8.750  21.000  4.9766e-02
8.750  21.250  4.9753e-02
8.750  21.500  4.9754e-02
8.750  21.750  4.9754e-02
8.750  22.000  4.9754e-02
8.750  22.250  4.9754e-02
8.750  22.500  4.9754e-02
8.750  22.750  4.9754e-02
8.750  23.000  4.9754e-02
8.750  23.250  4.9754e-02
8.750  23.500  4.9754e-02
8.750  23.750  4.9754e-02
8.750  24.000  4.9754e-02
9.000  17.000  9.9391e-04
9.000  17.250  1.4318e-03
9.000  17.500  2.1100e-03
9.000  17.750  3.2597e-03
9.000  18.000  5.3900e-03
9.000  18.250  9.2851e-03
9.000  18.500  1.5348e-02
9.000  18.750  2.2871e-02
9.000  19.000  3.1100e-02
9.000  19.250  3.8939e-02
9.000  19.500  4.2781e-02
9.000  19.750  4.6124e-02
9.000  20.000  4.7960e-02
9.000  20.250  4.9432e-02
9.000  20.500  4.9866e-02
9.000  20.750  4.9823e-02
9.000  21.000  4.9773e-02
9.000  21.250  4.9766e-02
9.000  21.500  4.9753e-02
9.000  21.750  4.9754e-02
9.000  22.000  4.9754e-02
9.000  22.250  4.9754e-02
9.000  22.500  4.9754e-02
9.000  22.750  4.9754e-02
9.000  23.000  4.9754e-02
9.000  23.250  4.9754e-02
9.000  23.500  4.9754e-02
9.000  23.750  4.9754e-02
9.000  24.000  4.9754e-02
9.250  17.000  7.1720e-04
9.250  17.250  1.0384e-03
9.250  17.500  1.5359e-03
9.250  17.750  2.3786e-03
9.250  18.000  3.9787e-03
9.250  18.250  6.9005e-03
9.250  18.500  1.1495e-02
9.250  18.750  1.7686e-02
9.250  19.000  2.5085e-02
9.250  19.250  3.2861e-02
9.250  19.500  3.9778e-02
9.250  19.750  4.3389e-02
9.250  20.000  4.6721e-02
9.250  20.250  4.7896e-02
9.250  20.500  4.9452e-02
9.250  20.750  4.9865e-02
9.250  21.000  4.9822e-02
9.250  21.250  4.9773e-02
9.250  21.500  4.9766e-02
9.250  21.750  4.9745e-02
9.250  22.000  4.9708e-02
9.250  22.250  4.9746e-02
9.250  22.500  4.9754e-02
9.250  22.750  4.9754e-02
9.250  23.000  4.9754e-02
9.250  23.250  4.9754e-02
9.250  23.500  4.9754e-02
9.250  23.750  4.9754e-02
9.250  24.000  4.9754e-02
9.500  17.000  5.1556e-04
9.500  17.250  7.5053e-04
9.500  17.500  1.1184e-03
9.500  17.750  1.7436e-03
9.500  18.000  2.9566e-03
9.500  18.250  5.1984e-03
9.500  18.500  8.6784e-03
9.500  18.750  1.3364e-02
9.500  19.000  1.9394e-02
9.500  19.250  2.6744e-02
9.500  19.500  3.4427e-02
9.500  19.750  4.0445e-02
9.500  20.000  4.4112e-02
9.500  20.250  4.6630e-02
9.500  20.500  4.7825e-02
9.500  20.750  4.9470e-02
9.500  21.000  4.9860e-02
9.500  21.250  4.9815e-02
9.500  21.500  4.9751e-02
9.500  21.750  4.9707e-02
9.500  22.000  4.9643e-02
9.500  22.250  4.9610e-02
9.500  22.500  4.9590e-02
9.500  22.750  4.9575e-02
9.500  23.000  4.9564e-02
9.500  23.250  4.9561e-02
9.500  23.500  4.9639e-02
9.500  23.750  4.9639e-02
9.500  24.000  4.9639e-02
9.750  17.000  3.6955e-04
9.750  17.250  5.4091e-04
9.750  17.500  8.1070e-04
9.750  17.750  1.2804e-03
9.750  18.000  2.2021e-03
9.750  18.250  3.9198e-03
9.750  18.500  6.5695e-03
9.750  18.750  1.0074e-02
9.750  19.000  1.4635e-02
9.750  19.250  2.0622e-02
9.750  19.500  2.7917e-02
9.750  19.750  3.6376e-02
9.750  20.000  4.1185e-02
9.750  20.250  4.4597e-02
9.750  20.500  4.6483e-02
9.750  20.750  4.7771e-02
9.750  21.000  4.9483e-02
9.750  21.250  4.9856e-02
9.750  21.500  4.9819e-02
9.750  21.750  4.9764e-02
9.750  22.000  4.9708e-02
9.750  22.250  4.9650e-02
9.750  22.500  4.9624e-02
9.750  22.750  4.9611e-02
9.750  23.000  4.9601e-02
9.750  23.250  4.9593e-02
9.750  23.500  4.9590e-02
9.750  23.750  4.9586e-02
9.750  24.000  4.9584e-02
10.000  17.000  2.6403e-04
10.000  17.250  3.8790e-04
10.000  17.500  5.8584e-04
10.000  17.750  9.3671e-04
10.000  18.000  1.6269e-03
10.000  18.250  2.9263e-03
10.000  18.500  4.9252e-03
10.000  18.750  7.5285e-03
10.000  19.000  1.0923e-02
10.000  19.250  1.5476e-02
10.000  19.500  2.1446e-02
10.000  19.750  2.9503e-02
10.000  20.000  3.6761e-02
10.000  20.250  4.1760e-02
10.000  20.500  4.5123e-02
10.000  20.750  4.6340e-02
10.000  21.000  4.7724e-02
10.000  21.250  4.9505e-02
10.000  21.500  4.9850e-02
10.000  21.750  4.9818e-02
10.000  22.000  4.9768e-02
10.000  22.250  4.9727e-02
10.000  22.500  4.9653e-02
10.000  22.750  4.9632e-02
10.000  23.000  4.9625e-02
10.000  23.250  4.9619e-02
10.000  23.500  4.9613e-02
10.000  23.750  4.9611e-02
10.000  24.000  4.9609e-02
10.250  17.000  1.8905e-04
10.250  17.250  2.7737e-04
10.250  17.500  4.2091e-04
10.250  17.750  6.8272e-04
10.250  18.000  1.2082e-03
10.250  18.250  2.1650e-03
10.250  18.500  3.6334e-03
10.250  18.750  5.5484e-03
10.250  19.000  8.0755e-03
10.250  19.250  1.1467e-02
10.250  19.500  1.6085e-02
10.250  19.750  2.2320e-02
10.250  20.000  3.0316e-02
10.250  20.250  3.7093e-02
10.250  20.500  4.2279e-02
10.250  20.750  4.5097e-02
10.250  21.000  4.6219e-02
10.250  21.250  4.7702e-02
10.250  21.500  4.9529e-02
10.250  21.750  4.9835e-02
10.250  22.000  4.9815e-02
10.250  22.250  4.9767e-02
10.250  22.500  4.9752e-02
10.250  22.750  4.9660e-02
10.250  23.000  4.9636e-02
10.250  23.250  4.9633e-02
10.250  23.500  4.9629e-02
10.250  23.750  4.9625e-02
10.250  24.000  4.9625e-02
10.500  17.000  1.3572e-04
10.500  17.250  1.9827e-04
10.500  17.500  3.0140e-04
10.500  17.750  4.9358e-04
10.500  18.000  8.8362e-04
10.500  18.250  1.5853e-03
10.500  18.500  2.6384e-03
10.500  18.750  4.0207e-03
10.500  19.000  5.8538e-03
10.500  19.250  8.3716e-03
10.500  19.500  1.1825e-02
10.500  19.750  1.6563e-02
10.500  20.000  2.2894e-02
10.500  20.250  3.0781e-02
10.500  20.500  3.7519e-02
10.500  20.750  4.2804e-02
10.500  21.000  4.4898e-02
10.500  21.250  4.6089e-02
10.500  21.500  4.7819e-02
10.500  21.750  4.9493e-02
10.500  22.000  4.9807e-02
10.500  22.250  4.9808e-02
10.500  22.500  4.9764e-02
10.500  22.750  4.9759e-02
10.500  23.000  4.9710e-02
10.500  23.250  4.9643e-02
10.500  23.500  4.9636e-02
10.500  23.750  4.9635e-02
10.500  24.000  4.9633e-02
10.750  17.000  9.7778e-05
10.750  17.250  1.4206e-04
10.750  17.500  2.1564e-04
10.750  17.750  3.5481e-04
10.750  18.000  6.3934e-04
10.750  18.250  1.1500e-03
10.750  18.500  1.8931e-03
10.750  18.750  2.8724e-03
10.750  19.000  4.2139e-03
10.750  19.250  6.0723e-03
10.750  19.500  8.6152e-03
10.750  19.750  1.2139e-02
10.750  20.000  1.6906e-02
10.750  20.250  2.3244e-02
10.750  20.500  3.1075e-02
10.750  20.750  3.7830e-02
10.750  21.000  4.3026e-02
10.750  21.250  4.4620e-02
10.750  21.500  4.6126e-02
10.750  21.750  4.7941e-02
10.750  22.000  4.9415e-02
10.750  22.250  4.9767e-02
10.750  22.500  4.9795e-02
10.750  22.750  4.9760e-02
10.750  23.000  4.9760e-02
10.750  23.250  4.9738e-02
10.750  23.500  4.9682e-02
10.750  23.750  4.9646e-02
10.750  24.000  4.9638e-02
11.000  17.000  7.0288e-05
11.000  17.250  1.0198e-04
11.000  17.500  1.5416e-04
11.000  17.750  2.5325e-04
11.000  18.000  4.5333e-04
11.000  18.250  8.0815e-04
11.000  18.500  1.3181e-03
11.000  18.750  2.0063e-03
11.000  19.000  2.9723e-03
11.000  19.250  4.3348e-03
11.000  19.500  6.2267e-03
11.000  19.750  8.8062e-03
11.000  20.000  1.2327e-02
11.000  20.250  1.7084e-02
11.000  20.500  2.3361e-02
11.000  20.750  3.1053e-02
11.000  21.000  3.7852e-02
11.000  21.250  4.2775e-02
11.000  21.500  4.4587e-02
11.000  21.750  4.6055e-02
11.000  22.000  4.8066e-02
11.000  22.250  4.9290e-02
11.000  22.500  4.9707e-02
11.000  22.750  4.9779e-02
11.000  23.000  4.9751e-02
11.000  23.250  4.9758e-02
11.000  23.500  4.9746e-02
11.000  23.750  4.9730e-02
11.000  24.000  4.9688e-02
11.250  17.000  5.1111e-05
11.250  17.250  7.2840e-05
11.250  17.500  1.1004e-04
11.250  17.750  1.7942e-04
11.250  18.000  3.1827e-04
11.250  18.250  5.5605e-04
11.250  18.500  8.8979e-04
11.250  18.750  1.3960e-03
11.250  19.000  2.0821e-03
11.250  19.250  3.0585e-03
11.250  19.500  4.4296e-03
11.250  19.750  6.3257e-03
11.250  20.000  8.9173e-03
11.250  20.250  1.2428e-02
11.250  20.500  1.7102e-02
11.250  20.750  2.3130e-02
11.250  21.000  3.0554e-02
11.250  21.250  3.7399e-02
11.250  21.500  4.2469e-02
11.250  21.750  4.4190e-02
11.250  22.000  4.5902e-02
11.250  22.250  4.8043e-02
11.250  22.500  4.9082e-02
11.250  22.750  4.9621e-02
11.250  23.000  4.9753e-02
11.250  23.250  4.9738e-02
11.250  23.500  4.9754e-02
11.250  23.750  4.9748e-02
11.250  24.000  4.9745e-02
11.500  17.000  3.8025e-05
11.500  17.250  5.2757e-05
11.500  17.500  7.7942e-05
11.500  17.750  1.2584e-04
11.500  18.000  2.1975e-04
11.500  18.250  3.7605e-04
11.500  18.500  6.0379e-04
11.500  18.750  9.4658e-04
11.500  19.000  1.4400e-03
11.500  19.250  2.1353e-03
11.500  19.500  3.1235e-03
11.500  19.750  4.4995e-03
11.500  20.000  6.3998e-03
11.500  20.250  8.9653e-03
11.500  20.500  1.2393e-02
11.500  20.750  1.6819e-02
11.500  21.000  2.2383e-02
11.500  21.250  2.9383e-02
11.500  21.500  3.6951e-02
11.500  21.750  4.1458e-02
11.500  22.000  4.3596e-02
11.500  22.250  4.5583e-02
11.500  22.500  4.7754e-02
11.500  22.750  4.8788e-02
11.500  23.000  4.9498e-02
11.500  23.250  4.9713e-02
11.500  23.500  4.9717e-02
11.500  23.750  4.9748e-02
11.500  24.000  4.9747e-02
11.750  17.000  2.6502e-05
11.750  17.250  3.9095e-05
11.750  17.500  5.6049e-05
11.750  17.750  8.7737e-05
11.750  18.000  1.4955e-04
11.750  18.250  2.5136e-04
11.750  18.500  4.0444e-04
11.750  18.750  6.4132e-04
11.750  19.000  9.8058e-04
11.750  19.250  1.4762e-03
11.750  19.500  2.1778e-03
11.750  19.750  3.1672e-03
11.750  20.000  4.5481e-03
11.750  20.250  6.4278e-03
11.750  20.500  8.9380e-03
11.750  20.750  1.2149e-02
11.750  21.000  1.6123e-02
11.750  21.250  2.0983e-02
11.750  21.500  2.8141e-02
11.750  21.750  3.5415e-02
11.750  22.000  4.0013e-02
11.750  22.250  4.2660e-02
11.750  22.500  4.4979e-02
11.750  22.750  4.7192e-02
11.750  23.000  4.8368e-02
11.750  23.250  4.9313e-02
11.750  23.500  4.9660e-02
11.750  23.750  4.9685e-02
11.750  24.000  4.9739e-02
12.000  17.000  1.3086e-05
12.000  17.250  2.8642e-05
12.000  17.500  4.1317e-05
12.000  17.750  6.1893e-05
12.000  18.000  1.0115e-04
12.000  18.250  1.6757e-04
12.000  18.500  2.7317e-04
12.000  18.750  4.3210e-04
12.000  19.000  6.6700e-04
12.000  19.250  1.0045e-03
12.000  19.500  1.4977e-03
12.000  19.750  2.2048e-03
12.000  20.000  3.1930e-03
12.000  20.250  4.5634e-03
12.000  20.500  6.3898e-03
12.000  20.750  8.7461e-03
12.000  21.000  1.1598e-02
12.000  21.250  1.4880e-02
12.000  21.500  1.9602e-02
12.000  21.750  2.5851e-02
12.000  22.000  3.2945e-02
12.000  22.250  3.7978e-02
12.000  22.500  4.1197e-02
12.000  22.750  4.4034e-02
12.000  23.000  4.6323e-02
12.000  23.250  4.7752e-02
12.000  23.500  4.9029e-02
12.000  23.750  4.9575e-02
12.000  24.000  4.9637e-02
12.250  17.000  6.2551e-06
12.250  17.250  1.4815e-05
12.250  17.500  3.0864e-05
12.250  17.750  4.5103e-05
12.250  18.000  6.9959e-05
12.250  18.250  1.1366e-04
12.250  18.500  1.8412e-04
12.250  18.750  2.8872e-04
12.250  19.000  4.4650e-04
12.250  19.250  6.7852e-04
12.250  19.500  1.0212e-03
12.250  19.750  1.5170e-03
12.250  20.000  2.2219e-03
12.250  20.250  3.2035e-03
12.250  20.500  4.5342e-03
12.250  20.750  6.2449e-03
12.250  21.000  8.3392e-03
12.250  21.250  1.0629e-02
12.250  21.500  1.3678e-02
12.250  21.750  1.7248e-02
12.250  22.000  2.2935e-02
12.250  22.250  2.9768e-02
12.250  22.500  3.5255e-02
12.250  22.750  3.9056e-02
12.250  23.000  4.2440e-02
12.250  23.250  4.5048e-02
12.250  23.500  4.6852e-02
12.250  23.750  4.8602e-02
12.250  24.000  4.9448e-02
12.500  17.000  3.1276e-06
12.500  17.250  6.8313e-06
12.500  17.500  1.6132e-05
12.500  17.750  3.3663e-05
12.500  18.000  5.0864e-05
12.500  18.250  7.8930e-05
12.500  18.500  1.2370e-04
12.500  18.750  1.9259e-04
12.500  19.000  2.9802e-04
12.500  19.250  4.5588e-04
12.500  19.500  6.8914e-04
12.500  19.750  1.0310e-03
12.500  20.000  1.5269e-03
12.500  20.250  2.2262e-03
12.500  20.500  3.1816e-03
12.500  20.750  4.4347e-03
12.500  21.000  5.9631e-03
12.500  21.250  7.6236e-03
12.500  21.500  9.6965e-03
12.500  21.750  1.1614e-02
12.500  22.000  1.4499e-02
12.500  22.250  1.9736e-02
12.500  22.500  2.6449e-02
12.500  22.750  3.1646e-02
12.500  23.000  3.6043e-02
12.500  23.250  4.0110e-02
12.500  23.500  4.3226e-02
12.500  23.750  4.5544e-02
12.500  24.000  4.7961e-02
12.750  17.000  1.5638e-06
12.750  17.250  3.3745e-06
12.750  17.500  7.4897e-06
12.750  17.750  1.6296e-05
12.750  18.000  3.3745e-05
12.750  18.250  5.5226e-05
12.750  18.500  8.3621e-05
12.750  18.750  1.2790e-04
12.750  19.000  1.9728e-04
12.750  19.250  3.0305e-04
12.750  19.500  4.6115e-04
12.750  19.750  6.9630e-04
12.750  20.000  1.0393e-03
12.750  20.250  1.5299e-03
12.750  20.500  2.2083e-03
12.750  20.750  3.1163e-03
12.750  21.000  4.2392e-03
12.750  21.250  5.4629e-03
12.750  21.500  6.9411e-03
12.750  21.750  8.0095e-03
12.750  22.000  9.2607e-03
12.750  22.250  1.1792e-02
12.750  22.500  1.6615e-02
12.750  22.750  2.2222e-02
12.750  23.000  2.7148e-02
12.750  23.250  3.2210e-02
12.750  23.500  3.7010e-02
12.750  23.750  4.0701e-02
12.750  24.000  4.3662e-02
13.000  17.000  1.0000e-07
13.000  17.250  9.8765e-07
13.000  17.500  2.7984e-06
13.000  17.750  6.7490e-06
13.000  18.000  1.4733e-05
13.000  18.250  2.9547e-05
13.000  18.500  5.1276e-05
13.000  18.750  8.1481e-05
13.000  19.000  1.2914e-04
13.000  19.250  1.9951e-04
13.000  19.500  3.0634e-04
13.000  19.750  4.6510e-04
13.000  20.000  6.9975e-04
13.000  20.250  1.0383e-03
13.000  20.500  1.5189e-03
13.000  20.750  2.1686e-03
13.000  21.000  2.9858e-03
13.000  21.250  3.8937e-03
13.000  21.500  4.9784e-03
13.000  21.750  5.6202e-03
13.000  22.000  6.0515e-03
13.000  22.250  7.0704e-03
13.000  22.500  9.5189e-03
13.000  22.750  1.3350e-02
13.000  23.000  1.7717e-02
13.000  23.250  2.2432e-02
13.000  23.500  2.7860e-02
13.000  23.750  3.3124e-02
13.000  24.000  3.7345e-02
13.250  17.000  1.0000e-07
13.250  17.250  1.0000e-07
13.250  17.500  1.1523e-06
13.250  17.750  2.7160e-06
13.250  18.000  6.5844e-06
13.250  18.250  1.4733e-05
13.250  18.500  3.0535e-05
13.250  18.750  5.3251e-05
13.250  19.000  8.4691e-05
13.250  19.250  1.3193e-04
13.250  19.500  1.9885e-04
13.250  19.750  3.0807e-04
13.250  20.000  4.6626e-04
13.250  20.250  6.9844e-04
13.250  20.500  1.0310e-03
13.250  20.750  1.4911e-03
13.250  21.000  2.0830e-03
13.250  21.250  2.7513e-03
13.250  21.500  3.5586e-03
13.250  21.750  3.9822e-03
13.250  22.000  4.0403e-03
13.250  22.250  4.3120e-03
13.250  22.500  5.4128e-03
13.250  22.750  7.4437e-03
13.250  23.000  1.0301e-02
13.250  23.250  1.3776e-02
13.250  23.500  1.8102e-02
13.250  23.750  2.3210e-02
13.250  24.000  2.8567e-02
13.500  17.000  1.0000e-07
13.500  17.250  1.0000e-07
13.500  17.500  1.0000e-07
13.500  17.750  1.3992e-06
13.500  18.000  3.3745e-06
13.500  18.250  7.4074e-06
13.500  18.500  1.5391e-05
13.500  18.750  3.0947e-05
13.500  19.000  5.5720e-05
13.500  19.250  8.7160e-05
13.500  19.500  1.3218e-04
13.500  19.750  2.0230e-04
13.500  20.000  3.0782e-04
13.500  20.250  4.6469e-04
13.500  20.500  6.9276e-04
13.500  20.750  1.0131e-03
13.500  21.000  1.4351e-03
13.500  21.250  1.9275e-03
13.500  21.500  2.5198e-03
13.500  21.750  2.8244e-03
13.500  22.000  2.7434e-03
13.500  22.250  2.6790e-03
13.500  22.500  3.1432e-03
13.500  22.750  4.2190e-03
13.500  23.000  5.8056e-03
13.500  23.250  7.9742e-03
13.500  23.500  1.0763e-02
13.500  23.750  1.4131e-02
13.500  24.000  1.8622e-02
13.750  17.000  1.0000e-07
13.750  17.250  1.0000e-07
13.750  17.500  1.0000e-07
13.750  17.750  1.0000e-07
13.750  18.000  1.7284e-06
13.750  18.250  3.8683e-06
13.750  18.500  8.0658e-06
13.750  18.750  1.6296e-05
13.750  19.000  3.1934e-05
13.750  19.250  5.9342e-05
13.750  19.500  8.8477e-05
13.750  19.750  1.3267e-04
13.750  20.000  2.0222e-04
13.750  20.250  3.0658e-04
13.750  20.500  4.6066e-04
13.750  20.750  6.8041e-04
13.750  21.000  9.7671e-04
13.750  21.250  1.3328e-03
13.750  21.500  1.7686e-03
13.750  21.750  1.9932e-03
13.750  22.000  1.8904e-03
13.750  22.250  1.7007e-03
13.750  22.500  1.8551e-03
13.750  22.750  2.4367e-03
13.750  23.000  3.3157e-03
13.750  23.250  4.5210e-03
13.750  23.500  6.1456e-03
13.750  23.750  8.1047e-03
13.750  24.000  1.0804e-02
14.000  17.000  1.0000e-07
14.000  17.250  1.0000e-07
14.000  17.500  1.0000e-07
14.000  17.750  1.0000e-07
14.000  18.000  9.0535e-07
14.000  18.250  2.0576e-06
14.000  18.500  4.2798e-06
14.000  18.750  8.5597e-06
14.000  19.000  1.7037e-05
14.000  19.250  3.6955e-05
14.000  19.500  5.9095e-05
14.000  19.750  8.8807e-05
14.000  20.000  1.3309e-04
14.000  20.250  2.0115e-04
14.000  20.500  3.0379e-04
14.000  20.750  4.5267e-04
14.000  21.000  6.5761e-04
14.000  21.250  9.1095e-04
14.000  21.500  1.2278e-03
14.000  21.750  1.3962e-03
14.000  22.000  1.3068e-03
14.000  22.250  1.1046e-03
14.000  22.500  1.1077e-03
14.000  22.750  1.4167e-03
14.000  23.000  1.9255e-03
14.000  23.250  2.5814e-03
14.000  23.500  3.4776e-03
14.000  23.750  4.5932e-03
14.000  24.000  6.0331e-03
