InwC 8078.61A  relative to Inci 1215.00A scaled to 1215A.
Hden   Phi(H)  Eq_Width (A)
7.000  17.000  3.0748e-02
7.000  17.250  4.4579e-02
7.000  17.500  6.2833e-02
7.000  17.750  8.0072e-02
7.000  18.000  9.5485e-02
7.000  18.250  9.8115e-02
7.000  18.500  9.9197e-02
7.000  18.750  9.9111e-02
7.000  19.000  9.9009e-02
7.000  19.250  9.8994e-02
7.000  19.500  9.8968e-02
7.000  19.750  9.8969e-02
7.000  20.000  9.8970e-02
7.000  20.250  9.8970e-02
7.000  20.500  9.8970e-02
7.000  20.750  9.8970e-02
7.000  21.000  9.8970e-02
7.000  21.250  9.8970e-02
7.000  21.500  9.8970e-02
7.000  21.750  9.8971e-02
7.000  22.000  9.8971e-02
7.000  22.250  9.8970e-02
7.000  22.500  9.8970e-02
7.000  22.750  9.8971e-02
7.000  23.000  9.8971e-02
7.000  23.250  9.8970e-02
7.000  23.500  9.8970e-02
7.000  23.750  9.8970e-02
7.000  24.000  9.8971e-02
7.250  17.000  2.1278e-02
7.250  17.250  3.1585e-02
7.250  17.500  4.5945e-02
7.250  17.750  6.4575e-02
7.250  18.000  8.1357e-02
7.250  18.250  9.5498e-02
7.250  18.500  9.8130e-02
7.250  18.750  9.9195e-02
7.250  19.000  9.9111e-02
7.250  19.250  9.9009e-02
7.250  19.500  9.8992e-02
7.250  19.750  9.8967e-02
7.250  20.000  9.8968e-02
7.250  20.250  9.8969e-02
7.250  20.500  9.8970e-02
7.250  20.750  9.8970e-02
7.250  21.000  9.8970e-02
7.250  21.250  9.8970e-02
7.250  21.500  9.8970e-02
7.250  21.750  9.8970e-02
7.250  22.000  9.8970e-02
7.250  22.250  9.8970e-02
7.250  22.500  9.8970e-02
7.250  22.750  9.8971e-02
7.250  23.000  9.8970e-02
7.250  23.250  9.8970e-02
7.250  23.500  9.8970e-02
7.250  23.750  9.8970e-02
7.250  24.000  9.8971e-02
7.500  17.000  1.4653e-02
7.500  17.250  2.1957e-02
7.500  17.500  3.2921e-02
7.500  17.750  4.8015e-02
7.500  18.000  6.7118e-02
7.500  18.250  8.2738e-02
7.500  18.500  9.5502e-02
7.500  18.750  9.8152e-02
7.500  19.000  9.9195e-02
7.500  19.250  9.9110e-02
7.500  19.500  9.9009e-02
7.500  19.750  9.8992e-02
7.500  20.000  9.8967e-02
7.500  20.250  9.8968e-02
7.500  20.500  9.8970e-02
7.500  20.750  9.8970e-02
7.500  21.000  9.8970e-02
7.500  21.250  9.8970e-02
7.500  21.500  9.8970e-02
7.500  21.750  9.8970e-02
7.500  22.000  9.8970e-02
7.500  22.250  9.8971e-02
7.500  22.500  9.8970e-02
7.500  22.750  9.8970e-02
7.500  23.000  9.8970e-02
7.500  23.250  9.8971e-02
7.500  23.500  9.8971e-02
7.500  23.750  9.8970e-02
7.500  24.000  9.8978e-02
7.750  17.000  1.0196e-02
7.750  17.250  1.5184e-02
7.750  17.500  2.3072e-02
7.750  17.750  3.5064e-02
7.750  18.000  5.1138e-02
7.750  18.250  7.0540e-02
7.750  18.500  8.4373e-02
7.750  18.750  9.5499e-02
7.750  19.000  9.8172e-02
7.750  19.250  9.9197e-02
7.750  19.500  9.9110e-02
7.750  19.750  9.9007e-02
7.750  20.000  9.8995e-02
7.750  20.250  9.8968e-02
7.750  20.500  9.8969e-02
7.750  20.750  9.8969e-02
7.750  21.000  9.8970e-02
7.750  21.250  9.8970e-02
7.750  21.500  9.8970e-02
7.750  21.750  9.8970e-02
7.750  22.000  9.8970e-02
7.750  22.250  9.8970e-02
7.750  22.500  9.8970e-02
7.750  22.750  9.8970e-02
7.750  23.000  9.8970e-02
7.750  23.250  9.8970e-02
7.750  23.500  9.8970e-02
7.750  23.750  9.8970e-02
7.750  24.000  9.8970e-02
8.000  17.000  7.2147e-03
8.000  17.250  1.0563e-02
8.000  17.500  1.6020e-02
8.000  17.750  2.4928e-02
8.000  18.000  3.8431e-02
8.000  18.250  5.5719e-02
8.000  18.500  7.3826e-02
8.000  18.750  8.5749e-02
8.000  19.000  9.5468e-02
8.000  19.250  9.8184e-02
8.000  19.500  9.9196e-02
8.000  19.750  9.9111e-02
8.000  20.000  9.9007e-02
8.000  20.250  9.8995e-02
8.000  20.500  9.8968e-02
8.000  20.750  9.8969e-02
8.000  21.000  9.8969e-02
8.000  21.250  9.8969e-02
8.000  21.500  9.8970e-02
8.000  21.750  9.8970e-02
8.000  22.000  9.8970e-02
8.000  22.250  9.8970e-02
8.000  22.500  9.8970e-02
8.000  22.750  9.8970e-02
8.000  23.000  9.8969e-02
8.000  23.250  9.8970e-02
8.000  23.500  9.8970e-02
8.000  23.750  9.8970e-02
8.000  24.000  9.8971e-02
8.250  17.000  5.1931e-03
8.250  17.250  7.5034e-03
8.250  17.500  1.1239e-02
8.250  17.750  1.7584e-02
8.250  18.000  2.8202e-02
8.250  18.250  4.3666e-02
8.250  18.500  6.1078e-02
8.250  18.750  7.7620e-02
8.250  19.000  8.7202e-02
8.250  19.250  9.5400e-02
8.250  19.500  9.8210e-02
8.250  19.750  9.9195e-02
8.250  20.000  9.9114e-02
8.250  20.250  9.9009e-02
8.250  20.500  9.8992e-02
8.250  20.750  9.8967e-02
8.250  21.000  9.8969e-02
8.250  21.250  9.8969e-02
8.250  21.500  9.8970e-02
8.250  21.750  9.8969e-02
8.250  22.000  9.8970e-02
8.250  22.250  9.8970e-02
8.250  22.500  9.8970e-02
8.250  22.750  9.8970e-02
8.250  23.000  9.8970e-02
8.250  23.250  9.8970e-02
8.250  23.500  9.8970e-02
8.250  23.750  9.8970e-02
8.250  24.000  9.8970e-02
8.500  17.000  3.7714e-03
8.500  17.250  5.4078e-03
8.500  17.500  8.0051e-03
8.500  17.750  1.2457e-02
8.500  18.000  2.0351e-02
8.500  18.250  3.3210e-02
8.500  18.500  4.9339e-02
8.500  18.750  6.5709e-02
8.500  19.000  8.0016e-02
8.500  19.250  8.8078e-02
8.500  19.500  9.5258e-02
8.500  19.750  9.8236e-02
8.500  20.000  9.9194e-02
8.500  20.250  9.9110e-02
8.500  20.500  9.9009e-02
8.500  20.750  9.8992e-02
8.500  21.000  9.8968e-02
8.500  21.250  9.8969e-02
8.500  21.500  9.8970e-02
8.500  21.750  9.8970e-02
8.500  22.000  9.8969e-02
8.500  22.250  9.8970e-02
8.500  22.500  9.8969e-02
8.500  22.750  9.8969e-02
8.500  23.000  9.8969e-02
8.500  23.250  9.8970e-02
8.500  23.500  9.8970e-02
8.500  23.750  9.8970e-02
8.500  24.000  9.8970e-02
8.750  17.000  2.7414e-03
8.750  17.250  3.9297e-03
8.750  17.500  5.7750e-03
8.750  17.750  8.9136e-03
8.750  18.000  1.4582e-02
8.750  18.250  2.4542e-02
8.750  18.500  3.8505e-02
8.750  18.750  5.4140e-02
8.750  19.000  6.9480e-02
8.750  19.250  8.0406e-02
8.750  19.500  8.8974e-02
8.750  19.750  9.4968e-02
8.750  20.000  9.8259e-02
8.750  20.250  9.9193e-02
8.750  20.500  9.9108e-02
8.750  20.750  9.9009e-02
8.750  21.000  9.8993e-02
8.750  21.250  9.8967e-02
8.750  21.500  9.8969e-02
8.750  21.750  9.8969e-02
8.750  22.000  9.8970e-02
8.750  22.250  9.8970e-02
8.750  22.500  9.8970e-02
8.750  22.750  9.8970e-02
8.750  23.000  9.8970e-02
8.750  23.250  9.8970e-02
8.750  23.500  9.8970e-02
8.750  23.750  9.8970e-02
8.750  24.000  9.8970e-02
9.000  17.000  1.9904e-03
9.000  17.250  2.8588e-03
9.000  17.500  4.1993e-03
9.000  17.750  6.4574e-03
9.000  18.000  1.0590e-02
9.000  18.250  1.7998e-02
9.000  18.500  2.9223e-02
9.000  18.750  4.2823e-02
9.000  19.000  5.7632e-02
9.000  19.250  7.2290e-02
9.000  19.500  8.1016e-02
9.000  19.750  8.9655e-02
9.000  20.000  9.4606e-02
9.000  20.250  9.8267e-02
9.000  20.500  9.9192e-02
9.000  20.750  9.9108e-02
9.000  21.000  9.9006e-02
9.000  21.250  9.8993e-02
9.000  21.500  9.8968e-02
9.000  21.750  9.8969e-02
9.000  22.000  9.8969e-02
9.000  22.250  9.8970e-02
9.000  22.500  9.8970e-02
9.000  22.750  9.8970e-02
9.000  23.000  9.8970e-02
9.000  23.250  9.8970e-02
9.000  23.500  9.8971e-02
9.000  23.750  9.8970e-02
9.000  24.000  9.8970e-02
9.250  17.000  1.4402e-03
9.250  17.250  2.0767e-03
9.250  17.500  3.0589e-03
9.250  17.750  4.7105e-03
9.250  18.000  7.8073e-03
9.250  18.250  1.3357e-02
9.250  18.500  2.1796e-02
9.250  18.750  3.2719e-02
9.250  19.000  4.5386e-02
9.250  19.250  5.8838e-02
9.250  19.500  7.1926e-02
9.250  19.750  8.0960e-02
9.250  20.000  8.9926e-02
9.250  20.250  9.4242e-02
9.250  20.500  9.8238e-02
9.250  20.750  9.9189e-02
9.250  21.000  9.9104e-02
9.250  21.250  9.9008e-02
9.250  21.500  9.8993e-02
9.250  21.750  9.8951e-02
9.250  22.000  9.8879e-02
9.250  22.250  9.8953e-02
9.250  22.500  9.8969e-02
9.250  22.750  9.8970e-02
9.250  23.000  9.8970e-02
9.250  23.250  9.8970e-02
9.250  23.500  9.8970e-02
9.250  23.750  9.8970e-02
9.250  24.000  9.8970e-02
9.500  17.000  1.0392e-03
9.500  17.250  1.5045e-03
9.500  17.500  2.2300e-03
9.500  17.750  3.4533e-03
9.500  18.000  5.7972e-03
9.500  18.250  1.0045e-02
9.500  18.500  1.6402e-02
9.500  18.750  2.4482e-02
9.500  19.000  3.4283e-02
9.500  19.250  4.5904e-02
9.500  19.500  5.8600e-02
9.500  19.750  7.0684e-02
9.500  20.000  8.0980e-02
9.500  20.250  8.9032e-02
9.500  20.500  9.3698e-02
9.500  20.750  9.8162e-02
9.500  21.000  9.9175e-02
9.500  21.250  9.9092e-02
9.500  21.500  9.8964e-02
9.500  21.750  9.8877e-02
9.500  22.000  9.8749e-02
9.500  22.250  9.8683e-02
9.500  22.500  9.8643e-02
9.500  22.750  9.8614e-02
9.500  23.000  9.8592e-02
9.500  23.250  9.8585e-02
9.500  23.500  9.8742e-02
9.500  23.750  9.8741e-02
9.500  24.000  9.8740e-02
9.750  17.000  7.4881e-04
9.750  17.250  1.0880e-03
9.750  17.500  1.6195e-03
9.750  17.750  2.5374e-03
9.750  18.000  4.3167e-03
9.750  18.250  7.5630e-03
9.750  18.500  1.2378e-02
9.750  18.750  1.8329e-02
9.750  19.000  2.5469e-02
9.750  19.250  3.4131e-02
9.750  19.500  4.4633e-02
9.750  19.750  5.7966e-02
9.750  20.000  6.9672e-02
9.750  20.250  8.0494e-02
9.750  20.500  8.7913e-02
9.750  20.750  9.3073e-02
9.750  21.000  9.8058e-02
9.750  21.250  9.9159e-02
9.750  21.500  9.9099e-02
9.750  21.750  9.8991e-02
9.750  22.000  9.8878e-02
9.750  22.250  9.8762e-02
9.750  22.500  9.8711e-02
9.750  22.750  9.8686e-02
9.750  23.000  9.8665e-02
9.750  23.250  9.8649e-02
9.750  23.500  9.8642e-02
9.750  23.750  9.8636e-02
9.750  24.000  9.8632e-02
10.000  17.000  5.3885e-04
10.000  17.250  7.8395e-04
10.000  17.500  1.1737e-03
10.000  17.750  1.8591e-03
10.000  18.000  3.1903e-03
10.000  18.250  5.6411e-03
10.000  18.500  9.2556e-03
10.000  18.750  1.3632e-02
10.000  19.000  1.8840e-02
10.000  19.250  2.5072e-02
10.000  19.500  3.2203e-02
10.000  19.750  4.1542e-02
10.000  20.000  5.3976e-02
10.000  20.250  6.8381e-02
10.000  20.500  8.0298e-02
10.000  20.750  8.6806e-02
10.000  21.000  9.2385e-02
10.000  21.250  9.7809e-02
10.000  21.500  9.9126e-02
10.000  21.750  9.9096e-02
10.000  22.000  9.8997e-02
10.000  22.250  9.8916e-02
10.000  22.500  9.8770e-02
10.000  22.750  9.8727e-02
10.000  23.000  9.8713e-02
10.000  23.250  9.8700e-02
10.000  23.500  9.8689e-02
10.000  23.750  9.8686e-02
10.000  24.000  9.8681e-02
10.250  17.000  3.8947e-04
10.250  17.250  5.6420e-04
10.250  17.500  8.4675e-04
10.250  17.750  1.3580e-03
10.250  18.000  2.3711e-03
10.250  18.250  4.1732e-03
10.250  18.500  6.8219e-03
10.250  18.750  1.0030e-02
10.250  19.000  1.3884e-02
10.250  19.250  1.8510e-02
10.250  19.500  2.4137e-02
10.250  19.750  3.1225e-02
10.250  20.000  4.0913e-02
10.250  20.250  5.3585e-02
10.250  20.500  6.8568e-02
10.250  20.750  7.9206e-02
10.250  21.000  8.5613e-02
10.250  21.250  9.1878e-02
10.250  21.500  9.7603e-02
10.250  21.750  9.9064e-02
10.250  22.000  9.9092e-02
10.250  22.250  9.8997e-02
10.250  22.500  9.8965e-02
10.250  22.750  9.8784e-02
10.250  23.000  9.8736e-02
10.250  23.250  9.8728e-02
10.250  23.500  9.8722e-02
10.250  23.750  9.8713e-02
10.250  24.000  9.8713e-02
10.500  17.000  2.8313e-04
10.500  17.250  4.0700e-04
10.500  17.500  6.0996e-04
10.500  17.750  9.8502e-04
10.500  18.000  1.7369e-03
10.500  18.250  3.0583e-03
10.500  18.500  4.9616e-03
10.500  18.750  7.3007e-03
10.500  19.000  1.0159e-02
10.500  19.250  1.3771e-02
10.500  19.500  1.8275e-02
10.500  19.750  2.3887e-02
10.500  20.000  3.0997e-02
10.500  20.250  4.0830e-02
10.500  20.500  5.3992e-02
10.500  20.750  6.8996e-02
10.500  21.000  7.8204e-02
10.500  21.250  8.4769e-02
10.500  21.500  9.1602e-02
10.500  21.750  9.7287e-02
10.500  22.000  9.8941e-02
10.500  22.250  9.9076e-02
10.500  22.500  9.8991e-02
10.500  22.750  9.8980e-02
10.500  23.000  9.8883e-02
10.500  23.250  9.8748e-02
10.500  23.500  9.8735e-02
10.500  23.750  9.8733e-02
10.500  24.000  9.8730e-02
10.750  17.000  2.0716e-04
10.750  17.250  2.9490e-04
10.750  17.500  4.3975e-04
10.750  17.750  7.1128e-04
10.750  18.000  1.2598e-03
10.750  18.250  2.2222e-03
10.750  18.500  3.5733e-03
10.750  18.750  5.2591e-03
10.750  19.000  7.4256e-03
10.750  19.250  1.0219e-02
10.750  19.500  1.3745e-02
10.750  19.750  1.8228e-02
10.750  20.000  2.3749e-02
10.750  20.250  3.0859e-02
10.750  20.500  4.0882e-02
10.750  20.750  5.4432e-02
10.750  21.000  6.9369e-02
10.750  21.250  7.7388e-02
10.750  21.500  8.4391e-02
10.750  21.750  9.1528e-02
10.750  22.000  9.6985e-02
10.750  22.250  9.8809e-02
10.750  22.500  9.9050e-02
10.750  22.750  9.8981e-02
10.750  23.000  9.8982e-02
10.750  23.250  9.8938e-02
10.750  23.500  9.8826e-02
10.750  23.750  9.8755e-02
10.750  24.000  9.8739e-02
11.000  17.000  1.5193e-04
11.000  17.250  2.1473e-04
11.000  17.500  3.1745e-04
11.000  17.750  5.1070e-04
11.000  18.000  8.9630e-04
11.000  18.250  1.5658e-03
11.000  18.500  2.5004e-03
11.000  18.750  3.7104e-03
11.000  19.000  5.3243e-03
11.000  19.250  7.4720e-03
11.000  19.500  1.0263e-02
11.000  19.750  1.3769e-02
11.000  20.000  1.8141e-02
11.000  20.250  2.3555e-02
11.000  20.500  3.0648e-02
11.000  20.750  4.0829e-02
11.000  21.000  5.4754e-02
11.000  21.250  6.8858e-02
11.000  21.500  7.7269e-02
11.000  21.750  8.4372e-02
11.000  22.000  9.1629e-02
11.000  22.250  9.6573e-02
11.000  22.500  9.8634e-02
11.000  22.750  9.9012e-02
11.000  23.000  9.8963e-02
11.000  23.250  9.8979e-02
11.000  23.500  9.8954e-02
11.000  23.750  9.8922e-02
11.000  24.000  9.8838e-02
11.250  17.000  1.1366e-04
11.250  17.250  1.5621e-04
11.250  17.500  2.2947e-04
11.250  17.750  3.6461e-04
11.250  18.000  6.3152e-04
11.250  18.250  1.0802e-03
11.250  18.500  1.6963e-03
11.250  18.750  2.6043e-03
11.250  19.000  3.7877e-03
11.250  19.250  5.3958e-03
11.250  19.500  7.5272e-03
11.250  19.750  1.0276e-02
11.250  20.000  1.3729e-02
11.250  20.250  1.8005e-02
11.250  20.500  2.3282e-02
11.250  20.750  3.0256e-02
11.250  21.000  4.0573e-02
11.250  21.250  5.4906e-02
11.250  21.500  6.8353e-02
11.250  21.750  7.6988e-02
11.250  22.000  8.4366e-02
11.250  22.250  9.1693e-02
11.250  22.500  9.6120e-02
11.250  22.750  9.8436e-02
11.250  23.000  9.8954e-02
11.250  23.250  9.8937e-02
11.250  23.500  9.8972e-02
11.250  23.750  9.8958e-02
11.250  24.000  9.8952e-02
11.500  17.000  8.7819e-05
11.500  17.250  1.1605e-04
11.500  17.500  1.6519e-04
11.500  17.750  2.5827e-04
11.500  18.000  4.3794e-04
11.500  18.250  7.3243e-04
11.500  18.500  1.1556e-03
11.500  18.750  1.7810e-03
11.500  19.000  2.6574e-03
11.500  19.250  3.8447e-03
11.500  19.500  5.4519e-03
11.500  19.750  7.5614e-03
11.500  20.000  1.0274e-02
11.500  20.250  1.3640e-02
11.500  20.500  1.7752e-02
11.500  20.750  2.2778e-02
11.500  21.000  2.9533e-02
11.500  21.250  4.0015e-02
11.500  21.500  5.4730e-02
11.500  21.750  6.7885e-02
11.500  22.000  7.6908e-02
11.500  22.250  8.4448e-02
11.500  22.500  9.1515e-02
11.500  22.750  9.5645e-02
11.500  23.000  9.8192e-02
11.500  23.250  9.8868e-02
11.500  23.500  9.8897e-02
11.500  23.750  9.8961e-02
11.500  24.000  9.8957e-02
11.750  17.000  6.3868e-05
11.750  17.250  8.9300e-05
11.750  17.500  1.2140e-04
11.750  17.750  1.8222e-04
11.750  18.000  2.9975e-04
11.750  18.250  4.9144e-04
11.750  18.500  7.7778e-04
11.750  18.750  1.2160e-03
11.750  19.000  1.8305e-03
11.750  19.250  2.7018e-03
11.750  19.500  3.8881e-03
11.750  19.750  5.4811e-03
11.750  20.000  7.5740e-03
11.750  20.250  1.0222e-02
11.750  20.500  1.3472e-02
11.750  20.750  1.7286e-02
11.750  21.000  2.1902e-02
11.750  21.250  2.8354e-02
11.750  21.500  3.9054e-02
11.750  21.750  5.4172e-02
11.750  22.000  6.7257e-02
11.750  22.250  7.6661e-02
11.750  22.500  8.4286e-02
11.750  22.750  9.1075e-02
11.750  23.000  9.5101e-02
11.750  23.250  9.7888e-02
11.750  23.500  9.8770e-02
11.750  23.750  9.8842e-02
11.750  24.000  9.8946e-02
12.000  17.000  3.1523e-05
12.000  17.250  6.8313e-05
12.000  17.500  9.2510e-05
12.000  17.750  1.3095e-04
12.000  18.000  2.0494e-04
12.000  18.250  3.2988e-04
12.000  18.500  5.2872e-04
12.000  18.750  8.2535e-04
12.000  19.000  1.2561e-03
12.000  19.250  1.8624e-03
12.000  19.500  2.7227e-03
12.000  19.750  3.9095e-03
12.000  20.000  5.4863e-03
12.000  20.250  7.5402e-03
12.000  20.500  1.0079e-02
12.000  20.750  1.3079e-02
12.000  21.000  1.6457e-02
12.000  21.250  2.0501e-02
12.000  21.500  2.6929e-02
12.000  21.750  3.7707e-02
12.000  22.000  5.2674e-02
12.000  22.250  6.6147e-02
12.000  22.500  7.5895e-02
12.000  22.750  8.3953e-02
12.000  23.000  9.0328e-02
12.000  23.250  9.4403e-02
12.000  23.500  9.7492e-02
12.000  23.750  9.8633e-02
12.000  24.000  9.8770e-02
12.250  17.000  1.4897e-05
12.250  17.250  3.5638e-05
12.250  17.500  7.2510e-05
12.250  17.750  9.8683e-05
12.250  18.000  1.4444e-04
12.250  18.250  2.2675e-04
12.250  18.500  3.5984e-04
12.250  18.750  5.5531e-04
12.250  19.000  8.4700e-04
12.250  19.250  1.2701e-03
12.250  19.500  1.8822e-03
12.250  19.750  2.7424e-03
12.250  20.000  3.9164e-03
12.250  20.250  5.4666e-03
12.250  20.500  7.4343e-03
12.250  20.750  9.7683e-03
12.250  21.000  1.2385e-02
12.250  21.250  1.5129e-02
12.250  21.500  1.8950e-02
12.250  21.750  2.4902e-02
12.250  22.000  3.5704e-02
12.250  22.250  5.0575e-02
12.250  22.500  6.4396e-02
12.250  22.750  7.4417e-02
12.250  23.000  8.2811e-02
12.250  23.250  8.9154e-02
12.250  23.500  9.3435e-02
12.250  23.750  9.6957e-02
12.250  24.000  9.8453e-02
12.500  17.000  7.4897e-06
12.500  17.250  1.6379e-05
12.500  17.500  3.8601e-05
12.500  17.750  7.7778e-05
12.500  18.000  1.0930e-04
12.500  18.250  1.6156e-04
12.500  18.500  2.4486e-04
12.500  18.750  3.7350e-04
12.500  19.000  5.6930e-04
12.500  19.250  8.6000e-04
12.500  19.500  1.2836e-03
12.500  19.750  1.8915e-03
12.500  20.000  2.7460e-03
12.500  20.250  3.8997e-03
12.500  20.500  5.3882e-03
12.500  20.750  7.2053e-03
12.500  21.000  9.2346e-03
12.500  21.250  1.1256e-02
12.500  21.500  1.3700e-02
12.500  21.750  1.6704e-02
12.500  22.000  2.2484e-02
12.500  22.250  3.3337e-02
12.500  22.500  4.8615e-02
12.500  22.750  6.1348e-02
12.500  23.000  7.1657e-02
12.500  23.250  8.0660e-02
12.500  23.500  8.7320e-02
12.500  23.750  9.2021e-02
12.500  24.000  9.6205e-02
12.750  17.000  3.7860e-06
12.750  17.250  8.1481e-06
12.750  17.500  1.7942e-05
12.750  17.750  3.8436e-05
12.750  18.000  7.6955e-05
12.750  18.250  1.1761e-04
12.750  18.500  1.6922e-04
12.750  18.750  2.5095e-04
12.750  19.000  3.7992e-04
12.750  19.250  5.7580e-04
12.750  19.500  8.6609e-04
12.750  19.750  1.2914e-03
12.750  20.000  1.8979e-03
12.750  20.250  2.7357e-03
12.750  20.500  3.8400e-03
12.750  20.750  5.2258e-03
12.750  21.000  6.8035e-03
12.750  21.250  8.3537e-03
12.750  21.500  1.0056e-02
12.750  21.750  1.1545e-02
12.750  22.000  1.4280e-02
12.750  22.250  2.0073e-02
12.750  22.500  3.0896e-02
12.750  22.750  4.4465e-02
12.750  23.000  5.6277e-02
12.750  23.250  6.7446e-02
12.750  23.500  7.7334e-02
12.750  23.750  8.4547e-02
12.750  24.000  8.9913e-02
13.000  17.000  9.8765e-07
13.000  17.250  2.3045e-06
13.000  17.500  6.6667e-06
13.000  17.750  1.5720e-05
13.000  18.000  3.3416e-05
13.000  18.250  6.4691e-05
13.000  18.500  1.0708e-04
13.000  18.750  1.6337e-04
13.000  19.000  2.5210e-04
13.000  19.250  3.8230e-04
13.000  19.500  5.7967e-04
13.000  19.750  8.7012e-04
13.000  20.000  1.2925e-03
13.000  20.250  1.8863e-03
13.000  20.500  2.6966e-03
13.000  20.750  3.7319e-03
13.000  21.000  4.9370e-03
13.000  21.250  6.1417e-03
13.000  21.500  7.4035e-03
13.000  21.750  8.1528e-03
13.000  22.000  9.2603e-03
13.000  22.250  1.2106e-02
13.000  22.500  1.8018e-02
13.000  22.750  2.7334e-02
13.000  23.000  3.8509e-02
13.000  23.250  4.9947e-02
13.000  23.500  6.1934e-02
13.000  23.750  7.2613e-02
13.000  24.000  8.0530e-02
13.250  17.000  1.0000e-07
13.250  17.250  1.1523e-06
13.250  17.500  2.5514e-06
13.250  17.750  6.0905e-06
13.250  18.000  1.4979e-05
13.250  18.250  3.2840e-05
13.250  18.500  6.6255e-05
13.250  18.750  1.1053e-04
13.250  19.000  1.6889e-04
13.250  19.250  2.5613e-04
13.250  19.500  3.8000e-04
13.250  19.750  5.8066e-04
13.250  20.000  8.6889e-04
13.250  20.250  1.2837e-03
13.250  20.500  1.8600e-03
13.250  20.750  2.6198e-03
13.250  21.000  3.5297e-03
13.250  21.250  4.4543e-03
13.250  21.500  5.4192e-03
13.250  21.750  5.8231e-03
13.250  22.000  6.1263e-03
13.250  22.250  7.3650e-03
13.250  22.500  1.0344e-02
13.250  22.750  1.5436e-02
13.250  23.000  2.2993e-02
13.250  23.250  3.2341e-02
13.250  23.500  4.3277e-02
13.250  23.750  5.5134e-02
13.250  24.000  6.6381e-02
13.500  17.000  1.0000e-07
13.500  17.250  1.0000e-07
13.500  17.500  1.3992e-06
13.500  17.750  3.1276e-06
13.500  18.000  7.6543e-06
13.500  18.250  1.6626e-05
13.500  18.500  3.3992e-05
13.500  18.750  6.6584e-05
13.500  19.000  1.1547e-04
13.500  19.250  1.7325e-04
13.500  19.500  2.5556e-04
13.500  19.750  3.8469e-04
13.500  20.000  5.7811e-04
13.500  20.250  8.6198e-04
13.500  20.500  1.2648e-03
13.500  20.750  1.8085e-03
13.500  21.000  2.4807e-03
13.500  21.250  3.1889e-03
13.500  21.500  3.9140e-03
13.500  21.750  4.1644e-03
13.500  22.000  4.1037e-03
13.500  22.250  4.5317e-03
13.500  22.500  6.0469e-03
13.500  22.750  8.8494e-03
13.500  23.000  1.3022e-02
13.500  23.250  1.9077e-02
13.500  23.500  2.7011e-02
13.500  23.750  3.6090e-02
13.500  24.000  4.7358e-02
13.750  17.000  1.0000e-07
13.750  17.250  1.0000e-07
13.750  17.500  8.2305e-07
13.750  17.750  1.7284e-06
13.750  18.000  3.9506e-06
13.750  18.250  8.8066e-06
13.750  18.500  1.7942e-05
13.750  18.750  3.5885e-05
13.750  19.000  6.8642e-05
13.750  19.250  1.2354e-04
13.750  19.500  1.7547e-04
13.750  19.750  2.5572e-04
13.750  20.000  3.8329e-04
13.750  20.250  5.7325e-04
13.750  20.500  8.4889e-04
13.750  20.750  1.2295e-03
13.750  21.000  1.7152e-03
13.750  21.250  2.2454e-03
13.750  21.500  2.7963e-03
13.750  21.750  2.9629e-03
13.750  22.000  2.7962e-03
13.750  22.250  2.8267e-03
13.750  22.500  3.5817e-03
13.750  22.750  5.1614e-03
13.750  23.000  7.5217e-03
13.750  23.250  1.0938e-02
13.750  23.500  1.5730e-02
13.750  23.750  2.1546e-02
13.750  24.000  2.9112e-02
14.000  17.000  1.0000e-07
14.000  17.250  1.0000e-07
14.000  17.500  1.0000e-07
14.000  17.750  9.8765e-07
14.000  18.000  2.0576e-06
14.000  18.250  4.6091e-06
14.000  18.500  9.5473e-06
14.000  18.750  1.9177e-05
14.000  19.000  3.7449e-05
14.000  19.250  8.0988e-05
14.000  19.500  1.2239e-04
14.000  19.750  1.7556e-04
14.000  20.000  2.5564e-04
14.000  20.250  3.7975e-04
14.000  20.500  5.6461e-04
14.000  20.750  8.2617e-04
14.000  21.000  1.1693e-03
14.000  21.250  1.5584e-03
14.000  21.500  1.9728e-03
14.000  21.750  2.0946e-03
14.000  22.000  1.9188e-03
14.000  22.250  1.8022e-03
14.000  22.500  2.1317e-03
14.000  22.750  3.0305e-03
14.000  23.000  4.4309e-03
14.000  23.250  6.3167e-03
14.000  23.500  9.0151e-03
14.000  23.750  1.2490e-02
14.000  24.000  1.6714e-02
