FeKa 1.78000A  relative to Inci 1215.00A scaled to 1215A.
Hden   Phi(H)  Eq_Width (A)
7.000  17.000  5.2753e-03
7.000  17.250  5.6326e-03
7.000  17.500  6.0981e-03
7.000  17.750  6.5947e-03
7.000  18.000  7.1945e-03
7.000  18.250  7.7784e-03
7.000  18.500  8.8569e-03
7.000  18.750  1.0047e-02
7.000  19.000  9.5285e-03
7.000  19.250  3.5533e-03
7.000  19.500  5.0140e-04
7.000  19.750  4.6667e-05
7.000  20.000  4.7737e-06
7.000  20.250  1.0000e-07
7.000  20.500  1.0000e-07
7.000  20.750  1.0000e-07
7.000  21.000  1.0000e-07
7.000  21.250  1.0000e-07
7.000  21.500  1.0000e-07
7.000  21.750  1.0000e-07
7.000  22.000  1.0000e-07
7.000  22.250  1.0000e-07
7.000  22.500  1.0000e-07
7.000  22.750  1.0000e-07
7.000  23.000  1.0000e-07
7.000  23.250  1.0000e-07
7.000  23.500  1.0000e-07
7.000  23.750  1.0000e-07
7.000  24.000  1.0000e-07
7.250  17.000  5.0175e-03
7.250  17.250  5.2959e-03
7.250  17.500  5.6580e-03
7.250  17.750  6.1236e-03
7.250  18.000  6.6176e-03
7.250  18.250  7.1965e-03
7.250  18.500  7.7802e-03
7.250  18.750  8.8556e-03
7.250  19.000  1.0047e-02
7.250  19.250  9.5287e-03
7.250  19.500  3.5536e-03
7.250  19.750  5.0148e-04
7.250  20.000  4.6667e-05
7.250  20.250  4.7737e-06
7.250  20.500  1.0000e-07
7.250  20.750  1.0000e-07
7.250  21.000  1.0000e-07
7.250  21.250  1.0000e-07
7.250  21.500  1.0000e-07
7.250  21.750  1.0000e-07
7.250  22.000  1.0000e-07
7.250  22.250  1.0000e-07
7.250  22.500  1.0000e-07
7.250  22.750  1.0000e-07
7.250  23.000  1.0000e-07
7.250  23.250  1.0000e-07
7.250  23.500  1.0000e-07
7.250  23.750  1.0000e-07
7.250  24.000  1.0000e-07
7.500  17.000  4.8238e-03
7.500  17.250  5.0331e-03
7.500  17.500  5.3221e-03
7.500  17.750  5.6951e-03
7.500  18.000  6.1570e-03
7.500  18.250  6.6343e-03
7.500  18.500  7.1991e-03
7.500  18.750  7.7835e-03
7.500  19.000  8.8576e-03
7.500  19.250  1.0047e-02
7.500  19.500  9.5294e-03
7.500  19.750  3.5541e-03
7.500  20.000  5.0148e-04
7.500  20.250  4.6667e-05
7.500  20.500  4.7737e-06
7.500  20.750  1.0000e-07
7.500  21.000  1.0000e-07
7.500  21.250  1.0000e-07
7.500  21.500  1.0000e-07
7.500  21.750  1.0000e-07
7.500  22.000  1.0000e-07
7.500  22.250  1.0000e-07
7.500  22.500  1.0000e-07
7.500  22.750  1.0000e-07
7.500  23.000  1.0000e-07
7.500  23.250  1.0000e-07
7.500  23.500  1.0000e-07
7.500  23.750  1.0000e-07
7.500  24.000  1.0000e-07
7.750  17.000  4.6890e-03
7.750  17.250  4.8358e-03
7.750  17.500  5.0561e-03
7.750  17.750  5.3633e-03
7.750  18.000  5.7474e-03
7.750  18.250  6.2068e-03
7.750  18.500  6.6619e-03
7.750  18.750  7.2018e-03
7.750  19.000  7.7863e-03
7.750  19.250  8.8593e-03
7.750  19.500  1.0047e-02
7.750  19.750  9.5299e-03
7.750  20.000  3.5548e-03
7.750  20.250  5.0148e-04
7.750  20.500  4.6667e-05
7.750  20.750  4.7737e-06
7.750  21.000  1.0000e-07
7.750  21.250  1.0000e-07
7.750  21.500  1.0000e-07
7.750  21.750  1.0000e-07
7.750  22.000  1.0000e-07
7.750  22.250  1.0000e-07
7.750  22.500  1.0000e-07
7.750  22.750  1.0000e-07
7.750  23.000  1.0000e-07
7.750  23.250  1.0000e-07
7.750  23.500  1.0000e-07
7.750  23.750  1.0000e-07
7.750  24.000  1.0000e-07
8.000  17.000  4.6002e-03
8.000  17.250  4.6963e-03
8.000  17.500  4.8519e-03
8.000  17.750  5.0916e-03
8.000  18.000  5.4240e-03
8.000  18.250  5.8094e-03
8.000  18.500  6.2620e-03
8.000  18.750  6.6892e-03
8.000  19.000  7.2044e-03
8.000  19.250  7.7904e-03
8.000  19.500  8.8609e-03
8.000  19.750  1.0047e-02
8.000  20.000  9.5303e-03
8.000  20.250  3.5556e-03
8.000  20.500  5.0156e-04
8.000  20.750  4.6667e-05
8.000  21.000  4.7737e-06
8.000  21.250  1.0000e-07
8.000  21.500  1.0000e-07
8.000  21.750  1.0000e-07
8.000  22.000  1.0000e-07
8.000  22.250  1.0000e-07
8.000  22.500  1.0000e-07
8.000  22.750  1.0000e-07
8.000  23.000  1.0000e-07
8.000  23.250  1.0000e-07
8.000  23.500  1.0000e-07
8.000  23.750  1.0000e-07
8.000  24.000  1.0000e-07
8.250  17.000  4.5435e-03
8.250  17.250  4.6067e-03
8.250  17.500  4.7114e-03
8.250  17.750  4.8844e-03
8.250  18.000  5.1574e-03
8.250  18.250  5.5133e-03
8.250  18.500  5.8849e-03
8.250  18.750  6.3504e-03
8.250  19.000  6.7264e-03
8.250  19.250  7.2077e-03
8.250  19.500  7.7949e-03
8.250  19.750  8.8630e-03
8.250  20.000  1.0047e-02
8.250  20.250  9.5309e-03
8.250  20.500  3.5560e-03
8.250  20.750  5.0156e-04
8.250  21.000  4.6667e-05
8.250  21.250  4.7737e-06
8.250  21.500  1.0000e-07
8.250  21.750  1.0000e-07
8.250  22.000  1.0000e-07
8.250  22.250  1.0000e-07
8.250  22.500  1.0000e-07
8.250  22.750  1.0000e-07
8.250  23.000  1.0000e-07
8.250  23.250  1.0000e-07
8.250  23.500  1.0000e-07
8.250  23.750  1.0000e-07
8.250  24.000  1.0000e-07
8.500  17.000  4.5052e-03
8.500  17.250  4.5483e-03
8.500  17.500  4.6179e-03
8.500  17.750  4.7361e-03
8.500  18.000  4.9412e-03
8.500  18.250  5.2545e-03
8.500  18.500  5.6161e-03
8.500  18.750  5.9826e-03
8.500  19.000  6.3952e-03
8.500  19.250  6.7509e-03
8.500  19.500  7.2122e-03
8.500  19.750  7.8012e-03
8.500  20.000  8.8656e-03
8.500  20.250  1.0048e-02
8.500  20.500  9.5319e-03
8.500  20.750  3.5568e-03
8.500  21.000  5.0165e-04
8.500  21.250  4.6667e-05
8.500  21.500  4.7737e-06
8.500  21.750  1.0000e-07
8.500  22.000  1.0000e-07
8.500  22.250  1.0000e-07
8.500  22.500  1.0000e-07
8.500  22.750  1.0000e-07
8.500  23.000  1.0000e-07
8.500  23.250  1.0000e-07
8.500  23.500  1.0000e-07
8.500  23.750  1.0000e-07
8.500  24.000  1.0000e-07
8.750  17.000  4.4796e-03
8.750  17.250  4.5087e-03
8.750  17.500  4.5566e-03
8.750  17.750  4.6369e-03
8.750  18.000  4.7839e-03
8.750  18.250  5.0309e-03
8.750  18.500  5.3644e-03
8.750  18.750  5.7115e-03
8.750  19.000  6.0839e-03
8.750  19.250  6.4666e-03
8.750  19.500  6.7950e-03
8.750  19.750  7.2177e-03
8.750  20.000  7.8077e-03
8.750  20.250  8.8682e-03
8.750  20.500  1.0048e-02
8.750  20.750  9.5329e-03
8.750  21.000  3.5578e-03
8.750  21.250  5.0173e-04
8.750  21.500  4.6749e-05
8.750  21.750  4.7737e-06
8.750  22.000  1.0000e-07
8.750  22.250  1.0000e-07
8.750  22.500  1.0000e-07
8.750  22.750  1.0000e-07
8.750  23.000  1.0000e-07
8.750  23.250  1.0000e-07
8.750  23.500  1.0000e-07
8.750  23.750  1.0000e-07
8.750  24.000  1.0000e-07
9.000  17.000  4.4614e-03
9.000  17.250  4.4817e-03
9.000  17.500  4.5149e-03
9.000  17.750  4.5714e-03
9.000  18.000  4.6747e-03
9.000  18.250  4.8557e-03
9.000  18.500  5.1264e-03
9.000  18.750  5.4641e-03
9.000  19.000  5.7853e-03
9.000  19.250  6.1593e-03
9.000  19.500  6.5143e-03
9.000  19.750  6.8396e-03
9.000  20.000  7.2234e-03
9.000  20.250  7.8160e-03
9.000  20.500  8.8723e-03
9.000  20.750  1.0049e-02
9.000  21.000  9.5338e-03
9.000  21.250  3.5590e-03
9.000  21.500  5.0173e-04
9.000  21.750  4.6749e-05
9.000  22.000  4.7737e-06
9.000  22.250  1.0000e-07
9.000  22.500  1.0000e-07
9.000  22.750  1.0000e-07
9.000  23.000  1.0000e-07
9.000  23.250  1.0000e-07
9.000  23.500  1.0000e-07
9.000  23.750  1.0000e-07
9.000  24.000  1.0000e-07
9.250  17.000  4.4488e-03
9.250  17.250  4.4633e-03
9.250  17.500  4.4863e-03
9.250  17.750  4.5274e-03
9.250  18.000  4.6021e-03
9.250  18.250  4.7341e-03
9.250  18.500  4.9347e-03
9.250  18.750  5.2177e-03
9.250  19.000  5.5496e-03
9.250  19.250  5.8872e-03
9.250  19.500  6.2632e-03
9.250  19.750  6.5496e-03
9.250  20.000  6.9001e-03
9.250  20.250  7.2295e-03
9.250  20.500  7.8246e-03
9.250  20.750  8.8765e-03
9.250  21.000  1.0050e-02
9.250  21.250  9.5352e-03
9.250  21.500  3.5603e-03
9.250  21.750  5.0148e-04
9.250  22.000  4.6584e-05
9.250  22.250  4.7737e-06
9.250  22.500  1.0000e-07
9.250  22.750  1.0000e-07
9.250  23.000  1.0000e-07
9.250  23.250  1.0000e-07
9.250  23.500  1.0000e-07
9.250  23.750  1.0000e-07
9.250  24.000  1.0000e-07
9.500  17.000  4.4398e-03
9.500  17.250  4.4496e-03
9.500  17.500  4.4662e-03
9.500  17.750  4.4958e-03
9.500  18.000  4.5524e-03
9.500  18.250  4.6497e-03
9.500  18.500  4.8047e-03
9.500  18.750  5.0077e-03
9.500  19.000  5.2884e-03
9.500  19.250  5.6215e-03
9.500  19.500  5.9667e-03
9.500  19.750  6.3283e-03
9.500  20.000  6.5973e-03
9.500  20.250  6.9107e-03
9.500  20.500  7.2358e-03
9.500  20.750  7.8341e-03
9.500  21.000  8.8779e-03
9.500  21.250  1.0050e-02
9.500  21.500  9.5324e-03
9.500  21.750  3.5490e-03
9.500  22.000  4.9770e-04
9.500  22.250  4.6255e-05
9.500  22.500  4.7737e-06
9.500  22.750  1.0000e-07
9.500  23.000  1.0000e-07
9.500  23.250  1.0000e-07
9.500  23.500  1.0000e-07
9.500  23.750  1.0000e-07
9.500  24.000  1.0000e-07
9.750  17.000  4.4308e-03
9.750  17.250  4.4407e-03
9.750  17.500  4.4523e-03
9.750  17.750  4.4744e-03
9.750  18.000  4.5161e-03
9.750  18.250  4.5899e-03
9.750  18.500  4.7072e-03
9.750  18.750  4.8527e-03
9.750  19.000  5.0651e-03
9.750  19.250  5.3485e-03
9.750  19.500  5.6881e-03
9.750  19.750  6.0667e-03
9.750  20.000  6.3677e-03
9.750  20.250  6.6371e-03
9.750  20.500  6.9131e-03
9.750  20.750  7.2426e-03
9.750  21.000  7.8460e-03
9.750  21.250  8.8846e-03
9.750  21.500  1.0051e-02
9.750  21.750  9.5328e-03
9.750  22.000  3.5505e-03
9.750  22.250  4.9802e-04
9.750  22.500  4.6255e-05
9.750  22.750  4.7737e-06
9.750  23.000  1.0000e-07
9.750  23.250  1.0000e-07
9.750  23.500  1.0000e-07
9.750  23.750  1.0000e-07
9.750  24.000  1.0000e-07
10.000  17.000  4.4268e-03
10.000  17.250  4.4309e-03
10.000  17.500  4.4418e-03
10.000  17.750  4.4584e-03
10.000  18.000  4.4912e-03
10.000  18.250  4.5439e-03
10.000  18.500  4.6307e-03
10.000  18.750  4.7398e-03
10.000  19.000  4.8933e-03
10.000  19.250  5.1133e-03
10.000  19.500  5.4094e-03
10.000  19.750  5.7512e-03
10.000  20.000  6.1244e-03
10.000  20.250  6.4086e-03
10.000  20.500  6.6853e-03
10.000  20.750  6.9168e-03
10.000  21.000  7.2520e-03
10.000  21.250  7.8599e-03
10.000  21.500  8.8893e-03
10.000  21.750  1.0051e-02
10.000  22.000  9.5319e-03
10.000  22.250  3.5551e-03
10.000  22.500  4.9827e-04
10.000  22.750  4.6337e-05
10.000  23.000  4.7737e-06
10.000  23.250  1.0000e-07
10.000  23.500  1.0000e-07
10.000  23.750  1.0000e-07
10.000  24.000  1.0000e-07
10.250  17.000  4.4289e-03
10.250  17.250  4.4277e-03
10.250  17.500  4.4319e-03
10.250  17.750  4.4449e-03
10.250  18.000  4.4695e-03
10.250  18.250  4.5100e-03
10.250  18.500  4.5649e-03
10.250  18.750  4.6547e-03
10.250  19.000  4.7674e-03
10.250  19.250  4.9273e-03
10.250  19.500  5.1557e-03
10.250  19.750  5.4549e-03
10.250  20.000  5.8159e-03
10.250  20.250  6.1674e-03
10.250  20.500  6.4460e-03
10.250  20.750  6.7092e-03
10.250  21.000  6.9222e-03
10.250  21.250  7.2650e-03
10.250  21.500  7.8740e-03
10.250  21.750  8.8945e-03
10.250  22.000  1.0052e-02
10.250  22.250  9.5281e-03
10.250  22.500  3.5602e-03
10.250  22.750  4.9877e-04
10.250  23.000  4.6337e-05
10.250  23.250  4.7737e-06
10.250  23.500  1.0000e-07
10.250  23.750  1.0000e-07
10.250  24.000  1.0000e-07
10.500  17.000  4.4302e-03
10.500  17.250  4.4300e-03
10.500  17.500  4.4309e-03
10.500  17.750  4.4373e-03
10.500  18.000  4.4542e-03
10.500  18.250  4.4817e-03
10.500  18.500  4.5191e-03
10.500  18.750  4.5790e-03
10.500  19.000  4.6684e-03
10.500  19.250  4.7883e-03
10.500  19.500  4.9563e-03
10.500  19.750  5.1962e-03
10.500  20.000  5.5010e-03
10.500  20.250  5.8732e-03
10.500  20.500  6.2137e-03
10.500  20.750  6.4878e-03
10.500  21.000  6.7137e-03
10.500  21.250  6.9318e-03
10.500  21.500  7.2831e-03
10.500  21.750  7.8874e-03
10.500  22.000  8.8990e-03
10.500  22.250  1.0052e-02
10.500  22.500  9.5212e-03
10.500  22.750  3.5611e-03
10.500  23.000  5.0082e-04
10.500  23.250  4.6337e-05
10.500  23.500  4.7737e-06
10.500  23.750  1.0000e-07
10.500  24.000  1.0000e-07
10.750  17.000  4.4299e-03
10.750  17.250  4.4314e-03
10.750  17.500  4.4329e-03
10.750  17.750  4.4366e-03
10.750  18.000  4.4471e-03
10.750  18.250  4.4644e-03
10.750  18.500  4.4913e-03
10.750  18.750  4.5313e-03
10.750  19.000  4.5914e-03
10.750  19.250  4.6812e-03
10.750  19.500  4.8064e-03
10.750  19.750  4.9824e-03
10.750  20.000  5.2295e-03
10.750  20.250  5.5440e-03
10.750  20.500  5.9272e-03
10.750  20.750  6.2598e-03
10.750  21.000  6.5317e-03
10.750  21.250  6.7226e-03
10.750  21.500  6.9492e-03
10.750  21.750  7.3105e-03
10.750  22.000  7.8983e-03
10.750  22.250  8.9034e-03
10.750  22.500  1.0052e-02
10.750  22.750  9.5115e-03
10.750  23.000  3.5601e-03
10.750  23.250  5.0206e-04
10.750  23.500  4.6502e-05
10.750  23.750  4.7737e-06
10.750  24.000  1.0000e-07
11.000  17.000  4.4263e-03
11.000  17.250  4.4294e-03
11.000  17.500  4.4324e-03
11.000  17.750  4.4360e-03
11.000  18.000  4.4432e-03
11.000  18.250  4.4552e-03
11.000  18.500  4.4747e-03
11.000  18.750  4.5026e-03
11.000  19.000  4.5444e-03
11.000  19.250  4.6060e-03
11.000  19.500  4.6942e-03
11.000  19.750  4.8214e-03
11.000  20.000  5.0058e-03
11.000  20.250  5.2615e-03
11.000  20.500  5.5882e-03
11.000  20.750  5.9808e-03
11.000  21.000  6.3063e-03
11.000  21.250  6.5738e-03
11.000  21.500  6.7395e-03
11.000  21.750  6.9771e-03
11.000  22.000  7.3479e-03
11.000  22.250  7.9100e-03
11.000  22.500  8.9079e-03
11.000  22.750  1.0052e-02
11.000  23.000  9.4989e-03
11.000  23.250  3.5581e-03
11.000  23.500  5.0263e-04
11.000  23.750  4.6667e-05
11.000  24.000  4.7737e-06
11.250  17.000  4.4224e-03
11.250  17.250  4.4256e-03
11.250  17.500  4.4293e-03
11.250  17.750  4.4337e-03
11.250  18.000  4.4394e-03
11.250  18.250  4.4464e-03
11.250  18.500  4.4602e-03
11.250  18.750  4.4803e-03
11.250  19.000  4.5104e-03
11.250  19.250  4.5532e-03
11.250  19.500  4.6153e-03
11.250  19.750  4.7047e-03
11.250  20.000  4.8351e-03
11.250  20.250  5.0273e-03
11.250  20.500  5.2955e-03
11.250  20.750  5.6358e-03
11.250  21.000  6.0380e-03
11.250  21.250  6.3567e-03
11.250  21.500  6.5925e-03
11.250  21.750  6.7669e-03
11.250  22.000  7.0123e-03
11.250  22.250  7.3856e-03
11.250  22.500  7.9178e-03
11.250  22.750  8.9117e-03
11.250  23.000  1.0052e-02
11.250  23.250  9.4838e-03
11.250  23.500  3.5553e-03
11.250  23.750  5.0305e-04
11.250  24.000  4.6749e-05
11.500  17.000  4.4174e-03
11.500  17.250  4.4209e-03
11.500  17.500  4.4248e-03
11.500  17.750  4.4300e-03
11.500  18.000  4.4337e-03
11.500  18.250  4.4378e-03
11.500  18.500  4.4472e-03
11.500  18.750  4.4621e-03
11.500  19.000  4.4853e-03
11.500  19.250  4.5160e-03
11.500  19.500  4.5592e-03
11.500  19.750  4.6242e-03
11.500  20.000  4.7144e-03
11.500  20.250  4.8487e-03
11.500  20.500  5.0496e-03
11.500  20.750  5.3322e-03
11.500  21.000  5.6868e-03
11.500  21.250  6.0960e-03
11.500  21.500  6.4007e-03
11.500  21.750  6.6168e-03
11.500  22.000  6.8016e-03
11.500  22.250  7.0498e-03
11.500  22.500  7.4105e-03
11.500  22.750  7.9235e-03
11.500  23.000  8.9155e-03
11.500  23.250  1.0051e-02
11.500  23.500  9.4659e-03
11.500  23.750  3.5523e-03
11.500  24.000  5.0329e-04
11.750  17.000  4.3204e-03
11.750  17.250  4.4154e-03
11.750  17.500  4.4193e-03
11.750  17.750  4.4256e-03
11.750  18.000  4.4289e-03
11.750  18.250  4.4307e-03
11.750  18.500  4.4370e-03
11.750  18.750  4.4488e-03
11.750  19.000  4.4641e-03
11.750  19.250  4.4877e-03
11.750  19.500  4.5193e-03
11.750  19.750  4.5643e-03
11.750  20.000  4.6313e-03
11.750  20.250  4.7249e-03
11.750  20.500  4.8630e-03
11.750  20.750  5.0721e-03
11.750  21.000  5.3737e-03
11.750  21.250  5.7415e-03
11.750  21.500  6.1351e-03
11.750  21.750  6.4574e-03
11.750  22.000  6.6486e-03
11.750  22.250  6.8379e-03
11.750  22.500  7.0928e-03
11.750  22.750  7.4314e-03
11.750  23.000  7.9302e-03
11.750  23.250  8.9183e-03
11.750  23.500  1.0050e-02
11.750  23.750  9.4450e-03
11.750  24.000  3.5491e-03
12.000  17.000  3.5674e-03
12.000  17.250  4.3351e-03
12.000  17.500  4.4143e-03
12.000  17.750  4.4201e-03
12.000  18.000  4.4249e-03
12.000  18.250  4.4251e-03
12.000  18.500  4.4310e-03
12.000  18.750  4.4379e-03
12.000  19.000  4.4498e-03
12.000  19.250  4.4658e-03
12.000  19.500  4.4892e-03
12.000  19.750  4.5227e-03
12.000  20.000  4.5691e-03
12.000  20.250  4.6384e-03
12.000  20.500  4.7350e-03
12.000  20.750  4.8808e-03
12.000  21.000  5.1020e-03
12.000  21.250  5.4199e-03
12.000  21.500  5.7821e-03
12.000  21.750  6.1955e-03
12.000  22.000  6.5196e-03
12.000  22.250  6.6853e-03
12.000  22.500  6.8821e-03
12.000  22.750  7.1390e-03
12.000  23.000  7.4521e-03
12.000  23.250  7.9348e-03
12.000  23.500  8.9202e-03
12.000  23.750  1.0049e-02
12.000  24.000  9.4211e-03
12.250  17.000  2.2696e-03
12.250  17.250  3.8549e-03
12.250  17.500  4.4066e-03
12.250  17.750  4.4173e-03
12.250  18.000  4.4214e-03
12.250  18.250  4.4198e-03
12.250  18.500  4.4216e-03
12.250  18.750  4.4278e-03
12.250  19.000  4.4355e-03
12.250  19.250  4.4485e-03
12.250  19.500  4.4662e-03
12.250  19.750  4.4911e-03
12.250  20.000  4.5250e-03
12.250  20.250  4.5733e-03
12.250  20.500  4.6455e-03
12.250  20.750  4.7463e-03
12.250  21.000  4.9029e-03
12.250  21.250  5.1374e-03
12.250  21.500  5.4532e-03
12.250  21.750  5.8430e-03
12.250  22.000  6.2596e-03
12.250  22.250  6.5636e-03
12.250  22.500  6.7290e-03
12.250  22.750  6.9354e-03
12.250  23.000  7.1778e-03
12.250  23.250  7.4643e-03
12.250  23.500  7.9393e-03
12.250  23.750  8.9242e-03
12.250  24.000  1.0046e-02
12.500  17.000  1.3100e-03
12.500  17.250  2.4672e-03
12.500  17.500  3.8770e-03
12.500  17.750  4.4123e-03
12.500  18.000  4.4193e-03
12.500  18.250  4.4232e-03
12.500  18.500  4.4200e-03
12.500  18.750  4.4225e-03
12.500  19.000  4.4266e-03
12.500  19.250  4.4350e-03
12.500  19.500  4.4474e-03
12.500  19.750  4.4658e-03
12.500  20.000  4.4906e-03
12.500  20.250  4.5267e-03
12.500  20.500  4.5766e-03
12.500  20.750  4.6518e-03
12.500  21.000  4.7609e-03
12.500  21.250  4.9307e-03
12.500  21.500  5.1657e-03
12.500  21.750  5.5105e-03
12.500  22.000  5.9088e-03
12.500  22.250  6.3286e-03
12.500  22.500  6.6128e-03
12.500  22.750  6.7881e-03
12.500  23.000  6.9824e-03
12.500  23.250  7.2052e-03
12.500  23.500  7.4711e-03
12.500  23.750  7.9456e-03
12.500  24.000  8.9312e-03
12.750  17.000  7.1778e-04
12.750  17.250  1.4489e-03
12.750  17.500  2.6342e-03
12.750  17.750  3.9713e-03
12.750  18.000  4.2834e-03
12.750  18.250  4.4240e-03
12.750  18.500  4.4214e-03
12.750  18.750  4.4212e-03
12.750  19.000  4.4240e-03
12.750  19.250  4.4286e-03
12.750  19.500  4.4357e-03
12.750  19.750  4.4476e-03
12.750  20.000  4.4663e-03
12.750  20.250  4.4920e-03
12.750  20.500  4.5277e-03
12.750  20.750  4.5813e-03
12.750  21.000  4.6607e-03
12.750  21.250  4.7799e-03
12.750  21.500  4.9533e-03
12.750  21.750  5.2198e-03
12.750  22.000  5.5786e-03
12.750  22.250  5.9814e-03
12.750  22.500  6.4015e-03
12.750  22.750  6.6422e-03
12.750  23.000  6.8398e-03
12.750  23.250  7.0142e-03
12.750  23.500  7.2265e-03
12.750  23.750  7.4784e-03
12.750  24.000  7.9542e-03
13.000  17.000  1.2749e-04
13.000  17.250  3.0016e-04
13.000  17.500  1.0840e-03
13.000  17.750  2.1310e-03
13.000  18.000  3.2536e-03
13.000  18.250  4.0543e-03
13.000  18.500  4.3310e-03
13.000  18.750  4.4187e-03
13.000  19.000  4.8835e-03
13.000  19.250  4.4257e-03
13.000  19.500  4.4295e-03
13.000  19.750  4.4372e-03
13.000  20.000  4.4486e-03
13.000  20.250  4.4657e-03
13.000  20.500  4.4921e-03
13.000  20.750  4.5295e-03
13.000  21.000  4.5871e-03
13.000  21.250  4.6728e-03
13.000  21.500  4.7964e-03
13.000  21.750  4.9978e-03
13.000  22.000  5.2844e-03
13.000  22.250  5.6495e-03
13.000  22.500  6.0541e-03
13.000  22.750  6.4575e-03
13.000  23.000  6.6703e-03
13.000  23.250  6.8489e-03
13.000  23.500  7.0299e-03
13.000  23.750  7.2433e-03
13.000  24.000  7.4898e-03
13.250  17.000  7.7942e-05
13.250  17.250  1.4798e-04
13.250  17.500  3.5802e-04
13.250  17.750  8.4247e-04
13.250  18.000  1.8249e-03
13.250  18.250  3.0193e-03
13.250  18.500  4.0578e-03
13.250  18.750  4.4033e-03
13.250  19.000  4.2999e-03
13.250  19.250  4.4257e-03
13.250  19.500  4.8123e-03
13.250  19.750  4.4318e-03
13.250  20.000  4.4389e-03
13.250  20.250  4.4498e-03
13.250  20.500  4.4663e-03
13.250  20.750  4.4923e-03
13.250  21.000  4.5323e-03
13.250  21.250  4.5933e-03
13.250  21.500  4.6844e-03
13.250  21.750  4.8280e-03
13.250  22.000  5.0482e-03
13.250  22.250  5.3486e-03
13.250  22.500  5.7141e-03
13.250  22.750  6.1055e-03
13.250  23.000  6.4870e-03
13.250  23.250  6.6692e-03
13.250  23.500  6.8586e-03
13.250  23.750  7.0496e-03
13.250  24.000  7.2594e-03
13.500  17.000  4.6996e-05
13.500  17.250  8.7819e-05
13.500  17.500  2.0428e-04
13.500  17.750  4.4502e-04
13.500  18.000  1.0500e-03
13.500  18.250  1.9259e-03
13.500  18.500  3.0103e-03
13.500  18.750  4.1324e-03
13.500  19.000  4.4312e-03
13.500  19.250  4.2351e-03
13.500  19.500  4.3012e-03
13.500  19.750  4.4027e-03
13.500  20.000  4.4327e-03
13.500  20.250  4.4397e-03
13.500  20.500  4.4505e-03
13.500  20.750  4.4674e-03
13.500  21.000  4.4940e-03
13.500  21.250  4.5360e-03
13.500  21.500  4.5993e-03
13.500  21.750  4.7051e-03
13.500  22.000  4.8649e-03
13.500  22.250  5.0972e-03
13.500  22.500  5.4014e-03
13.500  22.750  5.7612e-03
13.500  23.000  6.1349e-03
13.500  23.250  6.4931e-03
13.500  23.500  6.6617e-03
13.500  23.750  6.8730e-03
13.500  24.000  7.0637e-03
13.750  17.000  2.8395e-05
13.750  17.250  5.6543e-05
13.750  17.500  1.2551e-04
13.750  17.750  2.3835e-04
13.750  18.000  5.6370e-04
13.750  18.250  1.1780e-03
13.750  18.500  2.0026e-03
13.750  18.750  3.1038e-03
13.750  19.000  4.1836e-03
13.750  19.250  5.0595e-03
13.750  19.500  4.6549e-03
13.750  19.750  4.3542e-03
13.750  20.000  4.4305e-03
13.750  20.250  4.4343e-03
13.750  20.500  4.4412e-03
13.750  20.750  4.4518e-03
13.750  21.000  4.4693e-03
13.750  21.250  4.4971e-03
13.750  21.500  4.5400e-03
13.750  21.750  4.6159e-03
13.750  22.000  4.7338e-03
13.750  22.250  4.9016e-03
13.750  22.500  5.1372e-03
13.750  22.750  5.4456e-03
13.750  23.000  5.7995e-03
13.750  23.250  6.1682e-03
13.750  23.500  6.5048e-03
13.750  23.750  6.6715e-03
13.750  24.000  6.8964e-03
14.000  17.000  1.7202e-05
14.000  17.250  3.3992e-05
14.000  17.500  7.7449e-05
14.000  17.750  1.5070e-04
14.000  18.000  3.0156e-04
14.000  18.250  6.5029e-04
14.000  18.500  1.2329e-03
14.000  18.750  2.1012e-03
14.000  19.000  3.2131e-03
14.000  19.250  5.5300e-03
14.000  19.500  4.6757e-03
14.000  19.750  4.4255e-03
14.000  20.000  4.4287e-03
14.000  20.250  4.4310e-03
14.000  20.500  4.4356e-03
14.000  20.750  4.4425e-03
14.000  21.000  4.4539e-03
14.000  21.250  4.4728e-03
14.000  21.500  4.5023e-03
14.000  21.750  4.5521e-03
14.000  22.000  4.6395e-03
14.000  22.250  4.7605e-03
14.000  22.500  4.9283e-03
14.000  22.750  5.1697e-03
14.000  23.000  5.4814e-03
14.000  23.250  5.8305e-03
14.000  23.500  6.1960e-03
14.000  23.750  6.5337e-03
14.000  24.000  6.7277e-03
