Inwd 1215.23A  relative to Inci 1215.00A scaled to 1215A.
Hden   Phi(H)  Eq_Width (A)
 7.000	17.000	1.0794e-02
 7.000	17.250	1.0773e-02
 7.000	17.500	1.0618e-02
 7.000	17.750	1.0212e-02
 7.000	18.000	9.5519e-03
 7.000	18.250	8.4309e-03
 7.000	18.500	9.3975e-04
 7.000	18.750	2.0848e-04
 7.000	19.000	1.0436e-04
 7.000	19.250	2.7901e-05
 7.000	19.500	3.7860e-06
 7.000	19.750	1.0000e-07
 7.000	20.000	1.0000e-07
 7.000	20.250	1.0000e-07
 7.000	20.500	1.0000e-07
 7.000	20.750	1.0000e-07
 7.000	21.000	1.0000e-07
 7.000	21.250	1.0000e-07
 7.000	21.500	1.0000e-07
 7.000	21.750	1.0000e-07
 7.000	22.000	1.0000e-07
 7.000	22.250	1.0000e-07
 7.000	22.500	1.0000e-07
 7.000	22.750	1.0000e-07
 7.000	23.000	1.0000e-07
 7.000	23.250	1.0000e-07
 7.000	23.500	1.0000e-07
 7.000	23.750	1.0000e-07
 7.000	24.000	1.0000e-07
 7.250	17.000	1.0622e-02
 7.250	17.250	1.0688e-02
 7.250	17.500	1.0669e-02
 7.250	17.750	1.0507e-02
 7.250	18.000	1.0067e-02
 7.250	18.250	9.3744e-03
 7.250	18.500	8.2519e-03
 7.250	18.750	1.5463e-03
 7.250	19.000	2.0864e-04
 7.250	19.250	1.0477e-04
 7.250	19.500	2.8066e-05
 7.250	19.750	3.7860e-06
 7.250	20.000	1.0000e-07
 7.250	20.250	1.0000e-07
 7.250	20.500	1.0000e-07
 7.250	20.750	1.0000e-07
 7.250	21.000	1.0000e-07
 7.250	21.250	1.0000e-07
 7.250	21.500	1.0000e-07
 7.250	21.750	1.0000e-07
 7.250	22.000	1.0000e-07
 7.250	22.250	1.0000e-07
 7.250	22.500	1.0000e-07
 7.250	22.750	1.0000e-07
 7.250	23.000	1.0000e-07
 7.250	23.250	1.0000e-07
 7.250	23.500	1.0000e-07
 7.250	23.750	1.0000e-07
 7.250	24.000	1.0000e-07
 7.500	17.000	1.0377e-02
 7.500	17.250	1.0474e-02
 7.500	17.500	1.0546e-02
 7.500	17.750	1.0530e-02
 7.500	18.000	1.0355e-02
 7.500	18.250	9.8691e-03
 7.500	18.500	9.1425e-03
 7.500	18.750	8.0245e-03
 7.500	19.000	2.4135e-03
 7.500	19.250	2.0930e-04
 7.500	19.500	1.0527e-04
 7.500	19.750	2.8230e-05
 7.500	20.000	3.7860e-06
 7.500	20.250	1.0000e-07
 7.500	20.500	1.0000e-07
 7.500	20.750	1.0000e-07
 7.500	21.000	1.0000e-07
 7.500	21.250	1.0000e-07
 7.500	21.500	1.0000e-07
 7.500	21.750	1.0000e-07
 7.500	22.000	1.0000e-07
 7.500	22.250	1.0000e-07
 7.500	22.500	1.0000e-07
 7.500	22.750	1.0000e-07
 7.500	23.000	1.0000e-07
 7.500	23.250	1.0000e-07
 7.500	23.500	1.0000e-07
 7.500	23.750	1.0000e-07
 7.500	24.000	1.0000e-07
 7.750	17.000	1.0065e-02
 7.750	17.250	1.0192e-02
 7.750	17.500	1.0291e-02
 7.750	17.750	1.0367e-02
 7.750	18.000	1.0346e-02
 7.750	18.250	1.0153e-02
 7.750	18.500	9.6082e-03
 7.750	18.750	8.8409e-03
 7.750	19.000	7.7324e-03
 7.750	19.250	3.3001e-03
 7.750	19.500	1.9457e-04
 7.750	19.750	1.0568e-04
 7.750	20.000	2.8395e-05
 7.750	20.250	3.8683e-06
 7.750	20.500	1.0000e-07
 7.750	20.750	1.0000e-07
 7.750	21.000	1.0000e-07
 7.750	21.250	1.0000e-07
 7.750	21.500	1.0000e-07
 7.750	21.750	1.0000e-07
 7.750	22.000	1.0000e-07
 7.750	22.250	1.0000e-07
 7.750	22.500	1.0000e-07
 7.750	22.750	1.0000e-07
 7.750	23.000	1.0000e-07
 7.750	23.250	1.0000e-07
 7.750	23.500	1.0000e-07
 7.750	23.750	1.0000e-07
 7.750	24.000	1.0000e-07
 8.000	17.000	9.5543e-03
 8.000	17.250	9.7183e-03
 8.000	17.500	9.8595e-03
 8.000	17.750	9.9826e-03
 8.000	18.000	1.0081e-02
 8.000	18.250	1.0063e-02
 8.000	18.500	9.8486e-03
 8.000	18.750	9.2443e-03
 8.000	19.000	8.4378e-03
 8.000	19.250	7.3472e-03
 8.000	19.500	4.0499e-03
 8.000	19.750	1.9523e-04
 8.000	20.000	1.0617e-04
 8.000	20.250	2.8560e-05
 8.000	20.500	3.8683e-06
 8.000	20.750	1.0000e-07
 8.000	21.000	1.0000e-07
 8.000	21.250	1.0000e-07
 8.000	21.500	1.0000e-07
 8.000	21.750	1.0000e-07
 8.000	22.000	1.0000e-07
 8.000	22.250	1.0000e-07
 8.000	22.500	1.0000e-07
 8.000	22.750	1.0000e-07
 8.000	23.000	1.0000e-07
 8.000	23.250	1.0000e-07
 8.000	23.500	1.0000e-07
 8.000	23.750	1.0000e-07
 8.000	24.000	1.0000e-07
 8.250	17.000	9.1658e-03
 8.250	17.250	9.3367e-03
 8.250	17.500	9.4901e-03
 8.250	17.750	9.6167e-03
 8.250	18.000	9.7240e-03
 8.250	18.250	9.8057e-03
 8.250	18.500	9.7625e-03
 8.250	18.750	9.5135e-03
 8.250	19.000	8.8379e-03
 8.250	19.250	7.9851e-03
 8.250	19.500	6.8779e-03
 8.250	19.750	4.4849e-03
 8.250	20.000	1.9547e-04
 8.250	20.250	1.0658e-04
 8.250	20.500	2.8642e-05
 8.250	20.750	3.8683e-06
 8.250	21.000	1.0000e-07
 8.250	21.250	1.0000e-07
 8.250	21.500	1.0000e-07
 8.250	21.750	1.0000e-07
 8.250	22.000	1.0000e-07
 8.250	22.250	1.0000e-07
 8.250	22.500	1.0000e-07
 8.250	22.750	1.0000e-07
 8.250	23.000	1.0000e-07
 8.250	23.250	1.0000e-07
 8.250	23.500	1.0000e-07
 8.250	23.750	1.0000e-07
 8.250	24.000	1.0000e-07
 8.500	17.000	8.7785e-03
 8.500	17.250	8.9517e-03
 8.500	17.500	9.1119e-03
 8.500	17.750	9.2449e-03
 8.500	18.000	9.3443e-03
 8.500	18.250	9.4207e-03
 8.500	18.500	9.4674e-03
 8.500	18.750	9.3855e-03
 8.500	19.000	9.0942e-03
 8.500	19.250	8.3405e-03
 8.500	19.500	7.4408e-03
 8.500	19.750	6.1812e-03
 8.500	20.000	4.5950e-03
 8.500	20.250	1.8288e-04
 8.500	20.500	1.0691e-04
 8.500	20.750	2.8807e-05
 8.500	21.000	3.9506e-06
 8.500	21.250	1.0000e-07
 8.500	21.500	1.0000e-07
 8.500	21.750	1.0000e-07
 8.500	22.000	1.0000e-07
 8.500	22.250	1.0000e-07
 8.500	22.500	1.0000e-07
 8.500	22.750	1.0000e-07
 8.500	23.000	1.0000e-07
 8.500	23.250	1.0000e-07
 8.500	23.500	1.0000e-07
 8.500	23.750	1.0000e-07
 8.500	24.000	1.0000e-07
 8.750	17.000	8.3890e-03
 8.750	17.250	8.5764e-03
 8.750	17.500	8.7453e-03
 8.750	17.750	8.8811e-03
 8.750	18.000	8.9837e-03
 8.750	18.250	9.0403e-03
 8.750	18.500	9.0649e-03
 8.750	18.750	9.0559e-03
 8.750	19.000	8.9221e-03
 8.750	19.250	8.5778e-03
 8.750	19.500	7.7388e-03
 8.750	19.750	6.8083e-03
 8.750	20.000	5.7330e-03
 8.750	20.250	4.4544e-03
 8.750	20.500	1.9654e-04
 8.750	20.750	1.0700e-04
 8.750	21.000	2.8889e-05
 8.750	21.250	3.9506e-06
 8.750	21.500	1.0000e-07
 8.750	21.750	1.0000e-07
 8.750	22.000	1.0000e-07
 8.750	22.250	1.0000e-07
 8.750	22.500	1.0000e-07
 8.750	22.750	1.0000e-07
 8.750	23.000	1.0000e-07
 8.750	23.250	1.0000e-07
 8.750	23.500	1.0000e-07
 8.750	23.750	1.0000e-07
 8.750	24.000	1.0000e-07
 9.000	17.000	7.9990e-03
 9.000	17.250	8.2061e-03
 9.000	17.500	8.3913e-03
 9.000	17.750	8.5422e-03
 9.000	18.000	8.6459e-03
 9.000	18.250	8.6993e-03
 9.000	18.500	8.6933e-03
 9.000	18.750	8.6410e-03
 9.000	19.000	8.5526e-03
 9.000	19.250	8.3512e-03
 9.000	19.500	7.9478e-03
 9.000	19.750	7.0477e-03
 9.000	20.000	6.1344e-03
 9.000	20.250	5.2114e-03
 9.000	20.500	4.1573e-03
 9.000	20.750	1.9621e-04
 9.000	21.000	1.0700e-04
 9.000	21.250	2.8971e-05
 9.000	21.500	3.9506e-06
 9.000	21.750	8.2305e-07
 9.000	22.000	1.0000e-07
 9.000	22.250	1.0000e-07
 9.000	22.500	1.0000e-07
 9.000	22.750	1.0000e-07
 9.000	23.000	1.0000e-07
 9.000	23.250	1.0000e-07
 9.000	23.500	1.0000e-07
 9.000	23.750	1.0000e-07
 9.000	24.000	1.0000e-07
 9.250	17.000	7.5778e-03
 9.250	17.250	7.8276e-03
 9.250	17.500	8.0467e-03
 9.250	17.750	8.2185e-03
 9.250	18.000	8.3374e-03
 9.250	18.250	8.3939e-03
 9.250	18.500	8.3701e-03
 9.250	18.750	8.2740e-03
 9.250	19.000	8.1214e-03
 9.250	19.250	7.9412e-03
 9.250	19.500	7.6691e-03
 9.250	19.750	7.2316e-03
 9.250	20.000	6.3478e-03
 9.250	20.250	5.4997e-03
 9.250	20.500	4.7039e-03
 9.250	20.750	3.8159e-03
 9.250	21.000	1.8642e-04
 9.250	21.250	1.0675e-04
 9.250	21.500	2.8889e-05
 9.250	21.750	3.9506e-06
 9.250	22.000	8.2305e-07
 9.250	22.250	1.0000e-07
 9.250	22.500	1.0000e-07
 9.250	22.750	1.0000e-07
 9.250	23.000	1.0000e-07
 9.250	23.250	1.0000e-07
 9.250	23.500	1.0000e-07
 9.250	23.750	1.0000e-07
 9.250	24.000	1.0000e-07
 9.500	17.000	7.0700e-03
 9.500	17.250	7.4218e-03
 9.500	17.500	7.6837e-03
 9.500	17.750	7.8965e-03
 9.500	18.000	8.0404e-03
 9.500	18.250	8.1049e-03
 9.500	18.500	8.0842e-03
 9.500	18.750	7.9586e-03
 9.500	19.000	7.7413e-03
 9.500	19.250	7.4883e-03
 9.500	19.500	7.2257e-03
 9.500	19.750	6.9260e-03
 9.500	20.000	6.5491e-03
 9.500	20.250	5.7588e-03
 9.500	20.500	4.9979e-03
 9.500	20.750	4.3364e-03
 9.500	21.000	3.5664e-03
 9.500	21.250	1.9671e-04
 9.500	21.500	1.0658e-04
 9.500	21.750	2.8889e-05
 9.500	22.000	3.9506e-06
 9.500	22.250	8.2305e-07
 9.500	22.500	1.0000e-07
 9.500	22.750	1.0000e-07
 9.500	23.000	1.0000e-07
 9.500	23.250	1.0000e-07
 9.500	23.500	1.0000e-07
 9.500	23.750	1.0000e-07
 9.500	24.000	1.0000e-07
 9.750	17.000	6.3772e-03
 9.750	17.250	6.9258e-03
 9.750	17.500	7.2974e-03
 9.750	17.750	7.5580e-03
 9.750	18.000	7.7482e-03
 9.750	18.250	7.8430e-03
 9.750	18.500	7.8291e-03
 9.750	18.750	7.6843e-03
 9.750	19.000	7.4239e-03
 9.750	19.250	7.1006e-03
 9.750	19.500	6.7806e-03
 9.750	19.750	6.5067e-03
 9.750	20.000	6.2906e-03
 9.750	20.250	6.0516e-03
 9.750	20.500	5.4063e-03
 9.750	20.750	4.8653e-03
 9.750	21.000	4.3645e-03
 9.750	21.250	3.6051e-03
 9.750	21.500	1.9885e-04
 9.750	21.750	1.0658e-04
 9.750	22.000	2.8889e-05
 9.750	22.250	3.9506e-06
 9.750	22.500	8.2305e-07
 9.750	22.750	1.0000e-07
 9.750	23.000	1.0000e-07
 9.750	23.250	1.0000e-07
 9.750	23.500	1.0000e-07
 9.750	23.750	1.0000e-07
 9.750	24.000	1.0000e-07
10.000	17.000	5.4733e-03
10.000	17.250	6.2602e-03
10.000	17.500	6.8392e-03
10.000	17.750	7.2140e-03
10.000	18.000	7.4665e-03
10.000	18.250	7.6022e-03
10.000	18.500	7.6059e-03
10.000	18.750	7.4613e-03
10.000	19.000	7.1662e-03
10.000	19.250	6.7925e-03
10.000	19.500	6.4252e-03
10.000	19.750	6.1318e-03
10.000	20.000	5.9824e-03
10.000	20.250	5.9497e-03
10.000	20.500	5.8888e-03
10.000	20.750	5.5729e-03
10.000	21.000	5.3704e-03
10.000	21.250	4.9590e-03
10.000	21.500	4.0618e-03
10.000	21.750	2.0181e-04
10.000	22.000	1.0691e-04
10.000	22.250	2.9136e-05
10.000	22.500	4.0329e-06
10.000	22.750	8.2305e-07
10.000	23.000	1.0000e-07
10.000	23.250	1.0000e-07
10.000	23.500	1.0000e-07
10.000	23.750	1.0000e-07
10.000	24.000	1.0000e-07
10.250	17.000	4.3649e-03
10.250	17.250	5.3714e-03
10.250	17.500	6.2330e-03
10.250	17.750	6.8267e-03
10.250	18.000	7.1919e-03
10.250	18.250	7.3962e-03
10.250	18.500	7.4363e-03
10.250	18.750	7.2998e-03
10.250	19.000	6.9788e-03
10.250	19.250	6.5649e-03
10.250	19.500	6.1707e-03
10.250	19.750	5.8814e-03
10.250	20.000	5.7879e-03
10.250	20.250	5.8198e-03
10.250	20.500	6.0088e-03
10.250	20.750	6.3556e-03
10.250	21.000	6.4634e-03
10.250	21.250	6.5250e-03
10.250	21.500	6.1232e-03
10.250	21.750	4.7493e-03
10.250	22.000	2.0700e-04
10.250	22.250	1.0741e-04
10.250	22.500	2.9547e-05
10.250	22.750	4.0329e-06
10.250	23.000	8.2305e-07
10.250	23.250	1.0000e-07
10.250	23.500	1.0000e-07
10.250	23.750	1.0000e-07
10.250	24.000	1.0000e-07
10.500	17.000	3.3092e-03
10.500	17.250	4.3314e-03
10.500	17.500	5.4264e-03
10.500	17.750	6.3463e-03
10.500	18.000	6.9240e-03
10.500	18.250	7.2281e-03
10.500	18.500	7.3181e-03
10.500	18.750	7.2018e-03
10.500	19.000	6.8792e-03
10.500	19.250	6.4160e-03
10.500	19.500	6.0012e-03
10.500	19.750	5.7367e-03
10.500	20.000	5.7039e-03
10.500	20.250	5.7843e-03
10.500	20.500	6.0696e-03
10.500	20.750	6.7574e-03
10.500	21.000	7.4950e-03
10.500	21.250	7.8682e-03
10.500	21.500	8.0410e-03
10.500	21.750	7.4686e-03
10.500	22.000	5.2542e-03
10.500	22.250	2.1885e-04
10.500	22.500	1.0840e-04
10.500	22.750	3.0288e-05
10.500	23.000	4.1975e-06
10.500	23.250	9.0535e-07
10.500	23.500	1.0000e-07
10.500	23.750	1.0000e-07
10.500	24.000	1.0000e-07
10.750	17.000	2.4207e-03
10.750	17.250	3.2742e-03
10.750	17.500	4.4600e-03
10.750	17.750	5.6722e-03
10.750	18.000	6.5575e-03
10.750	18.250	7.0773e-03
10.750	18.500	7.2523e-03
10.750	18.750	7.1698e-03
10.750	19.000	6.8511e-03
10.750	19.250	6.3592e-03
10.750	19.500	5.8993e-03
10.750	19.750	5.6698e-03
10.750	20.000	5.6773e-03
10.750	20.250	5.7977e-03
10.750	20.500	6.0861e-03
10.750	20.750	6.8515e-03
10.750	21.000	8.0384e-03
10.750	21.250	8.8378e-03
10.750	21.500	9.2579e-03
10.750	21.750	9.3179e-03
10.750	22.000	8.3807e-03
10.750	22.250	5.6604e-03
10.750	22.500	2.8560e-04
10.750	22.750	1.0988e-04
10.750	23.000	3.1276e-05
10.750	23.250	4.3621e-06
10.750	23.500	9.0535e-07
10.750	23.750	1.0000e-07
10.750	24.000	1.0000e-07
11.000	17.000	1.7372e-03
11.000	17.250	2.3491e-03
11.000	17.500	3.3658e-03
11.000	17.750	4.7812e-03
11.000	18.000	6.0219e-03
11.000	18.250	6.8287e-03
11.000	18.500	7.1913e-03
11.000	18.750	7.1907e-03
11.000	19.000	6.8846e-03
11.000	19.250	6.3733e-03
11.000	19.500	5.8663e-03
11.000	19.750	5.6044e-03
11.000	20.000	5.6490e-03
11.000	20.250	5.8291e-03
11.000	20.500	6.1398e-03
11.000	20.750	6.9301e-03
11.000	21.000	8.4022e-03
11.000	21.250	9.3050e-03
11.000	21.500	9.7552e-03
11.000	21.750	9.9565e-03
11.000	22.000	9.7351e-03
11.000	22.250	8.5531e-03
11.000	22.500	4.5693e-03
11.000	22.750	3.5086e-04
11.000	23.000	1.1218e-04
11.000	23.250	3.2510e-05
11.000	23.500	4.5267e-06
11.000	23.750	9.8765e-07
11.000	24.000	1.0000e-07
11.250	17.000	1.2285e-03
11.250	17.250	1.6295e-03
11.250	17.500	2.3532e-03
11.250	17.750	3.6335e-03
11.250	18.000	5.1639e-03
11.250	18.250	6.3758e-03
11.250	18.500	7.0495e-03
11.250	18.750	7.2224e-03
11.250	19.000	6.9717e-03
11.250	19.250	6.4583e-03
11.250	19.500	5.8909e-03
11.250	19.750	5.5711e-03
11.250	20.000	5.6569e-03
11.250	20.250	5.8444e-03
11.250	20.500	6.2431e-03
11.250	20.750	7.0123e-03
11.250	21.000	8.5802e-03
11.250	21.250	9.4256e-03
11.250	21.500	9.8607e-03
11.250	21.750	9.7900e-03
11.250	22.000	9.7640e-03
11.250	22.250	9.2863e-03
11.250	22.500	7.9056e-03
11.250	22.750	3.8451e-03
11.250	23.000	4.5621e-04
11.250	23.250	1.1374e-04
11.250	23.500	3.3745e-05
11.250	23.750	4.7737e-06
11.250	24.000	9.8765e-07
11.500	17.000	8.5580e-04
11.500	17.250	1.1084e-03
11.500	17.500	1.5579e-03
11.500	17.750	2.4598e-03
11.500	18.000	3.9550e-03
11.500	18.250	5.5811e-03
11.500	18.500	6.7269e-03
11.500	18.750	7.1970e-03
11.500	19.000	7.0905e-03
11.500	19.250	6.6044e-03
11.500	19.500	5.9853e-03
11.500	19.750	5.5754e-03
11.500	20.000	5.6165e-03
11.500	20.250	5.9006e-03
11.500	20.500	6.2012e-03
11.500	20.750	7.0422e-03
11.500	21.000	8.3556e-03
11.500	21.250	9.3588e-03
11.500	21.500	9.3316e-03
11.500	21.750	9.2026e-03
11.500	22.000	8.9372e-03
11.500	22.250	8.7012e-03
11.500	22.500	8.1610e-03
11.500	22.750	6.5258e-03
11.500	23.000	3.1769e-03
11.500	23.250	5.2148e-04
11.500	23.500	1.1514e-04
11.500	23.750	3.4239e-05
11.500	24.000	4.8560e-06
11.750	17.000	5.8733e-04
11.750	17.250	7.4494e-04
11.750	17.500	1.0080e-03
11.750	17.750	1.5520e-03
11.750	18.000	2.6572e-03
11.750	18.250	4.3801e-03
11.750	18.500	6.1008e-03
11.750	18.750	7.0309e-03
11.750	19.000	7.2021e-03
11.750	19.250	6.8104e-03
11.750	19.500	6.0998e-03
11.750	19.750	5.6399e-03
11.750	20.000	5.5911e-03
11.750	20.250	5.9087e-03
11.750	20.500	6.3266e-03
11.750	20.750	7.6472e-03
11.750	21.000	8.0091e-03
11.750	21.250	8.6694e-03
11.750	21.500	8.6666e-03
11.750	21.750	8.3414e-03
11.750	22.000	7.8091e-03
11.750	22.250	7.4120e-03
11.750	22.500	7.1876e-03
11.750	22.750	6.6497e-03
11.750	23.000	5.0078e-03
11.750	23.250	2.1944e-03
11.750	23.500	5.4889e-04
11.750	23.750	1.1539e-04
11.750	24.000	3.3992e-05
12.000	17.000	4.0461e-04
12.000	17.250	4.9934e-04
12.000	17.500	6.5119e-04
12.000	17.750	9.5605e-04
12.000	18.000	1.6363e-03
12.000	18.250	3.0172e-03
12.000	18.500	4.9817e-03
12.000	18.750	6.6342e-03
12.000	19.000	7.2668e-03
12.000	19.250	7.0917e-03
12.000	19.500	6.4021e-03
12.000	19.750	5.6709e-03
12.000	20.000	5.6230e-03
12.000	20.250	5.9295e-03
12.000	20.500	6.4308e-03
12.000	20.750	7.6902e-03
12.000	21.000	7.8969e-03
12.000	21.250	8.3191e-03
12.000	21.500	7.9045e-03
12.000	21.750	7.3031e-03
12.000	22.000	6.7666e-03
12.000	22.250	6.1137e-03
12.000	22.500	5.8888e-03
12.000	22.750	5.8092e-03
12.000	23.000	4.9436e-03
12.000	23.250	3.5395e-03
12.000	23.500	1.7236e-03
12.000	23.750	5.1111e-04
12.000	24.000	1.1679e-04
12.250	17.000	2.8008e-04
12.250	17.250	3.3942e-04
12.250	17.500	4.2675e-04
12.250	17.750	5.9605e-04
12.250	18.000	9.7407e-04
12.250	18.250	1.8759e-03
12.250	18.500	3.6230e-03
12.250	18.750	5.7427e-03
12.250	19.000	7.0545e-03
12.250	19.250	7.3616e-03
12.250	19.500	6.8666e-03
12.250	19.750	6.0469e-03
12.250	20.000	5.4909e-03
12.250	20.250	6.0144e-03
12.250	20.500	6.5605e-03
12.250	20.750	7.7931e-03
12.250	21.000	8.6077e-03
12.250	21.250	7.8993e-03
12.250	21.500	7.3459e-03
12.250	21.750	6.4757e-03
12.250	22.000	5.7058e-03
12.250	22.250	5.2451e-03
12.250	22.500	4.8194e-03
12.250	22.750	4.7521e-03
12.250	23.000	4.2334e-03
12.250	23.250	3.3846e-03
12.250	23.500	2.3516e-03
12.250	23.750	1.2160e-03
12.250	24.000	4.4831e-04
12.500	17.000	1.9514e-04
12.500	17.250	2.3440e-04
12.500	17.500	2.8741e-04
12.500	17.750	3.8082e-04
12.500	18.000	5.8724e-04
12.500	18.250	1.1003e-03
12.500	18.500	2.3322e-03
12.500	18.750	4.4089e-03
12.500	19.000	6.4547e-03
12.500	19.250	7.4221e-03
12.500	19.500	7.3113e-03
12.500	19.750	6.6298e-03
12.500	20.000	5.9424e-03
12.500	20.250	5.7221e-03
12.500	20.500	6.7728e-03
12.500	20.750	7.8443e-03
12.500	21.000	8.5376e-03
12.500	21.250	7.3881e-03
12.500	21.500	6.9104e-03
12.500	21.750	5.8668e-03
12.500	22.000	4.9362e-03
12.500	22.250	4.3664e-03
12.500	22.500	4.2166e-03
12.500	22.750	3.9109e-03
12.500	23.000	3.6016e-03
12.500	23.250	2.8588e-03
12.500	23.500	2.2019e-03
12.500	23.750	1.4235e-03
12.500	24.000	7.7391e-04
12.750	17.000	1.3679e-04
12.750	17.250	1.6436e-04
12.750	17.500	1.9827e-04
12.750	17.750	2.5276e-04
12.750	18.000	3.6346e-04
12.750	18.250	6.3572e-04
12.750	18.500	1.3551e-03
12.750	18.750	2.9119e-03
12.750	19.000	5.1407e-03
12.750	19.250	7.0003e-03
12.750	19.500	7.6395e-03
12.750	19.750	7.2414e-03
12.750	20.000	6.6144e-03
12.750	20.250	6.2727e-03
12.750	20.500	6.4195e-03
12.750	20.750	6.9071e-03
12.750	21.000	8.6782e-03
12.750	21.250	7.6000e-03
12.750	21.500	6.6394e-03
12.750	21.750	5.5289e-03
12.750	22.000	4.5069e-03
12.750	22.250	3.8565e-03
12.750	22.500	3.5252e-03
12.750	22.750	3.2121e-03
12.750	23.000	2.8875e-03
12.750	23.250	2.4602e-03
12.750	23.500	1.8692e-03
12.750	23.750	1.4030e-03
12.750	24.000	9.0329e-04
13.000	17.000	9.6214e-05
13.000	17.250	1.1638e-04
13.000	17.500	1.3926e-04
13.000	17.750	1.7333e-04
13.000	18.000	2.3580e-04
13.000	18.250	3.7728e-04
13.000	18.500	7.5539e-04
13.000	18.750	1.6895e-03
13.000	19.000	3.4156e-03
13.000	19.250	5.6485e-03
13.000	19.500	7.2968e-03
13.000	19.750	7.7681e-03
13.000	20.000	7.3663e-03
13.000	20.250	7.0922e-03
13.000	20.500	7.3840e-03
13.000	20.750	7.6848e-03
13.000	21.000	7.8540e-03
13.000	21.250	7.5058e-03
13.000	21.500	6.5797e-03
13.000	21.750	5.5167e-03
13.000	22.000	4.2873e-03
13.000	22.250	3.5879e-03
13.000	22.500	3.0898e-03
13.000	22.750	2.8102e-03
13.000	23.000	2.3397e-03
13.000	23.250	2.0884e-03
13.000	23.500	1.6533e-03
13.000	23.750	1.2130e-03
13.000	24.000	8.9547e-04
13.250	17.000	6.7490e-05
13.250	17.250	8.2963e-05
13.250	17.500	9.9506e-05
13.250	17.750	1.2181e-04
13.250	18.000	1.6008e-04
13.250	18.250	2.3811e-04
13.250	18.500	4.2683e-04
13.250	18.750	8.9490e-04
13.250	19.000	1.8774e-03
13.250	19.250	3.4797e-03
13.250	19.500	5.4200e-03
13.250	19.750	7.1602e-03
13.250	20.000	7.8115e-03
13.250	20.250	7.6249e-03
13.250	20.500	7.7082e-03
13.250	20.750	8.5982e-03
13.250	21.000	8.6014e-03
13.250	21.250	8.2521e-03
13.250	21.500	6.9758e-03
13.250	21.750	5.5046e-03
13.250	22.000	4.4048e-03
13.250	22.250	3.4241e-03
13.250	22.500	2.6280e-03
13.250	22.750	2.4184e-03
13.250	23.000	2.1588e-03
13.250	23.250	1.6765e-03
13.250	23.500	1.3909e-03
13.250	23.750	1.1436e-03
13.250	24.000	8.1416e-04
13.500	17.000	4.7160e-05
13.500	17.250	5.9012e-05
13.500	17.500	7.1605e-05
13.500	17.750	8.7325e-05
13.500	18.000	1.1210e-04
13.500	18.250	1.5877e-04
13.500	18.500	2.5432e-04
13.500	18.750	4.6724e-04
13.500	19.000	9.2749e-04
13.500	19.250	1.7468e-03
13.500	19.500	3.0198e-03
13.500	19.750	4.7007e-03
13.500	20.000	5.8510e-03
13.500	20.250	7.4153e-03
13.500	20.500	7.3882e-03
13.500	20.750	8.2001e-03
13.500	21.000	8.5251e-03
13.500	21.250	8.1746e-03
13.500	21.500	7.1146e-03
13.500	21.750	5.8405e-03
13.500	22.000	4.4579e-03
13.500	22.250	3.4746e-03
13.500	22.500	2.6119e-03
13.500	22.750	2.0598e-03
13.500	23.000	1.8687e-03
13.500	23.250	1.6380e-03
13.500	23.500	1.1580e-03
13.500	23.750	1.0727e-03
13.500	24.000	8.1407e-04
13.750	17.000	3.2675e-05
13.750	17.250	4.1893e-05
13.750	17.500	5.1605e-05
13.750	17.750	6.3210e-05
13.750	18.000	8.0082e-05
13.750	18.250	1.0864e-04
13.750	18.500	1.6082e-04
13.750	18.750	2.5794e-04
13.750	19.000	4.3918e-04
13.750	19.250	7.6132e-04
13.750	19.500	1.2790e-03
13.750	19.750	2.0288e-03
13.750	20.000	3.0414e-03
13.750	20.250	3.7241e-03
13.750	20.500	4.8258e-03
13.750	20.750	5.5001e-03
13.750	21.000	6.0395e-03
13.750	21.250	6.0587e-03
13.750	21.500	6.4002e-03
13.750	21.750	5.5001e-03
13.750	22.000	4.4714e-03
13.750	22.250	3.5858e-03
13.750	22.500	2.8927e-03
13.750	22.750	2.0898e-03
13.750	23.000	1.5661e-03
13.750	23.250	1.4049e-03
13.750	23.500	1.2220e-03
13.750	23.750	9.5621e-04
13.750	24.000	8.9062e-04
14.000	17.000	2.2305e-05
14.000	17.250	2.9465e-05
14.000	17.500	3.7037e-05
14.000	17.750	4.5761e-05
14.000	18.000	5.7449e-05
14.000	18.250	7.5391e-05
14.000	18.500	1.0395e-04
14.000	18.750	1.4872e-04
14.000	19.000	2.1835e-04
14.000	19.250	3.2667e-04
14.000	19.500	4.9160e-04
14.000	19.750	7.3975e-04
14.000	20.000	1.0821e-03
14.000	20.250	1.5056e-03
14.000	20.500	1.9923e-03
14.000	20.750	2.3148e-03
14.000	21.000	2.8028e-03
14.000	21.250	3.4175e-03
14.000	21.500	3.3386e-03
14.000	21.750	3.6992e-03
14.000	22.000	3.8650e-03
14.000	22.250	3.7909e-03
14.000	22.500	3.3347e-03
14.000	22.750	2.5472e-03
14.000	23.000	1.9011e-03
14.000	23.250	1.4074e-03
14.000	23.500	1.2640e-03
14.000	23.750	1.1335e-03
14.000	24.000	8.8815e-04
