nInu 913.000A  relative to Inci 1215.00A scaled to 1215A.
Hden   Phi(H)  Eq_Width (A)
 7.000	17.000	6.2631e-02
 7.000	17.250	1.0290e-01
 7.000	17.500	1.6796e-01
 7.000	17.750	2.6624e-01
 7.000	18.000	4.8880e-01
 7.000	18.250	9.3684e-01
 7.000	18.500	9.9212e-01
 7.000	18.750	9.9337e-01
 7.000	19.000	9.9337e-01
 7.000	19.250	9.9337e-01
 7.000	19.500	9.9338e-01
 7.000	19.750	9.9338e-01
 7.000	20.000	9.9338e-01
 7.000	20.250	9.9338e-01
 7.000	20.500	9.9338e-01
 7.000	20.750	9.9338e-01
 7.000	21.000	9.9338e-01
 7.000	21.250	9.9338e-01
 7.000	21.500	9.9338e-01
 7.000	21.750	9.9338e-01
 7.000	22.000	9.9338e-01
 7.000	22.250	9.9338e-01
 7.000	22.500	9.9338e-01
 7.000	22.750	9.9338e-01
 7.000	23.000	9.9338e-01
 7.000	23.250	9.9338e-01
 7.000	23.500	9.9338e-01
 7.000	23.750	9.9338e-01
 7.000	24.000	9.9338e-01
 7.250	17.000	3.6931e-02
 7.250	17.250	6.1331e-02
 7.250	17.500	1.0161e-01
 7.250	17.750	1.6756e-01
 7.250	18.000	2.6740e-01
 7.250	18.250	5.0428e-01
 7.250	18.500	9.4632e-01
 7.250	18.750	9.9215e-01
 7.250	19.000	9.9337e-01
 7.250	19.250	9.9337e-01
 7.250	19.500	9.9337e-01
 7.250	19.750	9.9338e-01
 7.250	20.000	9.9338e-01
 7.250	20.250	9.9338e-01
 7.250	20.500	9.9338e-01
 7.250	20.750	9.9338e-01
 7.250	21.000	9.9338e-01
 7.250	21.250	9.9338e-01
 7.250	21.500	9.9338e-01
 7.250	21.750	9.9338e-01
 7.250	22.000	9.9338e-01
 7.250	22.250	9.9338e-01
 7.250	22.500	9.9338e-01
 7.250	22.750	9.9338e-01
 7.250	23.000	9.9338e-01
 7.250	23.250	9.9338e-01
 7.250	23.500	9.9338e-01
 7.250	23.750	9.9338e-01
 7.250	24.000	9.9338e-01
 7.500	17.000	2.2027e-02
 7.500	17.250	3.6058e-02
 7.500	17.500	6.0323e-02
 7.500	17.750	1.0108e-01
 7.500	18.000	1.6756e-01
 7.500	18.250	2.6991e-01
 7.500	18.500	5.3403e-01
 7.500	18.750	9.5188e-01
 7.500	19.000	9.9220e-01
 7.500	19.250	9.9337e-01
 7.500	19.500	9.9337e-01
 7.500	19.750	9.9337e-01
 7.500	20.000	9.9337e-01
 7.500	20.250	9.9338e-01
 7.500	20.500	9.9338e-01
 7.500	20.750	9.9338e-01
 7.500	21.000	9.9338e-01
 7.500	21.250	9.9338e-01
 7.500	21.500	9.9338e-01
 7.500	21.750	9.9338e-01
 7.500	22.000	9.9338e-01
 7.500	22.250	9.9338e-01
 7.500	22.500	9.9338e-01
 7.500	22.750	9.9338e-01
 7.500	23.000	9.9338e-01
 7.500	23.250	9.9338e-01
 7.500	23.500	9.9338e-01
 7.500	23.750	9.9338e-01
 7.500	24.000	9.9338e-01
 7.750	17.000	1.3708e-02
 7.750	17.250	2.1466e-02
 7.750	17.500	3.5420e-02
 7.750	17.750	5.9778e-02
 7.750	18.000	1.0128e-01
 7.750	18.250	1.6981e-01
 7.750	18.500	2.7475e-01
 7.750	18.750	5.8295e-01
 7.750	19.000	9.6245e-01
 7.750	19.250	9.9224e-01
 7.750	19.500	9.9337e-01
 7.750	19.750	9.9337e-01
 7.750	20.000	9.9337e-01
 7.750	20.250	9.9338e-01
 7.750	20.500	9.9338e-01
 7.750	20.750	9.9338e-01
 7.750	21.000	9.9338e-01
 7.750	21.250	9.9338e-01
 7.750	21.500	9.9338e-01
 7.750	21.750	9.9338e-01
 7.750	22.000	9.9338e-01
 7.750	22.250	9.9338e-01
 7.750	22.500	9.9338e-01
 7.750	22.750	9.9338e-01
 7.750	23.000	9.9338e-01
 7.750	23.250	9.9338e-01
 7.750	23.500	9.9338e-01
 7.750	23.750	9.9338e-01
 7.750	24.000	9.9338e-01
 8.000	17.000	9.1238e-03
 8.000	17.250	1.3239e-02
 8.000	17.500	2.0811e-02
 8.000	17.750	3.4647e-02
 8.000	18.000	5.9385e-02
 8.000	18.250	1.0225e-01
 8.000	18.500	1.7345e-01
 8.000	18.750	2.8292e-01
 8.000	19.000	6.4979e-01
 8.000	19.250	9.6941e-01
 8.000	19.500	9.9227e-01
 8.000	19.750	9.9337e-01
 8.000	20.000	9.9337e-01
 8.000	20.250	9.9338e-01
 8.000	20.500	9.9338e-01
 8.000	20.750	9.9338e-01
 8.000	21.000	9.9338e-01
 8.000	21.250	9.9338e-01
 8.000	21.500	9.9338e-01
 8.000	21.750	9.9338e-01
 8.000	22.000	9.9338e-01
 8.000	22.250	9.9338e-01
 8.000	22.500	9.9338e-01
 8.000	22.750	9.9338e-01
 8.000	23.000	9.9338e-01
 8.000	23.250	9.9338e-01
 8.000	23.500	9.9338e-01
 8.000	23.750	9.9338e-01
 8.000	24.000	9.9338e-01
 8.250	17.000	6.7349e-03
 8.250	17.250	8.8872e-03
 8.250	17.500	1.2940e-02
 8.250	17.750	2.0540e-02
 8.250	18.000	3.4705e-02
 8.250	18.250	6.0760e-02
 8.250	18.500	1.0669e-01
 8.250	18.750	1.8328e-01
 8.250	19.000	3.0273e-01
 8.250	19.250	7.2168e-01
 8.250	19.500	9.8260e-01
 8.250	19.750	9.9232e-01
 8.250	20.000	9.9337e-01
 8.250	20.250	9.9337e-01
 8.250	20.500	9.9337e-01
 8.250	20.750	9.9338e-01
 8.250	21.000	9.9338e-01
 8.250	21.250	9.9338e-01
 8.250	21.500	9.9338e-01
 8.250	21.750	9.9338e-01
 8.250	22.000	9.9338e-01
 8.250	22.250	9.9338e-01
 8.250	22.500	9.9338e-01
 8.250	22.750	9.9338e-01
 8.250	23.000	9.9338e-01
 8.250	23.250	9.9338e-01
 8.250	23.500	9.9338e-01
 8.250	23.750	9.9338e-01
 8.250	24.000	9.9338e-01
 8.500	17.000	5.4390e-03
 8.500	17.250	6.5560e-03
 8.500	17.500	8.6923e-03
 8.500	17.750	1.2745e-02
 8.500	18.000	2.0542e-02
 8.500	18.250	3.5660e-02
 8.500	18.500	6.4392e-02
 8.500	18.750	1.1549e-01
 8.500	19.000	2.0027e-01
 8.500	19.250	3.6881e-01
 8.500	19.500	8.0556e-01
 8.500	19.750	9.8607e-01
 8.500	20.000	9.9236e-01
 8.500	20.250	9.9337e-01
 8.500	20.500	9.9337e-01
 8.500	20.750	9.9338e-01
 8.500	21.000	9.9338e-01
 8.500	21.250	9.9338e-01
 8.500	21.500	9.9338e-01
 8.500	21.750	9.9338e-01
 8.500	22.000	9.9338e-01
 8.500	22.250	9.9338e-01
 8.500	22.500	9.9338e-01
 8.500	22.750	9.9338e-01
 8.500	23.000	9.9338e-01
 8.500	23.250	9.9338e-01
 8.500	23.500	9.9338e-01
 8.500	23.750	9.9338e-01
 8.500	24.000	9.9338e-01
 8.750	17.000	4.7127e-03
 8.750	17.250	5.2874e-03
 8.750	17.500	6.4103e-03
 8.750	17.750	8.5584e-03
 8.750	18.000	1.2796e-02
 8.750	18.250	2.1209e-02
 8.750	18.500	3.8233e-02
 8.750	18.750	7.1329e-02
 8.750	19.000	1.3013e-01
 8.750	19.250	2.2615e-01
 8.750	19.500	5.2527e-01
 8.750	19.750	8.7875e-01
 8.750	20.000	9.8631e-01
 8.750	20.250	9.9242e-01
 8.750	20.500	9.9337e-01
 8.750	20.750	9.9337e-01
 8.750	21.000	9.9337e-01
 8.750	21.250	9.9338e-01
 8.750	21.500	9.9338e-01
 8.750	21.750	9.9338e-01
 8.750	22.000	9.9338e-01
 8.750	22.250	9.9338e-01
 8.750	22.500	9.9338e-01
 8.750	22.750	9.9338e-01
 8.750	23.000	9.9338e-01
 8.750	23.250	9.9338e-01
 8.750	23.500	9.9338e-01
 8.750	23.750	9.9338e-01
 8.750	24.000	9.9338e-01
 9.000	17.000	4.2770e-03
 9.000	17.250	4.5765e-03
 9.000	17.500	5.1724e-03
 9.000	17.750	6.3345e-03
 9.000	18.000	8.6513e-03
 9.000	18.250	1.3322e-02
 9.000	18.500	2.2993e-02
 9.000	18.750	4.2999e-02
 9.000	19.000	8.2155e-02
 9.000	19.250	1.5089e-01
 9.000	19.500	2.6153e-01
 9.000	19.750	6.5679e-01
 9.000	20.000	9.3207e-01
 9.000	20.250	9.8667e-01
 9.000	20.500	9.9248e-01
 9.000	20.750	9.9336e-01
 9.000	21.000	9.9337e-01
 9.000	21.250	9.9337e-01
 9.000	21.500	9.9338e-01
 9.000	21.750	9.9338e-01
 9.000	22.000	9.9338e-01
 9.000	22.250	9.9338e-01
 9.000	22.500	9.9338e-01
 9.000	22.750	9.9338e-01
 9.000	23.000	9.9338e-01
 9.000	23.250	9.9338e-01
 9.000	23.500	9.9338e-01
 9.000	23.750	9.9338e-01
 9.000	24.000	9.9338e-01
 9.250	17.000	3.9906e-03
 9.250	17.250	4.1490e-03
 9.250	17.500	4.4814e-03
 9.250	17.750	5.1521e-03
 9.250	18.000	6.5644e-03
 9.250	18.250	9.2129e-03
 9.250	18.500	1.4651e-02
 9.250	18.750	2.6109e-02
 9.250	19.000	5.0047e-02
 9.250	19.250	9.6557e-02
 9.250	19.500	1.7669e-01
 9.250	19.750	3.5197e-01
 9.250	20.000	7.8306e-01
 9.250	20.250	9.6721e-01
 9.250	20.500	9.8717e-01
 9.250	20.750	9.9251e-01
 9.250	21.000	9.9336e-01
 9.250	21.250	9.9337e-01
 9.250	21.500	9.9337e-01
 9.250	21.750	9.9338e-01
 9.250	22.000	9.9338e-01
 9.250	22.250	9.9338e-01
 9.250	22.500	9.9338e-01
 9.250	22.750	9.9338e-01
 9.250	23.000	9.9338e-01
 9.250	23.250	9.9338e-01
 9.250	23.500	9.9338e-01
 9.250	23.750	9.9338e-01
 9.250	24.000	9.9338e-01
 9.500	17.000	3.7984e-03
 9.500	17.250	3.8706e-03
 9.500	17.500	4.0762e-03
 9.500	17.750	4.5398e-03
 9.500	18.000	5.4505e-03
 9.500	18.250	7.0756e-03
 9.500	18.500	1.0278e-02
 9.500	18.750	1.6880e-02
 9.500	19.000	3.0757e-02
 9.500	19.250	5.9329e-02
 9.500	19.500	1.1411e-01
 9.500	19.750	2.0650e-01
 9.500	20.000	4.8392e-01
 9.500	20.250	8.6269e-01
 9.500	20.500	9.7754e-01
 9.500	20.750	9.8766e-01
 9.500	21.000	9.9254e-01
 9.500	21.250	9.9335e-01
 9.500	21.500	9.9337e-01
 9.500	21.750	9.9337e-01
 9.500	22.000	9.9338e-01
 9.500	22.250	9.9338e-01
 9.500	22.500	9.9338e-01
 9.500	22.750	9.9338e-01
 9.500	23.000	9.9338e-01
 9.500	23.250	9.9338e-01
 9.500	23.500	9.9338e-01
 9.500	23.750	9.9338e-01
 9.500	24.000	9.9338e-01
 9.750	17.000	3.6887e-03
 9.750	17.250	3.6729e-03
 9.750	17.500	3.8058e-03
 9.750	17.750	4.1634e-03
 9.750	18.000	4.8238e-03
 9.750	18.250	5.9536e-03
 9.750	18.500	8.0208e-03
 9.750	18.750	1.2029e-02
 9.750	19.000	2.0289e-02
 9.750	19.250	3.7381e-02
 9.750	19.500	7.1762e-02
 9.750	19.750	1.3580e-01
 9.750	20.000	2.4100e-01
 9.750	20.250	6.1156e-01
 9.750	20.500	9.1684e-01
 9.750	20.750	9.7932e-01
 9.750	21.000	9.8808e-01
 9.750	21.250	9.9253e-01
 9.750	21.500	9.9334e-01
 9.750	21.750	9.9337e-01
 9.750	22.000	9.9337e-01
 9.750	22.250	9.9338e-01
 9.750	22.500	9.9338e-01
 9.750	22.750	9.9338e-01
 9.750	23.000	9.9338e-01
 9.750	23.250	9.9338e-01
 9.750	23.500	9.9338e-01
 9.750	23.750	9.9338e-01
 9.750	24.000	9.9338e-01
10.000	17.000	3.6688e-03
10.000	17.250	3.5438e-03
10.000	17.500	3.5891e-03
10.000	17.750	3.8808e-03
10.000	18.000	4.4590e-03
10.000	18.250	5.3360e-03
10.000	18.500	6.8166e-03
10.000	18.750	9.5315e-03
10.000	19.000	1.4805e-02
10.000	19.250	2.5947e-02
10.000	19.500	5.0886e-02
10.000	19.750	1.0298e-01
10.000	20.000	1.8655e-01
10.000	20.250	4.2985e-01
10.000	20.500	7.9267e-01
10.000	20.750	9.6113e-01
10.000	21.000	9.8052e-01
10.000	21.250	9.8827e-01
10.000	21.500	9.9249e-01
10.000	21.750	9.9332e-01
10.000	22.000	9.9337e-01
10.000	22.250	9.9337e-01
10.000	22.500	9.9338e-01
10.000	22.750	9.9338e-01
10.000	23.000	9.9338e-01
10.000	23.250	9.9338e-01
10.000	23.500	9.9338e-01
10.000	23.750	9.9338e-01
10.000	24.000	9.9338e-01
10.250	17.000	3.7330e-03
10.250	17.250	3.5018e-03
10.250	17.500	3.4556e-03
10.250	17.750	3.6813e-03
10.250	18.000	4.2036e-03
10.250	18.250	4.9716e-03
10.250	18.500	6.1481e-03
10.250	18.750	8.1938e-03
10.250	19.000	1.2010e-02
10.250	19.250	1.9218e-02
10.250	19.500	3.3721e-02
10.250	19.750	6.3936e-02
10.250	20.000	1.2104e-01
10.250	20.250	2.1342e-01
10.250	20.500	5.2473e-01
10.250	20.750	8.7426e-01
10.250	21.000	9.6801e-01
10.250	21.250	9.8163e-01
10.250	21.500	9.8848e-01
10.250	21.750	9.9235e-01
10.250	22.000	9.9329e-01
10.250	22.250	9.9337e-01
10.250	22.500	9.9337e-01
10.250	22.750	9.9338e-01
10.250	23.000	9.9338e-01
10.250	23.250	9.9338e-01
10.250	23.500	9.9338e-01
10.250	23.750	9.9338e-01
10.250	24.000	9.9338e-01
10.500	17.000	3.8560e-03
10.500	17.250	3.5385e-03
10.500	17.500	3.4095e-03
10.500	17.750	3.5640e-03
10.500	18.000	3.9972e-03
10.500	18.250	4.7057e-03
10.500	18.500	5.6942e-03
10.500	18.750	7.1919e-03
10.500	19.000	9.5772e-03
10.500	19.250	1.3808e-02
10.500	19.500	2.2022e-02
10.500	19.750	3.8881e-02
10.500	20.000	7.3145e-02
10.500	20.250	1.3559e-01
10.500	20.500	2.3412e-01
10.500	20.750	5.8533e-01
10.500	21.000	9.1385e-01
10.500	21.250	9.7029e-01
10.500	21.500	9.8201e-01
10.500	21.750	9.8797e-01
10.500	22.000	9.9215e-01
10.500	22.250	9.9326e-01
10.500	22.500	9.9337e-01
10.500	22.750	9.9337e-01
10.500	23.000	9.9338e-01
10.500	23.250	9.9338e-01
10.500	23.500	9.9338e-01
10.500	23.750	9.9338e-01
10.500	24.000	9.9338e-01
10.750	17.000	3.9945e-03
10.750	17.250	3.6271e-03
10.750	17.500	3.4379e-03
10.750	17.750	3.5335e-03
10.750	18.000	3.8570e-03
10.750	18.250	4.4165e-03
10.750	18.500	5.2052e-03
10.750	18.750	6.2320e-03
10.750	19.000	7.7740e-03
10.750	19.250	1.0411e-02
10.750	19.500	1.5229e-02
10.750	19.750	2.4575e-02
10.750	20.000	4.3566e-02
10.750	20.250	8.0984e-02
10.750	20.500	1.4743e-01
10.750	20.750	2.5171e-01
10.750	21.000	6.3294e-01
10.750	21.250	9.3616e-01
10.750	21.500	9.7082e-01
10.750	21.750	9.8101e-01
10.750	22.000	9.8721e-01
10.750	22.250	9.9189e-01
10.750	22.500	9.9323e-01
10.750	22.750	9.9336e-01
10.750	23.000	9.9337e-01
10.750	23.250	9.9338e-01
10.750	23.500	9.9338e-01
10.750	23.750	9.9338e-01
10.750	24.000	9.9338e-01
11.000	17.000	4.1060e-03
11.000	17.250	3.7292e-03
11.000	17.500	3.5067e-03
11.000	17.750	3.5517e-03
11.000	18.000	3.7765e-03
11.000	18.250	4.1486e-03
11.000	18.500	4.6724e-03
11.000	18.750	5.4221e-03
11.000	19.000	6.4949e-03
11.000	19.250	8.1991e-03
11.000	19.500	1.1127e-02
11.000	19.750	1.6474e-02
11.000	20.000	2.6827e-02
11.000	20.250	4.7488e-02
11.000	20.500	8.7283e-02
11.000	20.750	1.5717e-01
11.000	21.000	2.6762e-01
11.000	21.250	6.8192e-01
11.000	21.500	9.4370e-01
11.000	21.750	9.7142e-01
11.000	22.000	9.8030e-01
11.000	22.250	9.8631e-01
11.000	22.500	9.9165e-01
11.000	22.750	9.9319e-01
11.000	23.000	9.9336e-01
11.000	23.250	9.9337e-01
11.000	23.500	9.9338e-01
11.000	23.750	9.9338e-01
11.000	24.000	9.9338e-01
11.250	17.000	4.1230e-03
11.250	17.250	3.7966e-03
11.250	17.500	3.5673e-03
11.250	17.750	3.5753e-03
11.250	18.000	3.7275e-03
11.250	18.250	3.9353e-03
11.250	18.500	4.2436e-03
11.250	18.750	4.7534e-03
11.250	19.000	5.5377e-03
11.250	19.250	6.6892e-03
11.250	19.500	8.5355e-03
11.250	19.750	1.1711e-02
11.250	20.000	1.7516e-02
11.250	20.250	2.8727e-02
11.250	20.500	5.0693e-02
11.250	20.750	9.2368e-02
11.250	21.000	1.6607e-01
11.250	21.250	2.8378e-01
11.250	21.500	7.2271e-01
11.250	21.750	9.4808e-01
11.250	22.000	9.6983e-01
11.250	22.250	9.7890e-01
11.250	22.500	9.8555e-01
11.250	22.750	9.9133e-01
11.250	23.000	9.9313e-01
11.250	23.250	9.9335e-01
11.250	23.500	9.9337e-01
11.250	23.750	9.9338e-01
11.250	24.000	9.9338e-01
11.500	17.000	3.9855e-03
11.500	17.250	3.7700e-03
11.500	17.500	3.5704e-03
11.500	17.750	3.5608e-03
11.500	18.000	3.6531e-03
11.500	18.250	3.7656e-03
11.500	18.500	3.9407e-03
11.500	18.750	4.2545e-03
11.500	19.000	4.7802e-03
11.500	19.250	5.6013e-03
11.500	19.500	6.8163e-03
11.500	19.750	8.7811e-03
11.500	20.000	1.2166e-02
11.500	20.250	1.8363e-02
11.500	20.500	3.0214e-02
11.500	20.750	5.3249e-02
11.500	21.000	9.6825e-02
11.500	21.250	1.7535e-01
11.500	21.500	2.9561e-01
11.500	21.750	7.8692e-01
11.500	22.000	9.4881e-01
11.500	22.250	9.6848e-01
11.500	22.500	9.7700e-01
11.500	22.750	9.8490e-01
11.500	23.000	9.9099e-01
11.500	23.250	9.9305e-01
11.500	23.500	9.9335e-01
11.500	23.750	9.9337e-01
11.500	24.000	9.9337e-01
11.750	17.000	3.6063e-03
11.750	17.250	3.5758e-03
11.750	17.500	3.4644e-03
11.750	17.750	3.4764e-03
11.750	18.000	3.5626e-03
11.750	18.250	3.6348e-03
11.750	18.500	3.7168e-03
11.750	18.750	3.8818e-03
11.750	19.000	4.2059e-03
11.750	19.250	4.7656e-03
11.750	19.500	5.6122e-03
11.750	19.750	6.8770e-03
11.750	20.000	8.9291e-03
11.750	20.250	1.2482e-02
11.750	20.500	1.8967e-02
11.750	20.750	3.1359e-02
11.750	21.000	5.5364e-02
11.750	21.250	1.0159e-01
11.750	21.500	1.8258e-01
11.750	21.750	3.1273e-01
11.750	22.000	8.5211e-01
11.750	22.250	9.4998e-01
11.750	22.500	9.6673e-01
11.750	22.750	9.7572e-01
11.750	23.000	9.8458e-01
11.750	23.250	9.9073e-01
11.750	23.500	9.9296e-01
11.750	23.750	9.9334e-01
11.750	24.000	9.9336e-01
12.000	17.000	2.9466e-03
12.000	17.250	3.1372e-03
12.000	17.500	3.1905e-03
12.000	17.750	3.3031e-03
12.000	18.000	3.4370e-03
12.000	18.250	3.4733e-03
12.000	18.500	3.4804e-03
12.000	18.750	3.5680e-03
12.000	19.000	3.7686e-03
12.000	19.250	4.1274e-03
12.000	19.500	4.7099e-03
12.000	19.750	5.5803e-03
12.000	20.000	6.8819e-03
12.000	20.250	8.9905e-03
12.000	20.500	1.2650e-02
12.000	20.750	1.9367e-02
12.000	21.000	3.2209e-02
12.000	21.250	5.7513e-02
12.000	21.500	1.0531e-01
12.000	21.750	1.9372e-01
12.000	22.000	3.3220e-01
12.000	22.250	9.1021e-01
12.000	22.500	9.4973e-01
12.000	22.750	9.6375e-01
12.000	23.000	9.7396e-01
12.000	23.250	9.8416e-01
12.000	23.500	9.9032e-01
12.000	23.750	9.9283e-01
12.000	24.000	9.9332e-01
12.250	17.000	2.1253e-03
12.250	17.250	2.4877e-03
12.250	17.500	2.7454e-03
12.250	17.750	3.0164e-03
12.250	18.000	3.1639e-03
12.250	18.250	3.1630e-03
12.250	18.500	3.1726e-03
12.250	18.750	3.2500e-03
12.250	19.000	3.3982e-03
12.250	19.250	3.6433e-03
12.250	19.500	4.0300e-03
12.250	19.750	4.6263e-03
12.250	20.000	5.5106e-03
12.250	20.250	6.8252e-03
12.250	20.500	8.9626e-03
12.250	20.750	1.2695e-02
12.250	21.000	1.9617e-02
12.250	21.250	3.3084e-02
12.250	21.500	5.9136e-02
12.250	21.750	1.1163e-01
12.250	22.000	2.0756e-01
12.250	22.250	3.5728e-01
12.250	22.500	9.1527e-01
12.250	22.750	9.4539e-01
12.250	23.000	9.6050e-01
12.250	23.250	9.7323e-01
12.250	23.500	9.8361e-01
12.250	23.750	9.8999e-01
12.250	24.000	9.9275e-01
12.500	17.000	1.4528e-03
12.500	17.250	1.8691e-03
12.500	17.500	2.2475e-03
12.500	17.750	2.5050e-03
12.500	18.000	2.6207e-03
12.500	18.250	2.6916e-03
12.500	18.500	2.7703e-03
12.500	18.750	2.8836e-03
12.500	19.000	3.0360e-03
12.500	19.250	3.2378e-03
12.500	19.500	3.5147e-03
12.500	19.750	3.9175e-03
12.500	20.000	4.5244e-03
12.500	20.250	5.3998e-03
12.500	20.500	6.7137e-03
12.500	20.750	8.8619e-03
12.500	21.000	1.2659e-02
12.500	21.250	1.9859e-02
12.500	21.500	3.3734e-02
12.500	21.750	6.2374e-02
12.500	22.000	1.1995e-01
12.500	22.250	2.2479e-01
12.500	22.500	4.1265e-01
12.500	22.750	9.1504e-01
12.500	23.000	9.4170e-01
12.500	23.250	9.5848e-01
12.500	23.500	9.7282e-01
12.500	23.750	9.8343e-01
12.500	24.000	9.8965e-01
12.750	17.000	1.0207e-03
12.750	17.250	1.3673e-03
12.750	17.500	1.6303e-03
12.750	17.750	1.8044e-03
12.750	18.000	1.9622e-03
12.750	18.250	2.1217e-03
12.750	18.500	2.2793e-03
12.750	18.750	2.4501e-03
12.750	19.000	2.6381e-03
12.750	19.250	2.8466e-03
12.750	19.500	3.0830e-03
12.750	19.750	3.3796e-03
12.750	20.000	3.7914e-03
12.750	20.250	4.3923e-03
12.750	20.500	5.2523e-03
12.750	20.750	6.5475e-03
12.750	21.000	8.7212e-03
12.750	21.250	1.2624e-02
12.750	21.500	1.9971e-02
12.750	21.750	3.5140e-02
12.750	22.000	6.6950e-02
12.750	22.250	1.3142e-01
12.750	22.500	2.4564e-01
12.750	22.750	5.2021e-01
12.750	23.000	9.1450e-01
12.750	23.250	9.3836e-01
12.750	23.500	9.5773e-01
12.750	23.750	9.7271e-01
12.750	24.000	9.8322e-01
13.000	17.000	2.4526e-01
13.000	17.250	1.3417e-02
13.000	17.500	1.0653e-03
13.000	17.750	1.1942e-03
13.000	18.000	1.3555e-03
13.000	18.250	1.5444e-03
13.000	18.500	1.7465e-03
13.000	18.750	1.9616e-03
13.000	19.000	2.1912e-03
13.000	19.250	2.4291e-03
13.000	19.500	2.6708e-03
13.000	19.750	2.9263e-03
13.000	20.000	3.2310e-03
13.000	20.250	3.6404e-03
13.000	20.500	4.2327e-03
13.000	20.750	5.0698e-03
13.000	21.000	6.3565e-03
13.000	21.250	8.5616e-03
13.000	21.500	1.2520e-02
13.000	21.750	2.0543e-02
13.000	22.000	3.7154e-02
13.000	22.250	7.2899e-02
13.000	22.500	1.4637e-01
13.000	22.750	2.6837e-01
13.000	23.000	6.4545e-01
13.000	23.250	9.1571e-01
13.000	23.500	9.3752e-01
13.000	23.750	9.5738e-01
13.000	24.000	9.7256e-01
13.250	17.000	2.5786e-01
13.250	17.250	1.3248e-01
13.250	17.500	6.9556e-04
13.250	17.750	7.7753e-04
13.250	18.000	8.8914e-04
13.250	18.250	1.0484e-03
13.250	18.500	1.2427e-03
13.250	18.750	1.4659e-03
13.250	19.000	1.7141e-03
13.250	19.250	1.9788e-03
13.250	19.500	2.2441e-03
13.250	19.750	2.5050e-03
13.250	20.000	2.7728e-03
13.250	20.250	3.0773e-03
13.250	20.500	3.4741e-03
13.250	20.750	4.0400e-03
13.250	21.000	4.8584e-03
13.250	21.250	6.1298e-03
13.250	21.500	8.3026e-03
13.250	21.750	1.2414e-02
13.250	22.000	2.0993e-02
13.250	22.250	3.9872e-02
13.250	22.500	8.0500e-02
13.250	22.750	1.5948e-01
13.250	23.000	2.8269e-01
13.250	23.250	7.2476e-01
13.250	23.500	9.1569e-01
13.250	23.750	9.3562e-01
13.250	24.000	9.5661e-01
13.500	17.000	2.8372e-01
13.500	17.250	1.4234e-01
13.500	17.500	6.7210e-04
13.500	17.750	5.0642e-04
13.500	18.000	5.7613e-04
13.500	18.250	6.8617e-04
13.500	18.500	8.3572e-04
13.500	18.750	1.0253e-03
13.500	19.000	1.2535e-03
13.500	19.250	1.5132e-03
13.500	19.500	1.7887e-03
13.500	19.750	2.0611e-03
13.500	20.000	2.3247e-03
13.500	20.250	2.5909e-03
13.500	20.500	2.8876e-03
13.500	20.750	3.2714e-03
13.500	21.000	3.8101e-03
13.500	21.250	4.5982e-03
13.500	21.500	5.8341e-03
13.500	21.750	8.0019e-03
13.500	22.000	1.2320e-02
13.500	22.250	2.1970e-02
13.500	22.500	4.3778e-02
13.500	22.750	8.8466e-02
13.500	23.000	1.6997e-01
13.500	23.250	2.9245e-01
13.500	23.500	7.7397e-01
13.500	23.750	9.1199e-01
13.500	24.000	9.3316e-01
13.750	17.000	3.4253e-01
13.750	17.250	1.7353e-01
13.750	17.500	4.8858e-03
13.750	17.750	3.4099e-04
13.750	18.000	3.8230e-04
13.750	18.250	4.5029e-04
13.750	18.500	5.4988e-04
13.750	18.750	6.8609e-04
13.750	19.000	8.6502e-04
13.750	19.250	1.0865e-03
13.750	19.500	1.3411e-03
13.750	19.750	1.6120e-03
13.750	20.000	1.8805e-03
13.750	20.250	2.1378e-03
13.750	20.500	2.3964e-03
13.750	20.750	2.6839e-03
13.750	21.000	3.0530e-03
13.750	21.250	3.5656e-03
13.750	21.500	4.3226e-03
13.750	21.750	5.5305e-03
13.750	22.000	7.7595e-03
13.750	22.250	1.2548e-02
13.750	22.500	2.3734e-02
13.750	22.750	4.8737e-02
13.750	23.000	9.7910e-02
13.750	23.250	1.8085e-01
13.750	23.500	3.0118e-01
13.750	23.750	8.0266e-01
13.750	24.000	9.0307e-01
14.000	17.000	4.0990e-01
14.000	17.250	2.4453e-01
14.000	17.500	2.4582e-02
14.000	17.750	2.5358e-04
14.000	18.000	2.6494e-04
14.000	18.250	3.0502e-04
14.000	18.500	3.6683e-04
14.000	18.750	4.5490e-04
14.000	19.000	5.7704e-04
14.000	19.250	7.4074e-04
14.000	19.500	9.4782e-04
14.000	19.750	1.1886e-03
14.000	20.000	1.4463e-03
14.000	20.250	1.7026e-03
14.000	20.500	1.9487e-03
14.000	20.750	2.1947e-03
14.000	21.000	2.4701e-03
14.000	21.250	2.8247e-03
14.000	21.500	3.3277e-03
14.000	21.750	4.0457e-03
14.000	22.000	5.2605e-03
14.000	22.250	7.7165e-03
14.000	22.500	1.3341e-02
14.000	22.750	2.6779e-02
14.000	23.000	5.5032e-02
14.000	23.250	1.0590e-01
14.000	23.500	1.8960e-01
14.000	23.750	3.0684e-01
14.000	24.000	8.1161e-01
