InwC 1.30000m  relative to Inci 1215.00A scaled to 1215A.
Hden   Phi(H)  Eq_Width (A)
 7.000	17.000	1.1445e-02
 7.000	17.250	1.6351e-02
 7.000	17.500	2.2876e-02
 7.000	17.750	3.0851e-02
 7.000	18.000	3.8656e-02
 7.000	18.250	4.4017e-02
 7.000	18.500	4.5754e-02
 7.000	18.750	4.6169e-02
 7.000	19.000	4.6111e-02
 7.000	19.250	4.6101e-02
 7.000	19.500	4.6042e-02
 7.000	19.750	4.5979e-02
 7.000	20.000	4.5979e-02
 7.000	20.250	4.5979e-02
 7.000	20.500	4.5979e-02
 7.000	20.750	4.5978e-02
 7.000	21.000	4.5979e-02
 7.000	21.250	4.5979e-02
 7.000	21.500	4.5978e-02
 7.000	21.750	4.5979e-02
 7.000	22.000	4.5979e-02
 7.000	22.250	4.5979e-02
 7.000	22.500	4.5979e-02
 7.000	22.750	4.5979e-02
 7.000	23.000	4.5979e-02
 7.000	23.250	4.5979e-02
 7.000	23.500	4.5979e-02
 7.000	23.750	4.5979e-02
 7.000	24.000	4.5979e-02
 7.250	17.000	8.0968e-03
 7.250	17.250	1.1807e-02
 7.250	17.500	1.6976e-02
 7.250	17.750	2.3770e-02
 7.250	18.000	3.1833e-02
 7.250	18.250	3.9299e-02
 7.250	18.500	4.4160e-02
 7.250	18.750	4.5759e-02
 7.250	19.000	4.6170e-02
 7.250	19.250	4.6112e-02
 7.250	19.500	4.6101e-02
 7.250	19.750	4.6041e-02
 7.250	20.000	4.5980e-02
 7.250	20.250	4.5978e-02
 7.250	20.500	4.5979e-02
 7.250	20.750	4.5979e-02
 7.250	21.000	4.5979e-02
 7.250	21.250	4.5979e-02
 7.250	21.500	4.5979e-02
 7.250	21.750	4.5979e-02
 7.250	22.000	4.5979e-02
 7.250	22.250	4.5979e-02
 7.250	22.500	4.5979e-02
 7.250	22.750	4.5979e-02
 7.250	23.000	4.5979e-02
 7.250	23.250	4.5979e-02
 7.250	23.500	4.5979e-02
 7.250	23.750	4.5979e-02
 7.250	24.000	4.5979e-02
 7.500	17.000	5.7066e-03
 7.500	17.250	8.3891e-03
 7.500	17.500	1.2382e-02
 7.500	17.750	1.7993e-02
 7.500	18.000	2.5124e-02
 7.500	18.250	3.3260e-02
 7.500	18.500	3.9981e-02
 7.500	18.750	4.4297e-02
 7.500	19.000	4.5764e-02
 7.500	19.250	4.6169e-02
 7.500	19.500	4.6111e-02
 7.500	19.750	4.6100e-02
 7.500	20.000	4.6042e-02
 7.500	20.250	4.5980e-02
 7.500	20.500	4.5979e-02
 7.500	20.750	4.5979e-02
 7.500	21.000	4.5979e-02
 7.500	21.250	4.5979e-02
 7.500	21.500	4.5979e-02
 7.500	21.750	4.5979e-02
 7.500	22.000	4.5979e-02
 7.500	22.250	4.5979e-02
 7.500	22.500	4.5979e-02
 7.500	22.750	4.5979e-02
 7.500	23.000	4.5979e-02
 7.500	23.250	4.5979e-02
 7.500	23.500	4.5979e-02
 7.500	23.750	4.5979e-02
 7.500	24.000	4.5979e-02
 7.750	17.000	4.0546e-03
 7.750	17.250	5.9291e-03
 7.750	17.500	8.8919e-03
 7.750	17.750	1.3385e-02
 7.750	18.000	1.9621e-02
 7.750	18.250	2.7186e-02
 7.750	18.500	3.4975e-02
 7.750	18.750	4.0762e-02
 7.750	19.000	4.4436e-02
 7.750	19.250	4.5771e-02
 7.750	19.500	4.6168e-02
 7.750	19.750	4.6111e-02
 7.750	20.000	4.6101e-02
 7.750	20.250	4.6041e-02
 7.750	20.500	4.5979e-02
 7.750	20.750	4.5978e-02
 7.750	21.000	4.5979e-02
 7.750	21.250	4.5979e-02
 7.750	21.500	4.5979e-02
 7.750	21.750	4.5979e-02
 7.750	22.000	4.5979e-02
 7.750	22.250	4.5979e-02
 7.750	22.500	4.5979e-02
 7.750	22.750	4.5979e-02
 7.750	23.000	4.5979e-02
 7.750	23.250	4.5979e-02
 7.750	23.500	4.5979e-02
 7.750	23.750	4.5979e-02
 7.750	24.000	4.5979e-02
 8.000	17.000	2.9138e-03
 8.000	17.250	4.2149e-03
 8.000	17.500	6.3104e-03
 8.000	17.750	9.7676e-03
 8.000	18.000	1.5063e-02
 8.000	18.250	2.2051e-02
 8.000	18.500	2.9655e-02
 8.000	18.750	3.6818e-02
 8.000	19.000	4.1407e-02
 8.000	19.250	4.4523e-02
 8.000	19.500	4.5775e-02
 8.000	19.750	4.6170e-02
 8.000	20.000	4.6110e-02
 8.000	20.250	4.6101e-02
 8.000	20.500	4.6039e-02
 8.000	20.750	4.5980e-02
 8.000	21.000	4.5978e-02
 8.000	21.250	4.5978e-02
 8.000	21.500	4.5979e-02
 8.000	21.750	4.5979e-02
 8.000	22.000	4.5979e-02
 8.000	22.250	4.5979e-02
 8.000	22.500	4.5979e-02
 8.000	22.750	4.5979e-02
 8.000	23.000	4.5978e-02
 8.000	23.250	4.5979e-02
 8.000	23.500	4.5979e-02
 8.000	23.750	4.5979e-02
 8.000	24.000	4.5979e-02
 8.250	17.000	2.1193e-03
 8.250	17.250	3.0400e-03
 8.250	17.500	4.5190e-03
 8.250	17.750	7.0468e-03
 8.250	18.000	1.1394e-02
 8.250	18.250	1.7706e-02
 8.250	18.500	2.5175e-02
 8.250	18.750	3.2214e-02
 8.250	19.000	3.8691e-02
 8.250	19.250	4.1862e-02
 8.250	19.500	4.4681e-02
 8.250	19.750	4.5784e-02
 8.250	20.000	4.6169e-02
 8.250	20.250	4.6110e-02
 8.250	20.500	4.6100e-02
 8.250	20.750	4.6041e-02
 8.250	21.000	4.5980e-02
 8.250	21.250	4.5978e-02
 8.250	21.500	4.5979e-02
 8.250	21.750	4.5979e-02
 8.250	22.000	4.5979e-02
 8.250	22.250	4.5979e-02
 8.250	22.500	4.5979e-02
 8.250	22.750	4.5979e-02
 8.250	23.000	4.5979e-02
 8.250	23.250	4.5979e-02
 8.250	23.500	4.5979e-02
 8.250	23.750	4.5979e-02
 8.250	24.000	4.5979e-02
 8.500	17.000	1.5477e-03
 8.500	17.250	2.2152e-03
 8.500	17.500	3.2704e-03
 8.500	17.750	5.0861e-03
 8.500	18.000	8.4226e-03
 8.500	18.250	1.3819e-02
 8.500	18.500	2.0851e-02
 8.500	18.750	2.8009e-02
 8.500	19.000	3.4113e-02
 8.500	19.250	3.9269e-02
 8.500	19.500	4.2259e-02
 8.500	19.750	4.4725e-02
 8.500	20.000	4.5793e-02
 8.500	20.250	4.6169e-02
 8.500	20.500	4.6111e-02
 8.500	20.750	4.6100e-02
 8.500	21.000	4.6039e-02
 8.500	21.250	4.5979e-02
 8.500	21.500	4.5979e-02
 8.500	21.750	4.5979e-02
 8.500	22.000	4.5978e-02
 8.500	22.250	4.5979e-02
 8.500	22.500	4.5978e-02
 8.500	22.750	4.5978e-02
 8.500	23.000	4.5978e-02
 8.500	23.250	4.5979e-02
 8.500	23.500	4.5979e-02
 8.500	23.750	4.5979e-02
 8.500	24.000	4.5979e-02
 8.750	17.000	1.1290e-03
 8.750	17.250	1.6200e-03
 8.750	17.500	2.3896e-03
 8.750	17.750	3.7085e-03
 8.750	18.000	6.1866e-03
 8.750	18.250	1.0488e-02
 8.750	18.500	1.6609e-02
 8.750	18.750	2.3514e-02
 8.750	19.000	2.9812e-02
 8.750	19.250	3.6021e-02
 8.750	19.500	3.9979e-02
 8.750	19.750	4.2615e-02
 8.750	20.000	4.4659e-02
 8.750	20.250	4.5803e-02
 8.750	20.500	4.6168e-02
 8.750	20.750	4.6110e-02
 8.750	21.000	4.6101e-02
 8.750	21.250	4.6038e-02
 8.750	21.500	4.5980e-02
 8.750	21.750	4.5978e-02
 8.750	22.000	4.5979e-02
 8.750	22.250	4.5979e-02
 8.750	22.500	4.5979e-02
 8.750	22.750	4.5979e-02
 8.750	23.000	4.5979e-02
 8.750	23.250	4.5979e-02
 8.750	23.500	4.5979e-02
 8.750	23.750	4.5979e-02
 8.750	24.000	4.5979e-02
 9.000	17.000	8.1909e-04
 9.000	17.250	1.1824e-03
 9.000	17.500	1.7507e-03
 9.000	17.750	2.7235e-03
 9.000	18.000	4.5714e-03
 9.000	18.250	7.8940e-03
 9.000	18.500	1.2889e-02
 9.000	18.750	1.9057e-02
 9.000	19.000	2.5405e-02
 9.000	19.250	3.1390e-02
 9.000	19.500	3.7157e-02
 9.000	19.750	4.0212e-02
 9.000	20.000	4.2915e-02
 9.000	20.250	4.4579e-02
 9.000	20.500	4.5813e-02
 9.000	20.750	4.6167e-02
 9.000	21.000	4.6110e-02
 9.000	21.250	4.6101e-02
 9.000	21.500	4.6042e-02
 9.000	21.750	4.5980e-02
 9.000	22.000	4.5979e-02
 9.000	22.250	4.5979e-02
 9.000	22.500	4.5979e-02
 9.000	22.750	4.5979e-02
 9.000	23.000	4.5979e-02
 9.000	23.250	4.5979e-02
 9.000	23.500	4.5979e-02
 9.000	23.750	4.5979e-02
 9.000	24.000	4.5979e-02
 9.250	17.000	5.9119e-04
 9.250	17.250	8.6049e-04
 9.250	17.500	1.2809e-03
 9.250	17.750	2.0085e-03
 9.250	18.000	3.4113e-03
 9.250	18.250	5.9989e-03
 9.250	18.500	9.9508e-03
 9.250	18.750	1.4841e-02
 9.250	19.000	2.0647e-02
 9.250	19.250	2.6806e-02
 9.250	19.500	3.2448e-02
 9.250	19.750	3.7706e-02
 9.250	20.000	4.0488e-02
 9.250	20.250	4.3085e-02
 9.250	20.500	4.4480e-02
 9.250	20.750	4.5819e-02
 9.250	21.000	4.6165e-02
 9.250	21.250	4.6109e-02
 9.250	21.500	4.6100e-02
 9.250	21.750	4.6036e-02
 9.250	22.000	4.5959e-02
 9.250	22.250	4.5975e-02
 9.250	22.500	4.5978e-02
 9.250	22.750	4.5979e-02
 9.250	23.000	4.5979e-02
 9.250	23.250	4.5979e-02
 9.250	23.500	4.5979e-02
 9.250	23.750	4.5979e-02
 9.250	24.000	4.5978e-02
 9.500	17.000	4.2436e-04
 9.500	17.250	6.2230e-04
 9.500	17.500	9.3523e-04
 9.500	17.750	1.4837e-03
 9.500	18.000	2.5413e-03
 9.500	18.250	4.5828e-03
 9.500	18.500	7.6595e-03
 9.500	18.750	1.1491e-02
 9.500	19.000	1.6149e-02
 9.500	19.250	2.1497e-02
 9.500	19.500	2.7220e-02
 9.500	19.750	3.3464e-02
 9.500	20.000	3.7785e-02
 9.500	20.250	4.0610e-02
 9.500	20.500	4.2999e-02
 9.500	20.750	4.4354e-02
 9.500	21.000	4.5815e-02
 9.500	21.250	4.6158e-02
 9.500	21.500	4.6098e-02
 9.500	21.750	4.6074e-02
 9.500	22.000	4.5987e-02
 9.500	22.250	4.5857e-02
 9.500	22.500	4.5788e-02
 9.500	22.750	4.5774e-02
 9.500	23.000	4.5763e-02
 9.500	23.250	4.5758e-02
 9.500	23.500	4.5842e-02
 9.500	23.750	4.5841e-02
 9.500	24.000	4.5840e-02
 9.750	17.000	3.0379e-04
 9.750	17.250	4.4774e-04
 9.750	17.500	6.7909e-04
 9.750	17.750	1.0909e-03
 9.750	18.000	1.9297e-03
 9.750	18.250	3.5169e-03
 9.750	18.500	5.8290e-03
 9.750	18.750	8.7662e-03
 9.750	19.000	1.2373e-02
 9.750	19.250	1.6768e-02
 9.750	19.500	2.1950e-02
 9.750	19.750	2.7721e-02
 9.750	20.000	3.3738e-02
 9.750	20.250	3.7811e-02
 9.750	20.500	4.0839e-02
 9.750	20.750	4.2748e-02
 9.750	21.000	4.4222e-02
 9.750	21.250	4.5817e-02
 9.750	21.500	4.6155e-02
 9.750	21.750	4.6103e-02
 9.750	22.000	4.6074e-02
 9.750	22.250	4.5985e-02
 9.750	22.500	4.5867e-02
 9.750	22.750	4.5806e-02
 9.750	23.000	4.5797e-02
 9.750	23.250	4.5789e-02
 9.750	23.500	4.5787e-02
 9.750	23.750	4.5784e-02
 9.750	24.000	4.5782e-02
10.000	17.000	2.1770e-04
10.000	17.250	3.2091e-04
10.000	17.500	4.8988e-04
10.000	17.750	7.9819e-04
10.000	18.000	1.4332e-03
10.000	18.250	2.6394e-03
10.000	18.500	4.3931e-03
10.000	18.750	6.6028e-03
10.000	19.000	9.3252e-03
10.000	19.250	1.2766e-02
10.000	19.500	1.6967e-02
10.000	19.750	2.2044e-02
10.000	20.000	2.7844e-02
10.000	20.250	3.3632e-02
10.000	20.500	3.7907e-02
10.000	20.750	4.0923e-02
10.000	21.000	4.2480e-02
10.000	21.250	4.4090e-02
10.000	21.500	4.5810e-02
10.000	21.750	4.6146e-02
10.000	22.000	4.6102e-02
10.000	22.250	4.6082e-02
10.000	22.500	4.5988e-02
10.000	22.750	4.5866e-02
10.000	23.000	4.5816e-02
10.000	23.250	4.5811e-02
10.000	23.500	4.5806e-02
10.000	23.750	4.5806e-02
10.000	24.000	4.5804e-02
10.250	17.000	1.5630e-04
10.250	17.250	2.2971e-04
10.250	17.500	3.5169e-04
10.250	17.750	5.8247e-04
10.250	18.000	1.0658e-03
10.250	18.250	1.9649e-03
10.250	18.500	3.2421e-03
10.250	18.750	4.8877e-03
10.250	19.000	6.9031e-03
10.250	19.250	9.5239e-03
10.250	19.500	1.2874e-02
10.250	19.750	1.7072e-02
10.250	20.000	2.2112e-02
10.250	20.250	2.7943e-02
10.250	20.500	3.3658e-02
10.250	20.750	3.8073e-02
10.250	21.000	4.0774e-02
10.250	21.250	4.2245e-02
10.250	21.500	4.4100e-02
10.250	21.750	4.5785e-02
10.250	22.000	4.6127e-02
10.250	22.250	4.6098e-02
10.250	22.500	4.6091e-02
10.250	22.750	4.5994e-02
10.250	23.000	4.5868e-02
10.250	23.250	4.5821e-02
10.250	23.500	4.5819e-02
10.250	23.750	4.5817e-02
10.250	24.000	4.5816e-02
10.500	17.000	1.1259e-04
10.500	17.250	1.6444e-04
10.500	17.500	2.5185e-04
10.500	17.750	4.2091e-04
10.500	18.000	7.8198e-04
10.500	18.250	1.4381e-03
10.500	18.500	2.3469e-03
10.500	18.750	3.5519e-03
10.500	19.000	5.0740e-03
10.500	19.250	7.0165e-03
10.500	19.500	9.6493e-03
10.500	19.750	1.2995e-02
10.500	20.000	1.7155e-02
10.500	20.250	2.2120e-02
10.500	20.500	2.7930e-02
10.500	20.750	3.3655e-02
10.500	21.000	3.8119e-02
10.500	21.250	4.0427e-02
10.500	21.500	4.2231e-02
10.500	21.750	4.4064e-02
10.500	22.000	4.5704e-02
10.500	22.250	4.6097e-02
10.500	22.500	4.6092e-02
10.500	22.750	4.6092e-02
10.500	23.000	4.6021e-02
10.500	23.250	4.5891e-02
10.500	23.500	4.5834e-02
10.500	23.750	4.5823e-02
10.500	24.000	4.5824e-02
10.750	17.000	8.1399e-05
10.750	17.250	1.1802e-04
10.750	17.500	1.7992e-04
10.750	17.750	3.0198e-04
10.750	18.000	5.5556e-04
10.750	18.250	1.0258e-03
10.750	18.500	1.6649e-03
10.750	18.750	2.5182e-03
10.750	19.000	3.6319e-03
10.750	19.250	5.1446e-03
10.750	19.500	7.1459e-03
10.750	19.750	9.7573e-03
10.750	20.000	1.3065e-02
10.750	20.250	1.7094e-02
10.750	20.500	2.1899e-02
10.750	20.750	2.7619e-02
10.750	21.000	3.3394e-02
10.750	21.250	3.7907e-02
10.750	21.500	4.0384e-02
10.750	21.750	4.2048e-02
10.750	22.000	4.4014e-02
10.750	22.250	4.5580e-02
10.750	22.500	4.6048e-02
10.750	22.750	4.6079e-02
10.750	23.000	4.6088e-02
10.750	23.250	4.6031e-02
10.750	23.500	4.5948e-02
10.750	23.750	4.5889e-02
10.750	24.000	4.5851e-02
11.000	17.000	5.8765e-05
11.000	17.250	8.5021e-05
11.000	17.500	1.2856e-04
11.000	17.750	2.1473e-04
11.000	18.000	3.9399e-04
11.000	18.250	7.1819e-04
11.000	18.500	1.1595e-03
11.000	18.750	1.7747e-03
11.000	19.000	2.5941e-03
11.000	19.250	3.7137e-03
11.000	19.500	5.2267e-03
11.000	19.750	7.2286e-03
11.000	20.000	9.7910e-03
11.000	20.250	1.2980e-02
11.000	20.500	1.6764e-02
11.000	20.750	2.1255e-02
11.000	21.000	2.6804e-02
11.000	21.250	3.2718e-02
11.000	21.500	3.7930e-02
11.000	21.750	3.9987e-02
11.000	22.000	4.1798e-02
11.000	22.250	4.3899e-02
11.000	22.500	4.5397e-02
11.000	22.750	4.5979e-02
11.000	23.000	4.6059e-02
11.000	23.250	4.6082e-02
11.000	23.500	4.6030e-02
11.000	23.750	4.5967e-02
11.000	24.000	4.5949e-02
11.250	17.000	4.2881e-05
11.250	17.250	6.0988e-05
11.250	17.500	9.1770e-05
11.250	17.750	1.5169e-04
11.250	18.000	2.7580e-04
11.250	18.250	4.8905e-04
11.250	18.500	7.8708e-04
11.250	18.750	1.2129e-03
11.250	19.000	1.8096e-03
11.250	19.250	2.6300e-03
11.250	19.500	3.7661e-03
11.250	19.750	5.2760e-03
11.250	20.000	7.2406e-03
11.250	20.250	9.7151e-03
11.250	20.500	1.2651e-02
11.250	20.750	1.6016e-02
11.250	21.000	2.0040e-02
11.250	21.250	2.5395e-02
11.250	21.500	3.2481e-02
11.250	21.750	3.7067e-02
11.250	22.000	3.9348e-02
11.250	22.250	4.1365e-02
11.250	22.500	4.3619e-02
11.250	22.750	4.5126e-02
11.250	23.000	4.5881e-02
11.250	23.250	4.6026e-02
11.250	23.500	4.6069e-02
11.250	23.750	4.6028e-02
11.250	24.000	4.5973e-02
11.500	17.000	3.0617e-05
11.500	17.250	4.4362e-05
11.500	17.500	6.5350e-05
11.500	17.750	1.0609e-04
11.500	18.000	1.8938e-04
11.500	18.250	3.2840e-04
11.500	18.500	5.2807e-04
11.500	18.750	8.1654e-04
11.500	19.000	1.2523e-03
11.500	19.250	1.8551e-03
11.500	19.500	2.6785e-03
11.500	19.750	3.7978e-03
11.500	20.000	5.2785e-03
11.500	20.250	7.1626e-03
11.500	20.500	9.4318e-03
11.500	20.750	1.1968e-02
11.500	21.000	1.4716e-02
11.500	21.250	1.8193e-02
11.500	21.500	2.4489e-02
11.500	21.750	3.1093e-02
11.500	22.000	3.5711e-02
11.500	22.250	3.8351e-02
11.500	22.500	4.0635e-02
11.500	22.750	4.3046e-02
11.500	23.000	4.4747e-02
11.500	23.250	4.5739e-02
11.500	23.500	4.5979e-02
11.500	23.750	4.6052e-02
11.500	24.000	4.6023e-02
11.750	17.000	1.7366e-05
11.750	17.250	3.2757e-05
11.750	17.500	4.7243e-05
11.750	17.750	7.3909e-05
11.750	18.000	1.2807e-04
11.750	18.250	2.1811e-04
11.750	18.500	3.5374e-04
11.750	18.750	5.5671e-04
11.750	19.000	8.5679e-04
11.750	19.250	1.2844e-03
11.750	19.500	1.8813e-03
11.750	19.750	2.7030e-03
11.750	20.000	3.8021e-03
11.750	20.250	5.2180e-03
11.750	20.500	6.9503e-03
11.750	20.750	8.8779e-03
11.750	21.000	1.0819e-02
11.750	21.250	1.2841e-02
11.750	21.500	1.6958e-02
11.750	21.750	2.2338e-02
11.750	22.000	2.8973e-02
11.750	22.250	3.3748e-02
11.750	22.500	3.6838e-02
11.750	22.750	3.9554e-02
11.750	23.000	4.2152e-02
11.750	23.250	4.4201e-02
11.750	23.500	4.5533e-02
11.750	23.750	4.5909e-02
11.750	24.000	4.6026e-02
12.000	17.000	7.9012e-06
12.000	17.250	1.8848e-05
12.000	17.500	3.4897e-05
12.000	17.750	5.2181e-05
12.000	18.000	8.5761e-05
12.000	18.250	1.4387e-04
12.000	18.500	2.3630e-04
12.000	18.750	3.7761e-04
12.000	19.000	5.8263e-04
12.000	19.250	8.7687e-04
12.000	19.500	1.3027e-03
12.000	19.750	1.8948e-03
12.000	20.000	2.7015e-03
12.000	20.250	3.7572e-03
12.000	20.500	5.0603e-03
12.000	20.750	6.5260e-03
12.000	21.000	7.9559e-03
12.000	21.250	9.1687e-03
12.000	21.500	1.1591e-02
12.000	21.750	1.4554e-02
12.000	22.000	1.9714e-02
12.000	22.250	2.6006e-02
12.000	22.500	3.1067e-02
12.000	22.750	3.4622e-02
12.000	23.000	3.7877e-02
12.000	23.250	4.0838e-02
12.000	23.500	4.3406e-02
12.000	23.750	4.5223e-02
12.000	24.000	4.5803e-02
12.250	17.000	3.7037e-06
12.250	17.250	8.7243e-06
12.250	17.500	2.0329e-05
12.250	17.750	3.8025e-05
12.250	18.000	5.9259e-05
12.250	18.250	9.6955e-05
12.250	18.500	1.5992e-04
12.250	18.750	2.5226e-04
12.250	19.000	3.8667e-04
12.250	19.250	5.9350e-04
12.250	19.500	8.8955e-04
12.250	19.750	1.3110e-03
12.250	20.000	1.8945e-03
12.250	20.250	2.6692e-03
12.250	20.500	3.6416e-03
12.250	20.750	4.7556e-03
12.250	21.000	5.8328e-03
12.250	21.250	6.6282e-03
12.250	21.500	8.0647e-03
12.250	21.750	9.3377e-03
12.250	22.000	1.2085e-02
12.250	22.250	1.6866e-02
12.250	22.500	2.2631e-02
12.250	22.750	2.7542e-02
12.250	23.000	3.1617e-02
12.250	23.250	3.5519e-02
12.250	23.500	3.8974e-02
12.250	23.750	4.2253e-02
12.250	24.000	4.4761e-02
12.500	17.000	1.8107e-06
12.500	17.250	4.0329e-06
12.500	17.500	9.5473e-06
12.500	17.750	2.1481e-05
12.500	18.000	4.2551e-05
12.500	18.250	6.7078e-05
12.500	18.500	1.0650e-04
12.500	18.750	1.6741e-04
12.500	19.000	2.5877e-04
12.500	19.250	3.9621e-04
12.500	19.500	6.0025e-04
12.500	19.750	8.9531e-04
12.500	20.000	1.3099e-03
12.500	20.250	1.8723e-03
12.500	20.500	2.5889e-03
12.500	20.750	3.4245e-03
12.500	21.000	4.2542e-03
12.500	21.250	4.8270e-03
12.500	21.500	5.7379e-03
12.500	21.750	6.1211e-03
12.500	22.000	7.2385e-03
12.500	22.250	9.9072e-03
12.500	22.500	1.4235e-02
12.500	22.750	1.8907e-02
12.500	23.000	2.3374e-02
12.500	23.250	2.7936e-02
12.500	23.500	3.2407e-02
12.500	23.750	3.6433e-02
12.500	24.000	4.0615e-02
12.750	17.000	9.0535e-07
12.750	17.250	1.9753e-06
12.750	17.500	4.4444e-06
12.750	17.750	9.8765e-06
12.750	18.000	2.1646e-05
12.750	18.250	4.3621e-05
12.750	18.500	6.8148e-05
12.750	18.750	1.0486e-04
12.750	19.000	1.6979e-04
12.750	19.250	2.6222e-04
12.750	19.500	4.0058e-04
12.750	19.750	6.0222e-04
12.750	20.000	8.9144e-04
12.750	20.250	1.2947e-03
12.750	20.500	1.8163e-03
12.750	20.750	2.4393e-03
12.750	21.000	3.0728e-03
12.750	21.250	3.5175e-03
12.750	21.500	4.1452e-03
12.750	21.750	4.1429e-03
12.750	22.000	4.4267e-03
12.750	22.250	5.6588e-03
12.750	22.500	8.0835e-03
12.750	22.750	1.1426e-02
12.750	23.000	1.4899e-02
12.750	23.250	1.9078e-02
12.750	23.500	2.3840e-02
12.750	23.750	2.8601e-02
12.750	24.000	3.3112e-02
13.000	17.000	1.0000e-07
13.000	17.250	1.0000e-07
13.000	17.500	1.5638e-06
13.000	17.750	3.9506e-06
13.000	18.000	8.8889e-06
13.000	18.250	1.8189e-05
13.000	18.500	3.6955e-05
13.000	18.750	6.7078e-05
13.000	19.000	1.0642e-04
13.000	19.250	1.7136e-04
13.000	19.500	2.6198e-04
13.000	19.750	4.0165e-04
13.000	20.000	6.0123e-04
13.000	20.250	8.8099e-04
13.000	20.500	1.2579e-03
13.000	20.750	1.7185e-03
13.000	21.000	2.1988e-03
13.000	21.250	2.5489e-03
13.000	21.500	3.0116e-03
13.000	21.750	2.8841e-03
13.000	22.000	2.7890e-03
13.000	22.250	3.2621e-03
13.000	22.500	4.5116e-03
13.000	22.750	6.4128e-03
13.000	23.000	8.7482e-03
13.000	23.250	1.1605e-02
13.000	23.500	1.5260e-02
13.000	23.750	1.9631e-02
13.000	24.000	2.4266e-02
13.250	17.000	1.0000e-07
13.250	17.250	1.0000e-07
13.250	17.500	1.0000e-07
13.250	17.750	1.5638e-06
13.250	18.000	3.9506e-06
13.250	18.250	8.9712e-06
13.250	18.500	1.8765e-05
13.250	18.750	3.7778e-05
13.250	19.000	6.9300e-05
13.250	19.250	1.0798e-04
13.250	19.500	1.7103e-04
13.250	19.750	2.6346e-04
13.250	20.000	3.9909e-04
13.250	20.250	5.9292e-04
13.250	20.500	8.5827e-04
13.250	20.750	1.1924e-03
13.250	21.000	1.5555e-03
13.250	21.250	1.8311e-03
13.250	21.500	2.1818e-03
13.250	21.750	2.0376e-03
13.250	22.000	1.8058e-03
13.250	22.250	1.9292e-03
13.250	22.500	2.5212e-03
13.250	22.750	3.5169e-03
13.250	23.000	4.8913e-03
13.250	23.250	6.6955e-03
13.250	23.500	8.9891e-03
13.250	23.750	1.1962e-02
13.250	24.000	1.5651e-02
13.500	17.000	1.0000e-07
13.500	17.250	1.0000e-07
13.500	17.500	1.0000e-07
13.500	17.750	8.2305e-07
13.500	18.000	1.9753e-06
13.500	18.250	4.5267e-06
13.500	18.500	9.3827e-06
13.500	18.750	1.9506e-05
13.500	19.000	4.4115e-05
13.500	19.250	7.0123e-05
13.500	19.500	1.0708e-04
13.500	19.750	1.7160e-04
13.500	20.000	2.6140e-04
13.500	20.250	3.9276e-04
13.500	20.500	5.7654e-04
13.500	20.750	8.1465e-04
13.500	21.000	1.0832e-03
13.500	21.250	1.3030e-03
13.500	21.500	1.5695e-03
13.500	21.750	1.4533e-03
13.500	22.000	1.2011e-03
13.500	22.250	1.1641e-03
13.500	22.500	1.4545e-03
13.500	22.750	1.9695e-03
13.500	23.000	2.7303e-03
13.500	23.250	3.7821e-03
13.500	23.500	5.1436e-03
13.500	23.750	6.8849e-03
13.500	24.000	9.2267e-03
13.750	17.000	1.0000e-07
13.750	17.250	1.0000e-07
13.750	17.500	1.0000e-07
13.750	17.750	1.0000e-07
13.750	18.000	9.8765e-07
13.750	18.250	2.3045e-06
13.750	18.500	4.9383e-06
13.750	18.750	9.9588e-06
13.750	19.000	2.0247e-05
13.750	19.250	3.9177e-05
13.750	19.500	7.1770e-05
13.750	19.750	1.1152e-04
13.750	20.000	1.6996e-04
13.750	20.250	2.5745e-04
13.750	20.500	3.8198e-04
13.750	20.750	5.4807e-04
13.750	21.000	7.4329e-04
13.750	21.250	9.1366e-04
13.750	21.500	1.1183e-03
13.750	21.750	1.0344e-03
13.750	22.000	8.1630e-04
13.750	22.250	7.1572e-04
13.750	22.500	8.4658e-04
13.750	22.750	1.1374e-03
13.750	23.000	1.5492e-03
13.750	23.250	2.1229e-03
13.750	23.500	2.8924e-03
13.750	23.750	3.8785e-03
13.750	24.000	5.2067e-03
14.000	17.000	1.0000e-07
14.000	17.250	1.0000e-07
14.000	17.500	1.0000e-07
14.000	17.750	1.0000e-07
14.000	18.000	1.0000e-07
14.000	18.250	1.2346e-06
14.000	18.500	2.5514e-06
14.000	18.750	5.1852e-06
14.000	19.000	1.0288e-05
14.000	19.250	2.2058e-05
14.000	19.500	4.1811e-05
14.000	19.750	7.2263e-05
14.000	20.000	1.1012e-04
14.000	20.250	1.6691e-04
14.000	20.500	2.5012e-04
14.000	20.750	3.6379e-04
14.000	21.000	5.0189e-04
14.000	21.250	6.3062e-04
14.000	21.500	7.8543e-04
14.000	21.750	7.3128e-04
14.000	22.000	5.5951e-04
14.000	22.250	4.5103e-04
14.000	22.500	4.9588e-04
14.000	22.750	6.6132e-04
14.000	23.000	8.9276e-04
14.000	23.250	1.2021e-03
14.000	23.500	1.6223e-03
14.000	23.750	2.1621e-03
14.000	24.000	2.8706e-03
