He 2 1025.35A  relative to Inci 1215.00A scaled to 1215A.
Hden   Phi(H)  Eq_Width (A)
 7.000	17.000	2.8126e-03
 7.000	17.250	2.8029e-03
 7.000	17.500	2.7614e-03
 7.000	17.750	2.6812e-03
 7.000	18.000	2.5467e-03
 7.000	18.250	2.2795e-03
 7.000	18.500	1.8360e-03
 7.000	18.750	5.4560e-04
 7.000	19.000	4.9959e-05
 7.000	19.250	1.1440e-05
 7.000	19.500	1.8107e-06
 7.000	19.750	1.0000e-07
 7.000	20.000	1.0000e-07
 7.000	20.250	1.0000e-07
 7.000	20.500	1.0000e-07
 7.000	20.750	1.0000e-07
 7.000	21.000	1.0000e-07
 7.000	21.250	1.0000e-07
 7.000	21.500	1.0000e-07
 7.000	21.750	1.0000e-07
 7.000	22.000	1.0000e-07
 7.000	22.250	1.0000e-07
 7.000	22.500	1.0000e-07
 7.000	22.750	1.0000e-07
 7.000	23.000	1.0000e-07
 7.000	23.250	1.0000e-07
 7.000	23.500	1.0000e-07
 7.000	23.750	1.0000e-07
 7.000	24.000	1.0000e-07
 7.250	17.000	2.7917e-03
 7.250	17.250	2.8004e-03
 7.250	17.500	2.7898e-03
 7.250	17.750	2.7475e-03
 7.250	18.000	2.6664e-03
 7.250	18.250	2.5302e-03
 7.250	18.500	2.2602e-03
 7.250	18.750	1.8199e-03
 7.250	19.000	5.4099e-04
 7.250	19.250	4.9712e-05
 7.250	19.500	1.1440e-05
 7.250	19.750	1.8107e-06
 7.250	20.000	1.0000e-07
 7.250	20.250	1.0000e-07
 7.250	20.500	1.0000e-07
 7.250	20.750	1.0000e-07
 7.250	21.000	1.0000e-07
 7.250	21.250	1.0000e-07
 7.250	21.500	1.0000e-07
 7.250	21.750	1.0000e-07
 7.250	22.000	1.0000e-07
 7.250	22.250	1.0000e-07
 7.250	22.500	1.0000e-07
 7.250	22.750	1.0000e-07
 7.250	23.000	1.0000e-07
 7.250	23.250	1.0000e-07
 7.250	23.500	1.0000e-07
 7.250	23.750	1.0000e-07
 7.250	24.000	1.0000e-07
 7.500	17.000	2.7618e-03
 7.500	17.250	2.7769e-03
 7.500	17.500	2.7847e-03
 7.500	17.750	2.7738e-03
 7.500	18.000	2.7309e-03
 7.500	18.250	2.6482e-03
 7.500	18.500	2.5101e-03
 7.500	18.750	2.2358e-03
 7.500	19.000	1.7990e-03
 7.500	19.250	5.3514e-04
 7.500	19.500	4.9300e-05
 7.500	19.750	1.1358e-05
 7.500	20.000	1.8107e-06
 7.500	20.250	1.0000e-07
 7.500	20.500	1.0000e-07
 7.500	20.750	1.0000e-07
 7.500	21.000	1.0000e-07
 7.500	21.250	1.0000e-07
 7.500	21.500	1.0000e-07
 7.500	21.750	1.0000e-07
 7.500	22.000	1.0000e-07
 7.500	22.250	1.0000e-07
 7.500	22.500	1.0000e-07
 7.500	22.750	1.0000e-07
 7.500	23.000	1.0000e-07
 7.500	23.250	1.0000e-07
 7.500	23.500	1.0000e-07
 7.500	23.750	1.0000e-07
 7.500	24.000	1.0000e-07
 7.750	17.000	2.7232e-03
 7.750	17.250	2.7455e-03
 7.750	17.500	2.7595e-03
 7.750	17.750	2.7675e-03
 7.750	18.000	2.7559e-03
 7.750	18.250	2.7119e-03
 7.750	18.500	2.6266e-03
 7.750	18.750	2.4840e-03
 7.750	19.000	2.2044e-03
 7.750	19.250	1.7718e-03
 7.750	19.500	5.2889e-04
 7.750	19.750	4.8807e-05
 7.750	20.000	1.1193e-05
 7.750	20.250	1.8107e-06
 7.750	20.500	1.0000e-07
 7.750	20.750	1.0000e-07
 7.750	21.000	1.0000e-07
 7.750	21.250	1.0000e-07
 7.750	21.500	1.0000e-07
 7.750	21.750	1.0000e-07
 7.750	22.000	1.0000e-07
 7.750	22.250	1.0000e-07
 7.750	22.500	1.0000e-07
 7.750	22.750	1.0000e-07
 7.750	23.000	1.0000e-07
 7.750	23.250	1.0000e-07
 7.750	23.500	1.0000e-07
 7.750	23.750	1.0000e-07
 7.750	24.000	1.0000e-07
 8.000	17.000	2.6353e-03
 8.000	17.250	2.6662e-03
 8.000	17.500	2.6920e-03
 8.000	17.750	2.7139e-03
 8.000	18.000	2.7291e-03
 8.000	18.250	2.7212e-03
 8.000	18.500	2.6774e-03
 8.000	18.750	2.5884e-03
 8.000	19.000	2.4396e-03
 8.000	19.250	2.1558e-03
 8.000	19.500	1.7299e-03
 8.000	19.750	5.2132e-04
 8.000	20.000	4.8313e-05
 8.000	20.250	1.1111e-05
 8.000	20.500	1.7284e-06
 8.000	20.750	1.0000e-07
 8.000	21.000	1.0000e-07
 8.000	21.250	1.0000e-07
 8.000	21.500	1.0000e-07
 8.000	21.750	1.0000e-07
 8.000	22.000	1.0000e-07
 8.000	22.250	1.0000e-07
 8.000	22.500	1.0000e-07
 8.000	22.750	1.0000e-07
 8.000	23.000	1.0000e-07
 8.000	23.250	1.0000e-07
 8.000	23.500	1.0000e-07
 8.000	23.750	1.0000e-07
 8.000	24.000	1.0000e-07
 8.250	17.000	2.5797e-03
 8.250	17.250	2.6105e-03
 8.250	17.500	2.6379e-03
 8.250	17.750	2.6621e-03
 8.250	18.000	2.6839e-03
 8.250	18.250	2.6995e-03
 8.250	18.500	2.6914e-03
 8.250	18.750	2.6458e-03
 8.250	19.000	2.5495e-03
 8.250	19.250	2.3932e-03
 8.250	19.500	2.1042e-03
 8.250	19.750	1.6825e-03
 8.250	20.000	5.1646e-04
 8.250	20.250	4.7819e-05
 8.250	20.500	1.1029e-05
 8.250	20.750	1.7284e-06
 8.250	21.000	1.0000e-07
 8.250	21.250	1.0000e-07
 8.250	21.500	1.0000e-07
 8.250	21.750	1.0000e-07
 8.250	22.000	1.0000e-07
 8.250	22.250	1.0000e-07
 8.250	22.500	1.0000e-07
 8.250	22.750	1.0000e-07
 8.250	23.000	1.0000e-07
 8.250	23.250	1.0000e-07
 8.250	23.500	1.0000e-07
 8.250	23.750	1.0000e-07
 8.250	24.000	1.0000e-07
 8.500	17.000	2.5160e-03
 8.500	17.250	2.5426e-03
 8.500	17.500	2.5694e-03
 8.500	17.750	2.5939e-03
 8.500	18.000	2.6165e-03
 8.500	18.250	2.6378e-03
 8.500	18.500	2.6542e-03
 8.500	18.750	2.6463e-03
 8.500	19.000	2.5971e-03
 8.500	19.250	2.4931e-03
 8.500	19.500	2.3296e-03
 8.500	19.750	2.0430e-03
 8.500	20.000	1.6192e-03
 8.500	20.250	5.1111e-04
 8.500	20.500	4.7737e-05
 8.500	20.750	1.1029e-05
 8.500	21.000	1.7284e-06
 8.500	21.250	1.0000e-07
 8.500	21.500	1.0000e-07
 8.500	21.750	1.0000e-07
 8.500	22.000	1.0000e-07
 8.500	22.250	1.0000e-07
 8.500	22.500	1.0000e-07
 8.500	22.750	1.0000e-07
 8.500	23.000	1.0000e-07
 8.500	23.250	1.0000e-07
 8.500	23.500	1.0000e-07
 8.500	23.750	1.0000e-07
 8.500	24.000	1.0000e-07
 8.750	17.000	2.4426e-03
 8.750	17.250	2.4629e-03
 8.750	17.500	2.4850e-03
 8.750	17.750	2.5084e-03
 8.750	18.000	2.5299e-03
 8.750	18.250	2.5495e-03
 8.750	18.500	2.5689e-03
 8.750	18.750	2.5853e-03
 8.750	19.000	2.5774e-03
 8.750	19.250	2.5244e-03
 8.750	19.500	2.4123e-03
 8.750	19.750	2.2421e-03
 8.750	20.000	1.9504e-03
 8.750	20.250	1.5356e-03
 8.750	20.500	5.0296e-04
 8.750	20.750	4.7984e-05
 8.750	21.000	1.1111e-05
 8.750	21.250	1.7284e-06
 8.750	21.500	1.0000e-07
 8.750	21.750	1.0000e-07
 8.750	22.000	1.0000e-07
 8.750	22.250	1.0000e-07
 8.750	22.500	1.0000e-07
 8.750	22.750	1.0000e-07
 8.750	23.000	1.0000e-07
 8.750	23.250	1.0000e-07
 8.750	23.500	1.0000e-07
 8.750	23.750	1.0000e-07
 8.750	24.000	1.0000e-07
 9.000	17.000	2.3626e-03
 9.000	17.250	2.3737e-03
 9.000	17.500	2.3905e-03
 9.000	17.750	2.4100e-03
 9.000	18.000	2.4295e-03
 9.000	18.250	2.4459e-03
 9.000	18.500	2.4598e-03
 9.000	18.750	2.4738e-03
 9.000	19.000	2.4869e-03
 9.000	19.250	2.4770e-03
 9.000	19.500	2.4199e-03
 9.000	19.750	2.2988e-03
 9.000	20.000	2.1226e-03
 9.000	20.250	1.8299e-03
 9.000	20.500	1.4323e-03
 9.000	20.750	4.9547e-04
 9.000	21.000	4.8395e-05
 9.000	21.250	1.1276e-05
 9.000	21.500	1.7284e-06
 9.000	21.750	1.0000e-07
 9.000	22.000	1.0000e-07
 9.000	22.250	1.0000e-07
 9.000	22.500	1.0000e-07
 9.000	22.750	1.0000e-07
 9.000	23.000	1.0000e-07
 9.000	23.250	1.0000e-07
 9.000	23.500	1.0000e-07
 9.000	23.750	1.0000e-07
 9.000	24.000	1.0000e-07
 9.250	17.000	2.2770e-03
 9.250	17.250	2.2837e-03
 9.250	17.500	2.2945e-03
 9.250	17.750	2.3108e-03
 9.250	18.000	2.3270e-03
 9.250	18.250	2.3407e-03
 9.250	18.500	2.3485e-03
 9.250	18.750	2.3519e-03
 9.250	19.000	2.3548e-03
 9.250	19.250	2.3583e-03
 9.250	19.500	2.3421e-03
 9.250	19.750	2.2785e-03
 9.250	20.000	2.1467e-03
 9.250	20.250	1.9674e-03
 9.250	20.500	1.6823e-03
 9.250	20.750	1.3117e-03
 9.250	21.000	4.8979e-04
 9.250	21.250	4.9136e-05
 9.250	21.500	1.1687e-05
 9.250	21.750	1.8107e-06
 9.250	22.000	1.0000e-07
 9.250	22.250	1.0000e-07
 9.250	22.500	1.0000e-07
 9.250	22.750	1.0000e-07
 9.250	23.000	1.0000e-07
 9.250	23.250	1.0000e-07
 9.250	23.500	1.0000e-07
 9.250	23.750	1.0000e-07
 9.250	24.000	1.0000e-07
 9.500	17.000	2.1804e-03
 9.500	17.250	2.1975e-03
 9.500	17.500	2.2072e-03
 9.500	17.750	2.2207e-03
 9.500	18.000	2.2363e-03
 9.500	18.250	2.2485e-03
 9.500	18.500	2.2528e-03
 9.500	18.750	2.2467e-03
 9.500	19.000	2.2330e-03
 9.500	19.250	2.2184e-03
 9.500	19.500	2.2055e-03
 9.500	19.750	2.1751e-03
 9.500	20.000	2.1009e-03
 9.500	20.250	1.9588e-03
 9.500	20.500	1.7854e-03
 9.500	20.750	1.5206e-03
 9.500	21.000	1.1863e-03
 9.500	21.250	4.8000e-04
 9.500	21.500	5.0123e-05
 9.500	21.750	1.2099e-05
 9.500	22.000	1.8930e-06
 9.500	22.250	1.0000e-07
 9.500	22.500	1.0000e-07
 9.500	22.750	1.0000e-07
 9.500	23.000	1.0000e-07
 9.500	23.250	1.0000e-07
 9.500	23.500	1.0000e-07
 9.500	23.750	1.0000e-07
 9.500	24.000	1.0000e-07
 9.750	17.000	2.0486e-03
 9.750	17.250	2.1067e-03
 9.750	17.500	2.1309e-03
 9.750	17.750	2.1475e-03
 9.750	18.000	2.1644e-03
 9.750	18.250	2.1785e-03
 9.750	18.500	2.1820e-03
 9.750	18.750	2.1714e-03
 9.750	19.000	2.1461e-03
 9.750	19.250	2.1101e-03
 9.750	19.500	2.0719e-03
 9.750	19.750	2.0342e-03
 9.750	20.000	1.9837e-03
 9.750	20.250	1.8971e-03
 9.750	20.500	1.7569e-03
 9.750	20.750	1.6096e-03
 9.750	21.000	1.3855e-03
 9.750	21.250	1.0768e-03
 9.750	21.500	4.6988e-04
 9.750	21.750	5.1193e-05
 9.750	22.000	1.2675e-05
 9.750	22.250	1.9753e-06
 9.750	22.500	1.0000e-07
 9.750	22.750	1.0000e-07
 9.750	23.000	1.0000e-07
 9.750	23.250	1.0000e-07
 9.750	23.500	1.0000e-07
 9.750	23.750	1.0000e-07
 9.750	24.000	1.0000e-07
10.000	17.000	1.8524e-03
10.000	17.250	1.9898e-03
10.000	17.500	2.0576e-03
10.000	17.750	2.0919e-03
10.000	18.000	2.1164e-03
10.000	18.250	2.1342e-03
10.000	18.500	2.1405e-03
10.000	18.750	2.1291e-03
10.000	19.000	2.0984e-03
10.000	19.250	2.0488e-03
10.000	19.500	1.9877e-03
10.000	19.750	1.9236e-03
10.000	20.000	1.8580e-03
10.000	20.250	1.7839e-03
10.000	20.500	1.6984e-03
10.000	20.750	1.6058e-03
10.000	21.000	1.4993e-03
10.000	21.250	1.2948e-03
10.000	21.500	1.0023e-03
10.000	21.750	4.5572e-04
10.000	22.000	5.2099e-05
10.000	22.250	1.3169e-05
10.000	22.500	2.1399e-06
10.000	22.750	1.0000e-07
10.000	23.000	1.0000e-07
10.000	23.250	1.0000e-07
10.000	23.500	1.0000e-07
10.000	23.750	1.0000e-07
10.000	24.000	1.0000e-07
10.250	17.000	1.5769e-03
10.250	17.250	1.8074e-03
10.250	17.500	1.9645e-03
10.250	17.750	2.0455e-03
10.250	18.000	2.0903e-03
10.250	18.250	2.1156e-03
10.250	18.500	2.1253e-03
10.250	18.750	2.1181e-03
10.250	19.000	2.0871e-03
10.250	19.250	2.0305e-03
10.250	19.500	1.9533e-03
10.250	19.750	1.8654e-03
10.250	20.000	1.7751e-03
10.250	20.250	1.6864e-03
10.250	20.500	1.6156e-03
10.250	20.750	1.5826e-03
10.250	21.000	1.5554e-03
10.250	21.250	1.4850e-03
10.250	21.500	1.3455e-03
10.250	21.750	1.0117e-03
10.250	22.000	4.3877e-04
10.250	22.250	5.2593e-05
10.250	22.500	1.3580e-05
10.250	22.750	2.2222e-06
10.250	23.000	1.0000e-07
10.250	23.250	1.0000e-07
10.250	23.500	1.0000e-07
10.250	23.750	1.0000e-07
10.250	24.000	1.0000e-07
10.500	17.000	1.2725e-03
10.500	17.250	1.5632e-03
10.500	17.500	1.8114e-03
10.500	17.750	1.9886e-03
10.500	18.000	2.0793e-03
10.500	18.250	2.1202e-03
10.500	18.500	2.1345e-03
10.500	18.750	2.1320e-03
10.500	19.000	2.1065e-03
10.500	19.250	2.0473e-03
10.500	19.500	1.9607e-03
10.500	19.750	1.8555e-03
10.500	20.000	1.7471e-03
10.500	20.250	1.6401e-03
10.500	20.500	1.5618e-03
10.500	20.750	1.5626e-03
10.500	21.000	1.6008e-03
10.500	21.250	1.6281e-03
10.500	21.500	1.6645e-03
10.500	21.750	1.5717e-03
10.500	22.000	1.1192e-03
10.500	22.250	4.1926e-04
10.500	22.500	5.2675e-05
10.500	22.750	1.3827e-05
10.500	23.000	2.3045e-06
10.500	23.250	1.0000e-07
10.500	23.500	1.0000e-07
10.500	23.750	1.0000e-07
10.500	24.000	1.0000e-07
10.750	17.000	9.8156e-04
10.750	17.250	1.2692e-03
10.750	17.500	1.5948e-03
10.750	17.750	1.8820e-03
10.750	18.000	2.0620e-03
10.750	18.250	2.1438e-03
10.750	18.500	2.1683e-03
10.750	18.750	2.1721e-03
10.750	19.000	2.1527e-03
10.750	19.250	2.0958e-03
10.750	19.500	2.0030e-03
10.750	19.750	1.8844e-03
10.750	20.000	1.7591e-03
10.750	20.250	1.6397e-03
10.750	20.500	1.5475e-03
10.750	20.750	1.5430e-03
10.750	21.000	1.6220e-03
10.750	21.250	1.7452e-03
10.750	21.500	1.8846e-03
10.750	21.750	1.9677e-03
10.750	22.000	1.8380e-03
10.750	22.250	1.1958e-03
10.750	22.500	3.8757e-04
10.750	22.750	5.2181e-05
10.750	23.000	1.3909e-05
10.750	23.250	2.3045e-06
10.750	23.500	1.0000e-07
10.750	23.750	1.0000e-07
10.750	24.000	1.0000e-07
11.000	17.000	7.3325e-04
11.000	17.250	9.7325e-04
11.000	17.500	1.3034e-03
11.000	17.750	1.6973e-03
11.000	18.000	1.9981e-03
11.000	18.250	2.1616e-03
11.000	18.500	2.2268e-03
11.000	18.750	2.2431e-03
11.000	19.000	2.2272e-03
11.000	19.250	2.1739e-03
11.000	19.500	2.0770e-03
11.000	19.750	1.9448e-03
11.000	20.000	1.8035e-03
11.000	20.250	1.6734e-03
11.000	20.500	1.5765e-03
11.000	20.750	1.5675e-03
11.000	21.000	1.6229e-03
11.000	21.250	1.7970e-03
11.000	21.500	2.0026e-03
11.000	21.750	2.1519e-03
11.000	22.000	2.2257e-03
11.000	22.250	2.0186e-03
11.000	22.500	1.1693e-03
11.000	22.750	3.7556e-04
11.000	23.000	5.1276e-05
11.000	23.250	1.3745e-05
11.000	23.500	2.3045e-06
11.000	23.750	1.0000e-07
11.000	24.000	1.0000e-07
11.250	17.000	5.3416e-04
11.250	17.250	7.1481e-04
11.250	17.500	9.8790e-04
11.250	17.750	1.4014e-03
11.250	18.000	1.8403e-03
11.250	18.250	2.1436e-03
11.250	18.500	2.2956e-03
11.250	18.750	2.3514e-03
11.250	19.000	2.3422e-03
11.250	19.250	2.2865e-03
11.250	19.500	2.1857e-03
11.250	19.750	2.0409e-03
11.250	20.000	1.8769e-03
11.250	20.250	1.7351e-03
11.250	20.500	1.6467e-03
11.250	20.750	1.6314e-03
11.250	21.000	1.6873e-03
11.250	21.250	1.8209e-03
11.250	21.500	1.9971e-03
11.250	21.750	2.1495e-03
11.250	22.000	2.2368e-03
11.250	22.250	2.2499e-03
11.250	22.500	1.9866e-03
11.250	22.750	1.8040e-03
11.250	23.000	4.1457e-04
11.250	23.250	4.9877e-05
11.250	23.500	1.3416e-05
11.250	23.750	2.2222e-06
11.250	24.000	1.0000e-07
11.500	17.000	3.8181e-04
11.500	17.250	5.1021e-04
11.500	17.500	7.1062e-04
11.500	17.750	1.0536e-03
11.500	18.000	1.5530e-03
11.500	18.250	2.0442e-03
11.500	18.500	2.3574e-03
11.500	18.750	2.4968e-03
11.500	19.000	2.5127e-03
11.500	19.250	2.4558e-03
11.500	19.500	2.3449e-03
11.500	19.750	2.1861e-03
11.500	20.000	1.9937e-03
11.500	20.250	1.8225e-03
11.500	20.500	1.7316e-03
11.500	20.750	1.7471e-03
11.500	21.000	1.7895e-03
11.500	21.250	1.8563e-03
11.500	21.500	1.9545e-03
11.500	21.750	2.0123e-03
11.500	22.000	2.0719e-03
11.500	22.250	2.0911e-03
11.500	22.500	2.0552e-03
11.500	22.750	1.7488e-03
11.500	23.000	1.1094e-03
11.500	23.250	4.0214e-04
11.500	23.500	4.8066e-05
11.500	23.750	1.2757e-05
11.500	24.000	2.1399e-06
11.750	17.000	2.6938e-04
11.750	17.250	3.5811e-04
11.750	17.500	4.9794e-04
11.750	17.750	7.4807e-04
11.750	18.000	1.1835e-03
11.750	18.250	1.8034e-03
11.750	18.500	2.3746e-03
11.750	18.750	2.6748e-03
11.750	19.000	2.7626e-03
11.750	19.250	2.7137e-03
11.750	19.500	2.5852e-03
11.750	19.750	2.3999e-03
11.750	20.000	2.1760e-03
11.750	20.250	1.9605e-03
11.750	20.500	1.8238e-03
11.750	20.750	1.7648e-03
11.750	21.000	1.8871e-03
11.750	21.250	1.9384e-03
11.750	21.500	1.9036e-03
11.750	21.750	1.8621e-03
11.750	22.000	1.8159e-03
11.750	22.250	1.8054e-03
11.750	22.500	1.8333e-03
11.750	22.750	1.7820e-03
11.750	23.000	1.4607e-03
11.750	23.250	1.2063e-03
11.750	23.500	3.6107e-04
11.750	23.750	4.6008e-05
11.750	24.000	1.2016e-05
12.000	17.000	1.9103e-04
12.000	17.250	2.5045e-04
12.000	17.500	3.4568e-04
12.000	17.750	5.1860e-04
12.000	18.000	8.4362e-04
12.000	18.250	1.4281e-03
12.000	18.500	2.2068e-03
12.000	18.750	2.8320e-03
12.000	19.000	3.0813e-03
12.000	19.250	3.0840e-03
12.000	19.500	2.9357e-03
12.000	19.750	2.7095e-03
12.000	20.000	2.4344e-03
12.000	20.250	2.1625e-03
12.000	20.500	1.9826e-03
12.000	20.750	1.9292e-03
12.000	21.000	2.0040e-03
12.000	21.250	2.0145e-03
12.000	21.500	1.9028e-03
12.000	21.750	1.7497e-03
12.000	22.000	1.6106e-03
12.000	22.250	1.5539e-03
12.000	22.500	1.5336e-03
12.000	22.750	1.5639e-03
12.000	23.000	1.4072e-03
12.000	23.250	1.1468e-03
12.000	23.500	9.3037e-04
12.000	23.750	3.3992e-04
12.000	24.000	4.4198e-05
12.250	17.000	1.3613e-04
12.250	17.250	1.7786e-04
12.250	17.500	2.4132e-04
12.250	17.750	3.5687e-04
12.250	18.000	5.8148e-04
12.250	18.250	1.0333e-03
12.250	18.500	1.8393e-03
12.250	18.750	2.7733e-03
12.250	19.000	3.3411e-03
12.250	19.250	3.5186e-03
12.250	19.500	3.4202e-03
12.250	19.750	3.1457e-03
12.250	20.000	2.7874e-03
12.250	20.250	2.4362e-03
12.250	20.500	2.1874e-03
12.250	20.750	2.0961e-03
12.250	21.000	2.1236e-03
12.250	21.250	2.1114e-03
12.250	21.500	1.9375e-03
12.250	21.750	1.7002e-03
12.250	22.000	1.4803e-03
12.250	22.250	1.3486e-03
12.250	22.500	1.4753e-03
12.250	22.750	1.4583e-03
12.250	23.000	1.2428e-03
12.250	23.250	1.0956e-03
12.250	23.500	8.8181e-04
12.250	23.750	6.0453e-04
12.250	24.000	3.0765e-04
12.500	17.000	9.7695e-05
12.500	17.250	1.2831e-04
12.500	17.500	1.7243e-04
12.500	17.750	2.4683e-04
12.500	18.000	3.9111e-04
12.500	18.250	6.9407e-04
12.500	18.500	1.3326e-03
12.500	18.750	2.3560e-03
12.500	19.000	3.3406e-03
12.500	19.250	3.8218e-03
12.500	19.500	3.8773e-03
12.500	19.750	3.6565e-03
12.500	20.000	3.2692e-03
12.500	20.250	2.7879e-03
12.500	20.500	2.4458e-03
12.500	20.750	2.3093e-03
12.500	21.000	2.3165e-03
12.500	21.250	2.2424e-03
12.500	21.500	2.0121e-03
12.500	21.750	1.7135e-03
12.500	22.000	1.4343e-03
12.500	22.250	1.2376e-03
12.500	22.500	1.2167e-03
12.500	22.750	1.1890e-03
12.500	23.000	1.1349e-03
12.500	23.250	9.7259e-04
12.500	23.500	8.3613e-04
12.500	23.750	1.0572e-03
12.500	24.000	5.0683e-04
12.750	17.000	7.0453e-05
12.750	17.250	9.3745e-05
12.750	17.500	1.2519e-04
12.750	17.750	1.7407e-04
12.750	18.000	2.6041e-04
12.750	18.250	4.4058e-04
12.750	18.500	8.4379e-04
12.750	18.750	1.6453e-03
12.750	19.000	2.7509e-03
12.750	19.250	3.6768e-03
12.750	19.500	4.0607e-03
12.750	19.750	4.0080e-03
12.750	20.000	3.7250e-03
12.750	20.250	3.2779e-03
12.750	20.500	2.8020e-03
12.750	20.750	2.5263e-03
12.750	21.000	2.5923e-03
12.750	21.250	2.4104e-03
12.750	21.500	2.1379e-03
12.750	21.750	1.8107e-03
12.750	22.000	1.4840e-03
12.750	22.250	1.2358e-03
12.750	22.500	1.1394e-03
12.750	22.750	1.0989e-03
12.750	23.000	1.0343e-03
12.750	23.250	9.8033e-04
12.750	23.500	7.6733e-04
12.750	23.750	6.5086e-04
12.750	24.000	7.1852e-04
13.000	17.000	5.0864e-05
13.000	17.250	6.8807e-05
13.000	17.500	9.1605e-05
13.000	17.750	1.2444e-04
13.000	18.000	1.7679e-04
13.000	18.250	2.7432e-04
13.000	18.500	4.9358e-04
13.000	18.750	9.6313e-04
13.000	19.000	1.7870e-03
13.000	19.250	2.8250e-03
13.000	19.500	3.6091e-03
13.000	19.750	3.9360e-03
13.000	20.000	3.8828e-03
13.000	20.250	3.7035e-03
13.000	20.500	3.4103e-03
13.000	20.750	3.0845e-03
13.000	21.000	2.8735e-03
13.000	21.250	2.7323e-03
13.000	21.500	2.4052e-03
13.000	21.750	2.0600e-03
13.000	22.000	1.6133e-03
13.000	22.250	1.3515e-03
13.000	22.500	1.1643e-03
13.000	22.750	1.0496e-03
13.000	23.000	9.8815e-04
13.000	23.250	1.0044e-03
13.000	23.500	7.9918e-04
13.000	23.750	6.8691e-04
13.000	24.000	5.1802e-04
13.250	17.000	3.6461e-05
13.250	17.250	5.0453e-05
13.250	17.500	6.7325e-05
13.250	17.750	8.9547e-05
13.250	18.000	1.2222e-04
13.250	18.250	1.7597e-04
13.250	18.500	2.8181e-04
13.250	18.750	5.0535e-04
13.250	19.000	9.2477e-04
13.250	19.250	1.5809e-03
13.250	19.500	2.3550e-03
13.250	19.750	3.0789e-03
13.250	20.000	3.4305e-03
13.250	20.250	3.4812e-03
13.250	20.500	3.5298e-03
13.250	20.750	3.6077e-03
13.250	21.000	3.5167e-03
13.250	21.250	3.2294e-03
13.250	21.500	2.8111e-03
13.250	21.750	2.3269e-03
13.250	22.000	1.8912e-03
13.250	22.250	1.5025e-03
13.250	22.500	1.1949e-03
13.250	22.750	1.0873e-03
13.250	23.000	9.8156e-04
13.250	23.250	9.1103e-04
13.250	23.500	1.3201e-03
13.250	23.750	7.1597e-04
13.250	24.000	5.2140e-04
13.500	17.000	2.5926e-05
13.500	17.250	3.6708e-05
13.500	17.500	4.9300e-05
13.500	17.750	6.4609e-05
13.500	18.000	8.5103e-05
13.500	18.250	1.1580e-04
13.500	18.500	1.6617e-04
13.500	18.750	2.5984e-04
13.500	19.000	4.3350e-04
13.500	19.250	7.1449e-04
13.500	19.500	1.1335e-03
13.500	19.750	1.6775e-03
13.500	20.000	2.0480e-03
13.500	20.250	2.6423e-03
13.500	20.500	2.7155e-03
13.500	20.750	3.0824e-03
13.500	21.000	3.1753e-03
13.500	21.250	3.3777e-03
13.500	21.500	2.9328e-03
13.500	21.750	2.5309e-03
13.500	22.000	2.0849e-03
13.500	22.250	1.7252e-03
13.500	22.500	1.3570e-03
13.500	22.750	1.0653e-03
13.500	23.000	9.7333e-04
13.500	23.250	9.1029e-04
13.500	23.500	8.4576e-04
13.500	23.750	9.0066e-04
13.500	24.000	6.5160e-04
13.750	17.000	1.8025e-05
13.750	17.250	2.6255e-05
13.750	17.500	3.5638e-05
13.750	17.750	4.6255e-05
13.750	18.000	5.9095e-05
13.750	18.250	7.6379e-05
13.750	18.500	1.0132e-04
13.750	18.750	1.3984e-04
13.750	19.000	2.0115e-04
13.750	19.250	2.9514e-04
13.750	19.500	4.3251e-04
13.750	19.750	6.2206e-04
13.750	20.000	8.7621e-04
13.750	20.250	1.0452e-03
13.750	20.500	1.3590e-03
13.750	20.750	1.6022e-03
13.750	21.000	1.8500e-03
13.750	21.250	1.9208e-03
13.750	21.500	2.2078e-03
13.750	21.750	2.1356e-03
13.750	22.000	1.9837e-03
13.750	22.250	1.8324e-03
13.750	22.500	1.5881e-03
13.750	22.750	1.2226e-03
13.750	23.000	9.6790e-04
13.750	23.250	8.8222e-04
13.750	23.500	8.1193e-04
13.750	23.750	8.4049e-04
13.750	24.000	8.9407e-04
14.000	17.000	1.2181e-05
14.000	17.250	1.8354e-05
14.000	17.500	2.5267e-05
14.000	17.750	3.2593e-05
14.000	18.000	4.0494e-05
14.000	18.250	4.9877e-05
14.000	18.500	6.1728e-05
14.000	18.750	7.7613e-05
14.000	19.000	9.9012e-05
14.000	19.250	1.2774e-04
14.000	19.500	1.6543e-04
14.000	19.750	2.1687e-04
14.000	20.000	2.8453e-04
14.000	20.250	3.6691e-04
14.000	20.500	4.6477e-04
14.000	20.750	5.3342e-04
14.000	21.000	6.5901e-04
14.000	21.250	8.4551e-04
14.000	21.500	8.9021e-04
14.000	21.750	1.1110e-03
14.000	22.000	1.3091e-03
14.000	22.250	1.6558e-03
14.000	22.500	1.7970e-03
14.000	22.750	1.5507e-03
14.000	23.000	1.2523e-03
14.000	23.250	9.7292e-04
14.000	23.500	9.0963e-04
14.000	23.750	8.7597e-04
14.000	24.000	9.7638e-04
