InwC 1.64313m  relative to Inci 1215.00A scaled to 1215A.
Hden   Phi(H)  Eq_Width (A)
 7.000	17.000	4.9175e-03
 7.000	17.250	7.0256e-03
 7.000	17.500	9.8291e-03
 7.000	17.750	1.3255e-02
 7.000	18.000	1.6609e-02
 7.000	18.250	1.8912e-02
 7.000	18.500	1.9658e-02
 7.000	18.750	1.9836e-02
 7.000	19.000	1.9812e-02
 7.000	19.250	1.9807e-02
 7.000	19.500	1.9782e-02
 7.000	19.750	1.9755e-02
 7.000	20.000	1.9755e-02
 7.000	20.250	1.9755e-02
 7.000	20.500	1.9755e-02
 7.000	20.750	1.9755e-02
 7.000	21.000	1.9755e-02
 7.000	21.250	1.9755e-02
 7.000	21.500	1.9755e-02
 7.000	21.750	1.9755e-02
 7.000	22.000	1.9755e-02
 7.000	22.250	1.9755e-02
 7.000	22.500	1.9755e-02
 7.000	22.750	1.9755e-02
 7.000	23.000	1.9755e-02
 7.000	23.250	1.9755e-02
 7.000	23.500	1.9755e-02
 7.000	23.750	1.9755e-02
 7.000	24.000	1.9755e-02
 7.250	17.000	3.4792e-03
 7.250	17.250	5.0737e-03
 7.250	17.500	7.2948e-03
 7.250	17.750	1.0214e-02
 7.250	18.000	1.3678e-02
 7.250	18.250	1.6885e-02
 7.250	18.500	1.8973e-02
 7.250	18.750	1.9660e-02
 7.250	19.000	1.9837e-02
 7.250	19.250	1.9812e-02
 7.250	19.500	1.9807e-02
 7.250	19.750	1.9781e-02
 7.250	20.000	1.9755e-02
 7.250	20.250	1.9755e-02
 7.250	20.500	1.9755e-02
 7.250	20.750	1.9755e-02
 7.250	21.000	1.9755e-02
 7.250	21.250	1.9755e-02
 7.250	21.500	1.9755e-02
 7.250	21.750	1.9755e-02
 7.250	22.000	1.9755e-02
 7.250	22.250	1.9755e-02
 7.250	22.500	1.9755e-02
 7.250	22.750	1.9755e-02
 7.250	23.000	1.9755e-02
 7.250	23.250	1.9755e-02
 7.250	23.500	1.9755e-02
 7.250	23.750	1.9755e-02
 7.250	24.000	1.9755e-02
 7.500	17.000	2.4523e-03
 7.500	17.250	3.6052e-03
 7.500	17.500	5.3212e-03
 7.500	17.750	7.7328e-03
 7.500	18.000	1.0797e-02
 7.500	18.250	1.4293e-02
 7.500	18.500	1.7179e-02
 7.500	18.750	1.9032e-02
 7.500	19.000	1.9662e-02
 7.500	19.250	1.9836e-02
 7.500	19.500	1.9811e-02
 7.500	19.750	1.9807e-02
 7.500	20.000	1.9782e-02
 7.500	20.250	1.9755e-02
 7.500	20.500	1.9755e-02
 7.500	20.750	1.9755e-02
 7.500	21.000	1.9755e-02
 7.500	21.250	1.9755e-02
 7.500	21.500	1.9755e-02
 7.500	21.750	1.9755e-02
 7.500	22.000	1.9755e-02
 7.500	22.250	1.9755e-02
 7.500	22.500	1.9755e-02
 7.500	22.750	1.9755e-02
 7.500	23.000	1.9755e-02
 7.500	23.250	1.9755e-02
 7.500	23.500	1.9755e-02
 7.500	23.750	1.9755e-02
 7.500	24.000	1.9755e-02
 7.750	17.000	1.7426e-03
 7.750	17.250	2.5483e-03
 7.750	17.500	3.8220e-03
 7.750	17.750	5.7536e-03
 7.750	18.000	8.4354e-03
 7.750	18.250	1.1689e-02
 7.750	18.500	1.5036e-02
 7.750	18.750	1.7519e-02
 7.750	19.000	1.9092e-02
 7.750	19.250	1.9665e-02
 7.750	19.500	1.9836e-02
 7.750	19.750	1.9812e-02
 7.750	20.000	1.9807e-02
 7.750	20.250	1.9781e-02
 7.750	20.500	1.9755e-02
 7.750	20.750	1.9754e-02
 7.750	21.000	1.9755e-02
 7.750	21.250	1.9755e-02
 7.750	21.500	1.9755e-02
 7.750	21.750	1.9755e-02
 7.750	22.000	1.9755e-02
 7.750	22.250	1.9755e-02
 7.750	22.500	1.9755e-02
 7.750	22.750	1.9755e-02
 7.750	23.000	1.9755e-02
 7.750	23.250	1.9755e-02
 7.750	23.500	1.9755e-02
 7.750	23.750	1.9755e-02
 7.750	24.000	1.9755e-02
 8.000	17.000	1.2525e-03
 8.000	17.250	1.8119e-03
 8.000	17.500	2.7131e-03
 8.000	17.750	4.2004e-03
 8.000	18.000	6.4809e-03
 8.000	18.250	9.4930e-03
 8.000	18.500	1.2770e-02
 8.000	18.750	1.5851e-02
 8.000	19.000	1.7808e-02
 8.000	19.250	1.9131e-02
 8.000	19.500	1.9667e-02
 8.000	19.750	1.9837e-02
 8.000	20.000	1.9811e-02
 8.000	20.250	1.9807e-02
 8.000	20.500	1.9780e-02
 8.000	20.750	1.9755e-02
 8.000	21.000	1.9754e-02
 8.000	21.250	1.9755e-02
 8.000	21.500	1.9755e-02
 8.000	21.750	1.9755e-02
 8.000	22.000	1.9755e-02
 8.000	22.250	1.9755e-02
 8.000	22.500	1.9755e-02
 8.000	22.750	1.9755e-02
 8.000	23.000	1.9755e-02
 8.000	23.250	1.9755e-02
 8.000	23.500	1.9755e-02
 8.000	23.750	1.9755e-02
 8.000	24.000	1.9755e-02
 8.250	17.000	9.1119e-04
 8.250	17.250	1.3072e-03
 8.250	17.500	1.9436e-03
 8.250	17.750	3.0319e-03
 8.250	18.000	4.9078e-03
 8.250	18.250	7.6407e-03
 8.250	18.500	1.0881e-02
 8.250	18.750	1.3931e-02
 8.250	19.000	1.6708e-02
 8.250	19.250	1.8029e-02
 8.250	19.500	1.9203e-02
 8.250	19.750	1.9671e-02
 8.250	20.000	1.9836e-02
 8.250	20.250	1.9811e-02
 8.250	20.500	1.9807e-02
 8.250	20.750	1.9781e-02
 8.250	21.000	1.9755e-02
 8.250	21.250	1.9755e-02
 8.250	21.500	1.9755e-02
 8.250	21.750	1.9755e-02
 8.250	22.000	1.9755e-02
 8.250	22.250	1.9755e-02
 8.250	22.500	1.9755e-02
 8.250	22.750	1.9755e-02
 8.250	23.000	1.9755e-02
 8.250	23.250	1.9755e-02
 8.250	23.500	1.9755e-02
 8.250	23.750	1.9755e-02
 8.250	24.000	1.9755e-02
 8.500	17.000	6.6568e-04
 8.500	17.250	9.5292e-04
 8.500	17.500	1.4072e-03
 8.500	17.750	2.1898e-03
 8.500	18.000	3.6326e-03
 8.500	18.250	5.9816e-03
 8.500	18.500	9.0606e-03
 8.500	18.750	1.2197e-02
 8.500	19.000	1.4848e-02
 8.500	19.250	1.7033e-02
 8.500	19.500	1.8241e-02
 8.500	19.750	1.9230e-02
 8.500	20.000	1.9674e-02
 8.500	20.250	1.9836e-02
 8.500	20.500	1.9811e-02
 8.500	20.750	1.9807e-02
 8.500	21.000	1.9780e-02
 8.500	21.250	1.9755e-02
 8.500	21.500	1.9755e-02
 8.500	21.750	1.9755e-02
 8.500	22.000	1.9755e-02
 8.500	22.250	1.9755e-02
 8.500	22.500	1.9755e-02
 8.500	22.750	1.9755e-02
 8.500	23.000	1.9755e-02
 8.500	23.250	1.9755e-02
 8.500	23.500	1.9755e-02
 8.500	23.750	1.9755e-02
 8.500	24.000	1.9755e-02
 8.750	17.000	4.8576e-04
 8.750	17.250	6.9728e-04
 8.750	17.500	1.0289e-03
 8.750	17.750	1.5980e-03
 8.750	18.000	2.6721e-03
 8.750	18.250	4.5531e-03
 8.750	18.500	7.2590e-03
 8.750	18.750	1.0336e-02
 8.750	19.000	1.3126e-02
 8.750	19.250	1.5834e-02
 8.750	19.500	1.7455e-02
 8.750	19.750	1.8443e-02
 8.750	20.000	1.9221e-02
 8.750	20.250	1.9679e-02
 8.750	20.500	1.9836e-02
 8.750	20.750	1.9811e-02
 8.750	21.000	1.9807e-02
 8.750	21.250	1.9780e-02
 8.750	21.500	1.9755e-02
 8.750	21.750	1.9755e-02
 8.750	22.000	1.9755e-02
 8.750	22.250	1.9755e-02
 8.750	22.500	1.9755e-02
 8.750	22.750	1.9755e-02
 8.750	23.000	1.9755e-02
 8.750	23.250	1.9755e-02
 8.750	23.500	1.9755e-02
 8.750	23.750	1.9755e-02
 8.750	24.000	1.9755e-02
 9.000	17.000	3.5267e-04
 9.000	17.250	5.0922e-04
 9.000	17.500	7.5440e-04
 9.000	17.750	1.1748e-03
 9.000	18.000	1.9774e-03
 9.000	18.250	3.4362e-03
 9.000	18.500	5.6616e-03
 9.000	18.750	8.4523e-03
 9.000	19.000	1.1337e-02
 9.000	19.250	1.4021e-02
 9.000	19.500	1.6529e-02
 9.000	19.750	1.7675e-02
 9.000	20.000	1.8620e-02
 9.000	20.250	1.9208e-02
 9.000	20.500	1.9685e-02
 9.000	20.750	1.9835e-02
 9.000	21.000	1.9811e-02
 9.000	21.250	1.9807e-02
 9.000	21.500	1.9782e-02
 9.000	21.750	1.9755e-02
 9.000	22.000	1.9755e-02
 9.000	22.250	1.9755e-02
 9.000	22.500	1.9755e-02
 9.000	22.750	1.9755e-02
 9.000	23.000	1.9755e-02
 9.000	23.250	1.9755e-02
 9.000	23.500	1.9755e-02
 9.000	23.750	1.9755e-02
 9.000	24.000	1.9755e-02
 9.250	17.000	2.5473e-04
 9.250	17.250	3.7103e-04
 9.250	17.500	5.5259e-04
 9.250	17.750	8.6757e-04
 9.250	18.000	1.4784e-03
 9.250	18.250	2.6183e-03
 9.250	18.500	4.3897e-03
 9.250	18.750	6.6239e-03
 9.250	19.000	9.3193e-03
 9.250	19.250	1.2179e-02
 9.250	19.500	1.4733e-02
 9.250	19.750	1.6977e-02
 9.250	20.000	1.7913e-02
 9.250	20.250	1.8762e-02
 9.250	20.500	1.9193e-02
 9.250	20.750	1.9690e-02
 9.250	21.000	1.9834e-02
 9.250	21.250	1.9811e-02
 9.250	21.500	1.9807e-02
 9.250	21.750	1.9779e-02
 9.250	22.000	1.9746e-02
 9.250	22.250	1.9753e-02
 9.250	22.500	1.9754e-02
 9.250	22.750	1.9755e-02
 9.250	23.000	1.9755e-02
 9.250	23.250	1.9755e-02
 9.250	23.500	1.9755e-02
 9.250	23.750	1.9755e-02
 9.250	24.000	1.9755e-02
 9.500	17.000	1.8313e-04
 9.500	17.250	2.6864e-04
 9.500	17.500	4.0403e-04
 9.500	17.750	6.4206e-04
 9.500	18.000	1.1037e-03
 9.500	18.250	2.0058e-03
 9.500	18.500	3.3918e-03
 9.500	18.750	5.1540e-03
 9.500	19.000	7.3375e-03
 9.500	19.250	9.8733e-03
 9.500	19.500	1.2567e-02
 9.500	19.750	1.5442e-02
 9.500	20.000	1.7179e-02
 9.500	20.250	1.8058e-02
 9.500	20.500	1.8807e-02
 9.500	20.750	1.9177e-02
 9.500	21.000	1.9695e-02
 9.500	21.250	1.9831e-02
 9.500	21.500	1.9806e-02
 9.500	21.750	1.9796e-02
 9.500	22.000	1.9758e-02
 9.500	22.250	1.9703e-02
 9.500	22.500	1.9673e-02
 9.500	22.750	1.9667e-02
 9.500	23.000	1.9662e-02
 9.500	23.250	1.9660e-02
 9.500	23.500	1.9696e-02
 9.500	23.750	1.9695e-02
 9.500	24.000	1.9695e-02
 9.750	17.000	1.3144e-04
 9.750	17.250	1.9366e-04
 9.750	17.500	2.9399e-04
 9.750	17.750	4.7317e-04
 9.750	18.000	8.4082e-04
 9.750	18.250	1.5456e-03
 9.750	18.500	2.5915e-03
 9.750	18.750	3.9472e-03
 9.750	19.000	5.6458e-03
 9.750	19.250	7.7545e-03
 9.750	19.500	1.0265e-02
 9.750	19.750	1.3038e-02
 9.750	20.000	1.5781e-02
 9.750	20.250	1.7282e-02
 9.750	20.500	1.8204e-02
 9.750	20.750	1.8757e-02
 9.750	21.000	1.9156e-02
 9.750	21.250	1.9703e-02
 9.750	21.500	1.9829e-02
 9.750	21.750	1.9808e-02
 9.750	22.000	1.9796e-02
 9.750	22.250	1.9757e-02
 9.750	22.500	1.9707e-02
 9.750	22.750	1.9680e-02
 9.750	23.000	1.9677e-02
 9.750	23.250	1.9673e-02
 9.750	23.500	1.9672e-02
 9.750	23.750	1.9671e-02
 9.750	24.000	1.9670e-02
10.000	17.000	9.4568e-05
10.000	17.250	1.3926e-04
10.000	17.500	2.1276e-04
10.000	17.750	3.4733e-04
10.000	18.000	6.2691e-04
10.000	18.250	1.1658e-03
10.000	18.500	1.9642e-03
10.000	18.750	2.9887e-03
10.000	19.000	4.2741e-03
10.000	19.250	5.9332e-03
10.000	19.500	8.0217e-03
10.000	19.750	1.0624e-02
10.000	20.000	1.3503e-02
10.000	20.250	1.5990e-02
10.000	20.500	1.7380e-02
10.000	20.750	1.8287e-02
10.000	21.000	1.8688e-02
10.000	21.250	1.9133e-02
10.000	21.500	1.9721e-02
10.000	21.750	1.9825e-02
10.000	22.000	1.9807e-02
10.000	22.250	1.9799e-02
10.000	22.500	1.9759e-02
10.000	22.750	1.9706e-02
10.000	23.000	1.9685e-02
10.000	23.250	1.9683e-02
10.000	23.500	1.9680e-02
10.000	23.750	1.9680e-02
10.000	24.000	1.9680e-02
10.250	17.000	6.8395e-05
10.250	17.250	1.0025e-04
10.250	17.500	1.5342e-04
10.250	17.750	2.5465e-04
10.250	18.000	4.6914e-04
10.250	18.250	8.7473e-04
10.250	18.500	1.4629e-03
10.250	18.750	2.2327e-03
10.250	19.000	3.1867e-03
10.250	19.250	4.4456e-03
10.250	19.500	6.0815e-03
10.250	19.750	8.1802e-03
10.250	20.000	1.0725e-02
10.250	20.250	1.3565e-02
10.250	20.500	1.5935e-02
10.250	20.750	1.7411e-02
10.250	21.000	1.8236e-02
10.250	21.250	1.8592e-02
10.250	21.500	1.9167e-02
10.250	21.750	1.9719e-02
10.250	22.000	1.9817e-02
10.250	22.250	1.9805e-02
10.250	22.500	1.9802e-02
10.250	22.750	1.9761e-02
10.250	23.000	1.9707e-02
10.250	23.250	1.9687e-02
10.250	23.500	1.9686e-02
10.250	23.750	1.9685e-02
10.250	24.000	1.9685e-02
10.500	17.000	4.9794e-05
10.500	17.250	7.2428e-05
10.500	17.500	1.1070e-04
10.500	17.750	1.8535e-04
10.500	18.000	3.4741e-04
10.500	18.250	6.4815e-04
10.500	18.500	1.0739e-03
10.500	18.750	1.6458e-03
10.500	19.000	2.3700e-03
10.500	19.250	3.2929e-03
10.500	19.500	4.5520e-03
10.500	19.750	6.1747e-03
10.500	20.000	8.2355e-03
10.500	20.250	1.0702e-02
10.500	20.500	1.3460e-02
10.500	20.750	1.5781e-02
10.500	21.000	1.7325e-02
10.500	21.250	1.8022e-02
10.500	21.500	1.8598e-02
10.500	21.750	1.9153e-02
10.500	22.000	1.9692e-02
10.500	22.250	1.9805e-02
10.500	22.500	1.9802e-02
10.500	22.750	1.9803e-02
10.500	23.000	1.9773e-02
10.500	23.250	1.9717e-02
10.500	23.500	1.9692e-02
10.500	23.750	1.9688e-02
10.500	24.000	1.9688e-02
10.750	17.000	3.6543e-05
10.750	17.250	5.2675e-05
10.750	17.500	7.9918e-05
10.750	17.750	1.3449e-04
10.750	18.000	2.5004e-04
10.750	18.250	4.7103e-04
10.750	18.500	7.7835e-04
10.750	18.750	1.1901e-03
10.750	19.000	1.7230e-03
10.750	19.250	2.4388e-03
10.750	19.500	3.3807e-03
10.750	19.750	4.6154e-03
10.750	20.000	6.2058e-03
10.750	20.250	8.1782e-03
10.750	20.500	1.0510e-02
10.750	20.750	1.3139e-02
10.750	21.000	1.5445e-02
10.750	21.250	1.7066e-02
10.750	21.500	1.7978e-02
10.750	21.750	1.8458e-02
10.750	22.000	1.9104e-02
10.750	22.250	1.9635e-02
10.750	22.500	1.9784e-02
10.750	22.750	1.9796e-02
10.750	23.000	1.9801e-02
10.750	23.250	1.9777e-02
10.750	23.500	1.9741e-02
10.750	23.750	1.9716e-02
10.750	24.000	1.9700e-02
11.000	17.000	2.6914e-05
11.000	17.250	3.8601e-05
11.000	17.500	5.8025e-05
11.000	17.750	9.7202e-05
11.000	18.000	1.8099e-04
11.000	18.250	3.3901e-04
11.000	18.500	5.5819e-04
11.000	18.750	8.6239e-04
11.000	19.000	1.2580e-03
11.000	19.250	1.7861e-03
11.000	19.500	2.4908e-03
11.000	19.750	3.4232e-03
11.000	20.000	4.6239e-03
11.000	20.250	6.1397e-03
11.000	20.500	7.9557e-03
11.000	20.750	1.0061e-02
11.000	21.000	1.2505e-02
11.000	21.250	1.4849e-02
11.000	21.500	1.7004e-02
11.000	21.750	1.7645e-02
11.000	22.000	1.8230e-02
11.000	22.250	1.8990e-02
11.000	22.500	1.9539e-02
11.000	22.750	1.9753e-02
11.000	23.000	1.9786e-02
11.000	23.250	1.9798e-02
11.000	23.500	1.9776e-02
11.000	23.750	1.9750e-02
11.000	24.000	1.9742e-02
11.250	17.000	1.9835e-05
11.250	17.250	2.8395e-05
11.250	17.500	4.2387e-05
11.250	17.750	7.0206e-05
11.250	18.000	1.3045e-04
11.250	18.250	2.3934e-04
11.250	18.500	3.9325e-04
11.250	18.750	6.0881e-04
11.250	19.000	8.9992e-04
11.250	19.250	1.2872e-03
11.250	19.500	1.8174e-03
11.250	19.750	2.5154e-03
11.250	20.000	3.4208e-03
11.250	20.250	4.5658e-03
11.250	20.500	5.9353e-03
11.250	20.750	7.4989e-03
11.250	21.000	9.2880e-03
11.250	21.250	1.1529e-02
11.250	21.500	1.4597e-02
11.250	21.750	1.6342e-02
11.250	22.000	1.7142e-02
11.250	22.250	1.7870e-02
11.250	22.500	1.8764e-02
11.250	22.750	1.9383e-02
11.250	23.000	1.9705e-02
11.250	23.250	1.9771e-02
11.250	23.500	1.9792e-02
11.250	23.750	1.9775e-02
11.250	24.000	1.9752e-02
11.500	17.000	1.3992e-05
11.500	17.250	2.0988e-05
11.500	17.500	3.1111e-05
11.500	17.750	5.0700e-05
11.500	18.000	9.3086e-05
11.500	18.250	1.6831e-04
11.500	18.500	2.7572e-04
11.500	18.750	4.2428e-04
11.500	19.000	6.3967e-04
11.500	19.250	9.2955e-04
11.500	19.500	1.3168e-03
11.500	19.750	1.8339e-03
11.500	20.000	2.5099e-03
11.500	20.250	3.3652e-03
11.500	20.500	4.3947e-03
11.500	20.750	5.5430e-03
11.500	21.000	6.7503e-03
11.500	21.250	8.1816e-03
11.500	21.500	1.0969e-02
11.500	21.750	1.3583e-02
11.500	22.000	1.5392e-02
11.500	22.250	1.6411e-02
11.500	22.500	1.7321e-02
11.500	22.750	1.8363e-02
11.500	23.000	1.9149e-02
11.500	23.250	1.9629e-02
11.500	23.500	1.9747e-02
11.500	23.750	1.9783e-02
11.500	24.000	1.9773e-02
11.750	17.000	7.7366e-06
11.750	17.250	1.5391e-05
11.750	17.500	2.2963e-05
11.750	17.750	3.6790e-05
11.750	18.000	6.6091e-05
11.750	18.250	1.1753e-04
11.750	18.500	1.9317e-04
11.750	18.750	2.9909e-04
11.750	19.000	4.5136e-04
11.750	19.250	6.6305e-04
11.750	19.500	9.4905e-04
11.750	19.750	1.3309e-03
11.750	20.000	1.8312e-03
11.750	20.250	2.4663e-03
11.750	20.500	3.2365e-03
11.750	20.750	4.0850e-03
11.750	21.000	4.9150e-03
11.750	21.250	5.7156e-03
11.750	21.500	7.5257e-03
11.750	21.750	9.6276e-03
11.750	22.000	1.2213e-02
11.750	22.250	1.4120e-02
11.750	22.500	1.5384e-02
11.750	22.750	1.6552e-02
11.750	23.000	1.7767e-02
11.750	23.250	1.8803e-02
11.750	23.500	1.9508e-02
11.750	23.750	1.9710e-02
11.750	24.000	1.9769e-02
12.000	17.000	3.4568e-06
12.000	17.250	8.5597e-06
12.000	17.500	1.6872e-05
12.000	17.750	2.6667e-05
12.000	18.000	4.6091e-05
12.000	18.250	8.0658e-05
12.000	18.500	1.3309e-04
12.000	18.750	2.0930e-04
12.000	19.000	3.1885e-04
12.000	19.250	4.6955e-04
12.000	19.500	6.7877e-04
12.000	19.750	9.5794e-04
12.000	20.000	1.3267e-03
12.000	20.250	1.7979e-03
12.000	20.500	2.3695e-03
12.000	20.750	3.0005e-03
12.000	21.000	3.5937e-03
12.000	21.250	4.0459e-03
12.000	21.500	5.1012e-03
12.000	21.750	6.1851e-03
12.000	22.000	8.1183e-03
12.000	22.250	1.0499e-02
12.000	22.500	1.2506e-02
12.000	22.750	1.3991e-02
12.000	23.000	1.5471e-02
12.000	23.250	1.6927e-02
12.000	23.500	1.8297e-02
12.000	23.750	1.9318e-02
12.000	24.000	1.9649e-02
12.250	17.000	1.5638e-06
12.250	17.250	3.8683e-06
12.250	17.500	9.4650e-06
12.250	17.750	1.9177e-05
12.250	18.000	3.2181e-05
12.250	18.250	5.5062e-05
12.250	18.500	9.1523e-05
12.250	18.750	1.4494e-04
12.250	19.000	2.1984e-04
12.250	19.250	3.3152e-04
12.250	19.500	4.8198e-04
12.250	19.750	6.8551e-04
12.250	20.000	9.5564e-04
12.250	20.250	1.3023e-03
12.250	20.500	1.7256e-03
12.250	20.750	2.1979e-03
12.250	21.000	2.6329e-03
12.250	21.250	2.9104e-03
12.250	21.500	3.5263e-03
12.250	21.750	3.9263e-03
12.250	22.000	4.8872e-03
12.250	22.250	6.6052e-03
12.250	22.500	8.6768e-03
12.250	22.750	1.0547e-02
12.250	23.000	1.2275e-02
12.250	23.250	1.4066e-02
12.250	23.500	1.5788e-02
12.250	23.750	1.7576e-02
12.250	24.000	1.9026e-02
12.500	17.000	1.0000e-07
12.500	17.250	1.7284e-06
12.500	17.500	4.1975e-06
12.500	17.750	1.0041e-05
12.500	18.000	2.1564e-05
12.500	18.250	3.6296e-05
12.500	18.500	6.1317e-05
12.500	18.750	9.9506e-05
12.500	19.000	1.5366e-04
12.500	19.250	2.3095e-04
12.500	19.500	3.3967e-04
12.500	19.750	4.8741e-04
12.500	20.000	6.8370e-04
12.500	20.250	9.3827e-04
12.500	20.500	1.2502e-03
12.500	20.750	1.6008e-03
12.500	21.000	1.9298e-03
12.500	21.250	2.1183e-03
12.500	21.500	2.4995e-03
12.500	21.750	2.5535e-03
12.500	22.000	2.8895e-03
12.500	22.250	3.8120e-03
12.500	22.500	5.2760e-03
12.500	22.750	6.8397e-03
12.500	23.000	8.5004e-03
12.500	23.250	1.0371e-02
12.500	23.500	1.2355e-02
12.500	23.750	1.4315e-02
12.500	24.000	1.6583e-02
12.750	17.000	1.0000e-07
12.750	17.250	8.2305e-07
12.750	17.500	1.8930e-06
12.750	17.750	4.3621e-06
12.750	18.000	1.0041e-05
12.750	18.250	2.1893e-05
12.750	18.500	3.7531e-05
12.750	18.750	6.1481e-05
12.750	19.000	1.0387e-04
12.750	19.250	1.5951e-04
12.750	19.500	2.3728e-04
12.750	19.750	3.4280e-04
12.750	20.000	4.8453e-04
12.750	20.250	6.7136e-04
12.750	20.500	9.0016e-04
12.750	20.750	1.1610e-03
12.750	21.000	1.4089e-03
12.750	21.250	1.5505e-03
12.750	21.500	1.8054e-03
12.750	21.750	1.7190e-03
12.750	22.000	1.7483e-03
12.750	22.250	2.1528e-03
12.750	22.500	2.9588e-03
12.750	22.750	4.0111e-03
12.750	23.000	5.1435e-03
12.750	23.250	6.6402e-03
12.750	23.500	8.4609e-03
12.750	23.750	1.0431e-02
12.750	24.000	1.2515e-02
13.000	17.000	1.0000e-07
13.000	17.250	1.0000e-07
13.000	17.500	1.0000e-07
13.000	17.750	1.7284e-06
13.000	18.000	3.9506e-06
13.000	18.250	8.4774e-06
13.000	18.500	1.8519e-05
13.000	18.750	3.7449e-05
13.000	19.000	6.4033e-05
13.000	19.250	1.0724e-04
13.000	19.500	1.6132e-04
13.000	19.750	2.3975e-04
13.000	20.000	3.4230e-04
13.000	20.250	4.7572e-04
13.000	20.500	6.4453e-04
13.000	20.750	8.3852e-04
13.000	21.000	1.0253e-03
13.000	21.250	1.1346e-03
13.000	21.500	1.3172e-03
13.000	21.750	1.1933e-03
13.000	22.000	1.0911e-03
13.000	22.250	1.2296e-03
13.000	22.500	1.6397e-03
13.000	22.750	2.2327e-03
13.000	23.000	2.9551e-03
13.000	23.250	3.8906e-03
13.000	23.500	5.1372e-03
13.000	23.750	6.6826e-03
13.000	24.000	8.4355e-03
13.250	17.000	1.0000e-07
13.250	17.250	1.0000e-07
13.250	17.500	1.0000e-07
13.250	17.750	1.0000e-07
13.250	18.000	1.7284e-06
13.250	18.250	4.0329e-06
13.250	18.500	8.7243e-06
13.250	18.750	1.9177e-05
13.250	19.000	3.9342e-05
13.250	19.250	6.6173e-05
13.250	19.500	1.0840e-04
13.250	19.750	1.6403e-04
13.250	20.000	2.3827e-04
13.250	20.250	3.3539e-04
13.250	20.500	4.5811e-04
13.250	20.750	6.0091e-04
13.250	21.000	7.4247e-04
13.250	21.250	8.2815e-04
13.250	21.500	9.6346e-04
13.250	21.750	8.4543e-04
13.250	22.000	7.0099e-04
13.250	22.250	7.2041e-04
13.250	22.500	9.1399e-04
13.250	22.750	1.2282e-03
13.250	23.000	1.6494e-03
13.250	23.250	2.2100e-03
13.250	23.500	2.9461e-03
13.250	23.750	3.9205e-03
13.250	24.000	5.1357e-03
13.500	17.000	1.0000e-07
13.500	17.250	1.0000e-07
13.500	17.500	1.0000e-07
13.500	17.750	1.0000e-07
13.500	18.000	8.2305e-07
13.500	18.250	1.9753e-06
13.500	18.500	4.1975e-06
13.500	18.750	9.1358e-06
13.500	19.000	2.2881e-05
13.500	19.250	4.0165e-05
13.500	19.500	6.5926e-05
13.500	19.750	1.0988e-04
13.500	20.000	1.6288e-04
13.500	20.250	2.3284e-04
13.500	20.500	3.2198e-04
13.500	20.750	4.2708e-04
13.500	21.000	5.3350e-04
13.500	21.250	6.0263e-04
13.500	21.500	7.0370e-04
13.500	21.750	6.0774e-04
13.500	22.000	4.6461e-04
13.500	22.250	4.3062e-04
13.500	22.500	5.2461e-04
13.500	22.750	6.8856e-04
13.500	23.000	9.2370e-04
13.500	23.250	1.2425e-03
13.500	23.500	1.6601e-03
13.500	23.750	2.2101e-03
13.500	24.000	2.9441e-03
13.750	17.000	1.0000e-07
13.750	17.250	1.0000e-07
13.750	17.500	1.0000e-07
13.750	17.750	1.0000e-07
13.750	18.000	1.0000e-07
13.750	18.250	9.8765e-07
13.750	18.500	2.1399e-06
13.750	18.750	4.4444e-06
13.750	19.000	9.5473e-06
13.750	19.250	2.0082e-05
13.750	19.500	4.1481e-05
13.750	19.750	7.0288e-05
13.750	20.000	1.0864e-04
13.750	20.250	1.5926e-04
13.750	20.500	2.2329e-04
13.750	20.750	3.0000e-04
13.750	21.000	3.7975e-04
13.750	21.250	4.3481e-04
13.750	21.500	5.1152e-04
13.750	21.750	4.3753e-04
13.750	22.000	3.1580e-04
13.750	22.250	2.6222e-04
13.750	22.500	3.0362e-04
13.750	22.750	3.9564e-04
13.750	23.000	5.2181e-04
13.750	23.250	6.9481e-04
13.750	23.500	9.2346e-04
13.750	23.750	1.2249e-03
13.750	24.000	1.6326e-03
14.000	17.000	1.0000e-07
14.000	17.250	1.0000e-07
14.000	17.500	1.0000e-07
14.000	17.750	1.0000e-07
14.000	18.000	1.0000e-07
14.000	18.250	1.0000e-07
14.000	18.500	1.0700e-06
14.000	18.750	2.3045e-06
14.000	19.000	4.6091e-06
14.000	19.250	1.0453e-05
14.000	19.500	2.1564e-05
14.000	19.750	4.1975e-05
14.000	20.000	6.9218e-05
14.000	20.250	1.0560e-04
14.000	20.500	1.5218e-04
14.000	20.750	2.0807e-04
14.000	21.000	2.6683e-04
14.000	21.250	3.0988e-04
14.000	21.500	3.6782e-04
14.000	21.750	3.1366e-04
14.000	22.000	2.1695e-04
14.000	22.250	1.6362e-04
14.000	22.500	1.7638e-04
14.000	22.750	2.2848e-04
14.000	23.000	2.9811e-04
14.000	23.250	3.9070e-04
14.000	23.500	5.1309e-04
14.000	23.750	6.7128e-04
14.000	24.000	8.8568e-04
