Inwd 1085.03A  relative to Inci 1215.00A scaled to 1215A.
Hden   Phi(H)  Eq_Width (A)
 7.000	17.000	5.0969e-03
 7.000	17.250	5.0971e-03
 7.000	17.500	5.0397e-03
 7.000	17.750	4.9147e-03
 7.000	18.000	4.6873e-03
 7.000	18.250	4.1978e-03
 7.000	18.500	2.4385e-03
 7.000	18.750	4.9786e-04
 7.000	19.000	4.5350e-05
 7.000	19.250	1.0700e-05
 7.000	19.500	1.6461e-06
 7.000	19.750	1.0000e-07
 7.000	20.000	1.0000e-07
 7.000	20.250	1.0000e-07
 7.000	20.500	1.0000e-07
 7.000	20.750	1.0000e-07
 7.000	21.000	1.0000e-07
 7.000	21.250	1.0000e-07
 7.000	21.500	1.0000e-07
 7.000	21.750	1.0000e-07
 7.000	22.000	1.0000e-07
 7.000	22.250	1.0000e-07
 7.000	22.500	1.0000e-07
 7.000	22.750	1.0000e-07
 7.000	23.000	1.0000e-07
 7.000	23.250	1.0000e-07
 7.000	23.500	1.0000e-07
 7.000	23.750	1.0000e-07
 7.000	24.000	1.0000e-07
 7.250	17.000	5.0238e-03
 7.250	17.250	5.0597e-03
 7.250	17.500	5.0612e-03
 7.250	17.750	5.0037e-03
 7.250	18.000	4.8780e-03
 7.250	18.250	4.6491e-03
 7.250	18.500	4.1569e-03
 7.250	18.750	2.6911e-03
 7.250	19.000	4.9514e-04
 7.250	19.250	4.5432e-05
 7.250	19.500	1.0700e-05
 7.250	19.750	1.6461e-06
 7.250	20.000	1.0000e-07
 7.250	20.250	1.0000e-07
 7.250	20.500	1.0000e-07
 7.250	20.750	1.0000e-07
 7.250	21.000	1.0000e-07
 7.250	21.250	1.0000e-07
 7.250	21.500	1.0000e-07
 7.250	21.750	1.0000e-07
 7.250	22.000	1.0000e-07
 7.250	22.250	1.0000e-07
 7.250	22.500	1.0000e-07
 7.250	22.750	1.0000e-07
 7.250	23.000	1.0000e-07
 7.250	23.250	1.0000e-07
 7.250	23.500	1.0000e-07
 7.250	23.750	1.0000e-07
 7.250	24.000	1.0000e-07
 7.500	17.000	4.9146e-03
 7.500	17.250	4.9643e-03
 7.500	17.500	5.0026e-03
 7.500	17.750	5.0071e-03
 7.500	18.000	4.9500e-03
 7.500	18.250	4.8230e-03
 7.500	18.500	4.5923e-03
 7.500	18.750	4.0951e-03
 7.500	19.000	2.9063e-03
 7.500	19.250	4.9119e-04
 7.500	19.500	4.5432e-05
 7.500	19.750	1.0700e-05
 7.500	20.000	1.6461e-06
 7.500	20.250	1.0000e-07
 7.500	20.500	1.0000e-07
 7.500	20.750	1.0000e-07
 7.500	21.000	1.0000e-07
 7.500	21.250	1.0000e-07
 7.500	21.500	1.0000e-07
 7.500	21.750	1.0000e-07
 7.500	22.000	1.0000e-07
 7.500	22.250	1.0000e-07
 7.500	22.500	1.0000e-07
 7.500	22.750	1.0000e-07
 7.500	23.000	1.0000e-07
 7.500	23.250	1.0000e-07
 7.500	23.500	1.0000e-07
 7.500	23.750	1.0000e-07
 7.500	24.000	1.0000e-07
 7.750	17.000	4.7695e-03
 7.750	17.250	4.8305e-03
 7.750	17.500	4.8809e-03
 7.750	17.750	4.9235e-03
 7.750	18.000	4.9314e-03
 7.750	18.250	4.8744e-03
 7.750	18.500	4.7439e-03
 7.750	18.750	4.5079e-03
 7.750	19.000	4.0067e-03
 7.750	19.250	3.0220e-03
 7.750	19.500	4.8461e-04
 7.750	19.750	4.5350e-05
 7.750	20.000	1.0700e-05
 7.750	20.250	1.6461e-06
 7.750	20.500	1.0000e-07
 7.750	20.750	1.0000e-07
 7.750	21.000	1.0000e-07
 7.750	21.250	1.0000e-07
 7.750	21.500	1.0000e-07
 7.750	21.750	1.0000e-07
 7.750	22.000	1.0000e-07
 7.750	22.250	1.0000e-07
 7.750	22.500	1.0000e-07
 7.750	22.750	1.0000e-07
 7.750	23.000	1.0000e-07
 7.750	23.250	1.0000e-07
 7.750	23.500	1.0000e-07
 7.750	23.750	1.0000e-07
 7.750	24.000	1.0000e-07
 8.000	17.000	4.5226e-03
 8.000	17.250	4.5979e-03
 8.000	17.500	4.6679e-03
 8.000	17.750	4.7344e-03
 8.000	18.000	4.7935e-03
 8.000	18.250	4.8093e-03
 8.000	18.500	4.7529e-03
 8.000	18.750	4.6171e-03
 8.000	19.000	4.3772e-03
 8.000	19.250	3.8817e-03
 8.000	19.500	3.0323e-03
 8.000	19.750	4.7770e-04
 8.000	20.000	4.5185e-05
 8.000	20.250	1.0700e-05
 8.000	20.500	1.6461e-06
 8.000	20.750	1.0000e-07
 8.000	21.000	1.0000e-07
 8.000	21.250	1.0000e-07
 8.000	21.500	1.0000e-07
 8.000	21.750	1.0000e-07
 8.000	22.000	1.0000e-07
 8.000	22.250	1.0000e-07
 8.000	22.500	1.0000e-07
 8.000	22.750	1.0000e-07
 8.000	23.000	1.0000e-07
 8.000	23.250	1.0000e-07
 8.000	23.500	1.0000e-07
 8.000	23.750	1.0000e-07
 8.000	24.000	1.0000e-07
 8.250	17.000	4.3264e-03
 8.250	17.250	4.4021e-03
 8.250	17.500	4.4737e-03
 8.250	17.750	4.5412e-03
 8.250	18.000	4.6072e-03
 8.250	18.250	4.6668e-03
 8.250	18.500	4.6818e-03
 8.250	18.750	4.6198e-03
 8.250	19.000	4.4766e-03
 8.250	19.250	4.2367e-03
 8.250	19.500	3.7337e-03
 8.250	19.750	2.9872e-03
 8.250	20.000	4.7119e-04
 8.250	20.250	4.4774e-05
 8.250	20.500	1.0617e-05
 8.250	20.750	1.6461e-06
 8.250	21.000	1.0000e-07
 8.250	21.250	1.0000e-07
 8.250	21.500	1.0000e-07
 8.250	21.750	1.0000e-07
 8.250	22.000	1.0000e-07
 8.250	22.250	1.0000e-07
 8.250	22.500	1.0000e-07
 8.250	22.750	1.0000e-07
 8.250	23.000	1.0000e-07
 8.250	23.250	1.0000e-07
 8.250	23.500	1.0000e-07
 8.250	23.750	1.0000e-07
 8.250	24.000	1.0000e-07
 8.500	17.000	4.1272e-03
 8.500	17.250	4.1977e-03
 8.500	17.500	4.2681e-03
 8.500	17.750	4.3337e-03
 8.500	18.000	4.3958e-03
 8.500	18.250	4.4564e-03
 8.500	18.500	4.5113e-03
 8.500	18.750	4.5214e-03
 8.500	19.000	4.4496e-03
 8.500	19.250	4.3021e-03
 8.500	19.500	4.0654e-03
 8.500	19.750	3.5754e-03
 8.500	20.000	2.8971e-03
 8.500	20.250	4.6395e-04
 8.500	20.500	4.4444e-05
 8.500	20.750	1.0535e-05
 8.500	21.000	1.6461e-06
 8.500	21.250	1.0000e-07
 8.500	21.500	1.0000e-07
 8.500	21.750	1.0000e-07
 8.500	22.000	1.0000e-07
 8.500	22.250	1.0000e-07
 8.500	22.500	1.0000e-07
 8.500	22.750	1.0000e-07
 8.500	23.000	1.0000e-07
 8.500	23.250	1.0000e-07
 8.500	23.500	1.0000e-07
 8.500	23.750	1.0000e-07
 8.500	24.000	1.0000e-07
 8.750	17.000	3.9326e-03
 8.750	17.250	3.9980e-03
 8.750	17.500	4.0626e-03
 8.750	17.750	4.1249e-03
 8.750	18.000	4.1809e-03
 8.750	18.250	4.2299e-03
 8.750	18.500	4.2779e-03
 8.750	18.750	4.3213e-03
 8.750	19.000	4.3198e-03
 8.750	19.250	4.2388e-03
 8.750	19.500	4.0868e-03
 8.750	19.750	3.8514e-03
 8.750	20.000	3.4083e-03
 8.750	20.250	2.7613e-03
 8.750	20.500	4.5309e-04
 8.750	20.750	4.4115e-05
 8.750	21.000	1.0535e-05
 8.750	21.250	1.6461e-06
 8.750	21.500	1.0000e-07
 8.750	21.750	1.0000e-07
 8.750	22.000	1.0000e-07
 8.750	22.250	1.0000e-07
 8.750	22.500	1.0000e-07
 8.750	22.750	1.0000e-07
 8.750	23.000	1.0000e-07
 8.750	23.250	1.0000e-07
 8.750	23.500	1.0000e-07
 8.750	23.750	1.0000e-07
 8.750	24.000	1.0000e-07
 9.000	17.000	3.7483e-03
 9.000	17.250	3.8102e-03
 9.000	17.500	3.8713e-03
 9.000	17.750	3.9285e-03
 9.000	18.000	3.9789e-03
 9.000	18.250	4.0173e-03
 9.000	18.500	4.0462e-03
 9.000	18.750	4.0709e-03
 9.000	19.000	4.0913e-03
 9.000	19.250	4.0714e-03
 9.000	19.500	3.9782e-03
 9.000	19.750	3.8160e-03
 9.000	20.000	3.5786e-03
 9.000	20.250	3.1781e-03
 9.000	20.500	2.5774e-03
 9.000	20.750	4.4354e-04
 9.000	21.000	4.3868e-05
 9.000	21.250	1.0453e-05
 9.000	21.500	1.6461e-06
 9.000	21.750	1.0000e-07
 9.000	22.000	1.0000e-07
 9.000	22.250	1.0000e-07
 9.000	22.500	1.0000e-07
 9.000	22.750	1.0000e-07
 9.000	23.000	1.0000e-07
 9.000	23.250	1.0000e-07
 9.000	23.500	1.0000e-07
 9.000	23.750	1.0000e-07
 9.000	24.000	1.0000e-07
 9.250	17.000	3.5714e-03
 9.250	17.250	3.6399e-03
 9.250	17.500	3.7021e-03
 9.250	17.750	3.7583e-03
 9.250	18.000	3.8044e-03
 9.250	18.250	3.8360e-03
 9.250	18.500	3.8497e-03
 9.250	18.750	3.8471e-03
 9.250	19.000	3.8360e-03
 9.250	19.250	3.8207e-03
 9.250	19.500	3.7742e-03
 9.250	19.750	3.6592e-03
 9.250	20.000	3.4825e-03
 9.250	20.250	3.2464e-03
 9.250	20.500	2.8974e-03
 9.250	20.750	2.3607e-03
 9.250	21.000	4.3309e-04
 9.250	21.250	4.3786e-05
 9.250	21.500	1.0535e-05
 9.250	21.750	1.6461e-06
 9.250	22.000	1.0000e-07
 9.250	22.250	1.0000e-07
 9.250	22.500	1.0000e-07
 9.250	22.750	1.0000e-07
 9.250	23.000	1.0000e-07
 9.250	23.250	1.0000e-07
 9.250	23.500	1.0000e-07
 9.250	23.750	1.0000e-07
 9.250	24.000	1.0000e-07
 9.500	17.000	3.3842e-03
 9.500	17.250	3.4849e-03
 9.500	17.500	3.5578e-03
 9.500	17.750	3.6185e-03
 9.500	18.000	3.6675e-03
 9.500	18.250	3.6970e-03
 9.500	18.500	3.7028e-03
 9.500	18.750	3.6798e-03
 9.500	19.000	3.6332e-03
 9.500	19.250	3.5756e-03
 9.500	19.500	3.5158e-03
 9.500	19.750	3.4293e-03
 9.500	20.000	3.2888e-03
 9.500	20.250	3.1065e-03
 9.500	20.500	2.9026e-03
 9.500	20.750	2.6240e-03
 9.500	21.000	2.1552e-03
 9.500	21.250	4.2560e-04
 9.500	21.500	4.3868e-05
 9.500	21.750	1.0617e-05
 9.500	22.000	1.6461e-06
 9.500	22.250	1.0000e-07
 9.500	22.500	1.0000e-07
 9.500	22.750	1.0000e-07
 9.500	23.000	1.0000e-07
 9.500	23.250	1.0000e-07
 9.500	23.500	1.0000e-07
 9.500	23.750	1.0000e-07
 9.500	24.000	1.0000e-07
 9.750	17.000	3.1421e-03
 9.750	17.250	3.3213e-03
 9.750	17.500	3.4309e-03
 9.750	17.750	3.5075e-03
 9.750	18.000	3.5649e-03
 9.750	18.250	3.6015e-03
 9.750	18.500	3.6057e-03
 9.750	18.750	3.5724e-03
 9.750	19.000	3.5014e-03
 9.750	19.250	3.4024e-03
 9.750	19.500	3.2942e-03
 9.750	19.750	3.1818e-03
 9.750	20.000	3.0555e-03
 9.750	20.250	2.9089e-03
 9.750	20.500	2.7766e-03
 9.750	20.750	2.6565e-03
 9.750	21.000	2.4185e-03
 9.750	21.250	1.9984e-03
 9.750	21.500	4.2107e-04
 9.750	21.750	4.4280e-05
 9.750	22.000	1.0864e-05
 9.750	22.250	1.7284e-06
 9.750	22.500	1.0000e-07
 9.750	22.750	1.0000e-07
 9.750	23.000	1.0000e-07
 9.750	23.250	1.0000e-07
 9.750	23.500	1.0000e-07
 9.750	23.750	1.0000e-07
 9.750	24.000	1.0000e-07
10.000	17.000	2.7970e-03
10.000	17.250	3.1048e-03
10.000	17.500	3.2974e-03
10.000	17.750	3.4149e-03
10.000	18.000	3.4927e-03
10.000	18.250	3.5413e-03
10.000	18.500	3.5524e-03
10.000	18.750	3.5157e-03
10.000	19.000	3.4316e-03
10.000	19.250	3.3043e-03
10.000	19.500	3.1540e-03
10.000	19.750	2.9983e-03
10.000	20.000	2.8458e-03
10.000	20.250	2.7155e-03
10.000	20.500	2.6453e-03
10.000	20.750	2.6259e-03
10.000	21.000	2.5435e-03
10.000	21.250	2.3807e-03
10.000	21.500	1.9774e-03
10.000	21.750	4.1580e-04
10.000	22.000	4.4856e-05
10.000	22.250	1.1193e-05
10.000	22.500	1.7284e-06
10.000	22.750	1.0000e-07
10.000	23.000	1.0000e-07
10.000	23.250	1.0000e-07
10.000	23.500	1.0000e-07
10.000	23.750	1.0000e-07
10.000	24.000	1.0000e-07
10.250	17.000	2.3336e-03
10.250	17.250	2.7711e-03
10.250	17.500	3.1140e-03
10.250	17.750	3.3189e-03
10.250	18.000	3.4403e-03
10.250	18.250	3.5090e-03
10.250	18.500	3.5303e-03
10.250	18.750	3.5008e-03
10.250	19.000	3.4102e-03
10.250	19.250	3.2659e-03
10.250	19.500	3.0853e-03
10.250	19.750	2.8949e-03
10.250	20.000	2.7145e-03
10.250	20.250	2.5768e-03
10.250	20.500	2.5193e-03
10.250	20.750	2.6106e-03
10.250	21.000	2.6528e-03
10.250	21.250	2.7135e-03
10.250	21.500	2.6322e-03
10.250	21.750	2.1406e-03
10.250	22.000	4.1004e-04
10.250	22.250	4.5597e-05
10.250	22.500	1.1687e-05
10.250	22.750	1.8930e-06
10.250	23.000	1.0000e-07
10.250	23.250	1.0000e-07
10.250	23.500	1.0000e-07
10.250	23.750	1.0000e-07
10.250	24.000	1.0000e-07
10.500	17.000	1.8430e-03
10.500	17.250	2.3428e-03
10.500	17.500	2.8166e-03
10.500	17.750	3.1841e-03
10.500	18.000	3.3922e-03
10.500	18.250	3.4949e-03
10.500	18.500	3.5314e-03
10.500	18.750	3.5119e-03
10.500	19.000	3.4271e-03
10.500	19.250	3.2719e-03
10.500	19.500	3.0700e-03
10.500	19.750	2.8572e-03
10.500	20.000	2.6572e-03
10.500	20.250	2.5202e-03
10.500	20.500	2.4717e-03
10.500	20.750	2.5974e-03
10.500	21.000	2.7795e-03
10.500	21.250	3.0114e-03
10.500	21.500	3.2077e-03
10.500	21.750	3.1155e-03
10.500	22.000	2.3885e-03
10.500	22.250	4.0280e-04
10.500	22.500	4.6255e-05
10.500	22.750	1.2181e-05
10.500	23.000	1.9753e-06
10.500	23.250	1.0000e-07
10.500	23.500	1.0000e-07
10.500	23.750	1.0000e-07
10.500	24.000	1.0000e-07
10.750	17.000	1.3924e-03
10.750	17.250	1.8477e-03
10.750	17.500	2.4132e-03
10.750	17.750	2.9473e-03
10.750	18.000	3.3077e-03
10.750	18.250	3.4877e-03
10.750	18.500	3.5512e-03
10.750	18.750	3.5458e-03
10.750	19.000	3.4713e-03
10.750	19.250	3.3166e-03
10.750	19.500	3.0955e-03
10.750	19.750	2.8625e-03
10.750	20.000	2.6519e-03
10.750	20.250	2.5170e-03
10.750	20.500	2.5333e-03
10.750	20.750	2.6953e-03
10.750	21.000	2.8791e-03
10.750	21.250	3.2553e-03
10.750	21.500	3.6012e-03
10.750	21.750	3.8004e-03
10.750	22.000	3.6063e-03
10.750	22.250	2.5435e-03
10.750	22.500	4.2535e-04
10.750	22.750	4.6749e-05
10.750	23.000	1.2593e-05
10.750	23.250	2.0576e-06
10.750	23.500	1.0000e-07
10.750	23.750	1.0000e-07
10.750	24.000	1.0000e-07
11.000	17.000	1.0218e-03
11.000	17.250	1.3714e-03
11.000	17.500	1.8983e-03
11.000	17.750	2.5716e-03
11.000	18.000	3.1194e-03
11.000	18.250	3.4381e-03
11.000	18.500	3.5777e-03
11.000	18.750	3.6010e-03
11.000	19.000	3.5385e-03
11.000	19.250	3.3885e-03
11.000	19.500	3.1586e-03
11.000	19.750	2.8984e-03
11.000	20.000	2.6765e-03
11.000	20.250	2.5463e-03
11.000	20.500	2.5824e-03
11.000	20.750	2.7577e-03
11.000	21.000	2.9156e-03
11.000	21.250	3.4009e-03
11.000	21.500	3.8091e-03
11.000	21.750	4.0826e-03
11.000	22.000	4.1767e-03
11.000	22.250	3.8743e-03
11.000	22.500	2.3185e-03
11.000	22.750	4.3103e-04
11.000	23.000	4.6914e-05
11.000	23.250	1.2757e-05
11.000	23.500	2.1399e-06
11.000	23.750	1.0000e-07
11.000	24.000	1.0000e-07
11.250	17.000	7.3309e-04
11.250	17.250	9.7539e-04
11.250	17.500	1.3714e-03
11.250	17.750	2.0218e-03
11.250	18.000	2.7557e-03
11.250	18.250	3.2900e-03
11.250	18.500	3.5724e-03
11.250	18.750	3.6695e-03
11.250	19.000	3.6313e-03
11.250	19.250	3.4877e-03
11.250	19.500	3.2512e-03
11.250	19.750	2.9680e-03
11.250	20.000	2.7228e-03
11.250	20.250	2.5914e-03
11.250	20.500	2.5816e-03
11.250	20.750	2.8384e-03
11.250	21.000	2.9362e-03
11.250	21.250	3.4839e-03
11.250	21.500	3.8452e-03
11.250	21.750	4.0429e-03
11.250	22.000	4.1714e-03
11.250	22.250	4.1584e-03
11.250	22.500	3.7671e-03
11.250	22.750	2.0633e-03
11.250	23.000	4.8741e-04
11.250	23.250	4.6667e-05
11.250	23.500	1.2757e-05
11.250	23.750	2.1399e-06
11.250	24.000	1.0000e-07
11.500	17.000	5.1440e-04
11.500	17.250	6.7597e-04
11.500	17.500	9.3572e-04
11.500	17.750	1.4226e-03
11.500	18.000	2.1853e-03
11.500	18.250	2.9699e-03
11.500	18.500	3.4879e-03
11.500	18.750	3.7254e-03
11.500	19.000	3.7479e-03
11.500	19.250	3.6211e-03
11.500	19.500	3.3801e-03
11.500	19.750	3.0757e-03
11.500	20.000	2.7991e-03
11.500	20.250	2.6466e-03
11.500	20.500	2.7357e-03
11.500	20.750	2.8342e-03
11.500	21.000	3.1010e-03
11.500	21.250	3.4649e-03
11.500	21.500	3.6940e-03
11.500	21.750	3.8151e-03
11.500	22.000	3.8133e-03
11.500	22.250	3.8336e-03
11.500	22.500	3.7645e-03
11.500	22.750	3.2757e-03
11.500	23.000	1.6405e-03
11.500	23.250	5.2107e-04
11.500	23.500	4.6173e-05
11.500	23.750	1.2428e-05
11.500	24.000	2.0576e-06
11.750	17.000	3.3588e-04
11.750	17.250	4.6140e-04
11.750	17.500	6.2305e-04
11.750	17.750	9.3547e-04
11.750	18.000	1.5328e-03
11.750	18.250	2.4295e-03
11.750	18.500	3.2805e-03
11.750	18.750	3.7419e-03
11.750	19.000	3.8916e-03
11.750	19.250	3.8060e-03
11.750	19.500	3.5655e-03
11.750	19.750	3.2348e-03
11.750	20.000	2.9174e-03
11.750	20.250	2.7261e-03
11.750	20.500	2.8200e-03
11.750	20.750	2.7869e-03
11.750	21.000	3.1996e-03
11.750	21.250	3.4449e-03
11.750	21.500	3.5002e-03
11.750	21.750	3.4681e-03
11.750	22.000	3.3586e-03
11.750	22.250	3.2412e-03
11.750	22.500	3.2156e-03
11.750	22.750	3.1262e-03
11.750	23.000	2.6151e-03
11.750	23.250	1.3318e-03
11.750	23.500	4.9753e-04
11.750	23.750	4.5679e-05
11.750	24.000	1.1934e-05
12.000	17.000	2.0272e-04
12.000	17.250	2.9844e-04
12.000	17.500	4.1391e-04
12.000	17.750	6.0305e-04
12.000	18.000	9.9679e-04
12.000	18.250	1.7628e-03
12.000	18.500	2.8189e-03
12.000	18.750	3.6789e-03
12.000	19.000	4.0547e-03
12.000	19.250	4.0727e-03
12.000	19.500	3.8429e-03
12.000	19.750	3.4792e-03
12.000	20.000	3.1077e-03
12.000	20.250	2.8595e-03
12.000	20.500	2.8940e-03
12.000	20.750	2.9328e-03
12.000	21.000	3.2949e-03
12.000	21.250	3.5131e-03
12.000	21.500	3.3198e-03
12.000	21.750	3.1142e-03
12.000	22.000	2.8994e-03
12.000	22.250	2.7321e-03
12.000	22.500	2.5923e-03
12.000	22.750	2.6106e-03
12.000	23.000	2.3987e-03
12.000	23.250	1.9165e-03
12.000	23.500	1.0390e-03
12.000	23.750	4.4527e-04
12.000	24.000	4.5679e-05
12.250	17.000	1.2436e-04
12.250	17.250	1.8000e-04
12.250	17.500	2.6543e-04
12.250	17.750	3.9292e-04
12.250	18.000	6.3481e-04
12.250	18.250	1.1752e-03
12.250	18.500	2.1913e-03
12.250	18.750	3.3881e-03
12.250	19.000	4.1364e-03
12.250	19.250	4.3923e-03
12.250	19.500	4.2630e-03
12.250	19.750	3.8682e-03
12.250	20.000	3.3921e-03
12.250	20.250	3.0820e-03
12.250	20.500	3.0309e-03
12.250	20.750	3.1411e-03
12.250	21.000	3.3053e-03
12.250	21.250	3.4704e-03
12.250	21.500	3.2242e-03
12.250	21.750	2.8749e-03
12.250	22.000	2.5295e-03
12.250	22.250	2.2890e-03
12.250	22.500	2.1464e-03
12.250	22.750	2.0867e-03
12.250	23.000	1.9672e-03
12.250	23.250	1.7269e-03
12.250	23.500	1.3198e-03
12.250	23.750	8.1160e-04
12.250	24.000	3.7267e-04
12.500	17.000	8.0247e-05
12.500	17.250	1.1103e-04
12.500	17.500	1.6230e-04
12.500	17.750	2.4872e-04
12.500	18.000	4.0963e-04
12.500	18.250	7.5210e-04
12.500	18.500	1.5389e-03
12.500	18.750	2.8338e-03
12.500	19.000	4.0844e-03
12.500	19.250	4.7059e-03
12.500	19.500	4.7700e-03
12.500	19.750	4.4507e-03
12.500	20.000	3.9229e-03
12.500	20.250	3.3984e-03
12.500	20.500	3.2632e-03
12.500	20.750	3.4234e-03
12.500	21.000	3.5927e-03
12.500	21.250	3.4909e-03
12.500	21.500	3.1862e-03
12.500	21.750	2.7286e-03
12.500	22.000	2.2986e-03
12.500	22.250	1.9744e-03
12.500	22.500	1.8440e-03
12.500	22.750	1.7317e-03
12.500	23.000	1.6336e-03
12.500	23.250	1.4081e-03
12.500	23.500	1.2007e-03
12.500	23.750	8.5325e-04
12.500	24.000	5.6165e-04
12.750	17.000	5.3992e-05
12.750	17.250	7.2840e-05
12.750	17.500	1.0206e-04
12.750	17.750	1.5235e-04
12.750	18.000	2.5366e-04
12.750	18.250	4.6667e-04
12.750	18.500	9.8280e-04
12.750	18.750	2.0577e-03
12.750	19.000	3.5621e-03
12.750	19.250	4.7993e-03
12.750	19.500	5.2762e-03
12.750	19.750	5.1343e-03
12.750	20.000	4.6642e-03
12.750	20.250	4.0917e-03
12.750	20.500	3.6822e-03
12.750	20.750	3.6109e-03
12.750	21.000	3.9846e-03
12.750	21.250	3.6824e-03
12.750	21.500	3.2438e-03
12.750	21.750	2.7247e-03
12.750	22.000	2.2202e-03
12.750	22.250	1.8300e-03
12.750	22.500	1.6096e-03
12.750	22.750	1.4705e-03
12.750	23.000	1.3358e-03
12.750	23.250	1.1967e-03
12.750	23.500	1.0007e-03
12.750	23.750	8.2905e-04
12.750	24.000	5.8494e-04
13.000	17.000	3.5885e-05
13.000	17.250	4.8230e-05
13.000	17.500	6.5021e-05
13.000	17.750	9.6872e-05
13.000	18.000	1.5416e-04
13.000	18.250	2.7679e-04
13.000	18.500	5.8708e-04
13.000	18.750	1.2993e-03
13.000	19.000	2.5687e-03
13.000	19.250	4.1587e-03
13.000	19.500	5.3103e-03
13.000	19.750	5.6943e-03
13.000	20.000	5.4549e-03
13.000	20.250	5.0406e-03
13.000	20.500	4.6569e-03
13.000	20.750	4.4011e-03
13.000	21.000	4.2818e-03
13.000	21.250	4.0411e-03
13.000	21.500	3.4998e-03
13.000	21.750	2.9362e-03
13.000	22.000	2.2735e-03
13.000	22.250	1.8499e-03
13.000	22.500	1.5240e-03
13.000	22.750	1.3087e-03
13.000	23.000	1.1626e-03
13.000	23.250	1.0436e-03
13.000	23.500	8.9226e-04
13.000	23.750	7.1671e-04
13.000	24.000	5.7967e-04
13.250	17.000	2.5021e-05
13.250	17.250	3.3580e-05
13.250	17.500	4.5103e-05
13.250	17.750	6.3621e-05
13.250	18.000	9.9259e-05
13.250	18.250	1.7193e-04
13.250	18.500	3.3778e-04
13.250	18.750	7.2453e-04
13.250	19.000	1.4867e-03
13.250	19.250	2.6673e-03
13.250	19.500	4.0323e-03
13.250	19.750	5.2391e-03
13.250	20.000	5.6860e-03
13.250	20.250	5.5292e-03
13.250	20.500	5.3481e-03
13.250	20.750	5.3791e-03
13.250	21.000	5.1588e-03
13.250	21.250	4.7593e-03
13.250	21.500	4.0317e-03
13.250	21.750	3.2231e-03
13.250	22.000	2.5448e-03
13.250	22.250	1.9596e-03
13.250	22.500	1.5054e-03
13.250	22.750	1.2815e-03
13.250	23.000	1.0818e-03
13.250	23.250	9.7078e-04
13.250	23.500	8.1218e-04
13.250	23.750	6.9309e-04
13.250	24.000	5.4107e-04
13.500	17.000	1.7284e-05
13.500	17.250	2.3868e-05
13.500	17.500	3.2346e-05
13.500	17.750	4.5185e-05
13.500	18.000	6.7984e-05
13.500	18.250	1.1193e-04
13.500	18.500	1.9811e-04
13.500	18.750	3.8041e-04
13.500	19.000	7.4444e-04
13.500	19.250	1.3440e-03
13.500	19.500	2.2108e-03
13.500	19.750	3.3041e-03
13.500	20.000	3.9853e-03
13.500	20.250	4.9867e-03
13.500	20.500	4.8855e-03
13.500	20.750	5.2573e-03
13.500	21.000	5.2153e-03
13.500	21.250	5.1617e-03
13.500	21.500	4.3327e-03
13.500	21.750	3.6005e-03
13.500	22.000	2.8273e-03
13.500	22.250	2.2144e-03
13.500	22.500	1.6658e-03
13.500	22.750	1.2742e-03
13.500	23.000	1.0864e-03
13.500	23.250	9.3671e-04
13.500	23.500	7.8741e-04
13.500	23.750	7.0214e-04
13.500	24.000	5.6115e-04
13.750	17.000	1.1770e-05
13.750	17.250	1.6872e-05
13.750	17.500	2.3210e-05
13.750	17.750	3.2510e-05
13.750	18.000	4.7490e-05
13.750	18.250	7.4156e-05
13.750	18.500	1.2140e-04
13.750	18.750	2.0412e-04
13.750	19.000	3.4774e-04
13.750	19.250	5.7844e-04
13.750	19.500	9.1119e-04
13.750	19.750	1.3474e-03
13.750	20.000	1.9085e-03
13.750	20.250	2.2443e-03
13.750	20.500	2.8453e-03
13.750	20.750	3.2201e-03
13.750	21.000	3.5235e-03
13.750	21.250	3.4817e-03
13.750	21.500	3.7540e-03
13.750	21.750	3.3752e-03
13.750	22.000	2.8684e-03
13.750	22.250	2.4358e-03
13.750	22.500	2.0073e-03
13.750	22.750	1.4647e-03
13.750	23.000	1.1007e-03
13.750	23.250	9.4494e-04
13.750	23.500	8.0288e-04
13.750	23.750	7.4165e-04
13.750	24.000	6.5095e-04
14.000	17.000	7.9012e-06
14.000	17.250	1.1770e-05
14.000	17.500	1.6626e-05
14.000	17.750	2.3210e-05
14.000	18.000	3.3333e-05
14.000	18.250	4.9218e-05
14.000	18.500	7.4074e-05
14.000	18.750	1.1152e-04
14.000	19.000	1.6617e-04
14.000	19.250	2.4782e-04
14.000	19.500	3.4840e-04
14.000	19.750	4.8288e-04
14.000	20.000	6.4477e-04
14.000	20.250	8.3490e-04
14.000	20.500	1.0488e-03
14.000	20.750	1.1811e-03
14.000	21.000	1.4202e-03
14.000	21.250	1.7519e-03
14.000	21.500	1.7481e-03
14.000	21.750	2.0432e-03
14.000	22.000	2.2393e-03
14.000	22.250	2.4897e-03
14.000	22.500	2.3491e-03
14.000	22.750	1.9182e-03
14.000	23.000	1.4755e-03
14.000	23.250	1.0831e-03
14.000	23.500	9.4288e-04
14.000	23.750	8.1918e-04
14.000	24.000	7.7333e-04
