InwT 1.64313m  relative to Inci 1215.00A scaled to 1215A.
Hden   Phi(H)  Eq_Width (A)
 7.000	17.000	2.8853e-02
 7.000	17.250	3.0791e-02
 7.000	17.500	3.2800e-02
 7.000	17.750	3.4560e-02
 7.000	18.000	3.4596e-02
 7.000	18.250	3.1812e-02
 7.000	18.500	2.6663e-02
 7.000	18.750	2.2915e-02
 7.000	19.000	2.1033e-02
 7.000	19.250	2.0342e-02
 7.000	19.500	1.9989e-02
 7.000	19.750	1.9843e-02
 7.000	20.000	1.9795e-02
 7.000	20.250	1.9775e-02
 7.000	20.500	1.9765e-02
 7.000	20.750	1.9760e-02
 7.000	21.000	1.9758e-02
 7.000	21.250	1.9756e-02
 7.000	21.500	1.9756e-02
 7.000	21.750	1.9755e-02
 7.000	22.000	1.9755e-02
 7.000	22.250	1.9755e-02
 7.000	22.500	1.9755e-02
 7.000	22.750	1.9755e-02
 7.000	23.000	1.9755e-02
 7.000	23.250	1.9755e-02
 7.000	23.500	1.9755e-02
 7.000	23.750	1.9755e-02
 7.000	24.000	1.9755e-02
 7.250	17.000	2.7854e-02
 7.250	17.250	3.0084e-02
 7.250	17.500	3.2358e-02
 7.250	17.750	3.4551e-02
 7.250	18.000	3.6169e-02
 7.250	18.250	3.5472e-02
 7.250	18.500	3.1941e-02
 7.250	18.750	2.6659e-02
 7.250	19.000	2.2913e-02
 7.250	19.250	2.1034e-02
 7.250	19.500	2.0341e-02
 7.250	19.750	1.9988e-02
 7.250	20.000	1.9843e-02
 7.250	20.250	1.9795e-02
 7.250	20.500	1.9775e-02
 7.250	20.750	1.9765e-02
 7.250	21.000	1.9761e-02
 7.250	21.250	1.9758e-02
 7.250	21.500	1.9757e-02
 7.250	21.750	1.9756e-02
 7.250	22.000	1.9755e-02
 7.250	22.250	1.9755e-02
 7.250	22.500	1.9755e-02
 7.250	22.750	1.9755e-02
 7.250	23.000	1.9755e-02
 7.250	23.250	1.9755e-02
 7.250	23.500	1.9755e-02
 7.250	23.750	1.9755e-02
 7.250	24.000	1.9755e-02
 7.500	17.000	2.6804e-02
 7.500	17.250	2.9134e-02
 7.500	17.500	3.2014e-02
 7.500	17.750	3.4940e-02
 7.500	18.000	3.7323e-02
 7.500	18.250	3.8625e-02
 7.500	18.500	3.6461e-02
 7.500	18.750	3.2067e-02
 7.500	19.000	2.6655e-02
 7.500	19.250	2.2910e-02
 7.500	19.500	2.1033e-02
 7.500	19.750	2.0341e-02
 7.500	20.000	1.9989e-02
 7.500	20.250	1.9843e-02
 7.500	20.500	1.9796e-02
 7.500	20.750	1.9775e-02
 7.500	21.000	1.9765e-02
 7.500	21.250	1.9760e-02
 7.500	21.500	1.9758e-02
 7.500	21.750	1.9756e-02
 7.500	22.000	1.9756e-02
 7.500	22.250	1.9755e-02
 7.500	22.500	1.9755e-02
 7.500	22.750	1.9755e-02
 7.500	23.000	1.9755e-02
 7.500	23.250	1.9755e-02
 7.500	23.500	1.9755e-02
 7.500	23.750	1.9755e-02
 7.500	24.000	1.9755e-02
 7.750	17.000	2.5969e-02
 7.750	17.250	2.8041e-02
 7.750	17.500	3.1277e-02
 7.750	17.750	3.5388e-02
 7.750	18.000	3.9314e-02
 7.750	18.250	4.1846e-02
 7.750	18.500	4.1877e-02
 7.750	18.750	3.7657e-02
 7.750	19.000	3.2200e-02
 7.750	19.250	2.6650e-02
 7.750	19.500	2.2908e-02
 7.750	19.750	2.1033e-02
 7.750	20.000	2.0342e-02
 7.750	20.250	1.9989e-02
 7.750	20.500	1.9843e-02
 7.750	20.750	1.9795e-02
 7.750	21.000	1.9775e-02
 7.750	21.250	1.9765e-02
 7.750	21.500	1.9760e-02
 7.750	21.750	1.9758e-02
 7.750	22.000	1.9757e-02
 7.750	22.250	1.9756e-02
 7.750	22.500	1.9755e-02
 7.750	22.750	1.9755e-02
 7.750	23.000	1.9755e-02
 7.750	23.250	1.9755e-02
 7.750	23.500	1.9755e-02
 7.750	23.750	1.9755e-02
 7.750	24.000	1.9755e-02
 8.000	17.000	2.5386e-02
 8.000	17.250	2.6937e-02
 8.000	17.500	2.9947e-02
 8.000	17.750	3.5022e-02
 8.000	18.000	4.1428e-02
 8.000	18.250	4.6554e-02
 8.000	18.500	4.8047e-02
 8.000	18.750	4.5743e-02
 8.000	19.000	3.8735e-02
 8.000	19.250	3.2276e-02
 8.000	19.500	2.6643e-02
 8.000	19.750	2.2903e-02
 8.000	20.000	2.1033e-02
 8.000	20.250	2.0341e-02
 8.000	20.500	1.9988e-02
 8.000	20.750	1.9843e-02
 8.000	21.000	1.9795e-02
 8.000	21.250	1.9775e-02
 8.000	21.500	1.9766e-02
 8.000	21.750	1.9760e-02
 8.000	22.000	1.9758e-02
 8.000	22.250	1.9757e-02
 8.000	22.500	1.9756e-02
 8.000	22.750	1.9755e-02
 8.000	23.000	1.9755e-02
 8.000	23.250	1.9755e-02
 8.000	23.500	1.9755e-02
 8.000	23.750	1.9755e-02
 8.000	24.000	1.9755e-02
 8.250	17.000	2.5454e-02
 8.250	17.250	2.6528e-02
 8.250	17.500	2.8997e-02
 8.250	17.750	3.4052e-02
 8.250	18.000	4.2896e-02
 8.250	18.250	5.2477e-02
 8.250	18.500	5.7529e-02
 8.250	18.750	5.5667e-02
 8.250	19.000	5.0116e-02
 8.250	19.250	3.9582e-02
 8.250	19.500	3.2433e-02
 8.250	19.750	2.6639e-02
 8.250	20.000	2.2899e-02
 8.250	20.250	2.1033e-02
 8.250	20.500	2.0341e-02
 8.250	20.750	1.9988e-02
 8.250	21.000	1.9843e-02
 8.250	21.250	1.9795e-02
 8.250	21.500	1.9775e-02
 8.250	21.750	1.9765e-02
 8.250	22.000	1.9761e-02
 8.250	22.250	1.9758e-02
 8.250	22.500	1.9757e-02
 8.250	22.750	1.9756e-02
 8.250	23.000	1.9755e-02
 8.250	23.250	1.9755e-02
 8.250	23.500	1.9755e-02
 8.250	23.750	1.9755e-02
 8.250	24.000	1.9755e-02
 8.500	17.000	2.5782e-02
 8.500	17.250	2.6621e-02
 8.500	17.500	2.8587e-02
 8.500	17.750	3.3099e-02
 8.500	18.000	4.2779e-02
 8.500	18.250	5.7097e-02
 8.500	18.500	6.8420e-02
 8.500	18.750	7.0006e-02
 8.500	19.000	6.2857e-02
 8.500	19.250	5.2096e-02
 8.500	19.500	4.0413e-02
 8.500	19.750	3.2468e-02
 8.500	20.000	2.6636e-02
 8.500	20.250	2.2892e-02
 8.500	20.500	2.1033e-02
 8.500	20.750	2.0341e-02
 8.500	21.000	1.9988e-02
 8.500	21.250	1.9843e-02
 8.500	21.500	1.9795e-02
 8.500	21.750	1.9775e-02
 8.500	22.000	1.9765e-02
 8.500	22.250	1.9760e-02
 8.500	22.500	1.9758e-02
 8.500	22.750	1.9756e-02
 8.500	23.000	1.9756e-02
 8.500	23.250	1.9755e-02
 8.500	23.500	1.9755e-02
 8.500	23.750	1.9755e-02
 8.500	24.000	1.9755e-02
 8.750	17.000	2.6194e-02
 8.750	17.250	2.7014e-02
 8.750	17.500	2.8768e-02
 8.750	17.750	3.2798e-02
 8.750	18.000	4.2279e-02
 8.750	18.250	5.9174e-02
 8.750	18.500	7.7014e-02
 8.750	18.750	8.5554e-02
 8.750	19.000	8.0975e-02
 8.750	19.250	7.0901e-02
 8.750	19.500	5.4687e-02
 8.750	19.750	4.1181e-02
 8.750	20.000	3.2440e-02
 8.750	20.250	2.6635e-02
 8.750	20.500	2.2886e-02
 8.750	20.750	2.1033e-02
 8.750	21.000	2.0341e-02
 8.750	21.250	1.9987e-02
 8.750	21.500	1.9843e-02
 8.750	21.750	1.9795e-02
 8.750	22.000	1.9775e-02
 8.750	22.250	1.9765e-02
 8.750	22.500	1.9760e-02
 8.750	22.750	1.9758e-02
 8.750	23.000	1.9756e-02
 8.750	23.250	1.9756e-02
 8.750	23.500	1.9755e-02
 8.750	23.750	1.9755e-02
 8.750	24.000	1.9755e-02
 9.000	17.000	2.6587e-02
 9.000	17.250	2.7520e-02
 9.000	17.500	2.9322e-02
 9.000	17.750	3.3269e-02
 9.000	18.000	4.2555e-02
 9.000	18.250	6.0227e-02
 9.000	18.500	8.2198e-02
 9.000	18.750	9.8666e-02
 9.000	19.000	1.0160e-01
 9.000	19.250	9.2101e-02
 9.000	19.500	7.7388e-02
 9.000	19.750	5.6119e-02
 9.000	20.000	4.1816e-02
 9.000	20.250	3.2395e-02
 9.000	20.500	2.6635e-02
 9.000	20.750	2.2877e-02
 9.000	21.000	2.1032e-02
 9.000	21.250	2.0341e-02
 9.000	21.500	1.9989e-02
 9.000	21.750	1.9843e-02
 9.000	22.000	1.9795e-02
 9.000	22.250	1.9775e-02
 9.000	22.500	1.9765e-02
 9.000	22.750	1.9760e-02
 9.000	23.000	1.9758e-02
 9.000	23.250	1.9756e-02
 9.000	23.500	1.9756e-02
 9.000	23.750	1.9755e-02
 9.000	24.000	1.9755e-02
 9.250	17.000	2.6956e-02
 9.250	17.250	2.8057e-02
 9.250	17.500	3.0085e-02
 9.250	17.750	3.4364e-02
 9.250	18.000	4.4228e-02
 9.250	18.250	6.2815e-02
 9.250	18.500	8.6248e-02
 9.250	18.750	1.0549e-01
 9.250	19.000	1.1721e-01
 9.250	19.250	1.1655e-01
 9.250	19.500	1.0209e-01
 9.250	19.750	8.1959e-02
 9.250	20.000	5.7613e-02
 9.250	20.250	4.2263e-02
 9.250	20.500	3.2331e-02
 9.250	20.750	2.6642e-02
 9.250	21.000	2.2869e-02
 9.250	21.250	2.1032e-02
 9.250	21.500	2.0341e-02
 9.250	21.750	1.9986e-02
 9.250	22.000	1.9834e-02
 9.250	22.250	1.9794e-02
 9.250	22.500	1.9775e-02
 9.250	22.750	1.9765e-02
 9.250	23.000	1.9760e-02
 9.250	23.250	1.9758e-02
 9.250	23.500	1.9756e-02
 9.250	23.750	1.9756e-02
 9.250	24.000	1.9755e-02
 9.500	17.000	2.7367e-02
 9.500	17.250	2.8649e-02
 9.500	17.500	3.1007e-02
 9.500	17.750	3.5936e-02
 9.500	18.000	4.6884e-02
 9.500	18.250	6.7185e-02
 9.500	18.500	9.1231e-02
 9.500	18.750	1.1124e-01
 9.500	19.000	1.2567e-01
 9.500	19.250	1.3161e-01
 9.500	19.500	1.2640e-01
 9.500	19.750	1.1250e-01
 9.500	20.000	8.4456e-02
 9.500	20.250	5.8476e-02
 9.500	20.500	4.2311e-02
 9.500	20.750	3.2276e-02
 9.500	21.000	2.6658e-02
 9.500	21.250	2.2859e-02
 9.500	21.500	2.1026e-02
 9.500	21.750	2.0329e-02
 9.500	22.000	1.9965e-02
 9.500	22.250	1.9790e-02
 9.500	22.500	1.9713e-02
 9.500	22.750	1.9687e-02
 9.500	23.000	1.9673e-02
 9.500	23.250	1.9666e-02
 9.500	23.500	1.9699e-02
 9.500	23.750	1.9697e-02
 9.500	24.000	1.9696e-02
 9.750	17.000	2.7834e-02
 9.750	17.250	2.9290e-02
 9.750	17.500	3.2009e-02
 9.750	17.750	3.7801e-02
 9.750	18.000	5.0858e-02
 9.750	18.250	7.3092e-02
 9.750	18.500	9.6996e-02
 9.750	18.750	1.1632e-01
 9.750	19.000	1.3062e-01
 9.750	19.250	1.4065e-01
 9.750	19.500	1.4423e-01
 9.750	19.750	1.3753e-01
 9.750	20.000	1.1985e-01
 9.750	20.250	8.6166e-02
 9.750	20.500	5.9180e-02
 9.750	20.750	4.2067e-02
 9.750	21.000	3.2222e-02
 9.750	21.250	2.6685e-02
 9.750	21.500	2.2851e-02
 9.750	21.750	2.1028e-02
 9.750	22.000	2.0329e-02
 9.750	22.250	1.9964e-02
 9.750	22.500	1.9795e-02
 9.750	22.750	1.9721e-02
 9.750	23.000	1.9697e-02
 9.750	23.250	1.9684e-02
 9.750	23.500	1.9678e-02
 9.750	23.750	1.9674e-02
 9.750	24.000	1.9672e-02
10.000	17.000	2.8500e-02
10.000	17.250	3.0081e-02
10.000	17.500	3.3213e-02
10.000	17.750	4.0065e-02
10.000	18.000	5.4929e-02
10.000	18.250	7.8620e-02
10.000	18.500	1.0294e-01
10.000	18.750	1.2136e-01
10.000	19.000	1.3442e-01
10.000	19.250	1.4569e-01
10.000	19.500	1.5577e-01
10.000	19.750	1.6195e-01
10.000	20.000	1.5511e-01
10.000	20.250	1.2857e-01
10.000	20.500	8.8611e-02
10.000	20.750	5.9591e-02
10.000	21.000	4.1861e-02
10.000	21.250	3.2197e-02
10.000	21.500	2.6730e-02
10.000	21.750	2.2840e-02
10.000	22.000	2.1027e-02
10.000	22.250	2.0333e-02
10.000	22.500	1.9966e-02
10.000	22.750	1.9794e-02
10.000	23.000	1.9725e-02
10.000	23.250	1.9703e-02
10.000	23.500	1.9691e-02
10.000	23.750	1.9686e-02
10.000	24.000	1.9683e-02
10.250	17.000	2.9530e-02
10.250	17.250	3.1114e-02
10.250	17.500	3.4788e-02
10.250	17.750	4.2971e-02
10.250	18.000	5.9615e-02
10.250	18.250	8.4215e-02
10.250	18.500	1.0754e-01
10.250	18.750	1.2533e-01
10.250	19.000	1.3733e-01
10.250	19.250	1.4807e-01
10.250	19.500	1.5863e-01
10.250	19.750	1.6767e-01
10.250	20.000	1.7012e-01
10.250	20.250	1.6088e-01
10.250	20.500	1.3006e-01
10.250	20.750	8.9733e-02
10.250	21.000	5.9280e-02
10.250	21.250	4.1568e-02
10.250	21.500	3.2297e-02
10.250	21.750	2.6735e-02
10.250	22.000	2.2825e-02
10.250	22.250	2.1025e-02
10.250	22.500	2.0336e-02
10.250	22.750	1.9968e-02
10.250	23.000	1.9795e-02
10.250	23.250	1.9727e-02
10.250	23.500	1.9707e-02
10.250	23.750	1.9696e-02
10.250	24.000	1.9691e-02
10.500	17.000	3.1357e-02
10.500	17.250	3.2843e-02
10.500	17.500	3.7028e-02
10.500	17.750	4.6614e-02
10.500	18.000	6.4691e-02
10.500	18.250	8.9526e-02
10.500	18.500	1.1128e-01
10.500	18.750	1.2815e-01
10.500	19.000	1.4017e-01
10.500	19.250	1.4917e-01
10.500	19.500	1.5908e-01
10.500	19.750	1.6849e-01
10.500	20.000	1.7582e-01
10.500	20.250	1.7593e-01
10.500	20.500	1.6433e-01
10.500	20.750	1.3067e-01
10.500	21.000	8.9786e-02
10.500	21.250	5.8282e-02
10.500	21.500	4.1541e-02
10.500	21.750	3.2402e-02
10.500	22.000	2.6671e-02
10.500	22.250	2.2805e-02
10.500	22.500	2.1021e-02
10.500	22.750	2.0337e-02
10.500	23.000	1.9980e-02
10.500	23.250	1.9805e-02
10.500	23.500	1.9733e-02
10.500	23.750	1.9708e-02
10.500	24.000	1.9699e-02
10.750	17.000	3.4134e-02
10.750	17.250	3.5491e-02
10.750	17.500	4.0307e-02
10.750	17.750	5.1055e-02
10.750	18.000	6.9410e-02
10.750	18.250	9.3779e-02
10.750	18.500	1.1385e-01
10.750	18.750	1.2964e-01
10.750	19.000	1.4143e-01
10.750	19.250	1.5153e-01
10.750	19.500	1.6039e-01
10.750	19.750	1.6880e-01
10.750	20.000	1.7697e-01
10.750	20.250	1.8236e-01
10.750	20.500	1.8005e-01
10.750	20.750	1.6588e-01
10.750	21.000	1.3015e-01
10.750	21.250	8.8553e-02
10.750	21.500	5.7977e-02
10.750	21.750	4.1348e-02
10.750	22.000	3.2503e-02
10.750	22.250	2.6524e-02
10.750	22.500	2.2775e-02
10.750	22.750	2.1014e-02
10.750	23.000	2.0335e-02
10.750	23.250	1.9984e-02
10.750	23.500	1.9829e-02
10.750	23.750	1.9757e-02
10.750	24.000	1.9720e-02
11.000	17.000	3.7926e-02
11.000	17.250	3.9215e-02
11.000	17.500	4.4575e-02
11.000	17.750	5.6211e-02
11.000	18.000	7.4741e-02
11.000	18.250	9.8030e-02
11.000	18.500	1.1681e-01
11.000	18.750	1.3227e-01
11.000	19.000	1.4389e-01
11.000	19.250	1.5358e-01
11.000	19.500	1.6195e-01
11.000	19.750	1.6960e-01
11.000	20.000	1.7684e-01
11.000	20.250	1.8375e-01
11.000	20.500	1.8686e-01
11.000	20.750	1.8140e-01
11.000	21.000	1.6417e-01
11.000	21.250	1.2735e-01
11.000	21.500	8.8519e-02
11.000	21.750	5.6728e-02
11.000	22.000	4.0996e-02
11.000	22.250	3.2466e-02
11.000	22.500	2.6297e-02
11.000	22.750	2.2734e-02
11.000	23.000	2.1003e-02
11.000	23.250	2.0332e-02
11.000	23.500	1.9983e-02
11.000	23.750	1.9838e-02
11.000	24.000	1.9783e-02
11.250	17.000	4.2708e-02
11.250	17.250	4.3987e-02
11.250	17.500	4.9712e-02
11.250	17.750	6.1780e-02
11.250	18.000	8.0514e-02
11.250	18.250	1.0182e-01
11.250	18.500	1.1894e-01
11.250	18.750	1.3319e-01
11.250	19.000	1.4489e-01
11.250	19.250	1.5450e-01
11.250	19.500	1.6333e-01
11.250	19.750	1.7060e-01
11.250	20.000	1.7719e-01
11.250	20.250	1.8355e-01
11.250	20.500	1.8827e-01
11.250	20.750	1.8806e-01
11.250	21.000	1.7831e-01
11.250	21.250	1.5783e-01
11.250	21.500	1.2654e-01
11.250	21.750	8.4570e-02
11.250	22.000	5.5380e-02
11.250	22.250	4.0369e-02
11.250	22.500	3.2104e-02
11.250	22.750	2.6015e-02
11.250	23.000	2.2671e-02
11.250	23.250	2.0986e-02
11.250	23.500	2.0326e-02
11.250	23.750	1.9982e-02
11.250	24.000	1.9840e-02
11.500	17.000	4.7147e-02
11.500	17.250	4.9875e-02
11.500	17.500	5.5713e-02
11.500	17.750	6.7665e-02
11.500	18.000	8.6224e-02
11.500	18.250	1.0595e-01
11.500	18.500	1.2143e-01
11.500	18.750	1.3385e-01
11.500	19.000	1.4599e-01
11.500	19.250	1.5632e-01
11.500	19.500	1.6464e-01
11.500	19.750	1.7171e-01
11.500	20.000	1.7776e-01
11.500	20.250	1.8309e-01
11.500	20.500	1.8763e-01
11.500	20.750	1.8938e-01
11.500	21.000	1.8405e-01
11.500	21.250	1.6909e-01
11.500	21.500	1.5352e-01
11.500	21.750	1.1915e-01
11.500	22.000	7.9594e-02
11.500	22.250	5.3207e-02
11.500	22.500	3.9399e-02
11.500	22.750	3.1240e-02
11.500	23.000	2.5631e-02
11.500	23.250	2.2574e-02
11.500	23.500	2.0961e-02
11.500	23.750	2.0317e-02
11.500	24.000	1.9980e-02
11.750	17.000	4.4683e-02
11.750	17.250	5.6176e-02
11.750	17.500	6.2593e-02
11.750	17.750	7.4120e-02
11.750	18.000	9.1981e-02
11.750	18.250	1.1007e-01
11.750	18.500	1.2441e-01
11.750	18.750	1.3613e-01
11.750	19.000	1.4779e-01
11.750	19.250	1.5784e-01
11.750	19.500	1.6607e-01
11.750	19.750	1.7288e-01
11.750	20.000	1.7847e-01
11.750	20.250	1.8300e-01
11.750	20.500	1.8671e-01
11.750	20.750	1.8852e-01
11.750	21.000	1.8532e-01
11.750	21.250	1.7339e-01
11.750	21.500	1.6246e-01
11.750	21.750	1.3992e-01
11.750	22.000	1.0808e-01
11.750	22.250	7.3280e-02
11.750	22.500	5.0325e-02
11.750	22.750	3.7892e-02
11.750	23.000	3.0017e-02
11.750	23.250	2.5092e-02
11.750	23.500	2.2425e-02
11.750	23.750	2.0921e-02
11.750	24.000	2.0302e-02
12.000	17.000	3.7164e-02
12.000	17.250	5.3457e-02
12.000	17.500	6.9268e-02
12.000	17.750	8.0475e-02
12.000	18.000	9.6549e-02
12.000	18.250	1.1323e-01
12.000	18.500	1.2699e-01
12.000	18.750	1.3913e-01
12.000	19.000	1.5054e-01
12.000	19.250	1.5965e-01
12.000	19.500	1.6758e-01
12.000	19.750	1.7374e-01
12.000	20.000	1.7888e-01
12.000	20.250	1.8298e-01
12.000	20.500	1.8585e-01
12.000	20.750	1.8704e-01
12.000	21.000	1.8453e-01
12.000	21.250	1.7443e-01
12.000	21.500	1.6572e-01
12.000	21.750	1.4451e-01
12.000	22.000	1.2184e-01
12.000	22.250	9.3771e-02
12.000	22.500	6.5521e-02
12.000	22.750	4.6742e-02
12.000	23.000	3.5557e-02
12.000	23.250	2.8397e-02
12.000	23.500	2.4340e-02
12.000	23.750	2.2192e-02
12.000	24.000	2.0855e-02
12.250	17.000	3.1852e-02
12.250	17.250	4.4694e-02
12.250	17.500	6.4931e-02
12.250	17.750	8.5020e-02
12.250	18.000	1.0002e-01
12.250	18.250	1.1564e-01
12.250	18.500	1.2981e-01
12.250	18.750	1.4255e-01
12.250	19.000	1.5203e-01
12.250	19.250	1.6218e-01
12.250	19.500	1.6922e-01
12.250	19.750	1.7476e-01
12.250	20.000	1.7921e-01
12.250	20.250	1.8262e-01
12.250	20.500	1.8494e-01
12.250	20.750	1.8564e-01
12.250	21.000	1.8321e-01
12.250	21.250	1.7426e-01
12.250	21.500	1.6679e-01
12.250	21.750	1.4552e-01
12.250	22.000	1.2142e-01
12.250	22.250	9.9496e-02
12.250	22.500	7.8479e-02
12.250	22.750	5.6955e-02
12.250	23.000	4.1805e-02
12.250	23.250	3.2277e-02
12.250	23.500	2.6318e-02
12.250	23.750	2.3301e-02
12.250	24.000	2.1839e-02
12.500	17.000	2.8030e-02
12.500	17.250	3.7469e-02
12.500	17.500	5.2974e-02
12.500	17.750	7.4266e-02
12.500	18.000	9.7791e-02
12.500	18.250	1.1368e-01
12.500	18.500	1.3092e-01
12.500	18.750	1.4562e-01
12.500	19.000	1.5642e-01
12.500	19.250	1.6440e-01
12.500	19.500	1.7089e-01
12.500	19.750	1.7578e-01
12.500	20.000	1.7940e-01
12.500	20.250	1.8219e-01
12.500	20.500	1.8390e-01
12.500	20.750	1.8420e-01
12.500	21.000	1.8189e-01
12.500	21.250	1.7388e-01
12.500	21.500	1.6755e-01
12.500	21.750	1.4617e-01
12.500	22.000	1.1851e-01
12.500	22.250	9.5333e-02
12.500	22.500	7.8357e-02
12.500	22.750	6.1126e-02
12.500	23.000	4.6923e-02
12.500	23.250	3.5565e-02
12.500	23.500	2.8186e-02
12.500	23.750	2.3729e-02
12.500	24.000	2.1909e-02
12.750	17.000	2.4739e-02
12.750	17.250	3.1576e-02
12.750	17.500	4.3383e-02
12.750	17.750	5.9656e-02
12.750	18.000	8.1099e-02
12.750	18.250	1.0458e-01
12.750	18.500	1.2457e-01
12.750	18.750	1.4133e-01
12.750	19.000	1.5764e-01
12.750	19.250	1.6680e-01
12.750	19.500	1.7257e-01
12.750	19.750	1.7646e-01
12.750	20.000	1.7934e-01
12.750	20.250	1.8175e-01
12.750	20.500	1.8280e-01
12.750	20.750	1.8273e-01
12.750	21.000	1.8068e-01
12.750	21.250	1.7340e-01
12.750	21.500	1.6832e-01
12.750	21.750	1.4738e-01
12.750	22.000	1.1758e-01
12.750	22.250	9.1621e-02
12.750	22.500	7.2599e-02
12.750	22.750	5.8046e-02
12.750	23.000	4.4733e-02
12.750	23.250	3.4845e-02
12.750	23.500	2.8507e-02
12.750	23.750	2.3620e-02
12.750	24.000	2.0656e-02
13.000	17.000	1.6690e-02
13.000	17.250	2.2319e-02
13.000	17.500	3.2428e-02
13.000	17.750	4.7170e-02
13.000	18.000	6.4861e-02
13.000	18.250	8.4832e-02
13.000	18.500	1.0907e-01
13.000	18.750	1.3372e-01
13.000	19.000	1.5222e-01
13.000	19.250	1.6679e-01
13.000	19.500	1.7312e-01
13.000	19.750	1.7747e-01
13.000	20.000	1.7967e-01
13.000	20.250	1.8097e-01
13.000	20.500	1.8203e-01
13.000	20.750	1.8183e-01
13.000	21.000	1.7939e-01
13.000	21.250	1.7297e-01
13.000	21.500	1.6899e-01
13.000	21.750	1.4960e-01
13.000	22.000	1.1784e-01
13.000	22.250	8.9375e-02
13.000	22.500	6.8698e-02
13.000	22.750	5.3404e-02
13.000	23.000	4.1230e-02
13.000	23.250	3.1699e-02
13.000	23.500	2.5311e-02
13.000	23.750	2.1148e-02
13.000	24.000	1.8707e-02
13.250	17.000	1.6060e-02
13.250	17.250	1.9982e-02
13.250	17.500	2.7346e-02
13.250	17.750	3.8665e-02
13.250	18.000	5.4794e-02
13.250	18.250	7.4092e-02
13.250	18.500	9.4909e-02
13.250	18.750	1.1871e-01
13.250	19.000	1.4380e-01
13.250	19.250	1.6017e-01
13.250	19.500	1.7180e-01
13.250	19.750	1.7747e-01
13.250	20.000	1.7979e-01
13.250	20.250	1.8069e-01
13.250	20.500	1.8091e-01
13.250	20.750	1.8035e-01
13.250	21.000	1.7839e-01
13.250	21.250	1.7162e-01
13.250	21.500	1.6836e-01
13.250	21.750	1.4942e-01
13.250	22.000	1.1815e-01
13.250	22.250	8.8936e-02
13.250	22.500	6.6149e-02
13.250	22.750	4.9375e-02
13.250	23.000	3.7652e-02
13.250	23.250	2.9039e-02
13.250	23.500	2.2770e-02
13.250	23.750	1.8196e-02
13.250	24.000	1.5455e-02
13.500	17.000	1.5473e-02
13.500	17.250	1.9081e-02
13.500	17.500	2.5399e-02
13.500	17.750	3.4913e-02
13.500	18.000	4.8940e-02
13.500	18.250	6.5663e-02
13.500	18.500	8.3728e-02
13.500	18.750	1.0423e-01
13.500	19.000	1.3271e-01
13.500	19.250	1.5040e-01
13.500	19.500	1.6403e-01
13.500	19.750	1.7616e-01
13.500	20.000	1.7935e-01
13.500	20.250	1.8056e-01
13.500	20.500	1.8014e-01
13.500	20.750	1.7877e-01
13.500	21.000	1.7582e-01
13.500	21.250	1.6996e-01
13.500	21.500	1.6679e-01
13.500	21.750	1.4857e-01
13.500	22.000	1.1784e-01
13.500	22.250	8.8696e-02
13.500	22.500	6.5913e-02
13.500	22.750	4.7373e-02
13.500	23.000	3.5249e-02
13.500	23.250	2.6928e-02
13.500	23.500	2.0698e-02
13.500	23.750	1.6064e-02
13.500	24.000	1.3077e-02
13.750	17.000	1.4929e-02
13.750	17.250	1.8251e-02
13.750	17.500	2.4045e-02
13.750	17.750	3.1887e-02
13.750	18.000	4.4040e-02
13.750	18.250	5.9009e-02
13.750	18.500	7.5687e-02
13.750	18.750	9.3110e-02
13.750	19.000	1.1252e-01
13.750	19.250	1.3313e-01
13.750	19.500	1.5616e-01
13.750	19.750	1.7141e-01
13.750	20.000	1.7837e-01
13.750	20.250	1.8051e-01
13.750	20.500	1.8014e-01
13.750	20.750	1.7819e-01
13.750	21.000	1.7468e-01
13.750	21.250	1.6805e-01
13.750	21.500	1.6548e-01
13.750	21.750	1.4799e-01
13.750	22.000	1.1728e-01
13.750	22.250	8.7980e-02
13.750	22.500	6.5378e-02
13.750	22.750	4.7318e-02
13.750	23.000	3.4415e-02
13.750	23.250	2.5651e-02
13.750	23.500	1.9354e-02
13.750	23.750	1.4642e-02
13.750	24.000	1.1395e-02
14.000	17.000	1.4588e-02
14.000	17.250	1.7445e-02
14.000	17.500	2.2837e-02
14.000	17.750	3.0034e-02
14.000	18.000	4.0311e-02
14.000	18.250	5.3886e-02
14.000	18.500	6.8819e-02
14.000	18.750	8.4586e-02
14.000	19.000	1.0107e-01
14.000	19.250	1.2166e-01
14.000	19.500	1.4132e-01
14.000	19.750	1.6131e-01
14.000	20.000	1.7426e-01
14.000	20.250	1.7979e-01
14.000	20.500	1.8056e-01
14.000	20.750	1.7871e-01
14.000	21.000	1.7469e-01
14.000	21.250	1.6787e-01
14.000	21.500	1.6500e-01
14.000	21.750	1.4796e-01
14.000	22.000	1.1759e-01
14.000	22.250	8.7966e-02
14.000	22.500	6.4921e-02
14.000	22.750	4.7894e-02
14.000	23.000	3.4446e-02
14.000	23.250	2.4969e-02
14.000	23.500	1.8558e-02
14.000	23.750	1.3709e-02
14.000	24.000	1.0307e-02
