InwT 4.11370m  relative to Inci 1215.00A scaled to 1215A.
Hden   Phi(H)  Eq_Width (A)
 7.000	17.000	1.1767e-02
 7.000	17.250	1.1670e-02
 7.000	17.500	1.1272e-02
 7.000	17.750	1.0456e-02
 7.000	18.000	8.8324e-03
 7.000	18.250	6.3430e-03
 7.000	18.500	3.4812e-03
 7.000	18.750	1.5816e-03
 7.000	19.000	6.8033e-04
 7.000	19.250	3.5663e-04
 7.000	19.500	2.0527e-04
 7.000	19.750	1.5136e-04
 7.000	20.000	1.3029e-04
 7.000	20.250	1.2123e-04
 7.000	20.500	1.1695e-04
 7.000	20.750	1.1481e-04
 7.000	21.000	1.1366e-04
 7.000	21.250	1.1309e-04
 7.000	21.500	1.1267e-04
 7.000	21.750	1.1251e-04
 7.000	22.000	1.1243e-04
 7.000	22.250	1.1235e-04
 7.000	22.500	1.1235e-04
 7.000	22.750	1.1235e-04
 7.000	23.000	1.1226e-04
 7.000	23.250	1.1226e-04
 7.000	23.500	1.1226e-04
 7.000	23.750	1.1226e-04
 7.000	24.000	1.1226e-04
 7.250	17.000	1.1995e-02
 7.250	17.250	1.2291e-02
 7.250	17.500	1.2304e-02
 7.250	17.750	1.1941e-02
 7.250	18.000	1.1035e-02
 7.250	18.250	9.1233e-03
 7.250	18.500	6.3744e-03
 7.250	18.750	3.4779e-03
 7.250	19.000	1.5806e-03
 7.250	19.250	6.8041e-04
 7.250	19.500	3.5663e-04
 7.250	19.750	2.0527e-04
 7.250	20.000	1.5136e-04
 7.250	20.250	1.3029e-04
 7.250	20.500	1.2123e-04
 7.250	20.750	1.1695e-04
 7.250	21.000	1.1481e-04
 7.250	21.250	1.1366e-04
 7.250	21.500	1.1309e-04
 7.250	21.750	1.1267e-04
 7.250	22.000	1.1251e-04
 7.250	22.250	1.1243e-04
 7.250	22.500	1.1235e-04
 7.250	22.750	1.1235e-04
 7.250	23.000	1.1235e-04
 7.250	23.250	1.1226e-04
 7.250	23.500	1.1226e-04
 7.250	23.750	1.1226e-04
 7.250	24.000	1.1226e-04
 7.500	17.000	1.2000e-02
 7.500	17.250	1.2557e-02
 7.500	17.500	1.3115e-02
 7.500	17.750	1.3356e-02
 7.500	18.000	1.3013e-02
 7.500	18.250	1.1935e-02
 7.500	18.500	9.4605e-03
 7.500	18.750	6.4053e-03
 7.500	19.000	3.4746e-03
 7.500	19.250	1.5794e-03
 7.500	19.500	6.8033e-04
 7.500	19.750	3.5663e-04
 7.500	20.000	2.0527e-04
 7.500	20.250	1.5136e-04
 7.500	20.500	1.3029e-04
 7.500	20.750	1.2123e-04
 7.500	21.000	1.1695e-04
 7.500	21.250	1.1481e-04
 7.500	21.500	1.1366e-04
 7.500	21.750	1.1309e-04
 7.500	22.000	1.1267e-04
 7.500	22.250	1.1251e-04
 7.500	22.500	1.1243e-04
 7.500	22.750	1.1235e-04
 7.500	23.000	1.1235e-04
 7.500	23.250	1.1235e-04
 7.500	23.500	1.1226e-04
 7.500	23.750	1.1226e-04
 7.500	24.000	1.1226e-04
 7.750	17.000	1.1964e-02
 7.750	17.250	1.2555e-02
 7.750	17.500	1.3502e-02
 7.750	17.750	1.4560e-02
 7.750	18.000	1.5160e-02
 7.750	18.250	1.4795e-02
 7.750	18.500	1.3162e-02
 7.750	18.750	9.8742e-03
 7.750	19.000	6.4383e-03
 7.750	19.250	3.4707e-03
 7.750	19.500	1.5785e-03
 7.750	19.750	6.8033e-04
 7.750	20.000	3.5663e-04
 7.750	20.250	2.0527e-04
 7.750	20.500	1.5136e-04
 7.750	20.750	1.3029e-04
 7.750	21.000	1.2123e-04
 7.750	21.250	1.1695e-04
 7.750	21.500	1.1481e-04
 7.750	21.750	1.1366e-04
 7.750	22.000	1.1309e-04
 7.750	22.250	1.1267e-04
 7.750	22.500	1.1251e-04
 7.750	22.750	1.1243e-04
 7.750	23.000	1.1235e-04
 7.750	23.250	1.1235e-04
 7.750	23.500	1.1235e-04
 7.750	23.750	1.1226e-04
 7.750	24.000	1.1226e-04
 8.000	17.000	1.1961e-02
 8.000	17.250	1.2402e-02
 8.000	17.500	1.3413e-02
 8.000	17.750	1.5164e-02
 8.000	18.000	1.7180e-02
 8.000	18.250	1.8203e-02
 8.000	18.500	1.7308e-02
 8.000	18.750	1.4652e-02
 8.000	19.000	1.0254e-02
 8.000	19.250	6.4537e-03
 8.000	19.500	3.4657e-03
 8.000	19.750	1.5760e-03
 8.000	20.000	6.8033e-04
 8.000	20.250	3.5663e-04
 8.000	20.500	2.0527e-04
 8.000	20.750	1.5136e-04
 8.000	21.000	1.3029e-04
 8.000	21.250	1.2123e-04
 8.000	21.500	1.1695e-04
 8.000	21.750	1.1481e-04
 8.000	22.000	1.1366e-04
 8.000	22.250	1.1309e-04
 8.000	22.500	1.1267e-04
 8.000	22.750	1.1251e-04
 8.000	23.000	1.1243e-04
 8.000	23.250	1.1235e-04
 8.000	23.500	1.1235e-04
 8.000	23.750	1.1235e-04
 8.000	24.000	1.1226e-04
 8.250	17.000	1.2221e-02
 8.250	17.250	1.2488e-02
 8.250	17.500	1.3350e-02
 8.250	17.750	1.5286e-02
 8.250	18.000	1.8708e-02
 8.250	18.250	2.2059e-02
 8.250	18.500	2.2921e-02
 8.250	18.750	2.0470e-02
 8.250	19.000	1.6360e-02
 8.250	19.250	1.0549e-02
 8.250	19.500	6.4894e-03
 8.250	19.750	3.4611e-03
 8.250	20.000	1.5740e-03
 8.250	20.250	6.8025e-04
 8.250	20.500	3.5663e-04
 8.250	20.750	2.0527e-04
 8.250	21.000	1.5136e-04
 8.250	21.250	1.3029e-04
 8.250	21.500	1.2123e-04
 8.250	21.750	1.1695e-04
 8.250	22.000	1.1481e-04
 8.250	22.250	1.1366e-04
 8.250	22.500	1.1309e-04
 8.250	22.750	1.1267e-04
 8.250	23.000	1.1251e-04
 8.250	23.250	1.1243e-04
 8.250	23.500	1.1235e-04
 8.250	23.750	1.1235e-04
 8.250	24.000	1.1235e-04
 8.500	17.000	1.2579e-02
 8.500	17.250	1.2763e-02
 8.500	17.500	1.3451e-02
 8.500	17.750	1.5262e-02
 8.500	18.000	1.9320e-02
 8.500	18.250	2.5212e-02
 8.500	18.500	2.9231e-02
 8.500	18.750	2.8399e-02
 8.500	19.000	2.3520e-02
 8.500	19.250	1.7144e-02
 8.500	19.500	1.0833e-02
 8.500	19.750	6.4857e-03
 8.500	20.000	3.4563e-03
 8.500	20.250	1.5708e-03
 8.500	20.500	6.8016e-04
 8.500	20.750	3.5663e-04
 8.500	21.000	2.0527e-04
 8.500	21.250	1.5136e-04
 8.500	21.500	1.3029e-04
 8.500	21.750	1.2123e-04
 8.500	22.000	1.1695e-04
 8.500	22.250	1.1481e-04
 8.500	22.500	1.1366e-04
 8.500	22.750	1.1309e-04
 8.500	23.000	1.1267e-04
 8.500	23.250	1.1251e-04
 8.500	23.500	1.1243e-04
 8.500	23.750	1.1235e-04
 8.500	24.000	1.1235e-04
 8.750	17.000	1.2969e-02
 8.750	17.250	1.3155e-02
 8.750	17.500	1.3781e-02
 8.750	17.750	1.5448e-02
 8.750	18.000	1.9597e-02
 8.750	18.250	2.7023e-02
 8.750	18.500	3.4456e-02
 8.750	18.750	3.7046e-02
 8.750	19.000	3.3288e-02
 8.750	19.250	2.6916e-02
 8.750	19.500	1.8156e-02
 8.750	19.750	1.1080e-02
 8.750	20.000	6.4669e-03
 8.750	20.250	3.4505e-03
 8.750	20.500	1.5676e-03
 8.750	20.750	6.8008e-04
 8.750	21.000	3.5663e-04
 8.750	21.250	2.0527e-04
 8.750	21.500	1.5136e-04
 8.750	21.750	1.3029e-04
 8.750	22.000	1.2123e-04
 8.750	22.250	1.1695e-04
 8.750	22.500	1.1481e-04
 8.750	22.750	1.1366e-04
 8.750	23.000	1.1309e-04
 8.750	23.250	1.1267e-04
 8.750	23.500	1.1251e-04
 8.750	23.750	1.1243e-04
 8.750	24.000	1.1235e-04
 9.000	17.000	1.3353e-02
 9.000	17.250	1.3590e-02
 9.000	17.500	1.4261e-02
 9.000	17.750	1.5948e-02
 9.000	18.000	2.0137e-02
 9.000	18.250	2.8188e-02
 9.000	18.500	3.7949e-02
 9.000	18.750	4.4584e-02
 9.000	19.000	4.4394e-02
 9.000	19.250	3.8192e-02
 9.000	19.500	2.9625e-02
 9.000	19.750	1.8671e-02
 9.000	20.000	1.1259e-02
 9.000	20.250	6.4374e-03
 9.000	20.500	3.4439e-03
 9.000	20.750	1.5635e-03
 9.000	21.000	6.8000e-04
 9.000	21.250	3.5663e-04
 9.000	21.500	2.0527e-04
 9.000	21.750	1.5136e-04
 9.000	22.000	1.3029e-04
 9.000	22.250	1.2123e-04
 9.000	22.500	1.1695e-04
 9.000	22.750	1.1481e-04
 9.000	23.000	1.1366e-04
 9.000	23.250	1.1309e-04
 9.000	23.500	1.1267e-04
 9.000	23.750	1.1251e-04
 9.000	24.000	1.1243e-04
 9.250	17.000	1.3742e-02
 9.250	17.250	1.4043e-02
 9.250	17.500	1.4828e-02
 9.250	17.750	1.6718e-02
 9.250	18.000	2.1293e-02
 9.250	18.250	2.9984e-02
 9.250	18.500	4.0740e-02
 9.250	18.750	4.9050e-02
 9.250	19.000	5.3241e-02
 9.250	19.250	5.1132e-02
 9.250	19.500	4.2478e-02
 9.250	19.750	3.1409e-02
 9.250	20.000	1.9152e-02
 9.250	20.250	1.1337e-02
 9.250	20.500	6.3914e-03
 9.250	20.750	3.4383e-03
 9.250	21.000	1.5597e-03
 9.250	21.250	6.7984e-04
 9.250	21.500	3.5654e-04
 9.250	21.750	2.0527e-04
 9.250	22.000	1.5128e-04
 9.250	22.250	1.3029e-04
 9.250	22.500	1.2123e-04
 9.250	22.750	1.1695e-04
 9.250	23.000	1.1481e-04
 9.250	23.250	1.1366e-04
 9.250	23.500	1.1309e-04
 9.250	23.750	1.1267e-04
 9.250	24.000	1.1251e-04
 9.500	17.000	1.4182e-02
 9.500	17.250	1.4539e-02
 9.500	17.500	1.5475e-02
 9.500	17.750	1.7708e-02
 9.500	18.000	2.2897e-02
 9.500	18.250	3.2589e-02
 9.500	18.500	4.3880e-02
 9.500	18.750	5.2828e-02
 9.500	19.000	5.8617e-02
 9.500	19.250	5.9824e-02
 9.500	19.500	5.5368e-02
 9.500	19.750	4.6692e-02
 9.500	20.000	3.2152e-02
 9.500	20.250	1.9305e-02
 9.500	20.500	1.1242e-02
 9.500	20.750	6.3398e-03
 9.500	21.000	3.4336e-03
 9.500	21.250	1.5551e-03
 9.500	21.500	6.7942e-04
 9.500	21.750	3.5630e-04
 9.500	22.000	2.0502e-04
 9.500	22.250	1.5103e-04
 9.500	22.500	1.2979e-04
 9.500	22.750	1.2074e-04
 9.500	23.000	1.1646e-04
 9.500	23.250	1.1424e-04
 9.500	23.500	1.1333e-04
 9.500	23.750	1.1276e-04
 9.500	24.000	1.1235e-04
 9.750	17.000	1.4699e-02
 9.750	17.250	1.5088e-02
 9.750	17.500	1.6177e-02
 9.750	17.750	1.8845e-02
 9.750	18.000	2.5145e-02
 9.750	18.250	3.5928e-02
 9.750	18.500	4.7333e-02
 9.750	18.750	5.6169e-02
 9.750	19.000	6.2160e-02
 9.750	19.250	6.5580e-02
 9.750	19.500	6.5337e-02
 9.750	19.750	5.9786e-02
 9.750	20.000	4.9199e-02
 9.750	20.250	3.2364e-02
 9.750	20.500	1.9258e-02
 9.750	20.750	1.1025e-02
 9.750	21.000	6.2727e-03
 9.750	21.250	3.4275e-03
 9.750	21.500	1.5513e-03
 9.750	21.750	6.7926e-04
 9.750	22.000	3.5630e-04
 9.750	22.250	2.0502e-04
 9.750	22.500	1.5103e-04
 9.750	22.750	1.2979e-04
 9.750	23.000	1.2074e-04
 9.750	23.250	1.1646e-04
 9.750	23.500	1.1432e-04
 9.750	23.750	1.1317e-04
 9.750	24.000	1.1259e-04
10.000	17.000	1.5395e-02
10.000	17.250	1.5759e-02
10.000	17.500	1.7008e-02
10.000	17.750	2.0198e-02
10.000	18.000	2.7446e-02
10.000	18.250	3.9071e-02
10.000	18.500	5.0837e-02
10.000	18.750	5.9404e-02
10.000	19.000	6.4998e-02
10.000	19.250	6.9283e-02
10.000	19.500	7.2423e-02
10.000	19.750	7.2794e-02
10.000	20.000	6.6319e-02
10.000	20.250	5.1689e-02
10.000	20.500	3.2600e-02
10.000	20.750	1.8967e-02
10.000	21.000	1.0776e-02
10.000	21.250	6.1947e-03
10.000	21.500	3.4349e-03
10.000	21.750	1.5461e-03
10.000	22.000	6.7893e-04
10.000	22.250	3.5638e-04
10.000	22.500	2.0502e-04
10.000	22.750	1.5103e-04
10.000	23.000	1.2988e-04
10.000	23.250	1.2082e-04
10.000	23.500	1.1654e-04
10.000	23.750	1.1440e-04
10.000	24.000	1.1325e-04
10.250	17.000	1.6385e-02
10.250	17.250	1.6624e-02
10.250	17.500	1.8069e-02
10.250	17.750	2.1910e-02
10.250	18.000	3.0091e-02
10.250	18.250	4.2264e-02
10.250	18.500	5.3657e-02
10.250	18.750	6.2063e-02
10.250	19.000	6.7288e-02
10.250	19.250	7.1493e-02
10.250	19.500	7.4934e-02
10.250	19.750	7.6574e-02
10.250	20.000	7.3888e-02
10.250	20.250	6.5461e-02
10.250	20.500	4.9631e-02
10.250	20.750	3.1705e-02
10.250	21.000	1.8236e-02
10.250	21.250	1.0422e-02
10.250	21.500	6.2128e-03
10.250	21.750	3.4143e-03
10.250	22.000	1.5397e-03
10.250	22.250	6.7844e-04
10.250	22.500	3.5638e-04
10.250	22.750	2.0502e-04
10.250	23.000	1.5103e-04
10.250	23.250	1.2988e-04
10.250	23.500	1.2082e-04
10.250	23.750	1.1654e-04
10.250	24.000	1.1440e-04
10.500	17.000	1.7932e-02
10.500	17.250	1.7940e-02
10.500	17.500	1.9537e-02
10.500	17.750	2.4044e-02
10.500	18.000	3.2982e-02
10.500	18.250	4.5352e-02
10.500	18.500	5.6056e-02
10.500	18.750	6.4101e-02
10.500	19.000	6.9427e-02
10.500	19.250	7.2815e-02
10.500	19.500	7.5982e-02
10.500	19.750	7.7833e-02
10.500	20.000	7.7228e-02
10.500	20.250	7.2025e-02
10.500	20.500	6.1893e-02
10.500	20.750	4.6190e-02
10.500	21.000	2.9831e-02
10.500	21.250	1.7101e-02
10.500	21.500	1.0398e-02
10.500	21.750	6.1428e-03
10.500	22.000	3.3630e-03
10.500	22.250	1.5310e-03
10.500	22.500	6.7770e-04
10.500	22.750	3.5630e-04
10.500	23.000	2.0510e-04
10.500	23.250	1.5111e-04
10.500	23.500	1.2988e-04
10.500	23.750	1.2082e-04
10.500	24.000	1.1654e-04
10.750	17.000	2.0182e-02
10.750	17.250	1.9869e-02
10.750	17.500	2.1625e-02
10.750	17.750	2.6660e-02
10.750	18.000	3.5754e-02
10.750	18.250	4.7966e-02
10.750	18.500	5.7886e-02
10.750	18.750	6.5440e-02
10.750	19.000	7.0677e-02
10.750	19.250	7.4656e-02
10.750	19.500	7.7328e-02
10.750	19.750	7.8719e-02
10.750	20.000	7.8479e-02
10.750	20.250	7.5132e-02
10.750	20.500	6.7319e-02
10.750	20.750	5.5841e-02
10.750	21.000	4.1272e-02
10.750	21.250	2.6972e-02
10.750	21.500	1.6996e-02
10.750	21.750	9.9949e-03
10.750	22.000	6.0260e-03
10.750	22.250	3.2741e-03
10.750	22.500	1.5193e-03
10.750	22.750	6.7654e-04
10.750	23.000	3.5613e-04
10.750	23.250	2.0519e-04
10.750	23.500	1.5128e-04
10.750	23.750	1.3004e-04
10.750	24.000	1.2091e-04
11.000	17.000	2.3267e-02
11.000	17.250	2.2559e-02
11.000	17.500	2.4365e-02
11.000	17.750	2.9746e-02
11.000	18.000	3.8938e-02
11.000	18.250	5.0663e-02
11.000	18.500	5.9947e-02
11.000	18.750	6.7370e-02
11.000	19.000	7.2553e-02
11.000	19.250	7.6318e-02
11.000	19.500	7.8713e-02
11.000	19.750	7.9716e-02
11.000	20.000	7.9080e-02
11.000	20.250	7.6261e-02
11.000	20.500	6.9758e-02
11.000	20.750	5.9419e-02
11.000	21.000	4.7355e-02
11.000	21.250	3.4921e-02
11.000	21.500	2.6895e-02
11.000	21.750	1.5605e-02
11.000	22.000	9.4257e-03
11.000	22.250	5.8050e-03
11.000	22.500	3.1477e-03
11.000	22.750	1.5026e-03
11.000	23.000	6.7432e-04
11.000	23.250	3.5588e-04
11.000	23.500	2.0510e-04
11.000	23.750	1.5128e-04
11.000	24.000	1.3021e-04
11.250	17.000	2.7359e-02
11.250	17.250	2.6095e-02
11.250	17.500	2.7766e-02
11.250	17.750	3.3207e-02
11.250	18.000	4.2478e-02
11.250	18.250	5.3220e-02
11.250	18.500	6.1664e-02
11.250	18.750	6.8484e-02
11.250	19.000	7.3714e-02
11.250	19.250	7.7378e-02
11.250	19.500	7.9930e-02
11.250	19.750	8.0739e-02
11.250	20.000	7.9796e-02
11.250	20.250	7.6732e-02
11.250	20.500	7.0545e-02
11.250	20.750	6.0764e-02
11.250	21.000	4.8785e-02
11.250	21.250	3.6229e-02
11.250	21.500	3.4679e-02
11.250	21.750	2.2996e-02
11.250	22.000	1.3981e-02
11.250	22.250	8.6513e-03
11.250	22.500	5.4267e-03
11.250	22.750	2.9946e-03
11.250	23.000	1.4773e-03
11.250	23.250	6.7160e-04
11.250	23.500	3.5531e-04
11.250	23.750	2.0502e-04
11.250	24.000	1.5128e-04
11.500	17.000	3.1617e-02
11.500	17.250	3.0731e-02
11.500	17.500	3.1934e-02
11.500	17.750	3.7058e-02
11.500	18.000	4.6183e-02
11.500	18.250	5.6118e-02
11.500	18.500	6.3717e-02
11.500	18.750	6.9549e-02
11.500	19.000	7.4984e-02
11.500	19.250	7.8885e-02
11.500	19.500	8.1094e-02
11.500	19.750	8.1755e-02
11.500	20.000	8.0523e-02
11.500	20.250	7.7035e-02
11.500	20.500	7.0728e-02
11.500	20.750	6.1066e-02
11.500	21.000	4.8368e-02
11.500	21.250	3.5042e-02
11.500	21.500	3.5133e-02
11.500	21.750	2.6493e-02
11.500	22.000	1.8807e-02
11.500	22.250	1.1974e-02
11.500	22.500	7.6647e-03
11.500	22.750	4.8709e-03
11.500	23.000	2.7978e-03
11.500	23.250	1.4407e-03
11.500	23.500	6.6724e-04
11.500	23.750	3.5449e-04
11.500	24.000	2.0486e-04
11.750	17.000	3.0469e-02
11.750	17.250	3.6369e-02
11.750	17.500	3.7142e-02
11.750	17.750	4.1571e-02
11.750	18.000	5.0193e-02
11.750	18.250	5.9277e-02
11.750	18.500	6.6307e-02
11.750	18.750	7.1721e-02
11.750	19.000	7.6635e-02
11.750	19.250	8.0245e-02
11.750	19.500	8.2337e-02
11.750	19.750	8.2763e-02
11.750	20.000	8.1256e-02
11.750	20.250	7.7397e-02
11.750	20.500	7.0800e-02
11.750	20.750	6.1046e-02
11.750	21.000	4.7963e-02
11.750	21.250	3.4042e-02
11.750	21.500	3.4076e-02
11.750	21.750	2.5613e-02
11.750	22.000	1.9069e-02
11.750	22.250	1.3973e-02
11.750	22.500	9.7626e-03
11.750	22.750	6.4798e-03
11.750	23.000	4.2086e-03
11.750	23.250	2.5491e-03
11.750	23.500	1.3877e-03
11.750	23.750	6.6049e-04
11.750	24.000	3.5309e-04
12.000	17.000	2.4981e-02
12.000	17.250	3.5321e-02
12.000	17.500	4.3247e-02
12.000	17.750	4.6741e-02
12.000	18.000	5.4036e-02
12.000	18.250	6.2316e-02
12.000	18.500	6.9020e-02
12.000	18.750	7.4446e-02
12.000	19.000	7.8938e-02
12.000	19.250	8.1835e-02
12.000	19.500	8.3619e-02
12.000	19.750	8.3640e-02
12.000	20.000	8.1845e-02
12.000	20.250	7.7751e-02
12.000	20.500	7.0863e-02
12.000	20.750	6.0964e-02
12.000	21.000	4.7881e-02
12.000	21.250	3.3229e-02
12.000	21.500	3.2954e-02
12.000	21.750	2.4219e-02
12.000	22.000	1.8048e-02
12.000	22.250	1.3545e-02
12.000	22.500	9.9182e-03
12.000	22.750	7.0108e-03
12.000	23.000	4.9636e-03
12.000	23.250	3.4791e-03
12.000	23.500	2.2483e-03
12.000	23.750	1.3129e-03
12.000	24.000	6.4979e-04
12.250	17.000	2.1193e-02
12.250	17.250	2.9398e-02
12.250	17.500	4.1792e-02
12.250	17.750	5.2384e-02
12.250	18.000	5.8434e-02
12.250	18.250	6.5746e-02
12.250	18.500	7.2422e-02
12.250	18.750	7.7548e-02
12.250	19.000	8.0845e-02
12.250	19.250	8.3933e-02
12.250	19.500	8.5056e-02
12.250	19.750	8.4639e-02
12.250	20.000	8.2414e-02
12.250	20.250	7.7984e-02
12.250	20.500	7.0911e-02
12.250	20.750	6.0950e-02
12.250	21.000	4.7907e-02
12.250	21.250	3.2948e-02
12.250	21.500	3.2092e-02
12.250	21.750	2.3182e-02
12.250	22.000	1.7067e-02
12.250	22.250	1.2987e-02
12.250	22.500	9.5729e-03
12.250	22.750	6.8375e-03
12.250	23.000	4.9134e-03
12.250	23.250	3.5737e-03
12.250	23.500	2.6280e-03
12.250	23.750	1.9044e-03
12.250	24.000	1.2125e-03
12.500	17.000	1.8660e-02
12.500	17.250	2.4594e-02
12.500	17.500	3.4347e-02
12.500	17.750	4.7674e-02
12.500	18.000	6.1461e-02
12.500	18.250	6.8024e-02
12.500	18.500	7.5215e-02
12.500	18.750	8.0907e-02
12.500	19.000	8.4227e-02
12.500	19.250	8.6043e-02
12.500	19.500	8.6648e-02
12.500	19.750	8.5718e-02
12.500	20.000	8.2995e-02
12.500	20.250	7.8234e-02
12.500	20.500	7.0945e-02
12.500	20.750	6.0960e-02
12.500	21.000	4.8111e-02
12.500	21.250	3.3106e-02
12.500	21.500	3.2062e-02
12.500	21.750	2.2602e-02
12.500	22.000	1.6360e-02
12.500	22.250	1.2352e-02
12.500	22.500	9.3219e-03
12.500	22.750	6.6153e-03
12.500	23.000	4.7612e-03
12.500	23.250	3.4858e-03
12.500	23.500	2.5258e-03
12.500	23.750	1.8632e-03
12.500	24.000	1.5058e-03
12.750	17.000	1.6872e-02
12.750	17.250	2.1040e-02
12.750	17.500	2.8430e-02
12.750	17.750	3.8455e-02
12.750	18.000	5.1798e-02
12.750	18.250	6.6248e-02
12.750	18.500	7.4189e-02
12.750	18.750	8.0116e-02
12.750	19.000	8.6549e-02
12.750	19.250	8.8477e-02
12.750	19.500	8.8435e-02
12.750	19.750	8.6759e-02
12.750	20.000	8.3543e-02
12.750	20.250	7.8554e-02
12.750	20.500	7.1041e-02
12.750	20.750	6.1017e-02
12.750	21.000	4.8435e-02
12.750	21.250	3.3402e-02
12.750	21.500	3.2354e-02
12.750	21.750	2.2593e-02
12.750	22.000	1.6112e-02
12.750	22.250	1.1895e-02
12.750	22.500	8.9100e-03
12.750	22.750	6.3941e-03
12.750	23.000	4.5962e-03
12.750	23.250	3.3540e-03
12.750	23.500	2.4273e-03
12.750	23.750	1.7412e-03
12.750	24.000	1.3083e-03
13.000	17.000	1.0566e-02
13.000	17.250	1.4036e-02
13.000	17.500	2.0522e-02
13.000	17.750	2.9710e-02
13.000	18.000	4.0212e-02
13.000	18.250	5.1533e-02
13.000	18.500	6.5434e-02
13.000	18.750	7.8259e-02
13.000	19.000	8.5162e-02
13.000	19.250	9.0091e-02
13.000	19.500	8.9802e-02
13.000	19.750	8.8131e-02
13.000	20.000	8.4386e-02
13.000	20.250	7.8856e-02
13.000	20.500	7.1325e-02
13.000	20.750	6.1316e-02
13.000	21.000	4.8885e-02
13.000	21.250	3.3812e-02
13.000	21.500	3.2856e-02
13.000	21.750	2.3102e-02
13.000	22.000	1.6108e-02
13.000	22.250	1.1589e-02
13.000	22.500	8.6672e-03
13.000	22.750	6.1964e-03
13.000	23.000	4.4481e-03
13.000	23.250	3.1995e-03
13.000	23.500	2.3040e-03
13.000	23.750	1.6548e-03
13.000	24.000	1.1831e-03
13.250	17.000	1.0279e-02
13.250	17.250	1.2477e-02
13.250	17.500	1.6832e-02
13.250	17.750	2.3513e-02
13.250	18.000	3.3264e-02
13.250	18.250	4.4684e-02
13.250	18.500	5.6635e-02
13.250	18.750	7.0234e-02
13.250	19.000	8.3220e-02
13.250	19.250	8.8298e-02
13.250	19.500	9.0767e-02
13.250	19.750	8.9276e-02
13.250	20.000	8.5303e-02
13.250	20.250	7.9412e-02
13.250	20.500	7.1556e-02
13.250	20.750	6.1520e-02
13.250	21.000	4.9471e-02
13.250	21.250	3.4095e-02
13.250	21.500	3.3095e-02
13.250	21.750	2.3179e-02
13.250	22.000	1.6112e-02
13.250	22.250	1.1465e-02
13.250	22.500	8.3166e-03
13.250	22.750	6.0255e-03
13.250	23.000	4.2910e-03
13.250	23.250	3.0653e-03
13.250	23.500	2.1932e-03
13.250	23.750	1.5639e-03
13.250	24.000	1.1130e-03
13.500	17.000	1.0005e-02
13.500	17.250	1.2068e-02
13.500	17.500	1.5756e-02
13.500	17.750	2.1221e-02
13.500	18.000	2.9573e-02
13.500	18.250	3.9381e-02
13.500	18.500	4.9620e-02
13.500	18.750	6.1384e-02
13.500	19.000	7.9131e-02
13.500	19.250	8.5648e-02
13.500	19.500	8.8372e-02
13.500	19.750	9.0127e-02
13.500	20.000	8.6180e-02
13.500	20.250	8.0165e-02
13.500	20.500	7.1975e-02
13.500	20.750	6.1722e-02
13.500	21.000	4.9632e-02
13.500	21.250	3.4308e-02
13.500	21.500	3.3135e-02
13.500	21.750	2.3051e-02
13.500	22.000	1.5905e-02
13.500	22.250	1.1294e-02
13.500	22.500	8.1899e-03
13.500	22.750	5.8322e-03
13.500	23.000	4.1543e-03
13.500	23.250	2.9374e-03
13.500	23.500	2.0653e-03
13.500	23.750	1.4560e-03
13.500	24.000	1.0351e-03
13.750	17.000	9.7010e-03
13.750	17.250	1.1674e-02
13.750	17.500	1.5095e-02
13.750	17.750	1.9433e-02
13.750	18.000	2.6522e-02
13.750	18.250	3.5236e-02
13.750	18.500	4.4768e-02
13.750	18.750	5.4532e-02
13.750	19.000	6.5445e-02
13.750	19.250	7.6412e-02
13.750	19.500	8.7282e-02
13.750	19.750	8.9904e-02
13.750	20.000	8.7073e-02
13.750	20.250	8.1097e-02
13.750	20.500	7.2692e-02
13.750	20.750	6.2193e-02
13.750	21.000	4.9998e-02
13.750	21.250	3.4442e-02
13.750	21.500	3.3294e-02
13.750	21.750	2.3091e-02
13.750	22.000	1.5838e-02
13.750	22.250	1.0932e-02
13.750	22.500	7.9429e-03
13.750	22.750	5.7570e-03
13.750	23.000	4.0500e-03
13.750	23.250	2.8152e-03
13.750	23.500	1.9221e-03
13.750	23.750	1.3362e-03
13.750	24.000	9.4568e-04
14.000	17.000	9.5232e-03
14.000	17.250	1.1218e-02
14.000	17.500	1.4521e-02
14.000	17.750	1.8516e-02
14.000	18.000	2.4287e-02
14.000	18.250	3.2133e-02
14.000	18.500	4.0546e-02
14.000	18.750	4.9312e-02
14.000	19.000	5.8270e-02
14.000	19.250	7.0219e-02
14.000	19.500	7.9894e-02
14.000	19.750	8.7174e-02
14.000	20.000	8.6986e-02
14.000	20.250	8.1923e-02
14.000	20.500	7.3614e-02
14.000	20.750	6.2926e-02
14.000	21.000	5.0526e-02
14.000	21.250	3.4869e-02
14.000	21.500	3.3565e-02
14.000	21.750	2.3240e-02
14.000	22.000	1.5948e-02
14.000	22.250	1.0715e-02
14.000	22.500	7.5421e-03
14.000	22.750	5.5351e-03
14.000	23.000	3.9206e-03
14.000	23.250	2.6830e-03
14.000	23.500	1.7788e-03
14.000	23.750	1.1967e-03
14.000	24.000	8.3967e-04
