He 2 1085.03A  relative to Inci 1215.00A scaled to 1215A.
Hden   Phi(H)  Eq_Width (A)
 7.000	17.000	5.1042e-03
 7.000	17.250	5.1032e-03
 7.000	17.500	5.0436e-03
 7.000	17.750	4.9170e-03
 7.000	18.000	4.6892e-03
 7.000	18.250	4.2151e-03
 7.000	18.500	3.4011e-03
 7.000	18.750	9.9457e-04
 7.000	19.000	9.0700e-05
 7.000	19.250	2.1317e-05
 7.000	19.500	3.2922e-06
 7.000	19.750	1.0000e-07
 7.000	20.000	1.0000e-07
 7.000	20.250	1.0000e-07
 7.000	20.500	1.0000e-07
 7.000	20.750	1.0000e-07
 7.000	21.000	1.0000e-07
 7.000	21.250	1.0000e-07
 7.000	21.500	1.0000e-07
 7.000	21.750	1.0000e-07
 7.000	22.000	1.0000e-07
 7.000	22.250	1.0000e-07
 7.000	22.500	1.0000e-07
 7.000	22.750	1.0000e-07
 7.000	23.000	1.0000e-07
 7.000	23.250	1.0000e-07
 7.000	23.500	1.0000e-07
 7.000	23.750	1.0000e-07
 7.000	24.000	1.0000e-07
 7.250	17.000	5.0323e-03
 7.250	17.250	5.0670e-03
 7.250	17.500	5.0672e-03
 7.250	17.750	5.0073e-03
 7.250	18.000	4.8802e-03
 7.250	18.250	4.6511e-03
 7.250	18.500	4.1771e-03
 7.250	18.750	3.3724e-03
 7.250	19.000	9.8922e-04
 7.250	19.250	9.0864e-05
 7.250	19.500	2.1399e-05
 7.250	19.750	3.2922e-06
 7.250	20.000	1.0000e-07
 7.250	20.250	1.0000e-07
 7.250	20.500	1.0000e-07
 7.250	20.750	1.0000e-07
 7.250	21.000	1.0000e-07
 7.250	21.250	1.0000e-07
 7.250	21.500	1.0000e-07
 7.250	21.750	1.0000e-07
 7.250	22.000	1.0000e-07
 7.250	22.250	1.0000e-07
 7.250	22.500	1.0000e-07
 7.250	22.750	1.0000e-07
 7.250	23.000	1.0000e-07
 7.250	23.250	1.0000e-07
 7.250	23.500	1.0000e-07
 7.250	23.750	1.0000e-07
 7.250	24.000	1.0000e-07
 7.500	17.000	4.9258e-03
 7.500	17.250	4.9728e-03
 7.500	17.500	5.0096e-03
 7.500	17.750	5.0124e-03
 7.500	18.000	4.9532e-03
 7.500	18.250	4.8249e-03
 7.500	18.500	4.5943e-03
 7.500	18.750	4.1195e-03
 7.500	19.000	3.3273e-03
 7.500	19.250	9.8115e-04
 7.500	19.500	9.0782e-05
 7.500	19.750	2.1399e-05
 7.500	20.000	3.2922e-06
 7.500	20.250	1.0000e-07
 7.500	20.500	1.0000e-07
 7.500	20.750	1.0000e-07
 7.500	21.000	1.0000e-07
 7.500	21.250	1.0000e-07
 7.500	21.500	1.0000e-07
 7.500	21.750	1.0000e-07
 7.500	22.000	1.0000e-07
 7.500	22.250	1.0000e-07
 7.500	22.500	1.0000e-07
 7.500	22.750	1.0000e-07
 7.500	23.000	1.0000e-07
 7.500	23.250	1.0000e-07
 7.500	23.500	1.0000e-07
 7.500	23.750	1.0000e-07
 7.500	24.000	1.0000e-07
 7.750	17.000	4.7815e-03
 7.750	17.250	4.8415e-03
 7.750	17.500	4.8905e-03
 7.750	17.750	4.9310e-03
 7.750	18.000	4.9356e-03
 7.750	18.250	4.8769e-03
 7.750	18.500	4.7455e-03
 7.750	18.750	4.5101e-03
 7.750	19.000	4.0381e-03
 7.750	19.250	3.2626e-03
 7.750	19.500	9.6988e-04
 7.750	19.750	9.0700e-05
 7.750	20.000	2.1399e-05
 7.750	20.250	3.2922e-06
 7.750	20.500	1.0000e-07
 7.750	20.750	1.0000e-07
 7.750	21.000	1.0000e-07
 7.750	21.250	1.0000e-07
 7.750	21.500	1.0000e-07
 7.750	21.750	1.0000e-07
 7.750	22.000	1.0000e-07
 7.750	22.250	1.0000e-07
 7.750	22.500	1.0000e-07
 7.750	22.750	1.0000e-07
 7.750	23.000	1.0000e-07
 7.750	23.250	1.0000e-07
 7.750	23.500	1.0000e-07
 7.750	23.750	1.0000e-07
 7.750	24.000	1.0000e-07
 8.000	17.000	4.5360e-03
 8.000	17.250	4.6096e-03
 8.000	17.500	4.6779e-03
 8.000	17.750	4.7426e-03
 8.000	18.000	4.7986e-03
 8.000	18.250	4.8124e-03
 8.000	18.500	4.7549e-03
 8.000	18.750	4.6186e-03
 8.000	19.000	4.3800e-03
 8.000	19.250	3.9196e-03
 8.000	19.500	3.1686e-03
 8.000	19.750	9.5407e-04
 8.000	20.000	9.0288e-05
 8.000	20.250	2.1399e-05
 8.000	20.500	3.2922e-06
 8.000	20.750	1.0000e-07
 8.000	21.000	1.0000e-07
 8.000	21.250	1.0000e-07
 8.000	21.500	1.0000e-07
 8.000	21.750	1.0000e-07
 8.000	22.000	1.0000e-07
 8.000	22.250	1.0000e-07
 8.000	22.500	1.0000e-07
 8.000	22.750	1.0000e-07
 8.000	23.000	1.0000e-07
 8.000	23.250	1.0000e-07
 8.000	23.500	1.0000e-07
 8.000	23.750	1.0000e-07
 8.000	24.000	1.0000e-07
 8.250	17.000	4.3422e-03
 8.250	17.250	4.4151e-03
 8.250	17.500	4.4847e-03
 8.250	17.750	4.5500e-03
 8.250	18.000	4.6137e-03
 8.250	18.250	4.6707e-03
 8.250	18.500	4.6840e-03
 8.250	18.750	4.6216e-03
 8.250	19.000	4.4781e-03
 8.250	19.250	4.2406e-03
 8.250	19.500	3.7959e-03
 8.250	19.750	3.0685e-03
 8.250	20.000	9.4091e-04
 8.250	20.250	8.9547e-05
 8.250	20.500	2.1235e-05
 8.250	20.750	3.2922e-06
 8.250	21.000	1.0000e-07
 8.250	21.250	1.0000e-07
 8.250	21.500	1.0000e-07
 8.250	21.750	1.0000e-07
 8.250	22.000	1.0000e-07
 8.250	22.250	1.0000e-07
 8.250	22.500	1.0000e-07
 8.250	22.750	1.0000e-07
 8.250	23.000	1.0000e-07
 8.250	23.250	1.0000e-07
 8.250	23.500	1.0000e-07
 8.250	23.750	1.0000e-07
 8.250	24.000	1.0000e-07
 8.500	17.000	4.1466e-03
 8.500	17.250	4.2131e-03
 8.500	17.500	4.2803e-03
 8.500	17.750	4.3432e-03
 8.500	18.000	4.4022e-03
 8.500	18.250	4.4606e-03
 8.500	18.500	4.5138e-03
 8.500	18.750	4.5231e-03
 8.500	19.000	4.4514e-03
 8.500	19.250	4.3040e-03
 8.500	19.500	4.0705e-03
 8.500	19.750	3.6525e-03
 8.500	20.000	2.9467e-03
 8.500	20.250	9.2321e-04
 8.500	20.500	8.8889e-05
 8.500	20.750	2.1152e-05
 8.500	21.000	3.2922e-06
 8.500	21.250	1.0000e-07
 8.500	21.500	1.0000e-07
 8.500	21.750	1.0000e-07
 8.500	22.000	1.0000e-07
 8.500	22.250	1.0000e-07
 8.500	22.500	1.0000e-07
 8.500	22.750	1.0000e-07
 8.500	23.000	1.0000e-07
 8.500	23.250	1.0000e-07
 8.500	23.500	1.0000e-07
 8.500	23.750	1.0000e-07
 8.500	24.000	1.0000e-07
 8.750	17.000	3.9567e-03
 8.750	17.250	4.0169e-03
 8.750	17.500	4.0771e-03
 8.750	17.750	4.1359e-03
 8.750	18.000	4.1882e-03
 8.750	18.250	4.2349e-03
 8.750	18.500	4.2808e-03
 8.750	18.750	4.3231e-03
 8.750	19.000	4.3215e-03
 8.750	19.250	4.2402e-03
 8.750	19.500	4.0891e-03
 8.750	19.750	3.8582e-03
 8.750	20.000	3.4542e-03
 8.750	20.250	2.7893e-03
 8.750	20.500	9.0206e-04
 8.750	20.750	8.8148e-05
 8.750	21.000	2.0988e-05
 8.750	21.250	3.2922e-06
 8.750	21.500	1.0000e-07
 8.750	21.750	1.0000e-07
 8.750	22.000	1.0000e-07
 8.750	22.250	1.0000e-07
 8.750	22.500	1.0000e-07
 8.750	22.750	1.0000e-07
 8.750	23.000	1.0000e-07
 8.750	23.250	1.0000e-07
 8.750	23.500	1.0000e-07
 8.750	23.750	1.0000e-07
 8.750	24.000	1.0000e-07
 9.000	17.000	3.7765e-03
 9.000	17.250	3.8335e-03
 9.000	17.500	3.8892e-03
 9.000	17.750	3.9417e-03
 9.000	18.000	3.9876e-03
 9.000	18.250	4.0230e-03
 9.000	18.500	4.0497e-03
 9.000	18.750	4.0730e-03
 9.000	19.000	4.0926e-03
 9.000	19.250	4.0727e-03
 9.000	19.500	3.9795e-03
 9.000	19.750	3.8188e-03
 9.000	20.000	3.5883e-03
 9.000	20.250	3.2055e-03
 9.000	20.500	2.5937e-03
 9.000	20.750	8.8115e-04
 9.000	21.000	8.7654e-05
 9.000	21.250	2.0988e-05
 9.000	21.500	3.2922e-06
 9.000	21.750	1.0000e-07
 9.000	22.000	1.0000e-07
 9.000	22.250	1.0000e-07
 9.000	22.500	1.0000e-07
 9.000	22.750	1.0000e-07
 9.000	23.000	1.0000e-07
 9.000	23.250	1.0000e-07
 9.000	23.500	1.0000e-07
 9.000	23.750	1.0000e-07
 9.000	24.000	1.0000e-07
 9.250	17.000	3.6021e-03
 9.250	17.250	3.6667e-03
 9.250	17.500	3.7241e-03
 9.250	17.750	3.7747e-03
 9.250	18.000	3.8151e-03
 9.250	18.250	3.8428e-03
 9.250	18.500	3.8539e-03
 9.250	18.750	3.8498e-03
 9.250	19.000	3.8376e-03
 9.250	19.250	3.8217e-03
 9.250	19.500	3.7752e-03
 9.250	19.750	3.6607e-03
 9.250	20.000	3.4859e-03
 9.250	20.250	3.2597e-03
 9.250	20.500	2.9150e-03
 9.250	20.750	2.3707e-03
 9.250	21.000	8.6510e-04
 9.250	21.250	8.7490e-05
 9.250	21.500	2.0988e-05
 9.250	21.750	3.2922e-06
 9.250	22.000	1.0000e-07
 9.250	22.250	1.0000e-07
 9.250	22.500	1.0000e-07
 9.250	22.750	1.0000e-07
 9.250	23.000	1.0000e-07
 9.250	23.250	1.0000e-07
 9.250	23.500	1.0000e-07
 9.250	23.750	1.0000e-07
 9.250	24.000	1.0000e-07
 9.500	17.000	3.4115e-03
 9.500	17.250	3.5142e-03
 9.500	17.500	3.5830e-03
 9.500	17.750	3.6385e-03
 9.500	18.000	3.6807e-03
 9.500	18.250	3.7058e-03
 9.500	18.500	3.7081e-03
 9.500	18.750	3.6833e-03
 9.500	19.000	3.6352e-03
 9.500	19.250	3.5769e-03
 9.500	19.500	3.5168e-03
 9.500	19.750	3.4301e-03
 9.500	20.000	3.2905e-03
 9.500	20.250	3.1112e-03
 9.500	20.500	2.9193e-03
 9.500	20.750	2.6374e-03
 9.500	21.000	2.1640e-03
 9.500	21.250	8.4774e-04
 9.500	21.500	8.7654e-05
 9.500	21.750	2.1235e-05
 9.500	22.000	3.2922e-06
 9.500	22.250	1.0000e-07
 9.500	22.500	1.0000e-07
 9.500	22.750	1.0000e-07
 9.500	23.000	1.0000e-07
 9.500	23.250	1.0000e-07
 9.500	23.500	1.0000e-07
 9.500	23.750	1.0000e-07
 9.500	24.000	1.0000e-07
 9.750	17.000	3.1581e-03
 9.750	17.250	3.3472e-03
 9.750	17.500	3.4584e-03
 9.750	17.750	3.5304e-03
 9.750	18.000	3.5815e-03
 9.750	18.250	3.6123e-03
 9.750	18.500	3.6127e-03
 9.750	18.750	3.5771e-03
 9.750	19.000	3.5044e-03
 9.750	19.250	3.4044e-03
 9.750	19.500	3.2954e-03
 9.750	19.750	3.1824e-03
 9.750	20.000	3.0563e-03
 9.750	20.250	2.9110e-03
 9.750	20.500	2.7832e-03
 9.750	20.750	2.6714e-03
 9.750	21.000	2.4364e-03
 9.750	21.250	2.0120e-03
 9.750	21.500	8.3449e-04
 9.750	21.750	8.8395e-05
 9.750	22.000	2.1728e-05
 9.750	22.250	3.3745e-06
 9.750	22.500	1.0000e-07
 9.750	22.750	1.0000e-07
 9.750	23.000	1.0000e-07
 9.750	23.250	1.0000e-07
 9.750	23.500	1.0000e-07
 9.750	23.750	1.0000e-07
 9.750	24.000	1.0000e-07
10.000	17.000	2.8012e-03
10.000	17.250	3.1198e-03
10.000	17.500	3.3217e-03
10.000	17.750	3.4397e-03
10.000	18.000	3.5118e-03
10.000	18.250	3.5543e-03
10.000	18.500	3.5607e-03
10.000	18.750	3.5219e-03
10.000	19.000	3.4357e-03
10.000	19.250	3.3071e-03
10.000	19.500	3.1556e-03
10.000	19.750	2.9992e-03
10.000	20.000	2.8463e-03
10.000	20.250	2.7165e-03
10.000	20.500	2.6486e-03
10.000	20.750	2.6374e-03
10.000	21.000	2.5685e-03
10.000	21.250	2.4276e-03
10.000	21.500	2.0034e-03
10.000	21.750	8.1852e-04
10.000	22.000	8.9547e-05
10.000	22.250	2.2469e-05
10.000	22.500	3.5391e-06
10.000	22.750	1.0000e-07
10.000	23.000	1.0000e-07
10.000	23.250	1.0000e-07
10.000	23.500	1.0000e-07
10.000	23.750	1.0000e-07
10.000	24.000	1.0000e-07
10.250	17.000	2.3305e-03
10.250	17.250	2.7743e-03
10.250	17.500	3.1280e-03
10.250	17.750	3.3410e-03
10.250	18.000	3.4612e-03
10.250	18.250	3.5233e-03
10.250	18.500	3.5403e-03
10.250	18.750	3.5080e-03
10.250	19.000	3.4154e-03
10.250	19.250	3.2698e-03
10.250	19.500	3.0880e-03
10.250	19.750	2.8967e-03
10.250	20.000	2.7155e-03
10.250	20.250	2.5775e-03
10.250	20.500	2.5210e-03
10.250	20.750	2.6170e-03
10.250	21.000	2.6828e-03
10.250	21.250	2.7769e-03
10.250	21.500	2.7570e-03
10.250	21.750	2.2032e-03
10.250	22.000	7.9753e-04
10.250	22.250	9.0947e-05
10.250	22.500	2.3374e-05
10.250	22.750	3.7037e-06
10.250	23.000	1.0000e-07
10.250	23.250	1.0000e-07
10.250	23.500	1.0000e-07
10.250	23.750	1.0000e-07
10.250	24.000	1.0000e-07
10.500	17.000	1.8364e-03
10.500	17.250	2.3391e-03
10.500	17.500	2.8193e-03
10.500	17.750	3.1969e-03
10.500	18.000	3.4113e-03
10.500	18.250	3.5123e-03
10.500	18.500	3.5448e-03
10.500	18.750	3.5218e-03
10.500	19.000	3.4346e-03
10.500	19.250	3.2771e-03
10.500	19.500	3.0740e-03
10.500	19.750	2.8602e-03
10.500	20.000	2.6593e-03
10.500	20.250	2.5215e-03
10.500	20.500	2.4729e-03
10.500	20.750	2.6012e-03
10.500	21.000	2.7982e-03
10.500	21.250	3.0897e-03
10.500	21.500	3.3840e-03
10.500	21.750	3.3691e-03
10.500	22.000	2.5036e-03
10.500	22.250	7.6988e-04
10.500	22.500	9.2263e-05
10.500	22.750	2.4362e-05
10.500	23.000	3.9506e-06
10.500	23.250	8.2305e-07
10.500	23.500	1.0000e-07
10.500	23.750	1.0000e-07
10.500	24.000	1.0000e-07
10.750	17.000	1.3844e-03
10.750	17.250	1.8402e-03
10.750	17.500	2.4086e-03
10.750	17.750	2.9495e-03
10.750	18.000	3.3192e-03
10.750	18.250	3.5043e-03
10.750	18.500	3.5658e-03
10.750	18.750	3.5577e-03
10.750	19.000	3.4806e-03
10.750	19.250	3.3239e-03
10.750	19.500	3.1012e-03
10.750	19.750	2.8671e-03
10.750	20.000	2.6552e-03
10.750	20.250	2.5194e-03
10.750	20.500	2.5355e-03
10.750	20.750	2.6987e-03
10.750	21.000	2.8898e-03
10.750	21.250	3.3123e-03
10.750	21.500	3.7752e-03
10.750	21.750	4.1177e-03
10.750	22.000	3.9672e-03
10.750	22.250	2.6535e-03
10.750	22.500	7.4181e-04
10.750	22.750	9.3086e-05
10.750	23.000	2.5103e-05
10.750	23.250	4.1152e-06
10.750	23.500	9.0535e-07
10.750	23.750	1.0000e-07
10.750	24.000	1.0000e-07
11.000	17.000	1.0134e-03
11.000	17.250	1.3626e-03
11.000	17.500	1.8900e-03
11.000	17.750	2.5668e-03
11.000	18.000	3.1218e-03
11.000	18.250	3.4489e-03
11.000	18.500	3.5936e-03
11.000	18.750	3.6157e-03
11.000	19.000	3.5509e-03
11.000	19.250	3.3984e-03
11.000	19.500	3.1664e-03
11.000	19.750	2.9046e-03
11.000	20.000	2.6816e-03
11.000	20.250	2.5505e-03
11.000	20.500	2.5863e-03
11.000	20.750	2.7627e-03
11.000	21.000	2.9236e-03
11.000	21.250	3.4337e-03
11.000	21.500	3.9399e-03
11.000	21.750	4.3752e-03
11.000	22.000	4.6250e-03
11.000	22.250	4.3139e-03
11.000	22.500	2.6017e-03
11.000	22.750	7.8362e-04
11.000	23.000	9.3169e-05
11.000	23.250	2.5514e-05
11.000	23.500	4.2798e-06
11.000	23.750	9.0535e-07
11.000	24.000	1.0000e-07
11.250	17.000	7.2510e-04
11.250	17.250	9.6658e-04
11.250	17.500	1.3620e-03
11.250	17.750	2.0133e-03
11.250	18.000	2.7514e-03
11.250	18.250	3.2928e-03
11.250	18.500	3.5835e-03
11.250	18.750	3.6851e-03
11.250	19.000	3.6470e-03
11.250	19.250	3.5010e-03
11.250	19.500	3.2626e-03
11.250	19.750	2.9764e-03
11.250	20.000	2.7296e-03
11.250	20.250	2.5974e-03
11.250	20.500	2.5873e-03
11.250	20.750	2.8469e-03
11.250	21.000	2.9470e-03
11.250	21.250	3.5098e-03
11.250	21.500	3.9219e-03
11.250	21.750	4.2602e-03
11.250	22.000	4.5481e-03
11.250	22.250	4.6328e-03
11.250	22.500	4.2036e-03
11.250	22.750	2.5184e-03
11.250	23.000	7.8148e-04
11.250	23.250	9.2428e-05
11.250	23.500	2.5514e-05
11.250	23.750	4.2798e-06
11.250	24.000	9.0535e-07
11.500	17.000	5.0716e-04
11.500	17.250	6.6774e-04
11.500	17.500	9.2658e-04
11.500	17.750	1.4131e-03
11.500	18.000	2.1773e-03
11.500	18.250	2.9660e-03
11.500	18.500	3.4911e-03
11.500	18.750	3.7376e-03
11.500	19.000	3.7659e-03
11.500	19.250	3.6390e-03
11.500	19.500	3.3954e-03
11.500	19.750	3.0872e-03
11.500	20.000	2.8085e-03
11.500	20.250	2.6552e-03
11.500	20.500	2.7445e-03
11.500	20.750	2.8451e-03
11.500	21.000	3.1212e-03
11.500	21.250	3.4973e-03
11.500	21.500	3.7416e-03
11.500	21.750	3.9352e-03
11.500	22.000	4.0885e-03
11.500	22.250	4.2397e-03
11.500	22.500	4.1880e-03
11.500	22.750	3.5732e-03
11.500	23.000	3.5681e-03
11.500	23.250	7.9737e-04
11.500	23.500	9.1029e-05
11.500	23.750	2.4856e-05
11.500	24.000	4.1975e-06
11.750	17.000	3.2996e-04
11.750	17.250	4.5399e-04
11.750	17.500	6.1465e-04
11.750	17.750	9.2617e-04
11.750	18.000	1.5232e-03
11.750	18.250	2.4212e-03
11.750	18.500	3.2762e-03
11.750	18.750	3.7453e-03
11.750	19.000	3.9049e-03
11.750	19.250	3.8253e-03
11.750	19.500	3.5848e-03
11.750	19.750	3.2515e-03
11.750	20.000	2.9304e-03
11.750	20.250	2.7374e-03
11.750	20.500	2.8316e-03
11.750	20.750	2.8005e-03
11.750	21.000	3.2283e-03
11.750	21.250	3.4909e-03
11.750	21.500	3.5522e-03
11.750	21.750	3.5383e-03
11.750	22.000	3.4932e-03
11.750	22.250	3.5443e-03
11.750	22.500	3.6486e-03
11.750	22.750	3.5533e-03
11.750	23.000	2.9217e-03
11.750	23.250	2.1958e-03
11.750	23.500	8.7704e-04
11.750	23.750	8.9547e-05
11.750	24.000	2.3786e-05
12.000	17.000	1.9835e-04
12.000	17.250	2.9235e-04
12.000	17.500	4.0658e-04
12.000	17.750	5.9457e-04
12.000	18.000	9.8716e-04
12.000	18.250	1.7521e-03
12.000	18.500	2.8086e-03
12.000	18.750	3.6733e-03
12.000	19.000	4.0579e-03
12.000	19.250	4.0867e-03
12.000	19.500	3.8638e-03
12.000	19.750	3.5002e-03
12.000	20.000	3.1264e-03
12.000	20.250	2.8750e-03
12.000	20.500	2.9098e-03
12.000	20.750	2.9530e-03
12.000	21.000	3.3323e-03
12.000	21.250	3.5724e-03
12.000	21.500	3.3807e-03
12.000	21.750	3.1816e-03
12.000	22.000	2.9790e-03
12.000	22.250	2.9095e-03
12.000	22.500	2.9262e-03
12.000	22.750	3.0202e-03
12.000	23.000	2.6909e-03
12.000	23.250	2.1954e-03
12.000	23.500	2.0479e-03
12.000	23.750	7.5399e-04
12.000	24.000	8.8889e-05
12.250	17.000	1.2115e-04
12.250	17.250	1.7556e-04
12.250	17.500	2.5942e-04
12.250	17.750	3.8551e-04
12.250	18.000	6.2593e-04
12.250	18.250	1.1640e-03
12.250	18.500	2.1771e-03
12.250	18.750	3.3738e-03
12.250	19.000	4.1282e-03
12.250	19.250	4.3946e-03
12.250	19.500	4.2772e-03
12.250	19.750	3.8900e-03
12.250	20.000	3.4145e-03
12.250	20.250	3.1031e-03
12.250	20.500	3.0525e-03
12.250	20.750	3.1700e-03
12.250	21.000	3.3473e-03
12.250	21.250	3.5373e-03
12.250	21.500	3.2955e-03
12.250	21.750	2.9435e-03
12.250	22.000	2.5995e-03
12.250	22.250	2.3882e-03
12.250	22.500	2.3872e-03
12.250	22.750	2.6194e-03
12.250	23.000	2.2586e-03
12.250	23.250	1.9668e-03
12.250	23.500	1.5863e-03
12.250	23.750	1.1079e-03
12.250	24.000	6.0412e-04
12.500	17.000	7.7860e-05
12.500	17.250	1.0774e-04
12.500	17.500	1.5786e-04
12.500	17.750	2.4272e-04
12.500	18.000	4.0173e-04
12.500	18.250	7.4156e-04
12.500	18.500	1.5235e-03
12.500	18.750	2.8128e-03
12.500	19.000	4.0639e-03
12.500	19.250	4.6942e-03
12.500	19.500	4.7709e-03
12.500	19.750	4.4659e-03
12.500	20.000	3.9478e-03
12.500	20.250	3.4251e-03
12.500	20.500	3.2919e-03
12.500	20.750	3.4612e-03
12.500	21.000	3.6514e-03
12.500	21.250	3.5629e-03
12.500	21.500	3.2676e-03
12.500	21.750	2.8014e-03
12.500	22.000	2.3672e-03
12.500	22.250	2.0670e-03
12.500	22.500	2.0155e-03
12.500	22.750	2.0137e-03
12.500	23.000	1.9133e-03
12.500	23.250	1.6281e-03
12.500	23.500	1.3823e-03
12.500	23.750	1.8095e-03
12.500	24.000	8.9572e-04
12.750	17.000	5.2099e-05
12.750	17.250	7.0370e-05
12.750	17.500	9.8848e-05
12.750	17.750	1.4790e-04
12.750	18.000	2.4741e-04
12.750	18.250	4.5770e-04
12.750	18.500	9.6864e-04
12.750	18.750	2.0346e-03
12.750	19.000	3.5309e-03
12.750	19.250	4.7703e-03
12.750	19.500	5.2598e-03
12.750	19.750	5.1338e-03
12.750	20.000	4.6803e-03
12.750	20.250	4.1207e-03
12.750	20.500	3.7172e-03
12.750	20.750	3.6527e-03
12.750	21.000	4.0564e-03
12.750	21.250	3.7637e-03
12.750	21.500	3.3328e-03
12.750	21.750	2.8086e-03
12.750	22.000	2.2992e-03
12.750	22.250	1.9295e-03
12.750	22.500	1.7646e-03
12.750	22.750	1.6844e-03
12.750	23.000	1.6235e-03
12.750	23.250	1.4914e-03
12.750	23.500	1.1698e-03
12.750	23.750	9.7646e-04
12.750	24.000	1.1204e-03
13.000	17.000	3.6790e-05
13.000	17.250	4.6420e-05
13.000	17.500	6.2716e-05
13.000	17.750	9.3580e-05
13.000	18.000	1.4963e-04
13.000	18.250	2.7004e-04
13.000	18.500	5.7564e-04
13.000	18.750	1.2788e-03
13.000	19.000	2.5353e-03
13.000	19.250	4.1150e-03
13.000	19.500	5.2715e-03
13.000	19.750	5.6725e-03
13.000	20.000	5.4519e-03
13.000	20.250	5.0583e-03
13.000	20.500	4.6933e-03
13.000	20.750	4.4560e-03
13.000	21.000	4.3498e-03
13.000	21.250	4.1295e-03
13.000	21.500	3.5990e-03
13.000	21.750	3.0444e-03
13.000	22.000	2.3595e-03
13.000	22.250	1.9561e-03
13.000	22.500	1.6765e-03
13.000	22.750	1.5087e-03
13.000	23.000	1.3855e-03
13.000	23.250	1.3955e-03
13.000	23.500	1.1067e-03
13.000	23.750	9.2058e-04
13.000	24.000	7.0148e-04
13.250	17.000	2.5597e-05
13.250	17.250	3.2840e-05
13.250	17.500	4.3292e-05
13.250	17.750	6.1235e-05
13.250	18.000	9.5885e-05
13.250	18.250	1.6675e-04
13.250	18.500	3.2922e-04
13.250	18.750	7.0905e-04
13.250	19.000	1.4597e-03
13.250	19.250	2.6264e-03
13.250	19.500	3.9828e-03
13.250	19.750	5.1929e-03
13.250	20.000	5.6588e-03
13.250	20.250	5.5216e-03
13.250	20.500	5.3618e-03
13.250	20.750	5.4188e-03
13.250	21.000	5.2294e-03
13.250	21.250	4.8438e-03
13.250	21.500	4.1248e-03
13.250	21.750	3.3133e-03
13.250	22.000	2.6436e-03
13.250	22.250	2.0602e-03
13.250	22.500	1.6095e-03
13.250	22.750	1.4444e-03
13.250	23.000	1.2958e-03
13.250	23.250	1.1933e-03
13.250	23.500	2.0159e-03
13.250	23.750	8.9852e-04
13.250	24.000	6.5078e-04
13.500	17.000	1.7860e-05
13.500	17.250	2.3374e-05
13.500	17.500	3.0947e-05
13.500	17.750	4.3292e-05
13.500	18.000	6.5350e-05
13.500	18.250	1.0798e-04
13.500	18.500	1.9177e-04
13.500	18.750	3.6963e-04
13.500	19.000	7.2584e-04
13.500	19.250	1.3147e-03
13.500	19.500	2.1709e-03
13.500	19.750	3.2572e-03
13.500	20.000	3.9455e-03
13.500	20.250	4.9552e-03
13.500	20.500	4.8747e-03
13.500	20.750	5.2648e-03
13.500	21.000	5.2426e-03
13.500	21.250	5.2099e-03
13.500	21.500	4.3851e-03
13.500	21.750	3.6566e-03
13.500	22.000	2.8880e-03
13.500	22.250	2.2876e-03
13.500	22.500	1.7503e-03
13.500	22.750	1.3570e-03
13.500	23.000	1.2192e-03
13.500	23.250	1.1125e-03
13.500	23.500	9.9572e-04
13.500	23.750	1.0275e-03
13.500	24.000	7.5103e-04
13.750	17.000	1.2510e-05
13.750	17.250	1.6626e-05
13.750	17.500	2.2222e-05
13.750	17.750	3.1029e-05
13.750	18.000	4.5514e-05
13.750	18.250	7.1111e-05
13.750	18.500	1.1671e-04
13.750	18.750	1.9654e-04
13.750	19.000	3.3572e-04
13.750	19.250	5.6016e-04
13.750	19.500	8.8642e-04
13.750	19.750	1.3182e-03
13.750	20.000	1.8773e-03
13.750	20.250	2.2184e-03
13.750	20.500	2.8244e-03
13.750	20.750	3.2097e-03
13.750	21.000	3.5238e-03
13.750	21.250	3.4917e-03
13.750	21.500	3.7734e-03
13.750	21.750	3.3975e-03
13.750	22.000	2.8924e-03
13.750	22.250	2.4694e-03
13.750	22.500	2.0584e-03
13.750	22.750	1.5179e-03
13.750	23.000	1.1634e-03
13.750	23.250	1.0384e-03
13.750	23.500	9.3506e-04
13.750	23.750	9.5012e-04
13.750	24.000	9.8263e-04
14.000	17.000	8.7243e-06
14.000	17.250	1.1852e-05
14.000	17.500	1.5885e-05
14.000	17.750	2.2140e-05
14.000	18.000	3.1852e-05
14.000	18.250	4.6996e-05
14.000	18.500	7.0700e-05
14.000	18.750	1.0642e-04
14.000	19.000	1.5844e-04
14.000	19.250	2.3646e-04
14.000	19.500	3.3383e-04
14.000	19.750	4.6576e-04
14.000	20.000	6.2716e-04
14.000	20.250	8.1835e-04
14.000	20.500	1.0349e-03
14.000	20.750	1.1713e-03
14.000	21.000	1.4141e-03
14.000	21.250	1.7500e-03
14.000	21.500	1.7504e-03
14.000	21.750	2.0496e-03
14.000	22.000	2.2485e-03
14.000	22.250	2.5036e-03
14.000	22.500	2.3708e-03
14.000	22.750	1.9519e-03
14.000	23.000	1.5207e-03
14.000	23.250	1.1318e-03
14.000	23.500	1.0242e-03
14.000	23.750	9.5457e-04
14.000	24.000	1.0287e-03
