Inwd 1025.73A  relative to Inci 1215.00A scaled to 1215A.
Hden   Phi(H)  Eq_Width (A)
 7.000	17.000	4.4831e-04
 7.000	17.250	5.7160e-04
 7.000	17.500	7.5975e-04
 7.000	17.750	9.5506e-04
 7.000	18.000	1.1170e-03
 7.000	18.250	1.2637e-03
 7.000	18.500	1.0117e-03
 7.000	18.750	9.4535e-04
 7.000	19.000	7.3934e-04
 7.000	19.250	3.1012e-04
 7.000	19.500	4.8971e-05
 7.000	19.750	1.0370e-05
 7.000	20.000	2.9630e-06
 7.000	20.250	1.0700e-06
 7.000	20.500	1.0000e-07
 7.000	20.750	1.0000e-07
 7.000	21.000	1.0000e-07
 7.000	21.250	1.0000e-07
 7.000	21.500	1.0000e-07
 7.000	21.750	1.0000e-07
 7.000	22.000	1.0000e-07
 7.000	22.250	1.0000e-07
 7.000	22.500	1.0000e-07
 7.000	22.750	1.0000e-07
 7.000	23.000	1.0000e-07
 7.000	23.250	1.0000e-07
 7.000	23.500	1.0000e-07
 7.000	23.750	1.0000e-07
 7.000	24.000	1.0000e-07
 7.250	17.000	4.2412e-04
 7.250	17.250	5.2222e-04
 7.250	17.500	6.9095e-04
 7.250	17.750	9.4165e-04
 7.250	18.000	1.2068e-03
 7.250	18.250	1.4277e-03
 7.250	18.500	1.5900e-03
 7.250	18.750	1.0522e-03
 7.250	19.000	9.4930e-04
 7.250	19.250	7.4000e-04
 7.250	19.500	3.1037e-04
 7.250	19.750	4.8971e-05
 7.250	20.000	1.0370e-05
 7.250	20.250	2.9630e-06
 7.250	20.500	1.0700e-06
 7.250	20.750	1.0000e-07
 7.250	21.000	1.0000e-07
 7.250	21.250	1.0000e-07
 7.250	21.500	1.0000e-07
 7.250	21.750	1.0000e-07
 7.250	22.000	1.0000e-07
 7.250	22.250	1.0000e-07
 7.250	22.500	1.0000e-07
 7.250	22.750	1.0000e-07
 7.250	23.000	1.0000e-07
 7.250	23.250	1.0000e-07
 7.250	23.500	1.0000e-07
 7.250	23.750	1.0000e-07
 7.250	24.000	1.0000e-07
 7.500	17.000	4.1630e-04
 7.500	17.250	5.0000e-04
 7.500	17.500	6.4502e-04
 7.500	17.750	8.8807e-04
 7.500	18.000	1.2419e-03
 7.500	18.250	1.6235e-03
 7.500	18.500	1.9388e-03
 7.500	18.750	2.1029e-03
 7.500	19.000	1.1170e-03
 7.500	19.250	9.5539e-04
 7.500	19.500	7.4107e-04
 7.500	19.750	3.1053e-04
 7.500	20.000	4.9053e-05
 7.500	20.250	1.0370e-05
 7.500	20.500	2.9630e-06
 7.500	20.750	1.0700e-06
 7.500	21.000	1.0000e-07
 7.500	21.250	1.0000e-07
 7.500	21.500	1.0000e-07
 7.500	21.750	1.0000e-07
 7.500	22.000	1.0000e-07
 7.500	22.250	1.0000e-07
 7.500	22.500	1.0000e-07
 7.500	22.750	1.0000e-07
 7.500	23.000	1.0000e-07
 7.500	23.250	1.0000e-07
 7.500	23.500	1.0000e-07
 7.500	23.750	1.0000e-07
 7.500	24.000	1.0000e-07
 7.750	17.000	4.1358e-04
 7.750	17.250	4.9160e-04
 7.750	17.500	6.2263e-04
 7.750	17.750	8.4683e-04
 7.750	18.000	1.2147e-03
 7.750	18.250	1.7406e-03
 7.750	18.500	2.3141e-03
 7.750	18.750	2.7818e-03
 7.750	19.000	2.9951e-03
 7.750	19.250	1.2259e-03
 7.750	19.500	9.6691e-04
 7.750	19.750	7.4329e-04
 7.750	20.000	3.1070e-04
 7.750	20.250	4.9053e-05
 7.750	20.500	1.0370e-05
 7.750	20.750	2.9630e-06
 7.750	21.000	1.0700e-06
 7.750	21.250	1.0000e-07
 7.750	21.500	1.0000e-07
 7.750	21.750	1.0000e-07
 7.750	22.000	1.0000e-07
 7.750	22.250	1.0000e-07
 7.750	22.500	1.0000e-07
 7.750	22.750	1.0000e-07
 7.750	23.000	1.0000e-07
 7.750	23.250	1.0000e-07
 7.750	23.500	1.0000e-07
 7.750	23.750	1.0000e-07
 7.750	24.000	1.0000e-07
 8.000	17.000	4.0700e-04
 8.000	17.250	4.8000e-04
 8.000	17.500	6.0535e-04
 8.000	17.750	8.1761e-04
 8.000	18.000	1.1735e-03
 8.000	18.250	1.7461e-03
 8.000	18.500	2.5371e-03
 8.000	18.750	3.3927e-03
 8.000	19.000	4.0813e-03
 8.000	19.250	4.0427e-03
 8.000	19.500	1.3868e-03
 8.000	19.750	9.8132e-04
 8.000	20.000	7.4584e-04
 8.000	20.250	3.1103e-04
 8.000	20.500	4.9053e-05
 8.000	20.750	1.0370e-05
 8.000	21.000	2.9630e-06
 8.000	21.250	1.0700e-06
 8.000	21.500	1.0000e-07
 8.000	21.750	1.0000e-07
 8.000	22.000	1.0000e-07
 8.000	22.250	1.0000e-07
 8.000	22.500	1.0000e-07
 8.000	22.750	1.0000e-07
 8.000	23.000	1.0000e-07
 8.000	23.250	1.0000e-07
 8.000	23.500	1.0000e-07
 8.000	23.750	1.0000e-07
 8.000	24.000	1.0000e-07
 8.250	17.000	3.9926e-04
 8.250	17.250	4.7202e-04
 8.250	17.500	5.9778e-04
 8.250	17.750	8.1572e-04
 8.250	18.000	1.1789e-03
 8.250	18.250	1.7655e-03
 8.250	18.500	2.6607e-03
 8.250	18.750	3.8679e-03
 8.250	19.000	5.1364e-03
 8.250	19.250	6.1366e-03
 8.250	19.500	5.8707e-03
 8.250	19.750	1.6534e-03
 8.250	20.000	9.9794e-04
 8.250	20.250	7.4914e-04
 8.250	20.500	3.1128e-04
 8.250	20.750	4.9053e-05
 8.250	21.000	1.0370e-05
 8.250	21.250	2.9630e-06
 8.250	21.500	1.0700e-06
 8.250	21.750	1.0000e-07
 8.250	22.000	1.0000e-07
 8.250	22.250	1.0000e-07
 8.250	22.500	1.0000e-07
 8.250	22.750	1.0000e-07
 8.250	23.000	1.0000e-07
 8.250	23.250	1.0000e-07
 8.250	23.500	1.0000e-07
 8.250	23.750	1.0000e-07
 8.250	24.000	1.0000e-07
 8.500	17.000	3.8790e-04
 8.500	17.250	4.6214e-04
 8.500	17.500	5.9284e-04
 8.500	17.750	8.2173e-04
 8.500	18.000	1.2106e-03
 8.500	18.250	1.8221e-03
 8.500	18.500	2.7521e-03
 8.500	18.750	4.1022e-03
 8.500	19.000	5.8501e-03
 8.500	19.250	7.6547e-03
 8.500	19.500	9.0346e-03
 8.500	19.750	8.5093e-03
 8.500	20.000	2.0394e-03
 8.500	20.250	1.0204e-03
 8.500	20.500	7.5243e-04
 8.500	20.750	3.1144e-04
 8.500	21.000	4.9053e-05
 8.500	21.250	1.0370e-05
 8.500	21.500	2.9630e-06
 8.500	21.750	1.0700e-06
 8.500	22.000	1.0000e-07
 8.500	22.250	1.0000e-07
 8.500	22.500	1.0000e-07
 8.500	22.750	1.0000e-07
 8.500	23.000	1.0000e-07
 8.500	23.250	1.0000e-07
 8.500	23.500	1.0000e-07
 8.500	23.750	1.0000e-07
 8.500	24.000	1.0000e-07
 8.750	17.000	3.7761e-04
 8.750	17.250	4.5440e-04
 8.750	17.500	5.9440e-04
 8.750	17.750	8.4049e-04
 8.750	18.000	1.2569e-03
 8.750	18.250	1.9209e-03
 8.750	18.500	2.8943e-03
 8.750	18.750	4.2675e-03
 8.750	19.000	6.1609e-03
 8.750	19.250	8.5516e-03
 8.750	19.500	1.1009e-02
 8.750	19.750	1.2786e-02
 8.750	20.000	1.0157e-02
 8.750	20.250	2.6312e-03
 8.750	20.500	1.0356e-03
 8.750	20.750	7.5416e-04
 8.750	21.000	3.1111e-04
 8.750	21.250	4.8971e-05
 8.750	21.500	1.0370e-05
 8.750	21.750	2.9630e-06
 8.750	22.000	1.0700e-06
 8.750	22.250	1.0000e-07
 8.750	22.500	1.0000e-07
 8.750	22.750	1.0000e-07
 8.750	23.000	1.0000e-07
 8.750	23.250	1.0000e-07
 8.750	23.500	1.0000e-07
 8.750	23.750	1.0000e-07
 8.750	24.000	1.0000e-07
 9.000	17.000	3.8272e-04
 9.000	17.250	4.6617e-04
 9.000	17.500	6.1292e-04
 9.000	17.750	8.8156e-04
 9.000	18.000	1.3346e-03
 9.000	18.250	2.0472e-03
 9.000	18.500	3.0880e-03
 9.000	18.750	4.4812e-03
 9.000	19.000	6.3398e-03
 9.000	19.250	8.8418e-03
 9.000	19.500	1.1990e-02
 9.000	19.750	1.5193e-02
 9.000	20.000	1.7203e-02
 9.000	20.250	1.1500e-02
 9.000	20.500	3.2669e-03
 9.000	20.750	1.0529e-03
 9.000	21.000	7.5259e-04
 9.000	21.250	3.0996e-04
 9.000	21.500	4.8807e-05
 9.000	21.750	1.0288e-05
 9.000	22.000	2.9630e-06
 9.000	22.250	1.0700e-06
 9.000	22.500	1.0000e-07
 9.000	22.750	1.0000e-07
 9.000	23.000	1.0000e-07
 9.000	23.250	1.0000e-07
 9.000	23.500	1.0000e-07
 9.000	23.750	1.0000e-07
 9.000	24.000	1.0000e-07
 9.250	17.000	3.9547e-04
 9.250	17.250	4.9605e-04
 9.250	17.500	6.7267e-04
 9.250	17.750	9.7432e-04
 9.250	18.000	1.4664e-03
 9.250	18.250	2.2267e-03
 9.250	18.500	3.3069e-03
 9.250	18.750	4.7551e-03
 9.250	19.000	6.5845e-03
 9.250	19.250	8.9601e-03
 9.250	19.500	1.2204e-02
 9.250	19.750	1.6346e-02
 9.250	20.000	2.0274e-02
 9.250	20.250	2.1976e-02
 9.250	20.500	1.2436e-02
 9.250	20.750	3.9298e-03
 9.250	21.000	1.0824e-03
 9.250	21.250	7.4469e-04
 9.250	21.500	3.0757e-04
 9.250	21.750	4.8477e-05
 9.250	22.000	1.0206e-05
 9.250	22.250	2.8807e-06
 9.250	22.500	1.0700e-06
 9.250	22.750	1.0000e-07
 9.250	23.000	1.0000e-07
 9.250	23.250	1.0000e-07
 9.250	23.500	1.0000e-07
 9.250	23.750	1.0000e-07
 9.250	24.000	1.0000e-07
 9.500	17.000	4.1235e-04
 9.500	17.250	5.4296e-04
 9.500	17.500	7.6601e-04
 9.500	17.750	1.1231e-03
 9.500	18.000	1.6762e-03
 9.500	18.250	2.4824e-03
 9.500	18.500	3.5838e-03
 9.500	18.750	5.0412e-03
 9.500	19.000	6.8667e-03
 9.500	19.250	9.1272e-03
 9.500	19.500	1.2118e-02
 9.500	19.750	1.6256e-02
 9.500	20.000	2.1413e-02
 9.500	20.250	2.5952e-02
 9.500	20.500	2.4482e-02
 9.500	20.750	1.2668e-02
 9.500	21.000	4.7891e-03
 9.500	21.250	1.1001e-03
 9.500	21.500	7.3119e-04
 9.500	21.750	3.0296e-04
 9.500	22.000	4.7819e-05
 9.500	22.250	1.0123e-05
 9.500	22.500	2.8807e-06
 9.500	22.750	1.0700e-06
 9.500	23.000	1.0000e-07
 9.500	23.250	1.0000e-07
 9.500	23.500	1.0000e-07
 9.500	23.750	1.0000e-07
 9.500	24.000	1.0000e-07
 9.750	17.000	4.4074e-04
 9.750	17.250	6.1251e-04
 9.750	17.500	9.0346e-04
 9.750	17.750	1.3563e-03
 9.750	18.000	1.9832e-03
 9.750	18.250	2.8178e-03
 9.750	18.500	3.9200e-03
 9.750	18.750	5.3444e-03
 9.750	19.000	7.1244e-03
 9.750	19.250	9.2542e-03
 9.750	19.500	1.1900e-02
 9.750	19.750	1.5524e-02
 9.750	20.000	2.0600e-02
 9.750	20.250	2.6645e-02
 9.750	20.500	3.1125e-02
 9.750	20.750	2.3266e-02
 9.750	21.000	1.2666e-02
 9.750	21.250	5.2583e-03
 9.750	21.500	1.1424e-03
 9.750	21.750	7.0609e-04
 9.750	22.000	2.9572e-04
 9.750	22.250	4.6914e-05
 9.750	22.500	9.8765e-06
 9.750	22.750	2.7984e-06
 9.750	23.000	9.8765e-07
 9.750	23.250	1.0000e-07
 9.750	23.500	1.0000e-07
 9.750	23.750	1.0000e-07
 9.750	24.000	1.0000e-07
10.000	17.000	4.7934e-04
10.000	17.250	7.0165e-04
10.000	17.500	1.0783e-03
10.000	17.750	1.6449e-03
10.000	18.000	2.3814e-03
10.000	18.250	3.2458e-03
10.000	18.500	4.3221e-03
10.000	18.750	5.6761e-03
10.000	19.000	7.3112e-03
10.000	19.250	9.2117e-03
10.000	19.500	1.1466e-02
10.000	19.750	1.4382e-02
10.000	20.000	1.8473e-02
10.000	20.250	2.4349e-02
10.000	20.500	3.0781e-02
10.000	20.750	3.4981e-02
10.000	21.000	2.1498e-02
10.000	21.250	1.1968e-02
10.000	21.500	5.1136e-03
10.000	21.750	1.2904e-03
10.000	22.000	6.7128e-04
10.000	22.250	2.8527e-04
10.000	22.500	4.5432e-05
10.000	22.750	9.5473e-06
10.000	23.000	2.6337e-06
10.000	23.250	9.0535e-07
10.000	23.500	1.0000e-07
10.000	23.750	1.0000e-07
10.000	24.000	1.0000e-07
10.250	17.000	5.3860e-04
10.250	17.250	8.1160e-04
10.250	17.500	1.2680e-03
10.250	17.750	1.9472e-03
10.250	18.000	2.7843e-03
10.250	18.250	3.7232e-03
10.250	18.500	4.7753e-03
10.250	18.750	6.0052e-03
10.250	19.000	7.4042e-03
10.250	19.250	8.9525e-03
10.250	19.500	1.0705e-02
10.250	19.750	1.2837e-02
10.250	20.000	1.5730e-02
10.250	20.250	2.0051e-02
10.250	20.500	2.6161e-02
10.250	20.750	3.2504e-02
10.250	21.000	3.3359e-02
10.250	21.250	1.7329e-02
10.250	21.500	1.0086e-02
10.250	21.750	4.6895e-03
10.250	22.000	1.3484e-03
10.250	22.250	6.3095e-04
10.250	22.500	2.7128e-04
10.250	22.750	4.3374e-05
10.250	23.000	8.9712e-06
10.250	23.250	2.4691e-06
10.250	23.500	1.0000e-07
10.250	23.750	1.0000e-07
10.250	24.000	1.0000e-07
10.500	17.000	5.7638e-04
10.500	17.250	8.9259e-04
10.500	17.500	1.4212e-03
10.500	17.750	2.2081e-03
10.500	18.000	3.1238e-03
10.500	18.250	4.1239e-03
10.500	18.500	5.1685e-03
10.500	18.750	6.2305e-03
10.500	19.000	7.3266e-03
10.500	19.250	8.4794e-03
10.500	19.500	9.7149e-03
10.500	19.750	1.1139e-02
10.500	20.000	1.2977e-02
10.500	20.250	1.5692e-02
10.500	20.500	1.9928e-02
10.500	20.750	2.5899e-02
10.500	21.000	3.1623e-02
10.500	21.250	2.3357e-02
10.500	21.500	1.3250e-02
10.500	21.750	8.9433e-03
10.500	22.000	4.1519e-03
10.500	22.250	1.3683e-03
10.500	22.500	5.9457e-04
10.500	22.750	2.5506e-04
10.500	23.000	4.0576e-05
10.500	23.250	8.2305e-06
10.500	23.500	2.1399e-06
10.500	23.750	1.0000e-07
10.500	24.000	1.0000e-07
10.750	17.000	6.1712e-04
10.750	17.250	9.6617e-04
10.750	17.500	1.5277e-03
10.750	17.750	2.3483e-03
10.750	18.000	3.3327e-03
10.750	18.250	4.3588e-03
10.750	18.500	5.3486e-03
10.750	18.750	6.2428e-03
10.750	19.000	7.0547e-03
10.750	19.250	7.8367e-03
10.750	19.500	8.6342e-03
10.750	19.750	9.5046e-03
10.750	20.000	1.0565e-02
10.750	20.250	1.2068e-02
10.750	20.500	1.4495e-02
10.750	20.750	1.8444e-02
10.750	21.000	2.3927e-02
10.750	21.250	2.8507e-02
10.750	21.500	1.8675e-02
10.750	21.750	1.1291e-02
10.750	22.000	7.0072e-03
10.750	22.250	3.5774e-03
10.750	22.500	1.3472e-03
10.750	22.750	5.7243e-04
10.750	23.000	2.3868e-04
10.750	23.250	3.7119e-05
10.750	23.500	7.3251e-06
10.750	23.750	1.8107e-06
10.750	24.000	1.0000e-07
11.000	17.000	6.5243e-04
11.000	17.250	1.0100e-03
11.000	17.500	1.5567e-03
11.000	17.750	2.3542e-03
11.000	18.000	3.3232e-03
11.000	18.250	4.3163e-03
11.000	18.500	5.2353e-03
11.000	18.750	5.9948e-03
11.000	19.000	6.5934e-03
11.000	19.250	7.0927e-03
11.000	19.500	7.5510e-03
11.000	19.750	8.0327e-03
11.000	20.000	8.5934e-03
11.000	20.250	9.3501e-03
11.000	20.500	1.0551e-02
11.000	20.750	1.2655e-02
11.000	21.000	1.6159e-02
11.000	21.250	2.0888e-02
11.000	21.500	2.2853e-02
11.000	21.750	1.1807e-02
11.000	22.000	7.7717e-03
11.000	22.250	5.2014e-03
11.000	22.500	2.7737e-03
11.000	22.750	1.2840e-03
11.000	23.000	5.6535e-04
11.000	23.250	2.2272e-04
11.000	23.500	3.2922e-05
11.000	23.750	6.0905e-06
11.000	24.000	1.3992e-06
11.250	17.000	6.7177e-04
11.250	17.250	1.0191e-03
11.250	17.500	1.5155e-03
11.250	17.750	2.2282e-03
11.250	18.000	3.1175e-03
11.250	18.250	4.0109e-03
11.250	18.500	4.8244e-03
11.250	18.750	5.5002e-03
11.250	19.000	5.9725e-03
11.250	19.250	6.2852e-03
11.250	19.500	6.5227e-03
11.250	19.750	6.7481e-03
11.250	20.000	7.0118e-03
11.250	20.250	7.3631e-03
11.250	20.500	7.9021e-03
11.250	20.750	8.8618e-03
11.250	21.000	1.0630e-02
11.250	21.250	1.3606e-02
11.250	21.500	1.7270e-02
11.250	21.750	1.5213e-02
11.250	22.000	9.2568e-03
11.250	22.250	5.6226e-03
11.250	22.500	3.8308e-03
11.250	22.750	2.2073e-03
11.250	23.000	1.1981e-03
11.250	23.250	5.5860e-04
11.250	23.500	2.0527e-04
11.250	23.750	2.8066e-05
11.250	24.000	4.8560e-06
11.500	17.000	6.7679e-04
11.500	17.250	9.9893e-04
11.500	17.500	1.4294e-03
11.500	17.750	2.0191e-03
11.500	18.000	2.7705e-03
11.500	18.250	3.5365e-03
11.500	18.500	4.2279e-03
11.500	18.750	4.8105e-03
11.500	19.000	5.2311e-03
11.500	19.250	5.4633e-03
11.500	19.500	5.5731e-03
11.500	19.750	5.6511e-03
11.500	20.000	5.7445e-03
11.500	20.250	5.8805e-03
11.500	20.500	6.1083e-03
11.500	20.750	6.5120e-03
11.500	21.000	7.2756e-03
11.500	21.250	8.7203e-03
11.500	21.500	1.1033e-02
11.500	21.750	1.3847e-02
11.500	22.000	1.0148e-02
11.500	22.250	6.3847e-03
11.500	22.500	4.2581e-03
11.500	22.750	2.7648e-03
11.500	23.000	1.7272e-03
11.500	23.250	1.0589e-03
11.500	23.500	5.3333e-04
11.500	23.750	1.8263e-04
11.500	24.000	2.2716e-05
11.750	17.000	6.6683e-04
11.750	17.250	9.5473e-04
11.750	17.500	1.3166e-03
11.750	17.750	1.7798e-03
11.750	18.000	2.3646e-03
11.750	18.250	2.9895e-03
11.750	18.500	3.5613e-03
11.750	18.750	4.0356e-03
11.750	19.000	4.4133e-03
11.750	19.250	4.6482e-03
11.750	19.500	4.7277e-03
11.750	19.750	4.7278e-03
11.750	20.000	4.7295e-03
11.750	20.250	4.7647e-03
11.750	20.500	4.8446e-03
11.750	20.750	5.0100e-03
11.750	21.000	5.3279e-03
11.750	21.250	5.9429e-03
11.750	21.500	7.0489e-03
11.750	21.750	8.8756e-03
11.750	22.000	1.0848e-02
11.750	22.250	6.9946e-03
11.750	22.500	4.5644e-03
11.750	22.750	2.7443e-03
11.750	23.000	1.9606e-03
11.750	23.250	1.3215e-03
11.750	23.500	8.9333e-04
11.750	23.750	4.7687e-04
11.750	24.000	1.5292e-04
12.000	17.000	6.4938e-04
12.000	17.250	8.9638e-04
12.000	17.500	1.1947e-03
12.000	17.750	1.5487e-03
12.000	18.000	1.9831e-03
12.000	18.250	2.4584e-03
12.000	18.500	2.9177e-03
12.000	18.750	3.3077e-03
12.000	19.000	3.6130e-03
12.000	19.250	3.8472e-03
12.000	19.500	3.9726e-03
12.000	19.750	3.9750e-03
12.000	20.000	3.9380e-03
12.000	20.250	3.9170e-03
12.000	20.500	3.9350e-03
12.000	20.750	3.9956e-03
12.000	21.000	4.1361e-03
12.000	21.250	4.4010e-03
12.000	21.500	4.8711e-03
12.000	21.750	5.7560e-03
12.000	22.000	7.1212e-03
12.000	22.250	8.6732e-03
12.000	22.500	4.7207e-03
12.000	22.750	3.0162e-03
12.000	23.000	2.0500e-03
12.000	23.250	1.3858e-03
12.000	23.500	1.0017e-03
12.000	23.750	7.1572e-04
12.000	24.000	3.9794e-04
12.250	17.000	6.0823e-04
12.250	17.250	8.4198e-04
12.250	17.500	1.0805e-03
12.250	17.750	1.3533e-03
12.250	18.000	1.6681e-03
12.250	18.250	2.0172e-03
12.250	18.500	2.3699e-03
12.250	18.750	2.6936e-03
12.250	19.000	2.9347e-03
12.250	19.250	3.1290e-03
12.250	19.500	3.2872e-03
12.250	19.750	3.3576e-03
12.250	20.000	3.3371e-03
12.250	20.250	3.2931e-03
12.250	20.500	3.2746e-03
12.250	20.750	3.2914e-03
12.250	21.000	3.3539e-03
12.250	21.250	3.4841e-03
12.250	21.500	3.6976e-03
12.250	21.750	4.0760e-03
12.250	22.000	4.7691e-03
12.250	22.250	5.7793e-03
12.250	22.500	5.7797e-03
12.250	22.750	3.5106e-03
12.250	23.000	2.2298e-03
12.250	23.250	1.4012e-03
12.250	23.500	9.7506e-04
12.250	23.750	7.4082e-04
12.250	24.000	5.5276e-04
12.500	17.000	5.9597e-04
12.500	17.250	7.8527e-04
12.500	17.500	9.9432e-04
12.500	17.750	1.2040e-03
12.500	18.000	1.4370e-03
12.500	18.250	1.6920e-03
12.500	18.500	1.9551e-03
12.500	18.750	2.2113e-03
12.500	19.000	2.4299e-03
12.500	19.250	2.5751e-03
12.500	19.500	2.7037e-03
12.500	19.750	2.8213e-03
12.500	20.000	2.8711e-03
12.500	20.250	2.8472e-03
12.500	20.500	2.8123e-03
12.500	20.750	2.8033e-03
12.500	21.000	2.8273e-03
12.500	21.250	2.8928e-03
12.500	21.500	3.0082e-03
12.500	21.750	3.1847e-03
12.500	22.000	3.4886e-03
12.500	22.250	4.0495e-03
12.500	22.500	4.9075e-03
12.500	22.750	4.1479e-03
12.500	23.000	2.4774e-03
12.500	23.250	1.4666e-03
12.500	23.500	1.0109e-03
12.500	23.750	6.9556e-04
12.500	24.000	5.3868e-04
12.750	17.000	5.6922e-04
12.750	17.250	7.3695e-04
12.750	17.500	9.2510e-04
12.750	17.750	1.1053e-03
12.750	18.000	1.2883e-03
12.750	18.250	1.4743e-03
12.750	18.500	1.6718e-03
12.750	18.750	1.8686e-03
12.750	19.000	2.0513e-03
12.750	19.250	2.1900e-03
12.750	19.500	2.2737e-03
12.750	19.750	2.3671e-03
12.750	20.000	2.4699e-03
12.750	20.250	2.5182e-03
12.750	20.500	2.4994e-03
12.750	20.750	2.4740e-03
12.750	21.000	2.4752e-03
12.750	21.250	2.4992e-03
12.750	21.500	2.5541e-03
12.750	21.750	2.6562e-03
12.750	22.000	2.7984e-03
12.750	22.250	3.0534e-03
12.750	22.500	3.5527e-03
12.750	22.750	4.3515e-03
12.750	23.000	3.5612e-03
12.750	23.250	1.7319e-03
12.750	23.500	1.1044e-03
12.750	23.750	7.4971e-04
12.750	24.000	5.0798e-04
13.000	17.000	5.4008e-04
13.000	17.250	6.9811e-04
13.000	17.500	8.4148e-04
13.000	17.750	1.0268e-03
13.000	18.000	1.1866e-03
13.000	18.250	1.3451e-03
13.000	18.500	1.4987e-03
13.000	18.750	1.6523e-03
13.000	19.000	1.7941e-03
13.000	19.250	1.9140e-03
13.000	19.500	1.9927e-03
13.000	19.750	2.0426e-03
13.000	20.000	2.1208e-03
13.000	20.250	2.2255e-03
13.000	20.500	2.2788e-03
13.000	20.750	2.2705e-03
13.000	21.000	2.2470e-03
13.000	21.250	2.2458e-03
13.000	21.500	2.2582e-03
13.000	21.750	2.3134e-03
13.000	22.000	2.3802e-03
13.000	22.250	2.4996e-03
13.000	22.500	2.7520e-03
13.000	22.750	3.2744e-03
13.000	23.000	3.8291e-03
13.000	23.250	2.5506e-03
13.000	23.500	1.3267e-03
13.000	23.750	8.7481e-04
13.000	24.000	5.6601e-04
13.250	17.000	5.4551e-04
13.250	17.250	6.5918e-04
13.250	17.500	7.8881e-04
13.250	17.750	9.4148e-04
13.250	18.000	1.1160e-03
13.250	18.250	1.2768e-03
13.250	18.500	1.4163e-03
13.250	18.750	1.5429e-03
13.250	19.000	1.6552e-03
13.250	19.250	1.7459e-03
13.250	19.500	1.8121e-03
13.250	19.750	1.8560e-03
13.250	20.000	1.8912e-03
13.250	20.250	1.9580e-03
13.250	20.500	2.0583e-03
13.250	20.750	2.1188e-03
13.250	21.000	2.1246e-03
13.250	21.250	2.0840e-03
13.250	21.500	2.0604e-03
13.250	21.750	2.0599e-03
13.250	22.000	2.0911e-03
13.250	22.250	2.1536e-03
13.250	22.500	2.2467e-03
13.250	22.750	2.4627e-03
13.250	23.000	2.8305e-03
13.250	23.250	3.2529e-03
13.250	23.500	1.9881e-03
13.250	23.750	1.0816e-03
13.250	24.000	6.6370e-04
13.500	17.000	5.6181e-04
13.500	17.250	6.6815e-04
13.500	17.500	7.7638e-04
13.500	17.750	9.0362e-04
13.500	18.000	1.0724e-03
13.500	18.250	1.2367e-03
13.500	18.500	1.3696e-03
13.500	18.750	1.5087e-03
13.500	19.000	1.6101e-03
13.500	19.250	1.6890e-03
13.500	19.500	1.7411e-03
13.500	19.750	1.7752e-03
13.500	20.000	1.7959e-03
13.500	20.250	1.8224e-03
13.500	20.500	1.8719e-03
13.500	20.750	1.9643e-03
13.500	21.000	2.0184e-03
13.500	21.250	2.0174e-03
13.500	21.500	1.9695e-03
13.500	21.750	1.9288e-03
13.500	22.000	1.9128e-03
13.500	22.250	1.9309e-03
13.500	22.500	1.9737e-03
13.500	22.750	2.0158e-03
13.500	23.000	2.1408e-03
13.500	23.250	2.3752e-03
13.500	23.500	2.7169e-03
13.500	23.750	1.7086e-03
13.500	24.000	8.9654e-04
13.750	17.000	5.4428e-04
13.750	17.250	6.5440e-04
13.750	17.500	7.8239e-04
13.750	17.750	8.9844e-04
13.750	18.000	1.0382e-03
13.750	18.250	1.1693e-03
13.750	18.500	1.3287e-03
13.750	18.750	1.4886e-03
13.750	19.000	1.6091e-03
13.750	19.250	1.7052e-03
13.750	19.500	1.7595e-03
13.750	19.750	1.7917e-03
13.750	20.000	1.8054e-03
13.750	20.250	1.8142e-03
13.750	20.500	1.8274e-03
13.750	20.750	1.8626e-03
13.750	21.000	1.9433e-03
13.750	21.250	2.0062e-03
13.750	21.500	1.9943e-03
13.750	21.750	1.9396e-03
13.750	22.000	1.8790e-03
13.750	22.250	1.8393e-03
13.750	22.500	1.8288e-03
13.750	22.750	1.8306e-03
13.750	23.000	1.8554e-03
13.750	23.250	1.9295e-03
13.750	23.500	2.0826e-03
13.750	23.750	2.4185e-03
13.750	24.000	1.4720e-03
14.000	17.000	5.3070e-04
14.000	17.250	6.4477e-04
14.000	17.500	7.6140e-04
14.000	17.750	9.0428e-04
14.000	18.000	1.0366e-03
14.000	18.250	1.1743e-03
14.000	18.500	1.3255e-03
14.000	18.750	1.4758e-03
14.000	19.000	1.6174e-03
14.000	19.250	1.7463e-03
14.000	19.500	1.8295e-03
14.000	19.750	1.8810e-03
14.000	20.000	1.8962e-03
14.000	20.250	1.8974e-03
14.000	20.500	1.8974e-03
14.000	20.750	1.9014e-03
14.000	21.000	1.9265e-03
14.000	21.250	2.0067e-03
14.000	21.500	2.0832e-03
14.000	21.750	2.0824e-03
14.000	22.000	2.0128e-03
14.000	22.250	1.9263e-03
14.000	22.500	1.8470e-03
14.000	22.750	1.7968e-03
14.000	23.000	1.7707e-03
14.000	23.250	1.7523e-03
14.000	23.500	1.7996e-03
14.000	23.750	1.9354e-03
14.000	24.000	2.3909e-03
