InwC 8078.61A  relative to Inci 1215.00A scaled to 1215A.
Hden   Phi(H)  Eq_Width (A)
7.000  17.000  6.6316e-03
7.000  17.250  6.8426e-03
7.000  17.500  6.8458e-03
7.000  17.750  6.8488e-03
7.000  18.000  6.8523e-03
7.000  18.250  6.8554e-03
7.000  18.500  6.8572e-03
7.000  18.750  6.8580e-03
7.000  19.000  6.8588e-03
7.000  19.250  6.8595e-03
7.000  19.500  6.8597e-03
7.000  19.750  6.8598e-03
7.000  20.000  6.8598e-03
7.000  20.250  6.8598e-03
7.000  20.500  6.8599e-03
7.000  20.750  6.8599e-03
7.000  21.000  6.8600e-03
7.000  21.250  6.8600e-03
7.000  21.500  6.8601e-03
7.000  21.750  6.8601e-03
7.000  22.000  6.8601e-03
7.000  22.250  6.8601e-03
7.000  22.500  6.8601e-03
7.000  22.750  6.8601e-03
7.000  23.000  6.8602e-03
7.000  23.250  6.8601e-03
7.000  23.500  6.8601e-03
7.000  23.750  6.8601e-03
7.000  24.000  6.8601e-03
7.250  17.000  6.2732e-03
7.250  17.250  6.6328e-03
7.250  17.500  6.8426e-03
7.250  17.750  6.8458e-03
7.250  18.000  6.8489e-03
7.250  18.250  6.8523e-03
7.250  18.500  6.8554e-03
7.250  18.750  6.8572e-03
7.250  19.000  6.8580e-03
7.250  19.250  6.8588e-03
7.250  19.500  6.8595e-03
7.250  19.750  6.8597e-03
7.250  20.000  6.8598e-03
7.250  20.250  6.8598e-03
7.250  20.500  6.8598e-03
7.250  20.750  6.8598e-03
7.250  21.000  6.8599e-03
7.250  21.250  6.8599e-03
7.250  21.500  6.8599e-03
7.250  21.750  6.8600e-03
7.250  22.000  6.8607e-03
7.250  22.250  6.8600e-03
7.250  22.500  6.8601e-03
7.250  22.750  6.8601e-03
7.250  23.000  6.8602e-03
7.250  23.250  6.8604e-03
7.250  23.500  6.8601e-03
7.250  23.750  6.8604e-03
7.250  24.000  6.8601e-03
7.500  17.000  4.5980e-03
7.500  17.250  6.2939e-03
7.500  17.500  6.6338e-03
7.500  17.750  6.8427e-03
7.500  18.000  6.8458e-03
7.500  18.250  6.8489e-03
7.500  18.500  6.8523e-03
7.500  18.750  6.8554e-03
7.500  19.000  6.8572e-03
7.500  19.250  6.8580e-03
7.500  19.500  6.8588e-03
7.500  19.750  6.8595e-03
7.500  20.000  6.8597e-03
7.500  20.250  6.8598e-03
7.500  20.500  6.8598e-03
7.500  20.750  6.8598e-03
7.500  21.000  6.8598e-03
7.500  21.250  6.8598e-03
7.500  21.500  6.8599e-03
7.500  21.750  6.8599e-03
7.500  22.000  6.8599e-03
7.500  22.250  6.8599e-03
7.500  22.500  6.8599e-03
7.500  22.750  6.8599e-03
7.500  23.000  6.8600e-03
7.500  23.250  6.8600e-03
7.500  23.500  6.8600e-03
7.500  23.750  6.8600e-03
7.500  24.000  6.8600e-03
7.750  17.000  3.3106e-03
7.750  17.250  4.6426e-03
7.750  17.500  6.3090e-03
7.750  17.750  6.6347e-03
7.750  18.000  6.8427e-03
7.750  18.250  6.8458e-03
7.750  18.500  6.8489e-03
7.750  18.750  6.8523e-03
7.750  19.000  6.8554e-03
7.750  19.250  6.8572e-03
7.750  19.500  6.8580e-03
7.750  19.750  6.8588e-03
7.750  20.000  6.8595e-03
7.750  20.250  6.8597e-03
7.750  20.500  6.8598e-03
7.750  20.750  6.8598e-03
7.750  21.000  6.8598e-03
7.750  21.250  6.8598e-03
7.750  21.500  6.8598e-03
7.750  21.750  6.8598e-03
7.750  22.000  6.8598e-03
7.750  22.250  6.8599e-03
7.750  22.500  6.8599e-03
7.750  22.750  6.8599e-03
7.750  23.000  6.8600e-03
7.750  23.250  6.8599e-03
7.750  23.500  6.8599e-03
7.750  23.750  6.8599e-03
7.750  24.000  6.8599e-03
8.000  17.000  2.3047e-03
8.000  17.250  3.3412e-03
8.000  17.500  4.6517e-03
8.000  17.750  6.2844e-03
8.000  18.000  6.6337e-03
8.000  18.250  6.8427e-03
8.000  18.500  6.8458e-03
8.000  18.750  6.8489e-03
8.000  19.000  6.8523e-03
8.000  19.250  6.8554e-03
8.000  19.500  6.8572e-03
8.000  19.750  6.8581e-03
8.000  20.000  6.8588e-03
8.000  20.250  6.8595e-03
8.000  20.500  6.8597e-03
8.000  20.750  6.8598e-03
8.000  21.000  6.8598e-03
8.000  21.250  6.8598e-03
8.000  21.500  6.8598e-03
8.000  21.750  6.8598e-03
8.000  22.000  6.8598e-03
8.000  22.250  6.8598e-03
8.000  22.500  6.8598e-03
8.000  22.750  6.8598e-03
8.000  23.000  6.8598e-03
8.000  23.250  6.8598e-03
8.000  23.500  6.8598e-03
8.000  23.750  6.8599e-03
8.000  24.000  6.8606e-03
8.250  17.000  1.6068e-03
8.250  17.250  2.3481e-03
8.250  17.500  3.3951e-03
8.250  17.750  4.6911e-03
8.250  18.000  6.2949e-03
8.250  18.250  6.6343e-03
8.250  18.500  6.8427e-03
8.250  18.750  6.8458e-03
8.250  19.000  6.8490e-03
8.250  19.250  6.8523e-03
8.250  19.500  6.8554e-03
8.250  19.750  6.8572e-03
8.250  20.000  6.8580e-03
8.250  20.250  6.8588e-03
8.250  20.500  6.8595e-03
8.250  20.750  6.8597e-03
8.250  21.000  6.8598e-03
8.250  21.250  6.8598e-03
8.250  21.500  6.8598e-03
8.250  21.750  6.8598e-03
8.250  22.000  6.8598e-03
8.250  22.250  6.8598e-03
8.250  22.500  6.8598e-03
8.250  22.750  6.8599e-03
8.250  23.000  6.8601e-03
8.250  23.250  6.8599e-03
8.250  23.500  6.8598e-03
8.250  23.750  6.8598e-03
8.250  24.000  6.8598e-03
8.500  17.000  1.1268e-03
8.500  17.250  1.6412e-03
8.500  17.500  2.4012e-03
8.500  17.750  3.4693e-03
8.500  18.000  4.7528e-03
8.500  18.250  6.3156e-03
8.500  18.500  6.6347e-03
8.500  18.750  6.8427e-03
8.500  19.000  6.8458e-03
8.500  19.250  6.8490e-03
8.500  19.500  6.8523e-03
8.500  19.750  6.8554e-03
8.500  20.000  6.8572e-03
8.500  20.250  6.8580e-03
8.500  20.500  6.8588e-03
8.500  20.750  6.8595e-03
8.500  21.000  6.8597e-03
8.500  21.250  6.8598e-03
8.500  21.500  6.8598e-03
8.500  21.750  6.8598e-03
8.500  22.000  6.8598e-03
8.500  22.250  6.8598e-03
8.500  22.500  6.8598e-03
8.500  22.750  6.8601e-03
8.500  23.000  6.8598e-03
8.500  23.250  6.8598e-03
8.500  23.500  6.8598e-03
8.500  23.750  6.8598e-03
8.500  24.000  6.8598e-03
8.750  17.000  7.9473e-04
8.750  17.250  1.1533e-03
8.750  17.500  1.6877e-03
8.750  17.750  2.4825e-03
8.750  18.000  3.5731e-03
8.750  18.250  4.8547e-03
8.750  18.500  6.3491e-03
8.750  18.750  6.6347e-03
8.750  19.000  6.8426e-03
8.750  19.250  6.8458e-03
8.750  19.500  6.8490e-03
8.750  19.750  6.8524e-03
8.750  20.000  6.8554e-03
8.750  20.250  6.8572e-03
8.750  20.500  6.8580e-03
8.750  20.750  6.8588e-03
8.750  21.000  6.8595e-03
8.750  21.250  6.8597e-03
8.750  21.500  6.8598e-03
8.750  21.750  6.8598e-03
8.750  22.000  6.8598e-03
8.750  22.250  6.8598e-03
8.750  22.500  6.8598e-03
8.750  22.750  6.8598e-03
8.750  23.000  6.8598e-03
8.750  23.250  6.8598e-03
8.750  23.500  6.8598e-03
8.750  23.750  6.8598e-03
8.750  24.000  6.8598e-03
9.000  17.000  5.6198e-04
9.000  17.250  8.1432e-04
9.000  17.500  1.1919e-03
9.000  17.750  1.7628e-03
9.000  18.000  2.6171e-03
9.000  18.250  3.7645e-03
9.000  18.500  5.0340e-03
9.000  18.750  6.4338e-03
9.000  19.000  6.6334e-03
9.000  19.250  6.8426e-03
9.000  19.500  6.8458e-03
9.000  19.750  6.8491e-03
9.000  20.000  6.8524e-03
9.000  20.250  6.8554e-03
9.000  20.500  6.8572e-03
9.000  20.750  6.8580e-03
9.000  21.000  6.8588e-03
9.000  21.250  6.8595e-03
9.000  21.500  6.8597e-03
9.000  21.750  6.8598e-03
9.000  22.000  6.8598e-03
9.000  22.250  6.8598e-03
9.000  22.500  6.8598e-03
9.000  22.750  6.8598e-03
9.000  23.000  6.8598e-03
9.000  23.250  6.8598e-03
9.000  23.500  6.8598e-03
9.000  23.750  6.8598e-03
9.000  24.000  6.8601e-03
9.250  17.000  3.9778e-04
9.250  17.250  5.7663e-04
9.250  17.500  8.4609e-04
9.250  17.750  1.2599e-03
9.250  18.000  1.9032e-03
9.250  18.250  2.8485e-03
9.250  18.500  4.0515e-03
9.250  18.750  5.3561e-03
9.250  19.000  6.4263e-03
9.250  19.250  6.6309e-03
9.250  19.500  6.8422e-03
9.250  19.750  6.8458e-03
9.250  20.000  6.8491e-03
9.250  20.250  6.8524e-03
9.250  20.500  6.8554e-03
9.250  20.750  6.8572e-03
9.250  21.000  6.8580e-03
9.250  21.250  6.8588e-03
9.250  21.500  6.8584e-03
9.250  21.750  6.8585e-03
9.250  22.000  6.8584e-03
9.250  22.250  6.8586e-03
9.250  22.500  6.8597e-03
9.250  22.750  6.8597e-03
9.250  23.000  6.8598e-03
9.250  23.250  6.8598e-03
9.250  23.500  6.8598e-03
9.250  23.750  6.8598e-03
9.250  24.000  6.8598e-03
9.500  17.000  2.8189e-04
9.500  17.250  4.0889e-04
9.500  17.500  6.0189e-04
9.500  17.750  9.0543e-04
9.500  18.000  1.3909e-03
9.500  18.250  2.1377e-03
9.500  18.500  3.1705e-03
9.500  18.750  4.4044e-03
9.500  19.000  5.6994e-03
9.500  19.250  6.4092e-03
9.500  19.500  6.6236e-03
9.500  19.750  6.8417e-03
9.500  20.000  6.8457e-03
9.500  20.250  6.8490e-03
9.500  20.500  6.8524e-03
9.500  20.750  6.8551e-03
9.500  21.000  6.8560e-03
9.500  21.250  6.8569e-03
9.500  21.500  6.8576e-03
9.500  21.750  6.8577e-03
9.500  22.000  6.8576e-03
9.500  22.250  6.8577e-03
9.500  22.500  6.8578e-03
9.500  22.750  6.8578e-03
9.500  23.000  6.8578e-03
9.500  23.250  6.8578e-03
9.500  23.500  6.8580e-03
9.500  23.750  6.8580e-03
9.500  24.000  6.8580e-03
9.750  17.000  1.9984e-04
9.750  17.250  2.9004e-04
9.750  17.500  4.2848e-04
9.750  17.750  6.5144e-04
9.750  18.000  1.0215e-03
9.750  18.250  1.6042e-03
9.750  18.500  2.4359e-03
9.750  18.750  3.5123e-03
9.750  19.000  4.7551e-03
9.750  19.250  6.0676e-03
9.750  19.500  6.3889e-03
9.750  19.750  6.6123e-03
9.750  20.000  6.8399e-03
9.750  20.250  6.8454e-03
9.750  20.500  6.8489e-03
9.750  20.750  6.8523e-03
9.750  21.000  6.8552e-03
9.750  21.250  6.8563e-03
9.750  21.500  6.8569e-03
9.750  21.750  6.8577e-03
9.750  22.000  6.8579e-03
9.750  22.250  6.8576e-03
9.750  22.500  6.8578e-03
9.750  22.750  6.8578e-03
9.750  23.000  6.8577e-03
9.750  23.250  6.8578e-03
9.750  23.500  6.8578e-03
9.750  23.750  6.8578e-03
9.750  24.000  6.8578e-03
10.000  17.000  1.4156e-04
10.000  17.250  2.0584e-04
10.000  17.500  3.0535e-04
10.000  17.750  4.6988e-04
10.000  18.000  7.5350e-04
10.000  18.250  1.2034e-03
10.000  18.500  1.8512e-03
10.000  18.750  2.7257e-03
10.000  19.000  3.8336e-03
10.000  19.250  5.1079e-03
10.000  19.500  6.2235e-03
10.000  19.750  6.3665e-03
10.000  20.000  6.5894e-03
10.000  20.250  6.8365e-03
10.000  20.500  6.8449e-03
10.000  20.750  6.8488e-03
10.000  21.000  6.8523e-03
10.000  21.250  6.8552e-03
10.000  21.500  6.8569e-03
10.000  21.750  6.8571e-03
10.000  22.000  6.8577e-03
10.000  22.250  6.8581e-03
10.000  22.500  6.8579e-03
10.000  22.750  6.8577e-03
10.000  23.000  6.8578e-03
10.000  23.250  6.8579e-03
10.000  23.500  6.8578e-03
10.000  23.750  6.8578e-03
10.000  24.000  6.8578e-03
10.250  17.000  1.0033e-04
10.250  17.250  1.4617e-04
10.250  17.500  2.1802e-04
10.250  17.750  3.4008e-04
10.250  18.000  5.5572e-04
10.250  18.250  8.9687e-04
10.250  18.500  1.3898e-03
10.250  18.750  2.0677e-03
10.250  19.000  2.9687e-03
10.250  19.250  4.1347e-03
10.250  19.500  5.4988e-03
10.250  19.750  6.2046e-03
10.250  20.000  6.3412e-03
10.250  20.250  6.5684e-03
10.250  20.500  6.8272e-03
10.250  20.750  6.8435e-03
10.250  21.000  6.8485e-03
10.250  21.250  6.8521e-03
10.250  21.500  6.8552e-03
10.250  21.750  6.8570e-03
10.250  22.000  6.8576e-03
10.250  22.250  6.8578e-03
10.250  22.500  6.8583e-03
10.250  22.750  6.8582e-03
10.250  23.000  6.8579e-03
10.250  23.250  6.8577e-03
10.250  23.500  6.8578e-03
10.250  23.750  6.8578e-03
10.250  24.000  6.8579e-03
10.500  17.000  7.1111e-05
10.500  17.250  1.0395e-04
10.500  17.500  1.5630e-04
10.500  17.750  2.4765e-04
10.500  18.000  4.0963e-04
10.500  18.250  6.6831e-04
10.500  18.500  1.0331e-03
10.500  18.750  1.5407e-03
10.500  19.000  2.2425e-03
10.500  19.250  3.1718e-03
10.500  19.500  4.3699e-03
10.500  19.750  5.7127e-03
10.500  20.000  6.1783e-03
10.500  20.250  6.3197e-03
10.500  20.500  6.5533e-03
10.500  20.750  6.8190e-03
10.500  21.000  6.8406e-03
10.500  21.250  6.8478e-03
10.500  21.500  6.8519e-03
10.500  21.750  6.8550e-03
10.500  22.000  6.8570e-03
10.500  22.250  6.8579e-03
10.500  22.500  6.8582e-03
10.500  22.750  6.8583e-03
10.500  23.000  6.8584e-03
10.500  23.250  6.8582e-03
10.500  23.500  6.8579e-03
10.500  23.750  6.8578e-03
10.500  24.000  6.8577e-03
10.750  17.000  5.0453e-05
10.750  17.250  7.4074e-05
10.750  17.500  1.1259e-04
10.750  17.750  1.8074e-04
10.750  18.000  3.0115e-04
10.750  18.250  4.8971e-04
10.750  18.500  7.5753e-04
10.750  18.750  1.1453e-03
10.750  19.000  1.6663e-03
10.750  19.250  2.3821e-03
10.750  19.500  3.3477e-03
10.750  19.750  4.5948e-03
10.750  20.000  5.9347e-03
10.750  20.250  6.1413e-03
10.750  20.500  6.3012e-03
10.750  20.750  6.5435e-03
10.750  21.000  6.8067e-03
10.750  21.250  6.8354e-03
10.750  21.500  6.8469e-03
10.750  21.750  6.8512e-03
10.750  22.000  6.8547e-03
10.750  22.250  6.8569e-03
10.750  22.500  6.8579e-03
10.750  22.750  6.8586e-03
10.750  23.000  6.8583e-03
10.750  23.250  6.8584e-03
10.750  23.500  6.8584e-03
10.750  23.750  6.8582e-03
10.750  24.000  6.8581e-03
11.000  17.000  3.5967e-05
11.000  17.250  5.2840e-05
11.000  17.500  8.0988e-05
11.000  17.750  1.3177e-04
11.000  18.000  2.1984e-04
11.000  18.250  3.5523e-04
11.000  18.500  5.5481e-04
11.000  18.750  8.3276e-04
11.000  19.000  1.2213e-03
11.000  19.250  1.7523e-03
11.000  19.500  2.4972e-03
11.000  19.750  3.5009e-03
11.000  20.000  4.8249e-03
11.000  20.250  5.9841e-03
11.000  20.500  6.1399e-03
11.000  20.750  6.2944e-03
11.000  21.000  6.5455e-03
11.000  21.250  6.7909e-03
11.000  21.500  6.8292e-03
11.000  21.750  6.8444e-03
11.000  22.000  6.8501e-03
11.000  22.250  6.8541e-03
11.000  22.500  6.8567e-03
11.000  22.750  6.8578e-03
11.000  23.000  6.8587e-03
11.000  23.250  6.8585e-03
11.000  23.500  6.8585e-03
11.000  23.750  6.8585e-03
11.000  24.000  6.8584e-03
11.250  17.000  2.5679e-05
11.250  17.250  3.7613e-05
11.250  17.500  5.8107e-05
11.250  17.750  9.5309e-05
11.250  18.000  1.5877e-04
11.250  18.250  2.5556e-04
11.250  18.500  3.9572e-04
11.250  18.750  6.0156e-04
11.250  19.000  8.8346e-04
11.250  19.250  1.2767e-03
11.250  19.500  1.8283e-03
11.250  19.750  2.5937e-03
11.250  20.000  3.6377e-03
11.250  20.250  5.0184e-03
11.250  20.500  5.9714e-03
11.250  20.750  6.1232e-03
11.250  21.000  6.2960e-03
11.250  21.250  6.5640e-03
11.250  21.500  6.7867e-03
11.250  21.750  6.8208e-03
11.250  22.000  6.8407e-03
11.250  22.250  6.8480e-03
11.250  22.500  6.8529e-03
11.250  22.750  6.8563e-03
11.250  23.000  6.8575e-03
11.250  23.250  6.8586e-03
11.250  23.500  6.8590e-03
11.250  23.750  6.8585e-03
11.250  24.000  6.8586e-03
11.500  17.000  1.8601e-05
11.500  17.250  2.6996e-05
11.500  17.500  4.1728e-05
11.500  17.750  6.8395e-05
11.500  18.000  1.1342e-04
11.500  18.250  1.8189e-04
11.500  18.500  2.8165e-04
11.500  18.750  4.2831e-04
11.500  19.000  6.3309e-04
11.500  19.250  9.2370e-04
11.500  19.500  1.3244e-03
11.500  19.750  1.8909e-03
11.500  20.000  2.6812e-03
11.500  20.250  3.7604e-03
11.500  20.500  5.1878e-03
11.500  20.750  5.9392e-03
11.500  21.000  6.1185e-03
11.500  21.250  6.3100e-03
11.500  21.500  6.6167e-03
11.500  21.750  6.7777e-03
11.500  22.000  6.8131e-03
11.500  22.250  6.8349e-03
11.500  22.500  6.8441e-03
11.500  22.750  6.8510e-03
11.500  23.000  6.8557e-03
11.500  23.250  6.8572e-03
11.500  23.500  6.8584e-03
11.500  23.750  6.8593e-03
11.500  24.000  6.8587e-03
11.750  17.000  1.3745e-05
11.750  17.250  1.9588e-05
11.750  17.500  2.9959e-05
11.750  17.750  4.8807e-05
11.750  18.000  8.0082e-05
11.750  18.250  1.2749e-04
11.750  18.500  1.9827e-04
11.750  18.750  3.0099e-04
11.750  19.000  4.5053e-04
11.750  19.250  6.6000e-04
11.750  19.500  9.5440e-04
11.750  19.750  1.3645e-03
11.750  20.000  1.9448e-03
11.750  20.250  2.7516e-03
11.750  20.500  3.8638e-03
11.750  20.750  5.3053e-03
11.750  21.000  5.9022e-03
11.750  21.250  6.1194e-03
11.750  21.500  6.3594e-03
11.750  21.750  6.6817e-03
11.750  22.000  6.7681e-03
11.750  22.250  6.8047e-03
11.750  22.500  6.8284e-03
11.750  22.750  6.8393e-03
11.750  23.000  6.8483e-03
11.750  23.250  6.8548e-03
11.750  23.500  6.8597e-03
11.750  23.750  6.8583e-03
11.750  24.000  6.8593e-03
12.000  17.000  1.0370e-05
12.000  17.250  1.4486e-05
12.000  17.500  2.1646e-05
12.000  17.750  3.4486e-05
12.000  18.000  5.5638e-05
12.000  18.250  8.8313e-05
12.000  18.500  1.3811e-04
12.000  18.750  2.1128e-04
12.000  19.000  3.1819e-04
12.000  19.250  4.6922e-04
12.000  19.500  6.8165e-04
12.000  19.750  9.7975e-04
12.000  20.000  1.3969e-03
12.000  20.250  1.9855e-03
12.000  20.500  2.8048e-03
12.000  20.750  3.9397e-03
12.000  21.000  5.3889e-03
12.000  21.250  5.8573e-03
12.000  21.500  6.1502e-03
12.000  21.750  6.4190e-03
12.000  22.000  6.7095e-03
12.000  22.250  6.7574e-03
12.000  22.500  6.7956e-03
12.000  22.750  6.8206e-03
12.000  23.000  6.8333e-03
12.000  23.250  6.8447e-03
12.000  23.500  6.8535e-03
12.000  23.750  6.8560e-03
12.000  24.000  6.8579e-03
12.250  17.000  7.9012e-06
12.250  17.250  1.0864e-05
12.250  17.500  1.5720e-05
12.250  17.750  2.4280e-05
12.250  18.000  3.8272e-05
12.250  18.250  6.0905e-05
12.250  18.500  9.5967e-05
12.250  18.750  1.4831e-04
12.250  19.000  2.2436e-04
12.250  19.250  3.3235e-04
12.250  19.500  4.8436e-04
12.250  19.750  6.9860e-04
12.250  20.000  9.9852e-04
12.250  20.250  1.4188e-03
12.250  20.500  2.0119e-03
12.250  20.750  2.8412e-03
12.250  21.000  3.9881e-03
12.250  21.250  5.3047e-03
12.250  21.500  5.8422e-03
12.250  21.750  6.1672e-03
12.250  22.000  6.4809e-03
12.250  22.250  6.6949e-03
12.250  22.500  6.7440e-03
12.250  22.750  6.7838e-03
12.250  23.000  6.8109e-03
12.250  23.250  6.8255e-03
12.250  23.500  6.8398e-03
12.250  23.750  6.8518e-03
12.250  24.000  6.8551e-03
12.500  17.000  5.9259e-06
12.500  17.250  8.0658e-06
12.500  17.500  1.1440e-05
12.500  17.750  1.7037e-05
12.500  18.000  2.6420e-05
12.500  18.250  4.1893e-05
12.500  18.500  6.6502e-05
12.500  18.750  1.0354e-04
12.500  19.000  1.5761e-04
12.500  19.250  2.3481e-04
12.500  19.500  3.4321e-04
12.500  19.750  4.9580e-04
12.500  20.000  7.1136e-04
12.500  20.250  1.0133e-03
12.500  20.500  1.4317e-03
12.500  20.750  2.0211e-03
12.500  21.000  2.8558e-03
12.500  21.250  3.9965e-03
12.500  21.500  5.2683e-03
12.500  21.750  5.7872e-03
12.500  22.000  6.1870e-03
12.500  22.250  6.5171e-03
12.500  22.500  6.6726e-03
12.500  22.750  6.7250e-03
12.500  23.000  6.7686e-03
12.500  23.250  6.7976e-03
12.500  23.500  6.8148e-03
12.500  23.750  6.8333e-03
12.500  24.000  6.8495e-03
12.750  17.000  3.7037e-06
12.750  17.250  5.9259e-06
12.750  17.500  8.1481e-06
12.750  17.750  1.1934e-05
12.750  18.000  1.8436e-05
12.750  18.250  2.9053e-05
12.750  18.500  4.6008e-05
12.750  18.750  7.2099e-05
12.750  19.000  1.1037e-04
12.750  19.250  1.6568e-04
12.750  19.500  2.4296e-04
12.750  19.750  3.5177e-04
12.750  20.000  5.0444e-04
12.750  20.250  7.1975e-04
12.750  20.500  1.0202e-03
12.750  20.750  1.4314e-03
12.750  21.000  2.0195e-03
12.750  21.250  2.8421e-03
12.750  21.500  3.9942e-03
12.750  21.750  5.1262e-03
12.750  22.000  5.7248e-03
12.750  22.250  6.1877e-03
12.750  22.500  6.5167e-03
12.750  22.750  6.6372e-03
12.750  23.000  6.6978e-03
12.750  23.250  6.7463e-03
12.750  23.500  6.7784e-03
12.750  23.750  6.7992e-03
12.750  24.000  6.8236e-03
13.000  17.000  9.8765e-07
13.000  17.250  2.3045e-06
13.000  17.500  5.6790e-06
13.000  17.750  8.5597e-06
13.000  18.000  1.2922e-05
13.000  18.250  2.0247e-05
13.000  18.500  3.1852e-05
13.000  18.750  4.9959e-05
13.000  19.000  7.6790e-05
13.000  19.250  1.1572e-04
13.000  19.500  1.7103e-04
13.000  19.750  2.4848e-04
13.000  20.000  3.5687e-04
13.000  20.250  5.0856e-04
13.000  20.500  7.2296e-04
13.000  20.750  1.0174e-03
13.000  21.000  1.4310e-03
13.000  21.250  2.0040e-03
13.000  21.500  2.8286e-03
13.000  21.750  3.9382e-03
13.000  22.000  4.9672e-03
13.000  22.250  5.6240e-03
13.000  22.500  6.1242e-03
13.000  22.750  6.4606e-03
13.000  23.000  6.5826e-03
13.000  23.250  6.6562e-03
13.000  23.500  6.7129e-03
13.000  23.750  6.7500e-03
13.000  24.000  6.7758e-03
13.250  17.000  1.0000e-07
13.250  17.250  1.1523e-06
13.250  17.500  2.5514e-06
13.250  17.750  5.1852e-06
13.250  18.000  9.3004e-06
13.250  18.250  1.4239e-05
13.250  18.500  2.2140e-05
13.250  18.750  3.4486e-05
13.250  19.000  5.3004e-05
13.250  19.250  8.0247e-05
13.250  19.500  1.1951e-04
13.250  19.750  1.7449e-04
13.250  20.000  2.5218e-04
13.250  20.250  3.6066e-04
13.250  20.500  5.1136e-04
13.250  20.750  7.2222e-04
13.250  21.000  1.0106e-03
13.250  21.250  1.4093e-03
13.250  21.500  1.9835e-03
13.250  21.750  2.7703e-03
13.250  22.000  3.7879e-03
13.250  22.250  4.7156e-03
13.250  22.500  5.4521e-03
13.250  22.750  5.9794e-03
13.250  23.000  6.3554e-03
13.250  23.250  6.4988e-03
13.250  23.500  6.5924e-03
13.250  23.750  6.6618e-03
13.250  24.000  6.7064e-03
13.500  17.000  1.0000e-07
13.500  17.250  1.0000e-07
13.500  17.500  1.3992e-06
13.500  17.750  3.2099e-06
13.500  18.000  6.0082e-06
13.500  18.250  1.0288e-05
13.500  18.500  1.5556e-05
13.500  18.750  2.3868e-05
13.500  19.000  3.6543e-05
13.500  19.250  5.5638e-05
13.500  19.500  8.2716e-05
13.500  19.750  1.2181e-04
13.500  20.000  1.7679e-04
13.500  20.250  2.5366e-04
13.500  20.500  3.6099e-04
13.500  20.750  5.0914e-04
13.500  21.000  7.1202e-04
13.500  21.250  9.9226e-04
13.500  21.500  1.3879e-03
13.500  21.750  1.8989e-03
13.500  22.000  2.5907e-03
13.500  22.250  3.5336e-03
13.500  22.500  4.4063e-03
13.500  22.750  5.1686e-03
13.500  23.000  5.7542e-03
13.500  23.250  6.1924e-03
13.500  23.500  6.3731e-03
13.500  23.750  6.4968e-03
13.500  24.000  6.5831e-03
13.750  17.000  1.0000e-07
13.750  17.250  1.0000e-07
13.750  17.500  8.2305e-07
13.750  17.750  1.7284e-06
13.750  18.000  3.8683e-06
13.750  18.250  6.7490e-06
13.750  18.500  1.1029e-05
13.750  18.750  1.6790e-05
13.750  19.000  2.5350e-05
13.750  19.250  3.8189e-05
13.750  19.500  5.7119e-05
13.750  19.750  8.4444e-05
13.750  20.000  1.2329e-04
13.750  20.250  1.7802e-04
13.750  20.500  2.5424e-04
13.750  20.750  3.5984e-04
13.750  21.000  5.0346e-04
13.750  21.250  6.9671e-04
13.750  21.500  9.7053e-04
13.750  21.750  1.3152e-03
13.750  22.000  1.7536e-03
13.750  22.250  2.3451e-03
13.750  22.500  3.2164e-03
13.750  22.750  4.0656e-03
13.750  23.000  4.8453e-03
13.750  23.250  5.4703e-03
13.750  23.500  5.9614e-03
13.750  23.750  6.1890e-03
13.750  24.000  6.3535e-03
14.000  17.000  1.0000e-07
14.000  17.250  1.0000e-07
14.000  17.500  1.0000e-07
14.000  17.750  9.8765e-07
14.000  18.000  2.1399e-06
14.000  18.250  4.4444e-06
14.000  18.500  7.4897e-06
14.000  18.750  1.1852e-05
14.000  19.000  1.7613e-05
14.000  19.250  2.6337e-05
14.000  19.500  3.9342e-05
14.000  19.750  5.8189e-05
14.000  20.000  8.5432e-05
14.000  20.250  1.2395e-04
14.000  20.500  1.7819e-04
14.000  20.750  2.5292e-04
14.000  21.000  3.5514e-04
14.000  21.250  4.9136e-04
14.000  21.500  6.8362e-04
14.000  21.750  9.1835e-04
14.000  22.000  1.1960e-03
14.000  22.250  1.5240e-03
14.000  22.500  2.0413e-03
14.000  22.750  2.8807e-03
14.000  23.000  3.6568e-03
14.000  23.250  4.4514e-03
14.000  23.500  5.1064e-03
14.000  23.750  5.6452e-03
14.000  24.000  5.9277e-03
