InwT 913.000A  relative to Inci 1215.00A scaled to 1215A.
Hden   Phi(H)  Eq_Width (A)
7.000  17.000  3.5288e-02
7.000  17.250  3.4795e-02
7.000  17.500  3.3535e-02
7.000  17.750  3.1425e-02
7.000  18.000  2.9031e-02
7.000  18.250  2.7348e-02
7.000  18.500  2.6200e-02
7.000  18.750  2.5589e-02
7.000  19.000  2.5263e-02
7.000  19.250  2.5077e-02
7.000  19.500  2.4997e-02
7.000  19.750  2.4962e-02
7.000  20.000  2.4947e-02
7.000  20.250  2.4940e-02
7.000  20.500  2.4937e-02
7.000  20.750  2.4935e-02
7.000  21.000  2.4934e-02
7.000  21.250  2.4934e-02
7.000  21.500  2.4934e-02
7.000  21.750  2.4934e-02
7.000  22.000  2.4934e-02
7.000  22.250  2.4934e-02
7.000  22.500  2.4934e-02
7.000  22.750  2.4933e-02
7.000  23.000  2.4934e-02
7.000  23.250  2.4933e-02
7.000  23.500  2.4933e-02
7.000  23.750  2.4933e-02
7.000  24.000  2.4933e-02
7.250  17.000  3.6647e-02
7.250  17.250  3.4356e-02
7.250  17.500  3.4499e-02
7.250  17.750  3.3400e-02
7.250  18.000  3.1360e-02
7.250  18.250  2.8994e-02
7.250  18.500  2.7330e-02
7.250  18.750  2.6193e-02
7.250  19.000  2.5586e-02
7.250  19.250  2.5262e-02
7.250  19.500  2.5077e-02
7.250  19.750  2.4996e-02
7.250  20.000  2.4962e-02
7.250  20.250  2.4947e-02
7.250  20.500  2.4940e-02
7.250  20.750  2.4937e-02
7.250  21.000  2.4935e-02
7.250  21.250  2.4934e-02
7.250  21.500  2.4934e-02
7.250  21.750  2.4933e-02
7.250  22.000  2.4936e-02
7.250  22.250  2.4933e-02
7.250  22.500  2.4933e-02
7.250  22.750  2.4934e-02
7.250  23.000  2.4934e-02
7.250  23.250  2.4935e-02
7.250  23.500  2.4933e-02
7.250  23.750  2.4935e-02
7.250  24.000  2.4933e-02
7.500  17.000  3.0331e-02
7.500  17.250  3.4669e-02
7.500  17.500  3.3586e-02
7.500  17.750  3.4330e-02
7.500  18.000  3.3332e-02
7.500  18.250  3.1328e-02
7.500  18.500  2.8972e-02
7.500  18.750  2.7319e-02
7.500  19.000  2.6189e-02
7.500  19.250  2.5585e-02
7.500  19.500  2.5262e-02
7.500  19.750  2.5076e-02
7.500  20.000  2.4996e-02
7.500  20.250  2.4962e-02
7.500  20.500  2.4947e-02
7.500  20.750  2.4940e-02
7.500  21.000  2.4937e-02
7.500  21.250  2.4935e-02
7.500  21.500  2.4934e-02
7.500  21.750  2.4933e-02
7.500  22.000  2.4933e-02
7.500  22.250  2.4933e-02
7.500  22.500  2.4933e-02
7.500  22.750  2.4933e-02
7.500  23.000  2.4933e-02
7.500  23.250  2.4933e-02
7.500  23.500  2.4933e-02
7.500  23.750  2.4933e-02
7.500  24.000  2.4933e-02
7.750  17.000  2.2689e-02
7.750  17.250  2.8062e-02
7.750  17.500  3.2923e-02
7.750  17.750  3.2975e-02
7.750  18.000  3.4238e-02
7.750  18.250  3.3306e-02
7.750  18.500  3.1319e-02
7.750  18.750  2.8961e-02
7.750  19.000  2.7312e-02
7.750  19.250  2.6186e-02
7.750  19.500  2.5584e-02
7.750  19.750  2.5261e-02
7.750  20.000  2.5076e-02
7.750  20.250  2.4996e-02
7.750  20.500  2.4962e-02
7.750  20.750  2.4947e-02
7.750  21.000  2.4940e-02
7.750  21.250  2.4937e-02
7.750  21.500  2.4935e-02
7.750  21.750  2.4934e-02
7.750  22.000  2.4933e-02
7.750  22.250  2.4933e-02
7.750  22.500  2.4933e-02
7.750  22.750  2.4933e-02
7.750  23.000  2.4933e-02
7.750  23.250  2.4933e-02
7.750  23.500  2.4933e-02
7.750  23.750  2.4933e-02
7.750  24.000  2.4933e-02
8.000  17.000  1.6434e-02
8.000  17.250  2.0089e-02
8.000  17.500  2.6071e-02
8.000  17.750  3.1473e-02
8.000  18.000  3.2510e-02
8.000  18.250  3.4191e-02
8.000  18.500  3.3308e-02
8.000  18.750  3.1325e-02
8.000  19.000  2.8956e-02
8.000  19.250  2.7308e-02
8.000  19.500  2.6185e-02
8.000  19.750  2.5583e-02
8.000  20.000  2.5261e-02
8.000  20.250  2.5076e-02
8.000  20.500  2.4996e-02
8.000  20.750  2.4962e-02
8.000  21.000  2.4947e-02
8.000  21.250  2.4940e-02
8.000  21.500  2.4937e-02
8.000  21.750  2.4935e-02
8.000  22.000  2.4934e-02
8.000  22.250  2.4933e-02
8.000  22.500  2.4933e-02
8.000  22.750  2.4933e-02
8.000  23.000  2.4933e-02
8.000  23.250  2.4933e-02
8.000  23.500  2.4933e-02
8.000  23.750  2.4933e-02
8.000  24.000  2.4935e-02
8.250  17.000  1.2289e-02
8.250  17.250  1.4321e-02
8.250  17.500  1.8368e-02
8.250  17.750  2.4817e-02
8.250  18.000  3.0543e-02
8.250  18.250  3.2204e-02
8.250  18.500  3.4165e-02
8.250  18.750  3.3328e-02
8.250  19.000  3.1341e-02
8.250  19.250  2.8955e-02
8.250  19.500  2.7306e-02
8.250  19.750  2.6183e-02
8.250  20.000  2.5583e-02
8.250  20.250  2.5261e-02
8.250  20.500  2.5076e-02
8.250  20.750  2.4996e-02
8.250  21.000  2.4962e-02
8.250  21.250  2.4947e-02
8.250  21.500  2.4940e-02
8.250  21.750  2.4937e-02
8.250  22.000  2.4935e-02
8.250  22.250  2.4934e-02
8.250  22.500  2.4933e-02
8.250  22.750  2.4933e-02
8.250  23.000  2.4934e-02
8.250  23.250  2.4933e-02
8.250  23.500  2.4933e-02
8.250  23.750  2.4933e-02
8.250  24.000  2.4933e-02
8.500  17.000  9.5441e-03
8.500  17.250  1.0610e-02
8.500  17.500  1.2907e-02
8.500  17.750  1.7191e-02
8.500  18.000  2.4017e-02
8.500  18.250  2.9945e-02
8.500  18.500  3.1994e-02
8.500  18.750  3.4153e-02
8.500  19.000  3.3362e-02
8.500  19.250  3.1363e-02
8.500  19.500  2.8957e-02
8.500  19.750  2.7305e-02
8.500  20.000  2.6183e-02
8.500  20.250  2.5582e-02
8.500  20.500  2.5261e-02
8.500  20.750  2.5076e-02
8.500  21.000  2.4996e-02
8.500  21.250  2.4962e-02
8.500  21.500  2.4947e-02
8.500  21.750  2.4940e-02
8.500  22.000  2.4937e-02
8.500  22.250  2.4935e-02
8.500  22.500  2.4934e-02
8.500  22.750  2.4934e-02
8.500  23.000  2.4933e-02
8.500  23.250  2.4933e-02
8.500  23.500  2.4933e-02
8.500  23.750  2.4933e-02
8.500  24.000  2.4933e-02
8.750  17.000  7.7569e-03
8.750  17.250  8.2885e-03
8.750  17.500  9.5450e-03
8.750  17.750  1.2010e-02
8.750  18.000  1.6545e-02
8.750  18.250  2.3640e-02
8.750  18.500  2.9573e-02
8.750  18.750  3.1865e-02
8.750  19.000  3.4146e-02
8.750  19.250  3.3404e-02
8.750  19.500  3.1391e-02
8.750  19.750  2.8960e-02
8.750  20.000  2.7304e-02
8.750  20.250  2.6182e-02
8.750  20.500  2.5582e-02
8.750  20.750  2.5261e-02
8.750  21.000  2.5076e-02
8.750  21.250  2.4996e-02
8.750  21.500  2.4962e-02
8.750  21.750  2.4947e-02
8.750  22.000  2.4940e-02
8.750  22.250  2.4937e-02
8.750  22.500  2.4935e-02
8.750  22.750  2.4934e-02
8.750  23.000  2.4933e-02
8.750  23.250  2.4933e-02
8.750  23.500  2.4933e-02
8.750  23.750  2.4933e-02
8.750  24.000  2.4933e-02
9.000  17.000  6.5858e-03
9.000  17.250  6.8434e-03
9.000  17.500  7.5259e-03
9.000  17.750  8.9213e-03
9.000  18.000  1.1583e-02
9.000  18.250  1.6425e-02
9.000  18.500  2.3796e-02
9.000  18.750  2.9341e-02
9.000  19.000  3.1770e-02
9.000  19.250  3.4134e-02
9.000  19.500  3.3446e-02
9.000  19.750  3.1420e-02
9.000  20.000  2.8964e-02
9.000  20.250  2.7303e-02
9.000  20.500  2.6182e-02
9.000  20.750  2.5582e-02
9.000  21.000  2.5261e-02
9.000  21.250  2.5076e-02
9.000  21.500  2.4996e-02
9.000  21.750  2.4962e-02
9.000  22.000  2.4947e-02
9.000  22.250  2.4940e-02
9.000  22.500  2.4937e-02
9.000  22.750  2.4935e-02
9.000  23.000  2.4934e-02
9.000  23.250  2.4933e-02
9.000  23.500  2.4933e-02
9.000  23.750  2.4933e-02
9.000  24.000  2.4934e-02
9.250  17.000  5.7929e-03
9.250  17.250  5.9091e-03
9.250  17.500  6.3040e-03
9.250  17.750  7.1310e-03
9.250  18.000  8.7507e-03
9.250  18.250  1.1750e-02
9.250  18.500  1.7076e-02
9.250  18.750  2.4691e-02
9.250  19.000  2.9163e-02
9.250  19.250  3.1691e-02
9.250  19.500  3.4115e-02
9.250  19.750  3.3482e-02
9.250  20.000  3.1449e-02
9.250  20.250  2.8968e-02
9.250  20.500  2.7303e-02
9.250  20.750  2.6182e-02
9.250  21.000  2.5582e-02
9.250  21.250  2.5261e-02
9.250  21.500  2.5072e-02
9.250  21.750  2.4992e-02
9.250  22.000  2.4958e-02
9.250  22.250  2.4943e-02
9.250  22.500  2.4940e-02
9.250  22.750  2.4936e-02
9.250  23.000  2.4935e-02
9.250  23.250  2.4934e-02
9.250  23.500  2.4933e-02
9.250  23.750  2.4933e-02
9.250  24.000  2.4933e-02
9.500  17.000  5.2376e-03
9.500  17.250  5.2681e-03
9.500  17.500  5.5293e-03
9.500  17.750  6.0942e-03
9.500  18.000  7.1433e-03
9.500  18.250  9.0572e-03
9.500  18.500  1.2554e-02
9.500  18.750  1.8635e-02
9.500  19.000  2.6113e-02
9.500  19.250  2.9041e-02
9.500  19.500  3.1611e-02
9.500  19.750  3.4086e-02
9.500  20.000  3.3507e-02
9.500  20.250  3.1474e-02
9.500  20.500  2.8972e-02
9.500  20.750  2.7302e-02
9.500  21.000  2.6178e-02
9.500  21.250  2.5578e-02
9.500  21.500  2.5256e-02
9.500  21.750  2.5070e-02
9.500  22.000  2.4989e-02
9.500  22.250  2.4955e-02
9.500  22.500  2.4940e-02
9.500  22.750  2.4933e-02
9.500  23.000  2.4929e-02
9.500  23.250  2.4927e-02
9.500  23.500  2.4927e-02
9.500  23.750  2.4927e-02
9.500  24.000  2.4926e-02
9.750  17.000  4.8760e-03
9.750  17.250  4.8005e-03
9.750  17.500  4.9788e-03
9.750  17.750  5.4226e-03
9.750  18.000  6.2180e-03
9.750  18.250  7.5634e-03
9.750  18.500  9.9064e-03
9.750  18.750  1.4042e-02
9.750  19.000  2.0848e-02
9.750  19.250  2.7129e-02
9.750  19.500  2.8948e-02
9.750  19.750  3.1520e-02
9.750  20.000  3.4048e-02
9.750  20.250  3.3516e-02
9.750  20.500  3.1494e-02
9.750  20.750  2.8974e-02
9.750  21.000  2.7303e-02
9.750  21.250  2.6178e-02
9.750  21.500  2.5578e-02
9.750  21.750  2.5257e-02
9.750  22.000  2.5071e-02
9.750  22.250  2.4989e-02
9.750  22.500  2.4955e-02
9.750  22.750  2.4940e-02
9.750  23.000  2.4933e-02
9.750  23.250  2.4929e-02
9.750  23.500  2.4927e-02
9.750  23.750  2.4926e-02
9.750  24.000  2.4926e-02
10.000  17.000  4.6913e-03
10.000  17.250  4.4783e-03
10.000  17.500  4.5396e-03
10.000  17.750  4.9062e-03
10.000  18.000  5.6243e-03
10.000  18.250  6.7080e-03
10.000  18.500  8.4084e-03
10.000  18.750  1.1274e-02
10.000  19.000  1.6232e-02
10.000  19.250  2.3346e-02
10.000  19.500  2.7274e-02
10.000  19.750  2.8896e-02
10.000  20.000  3.1431e-02
10.000  20.250  3.4008e-02
10.000  20.500  3.3516e-02
10.000  20.750  3.1509e-02
10.000  21.000  2.8977e-02
10.000  21.250  2.7303e-02
10.000  21.500  2.6180e-02
10.000  21.750  2.5579e-02
10.000  22.000  2.5257e-02
10.000  22.250  2.5071e-02
10.000  22.500  2.4990e-02
10.000  22.750  2.4955e-02
10.000  23.000  2.4940e-02
10.000  23.250  2.4933e-02
10.000  23.500  2.4929e-02
10.000  23.750  2.4927e-02
10.000  24.000  2.4926e-02
10.250  17.000  4.6744e-03
10.250  17.250  4.3160e-03
10.250  17.500  4.2435e-03
10.250  17.750  4.5150e-03
10.250  18.000  5.1791e-03
10.250  18.250  6.1496e-03
10.250  18.500  7.5272e-03
10.250  18.750  9.6985e-03
10.250  19.000  1.3357e-02
10.250  19.250  1.8852e-02
10.250  19.500  2.5029e-02
10.250  19.750  2.7331e-02
10.250  20.000  2.8892e-02
10.250  20.250  3.1398e-02
10.250  20.500  3.3982e-02
10.250  20.750  3.3505e-02
10.250  21.000  3.1518e-02
10.250  21.250  2.8978e-02
10.250  21.500  2.7303e-02
10.250  21.750  2.6180e-02
10.250  22.000  2.5581e-02
10.250  22.250  2.5257e-02
10.250  22.500  2.5072e-02
10.250  22.750  2.4991e-02
10.250  23.000  2.4955e-02
10.250  23.250  2.4940e-02
10.250  23.500  2.4933e-02
10.250  23.750  2.4929e-02
10.250  24.000  2.4928e-02
10.500  17.000  4.7748e-03
10.500  17.250  4.3138e-03
10.500  17.500  4.1039e-03
10.500  17.750  4.2635e-03
10.500  18.000  4.8247e-03
10.500  18.250  5.7129e-03
10.500  18.500  6.8950e-03
10.500  18.750  8.5285e-03
10.500  19.000  1.0916e-02
10.500  19.250  1.4724e-02
10.500  19.500  1.9514e-02
10.500  19.750  2.4152e-02
10.500  20.000  2.7402e-02
10.500  20.250  2.8976e-02
10.500  20.500  3.1467e-02
10.500  20.750  3.4024e-02
10.500  21.000  3.3492e-02
10.500  21.250  3.1522e-02
10.500  21.500  2.8978e-02
10.500  21.750  2.7303e-02
10.500  22.000  2.6181e-02
10.500  22.250  2.5581e-02
10.500  22.500  2.5259e-02
10.500  22.750  2.5072e-02
10.500  23.000  2.4992e-02
10.500  23.250  2.4956e-02
10.500  23.500  2.4940e-02
10.500  23.750  2.4933e-02
10.500  24.000  2.4929e-02
10.750  17.000  4.9356e-03
10.750  17.250  4.4220e-03
10.750  17.500  4.1232e-03
10.750  17.750  4.1728e-03
10.750  18.000  4.5798e-03
10.750  18.250  5.2734e-03
10.750  18.500  6.2413e-03
10.750  18.750  7.4319e-03
10.750  19.000  9.0774e-03
10.750  19.250  1.1677e-02
10.750  19.500  1.5908e-02
10.750  19.750  2.1938e-02
10.750  20.000  2.6132e-02
10.750  20.250  2.7573e-02
10.750  20.500  2.9199e-02
10.750  20.750  3.1736e-02
10.750  21.000  3.4158e-02
10.750  21.250  3.3485e-02
10.750  21.500  3.1521e-02
10.750  21.750  2.8977e-02
10.750  22.000  2.7303e-02
10.750  22.250  2.6180e-02
10.750  22.500  2.5582e-02
10.750  22.750  2.5260e-02
10.750  23.000  2.5072e-02
10.750  23.250  2.4992e-02
10.750  23.500  2.4957e-02
10.750  23.750  2.4942e-02
10.750  24.000  2.4934e-02
11.000  17.000  5.0992e-03
11.000  17.250  4.5842e-03
11.000  17.500  4.2477e-03
11.000  17.750  4.2170e-03
11.000  18.000  4.4651e-03
11.000  18.250  4.9083e-03
11.000  18.500  5.5730e-03
11.000  18.750  6.4743e-03
11.000  19.000  7.6848e-03
11.000  19.250  9.4956e-03
11.000  19.500  1.2392e-02
11.000  19.750  1.7019e-02
11.000  20.000  2.3171e-02
11.000  20.250  2.6410e-02
11.000  20.500  2.7949e-02
11.000  20.750  2.9633e-02
11.000  21.000  3.2298e-02
11.000  21.250  3.4446e-02
11.000  21.500  3.3506e-02
11.000  21.750  3.1516e-02
11.000  22.000  2.8974e-02
11.000  22.250  2.7303e-02
11.000  22.500  2.6180e-02
11.000  22.750  2.5582e-02
11.000  23.000  2.5261e-02
11.000  23.250  2.5073e-02
11.000  23.500  2.4992e-02
11.000  23.750  2.4958e-02
11.000  24.000  2.4942e-02
11.250  17.000  5.1951e-03
11.250  17.250  4.7358e-03
11.250  17.500  4.3976e-03
11.250  17.750  4.3253e-03
11.250  18.000  4.4531e-03
11.250  18.250  4.6699e-03
11.250  18.500  5.0284e-03
11.250  18.750  5.6602e-03
11.250  19.000  6.5984e-03
11.250  19.250  7.9005e-03
11.250  19.500  9.8882e-03
11.250  19.750  1.3063e-02
11.250  20.000  1.8037e-02
11.250  20.250  2.4206e-02
11.250  20.500  2.6811e-02
11.250  20.750  2.8423e-02
11.250  21.000  3.0391e-02
11.250  21.250  3.3310e-02
11.250  21.500  3.4957e-02
11.250  21.750  3.3579e-02
11.250  22.000  3.1506e-02
11.250  22.250  2.8971e-02
11.250  22.500  2.7302e-02
11.250  22.750  2.6180e-02
11.250  23.000  2.5582e-02
11.250  23.250  2.5261e-02
11.250  23.500  2.5075e-02
11.250  23.750  2.4992e-02
11.250  24.000  2.4958e-02
11.500  17.000  5.1408e-03
11.500  17.250  4.8087e-03
11.500  17.500  4.5102e-03
11.500  17.750  4.4202e-03
11.500  18.000  4.4695e-03
11.500  18.250  4.5406e-03
11.500  18.500  4.6927e-03
11.500  18.750  4.8564e-03
11.500  19.000  5.2106e-03
11.500  19.250  6.0134e-03
11.500  19.500  7.5228e-03
11.500  19.750  9.9970e-03
11.500  20.000  1.3694e-02
11.500  20.250  1.9003e-02
11.500  20.500  2.5122e-02
11.500  20.750  2.7371e-02
11.500  21.000  2.9253e-02
11.500  21.250  3.1661e-02
11.500  21.500  3.4978e-02
11.500  21.750  3.5568e-02
11.500  22.000  3.3726e-02
11.500  22.250  3.1496e-02
11.500  22.500  2.8966e-02
11.500  22.750  2.7302e-02
11.500  23.000  2.6180e-02
11.500  23.250  2.5582e-02
11.500  23.500  2.5261e-02
11.500  23.750  2.5076e-02
11.500  24.000  2.4993e-02
11.750  17.000  4.8328e-03
11.750  17.250  4.7109e-03
11.750  17.500  4.5155e-03
11.750  17.750  4.5942e-03
11.750  18.000  5.0220e-03
11.750  18.250  5.7731e-03
11.750  18.500  6.8215e-03
11.750  18.750  8.1416e-03
11.750  19.000  9.7075e-03
11.750  19.250  1.1493e-02
11.750  19.500  1.3473e-02
11.750  19.750  1.5622e-02
11.750  20.000  1.7912e-02
11.750  20.250  2.0320e-02
11.750  20.500  2.2818e-02
11.750  20.750  2.5382e-02
11.750  21.000  2.7984e-02
11.750  21.250  3.0600e-02
11.750  21.500  3.3634e-02
11.750  21.750  3.7165e-02
11.750  22.000  3.6271e-02
11.750  22.250  3.3945e-02
11.750  22.500  3.1491e-02
11.750  22.750  2.8960e-02
11.750  23.000  2.7301e-02
11.750  23.250  2.6179e-02
11.750  23.500  2.5593e-02
11.750  23.750  2.5261e-02
11.750  24.000  2.5076e-02
12.000  17.000  4.1766e-03
12.000  17.250  4.3324e-03
12.000  17.500  4.3277e-03
12.000  17.750  4.3650e-03
12.000  18.000  4.4343e-03
12.000  18.250  4.4471e-03
12.000  18.500  4.4209e-03
12.000  18.750  4.4347e-03
12.000  19.000  4.5867e-03
12.000  19.250  4.9737e-03
12.000  19.500  5.6959e-03
12.000  19.750  6.7659e-03
12.000  20.000  8.3672e-03
12.000  20.250  1.0886e-02
12.000  20.500  1.4877e-02
12.000  20.750  2.0917e-02
12.000  21.000  2.6922e-02
12.000  21.250  2.9539e-02
12.000  21.500  3.2638e-02
12.000  21.750  3.6323e-02
12.000  22.000  3.9199e-02
12.000  22.250  3.6953e-02
12.000  22.500  3.4220e-02
12.000  22.750  3.1493e-02
12.000  23.000  2.8954e-02
12.000  23.250  2.7301e-02
12.000  23.500  2.6179e-02
12.000  23.750  2.5582e-02
12.000  24.000  2.5261e-02
12.250  17.000  3.2775e-03
12.250  17.250  3.6559e-03
12.250  17.500  3.9007e-03
12.250  17.750  4.1225e-03
12.250  18.000  4.2707e-03
12.250  18.250  4.2961e-03
12.250  18.500  4.2585e-03
12.250  18.750  4.2370e-03
12.250  19.000  4.2836e-03
12.250  19.250  4.4676e-03
12.250  19.500  4.8977e-03
12.250  19.750  5.6599e-03
12.250  20.000  6.7843e-03
12.250  20.250  8.5038e-03
12.250  20.500  1.1216e-02
12.250  20.750  1.5511e-02
12.250  21.000  2.2167e-02
12.250  21.250  2.8277e-02
12.250  21.500  3.1423e-02
12.250  21.750  3.5232e-02
12.250  22.000  3.9469e-02
12.250  22.250  4.0812e-02
12.250  22.500  3.7699e-02
12.250  22.750  3.4537e-02
12.250  23.000  3.1508e-02
12.250  23.250  2.8947e-02
12.250  23.500  2.7300e-02
12.250  23.750  2.6178e-02
12.250  24.000  2.5581e-02
12.500  17.000  2.4928e-03
12.500  17.250  2.9351e-03
12.500  17.500  3.3351e-03
12.500  17.750  3.6580e-03
12.500  18.000  3.8560e-03
12.500  18.250  3.9436e-03
12.500  18.500  3.9712e-03
12.500  18.750  3.9958e-03
12.500  19.000  4.0368e-03
12.500  19.250  4.1302e-03
12.500  19.500  4.3527e-03
12.500  19.750  4.8179e-03
12.500  20.000  5.6229e-03
12.500  20.250  6.8119e-03
12.500  20.500  8.6725e-03
12.500  20.750  1.1633e-02
12.500  21.000  1.6413e-02
12.500  21.250  2.3851e-02
12.500  21.500  3.0107e-02
12.500  21.750  3.3930e-02
12.500  22.000  3.8600e-02
12.500  22.250  4.2667e-02
12.500  22.500  4.2500e-02
12.500  22.750  3.8520e-02
12.500  23.000  3.4884e-02
12.500  23.250  3.1538e-02
12.500  23.500  2.8941e-02
12.500  23.750  2.7299e-02
12.500  24.000  2.6177e-02
12.750  17.000  1.9435e-03
12.750  17.250  2.3361e-03
12.750  17.500  2.6907e-03
12.750  17.750  2.9697e-03
12.750  18.000  3.2072e-03
12.750  18.250  3.4028e-03
12.750  18.500  3.5498e-03
12.750  18.750  3.6668e-03
12.750  19.000  3.7660e-03
12.750  19.250  3.8637e-03
12.750  19.500  3.9911e-03
12.750  19.750  4.2410e-03
12.750  20.000  4.7333e-03
12.750  20.250  5.5781e-03
12.750  20.500  6.8663e-03
12.750  20.750  8.9113e-03
12.750  21.000  1.2219e-02
12.750  21.250  1.7688e-02
12.750  21.500  2.5873e-02
12.750  21.750  3.2643e-02
12.750  22.000  3.7157e-02
12.750  22.250  4.2403e-02
12.750  22.500  4.5850e-02
12.750  22.750  4.4106e-02
12.750  23.000  3.9438e-02
12.750  23.250  3.5209e-02
12.750  23.500  3.1563e-02
12.750  23.750  2.8938e-02
12.750  24.000  2.7298e-02
13.000  17.000  1.4977e-03
13.000  17.250  1.7986e-03
13.000  17.500  2.0529e-03
13.000  17.750  2.2942e-03
13.000  18.000  2.5462e-03
13.000  18.250  2.8031e-03
13.000  18.500  3.0402e-03
13.000  18.750  3.2477e-03
13.000  19.000  3.4263e-03
13.000  19.250  3.5761e-03
13.000  19.500  3.7051e-03
13.000  19.750  3.8570e-03
13.000  20.000  4.1221e-03
13.000  20.250  4.6368e-03
13.000  20.500  5.5556e-03
13.000  20.750  6.9580e-03
13.000  21.000  9.3137e-03
13.000  21.250  1.3122e-02
13.000  21.500  1.9084e-02
13.000  21.750  2.8759e-02
13.000  22.000  3.5869e-02
13.000  22.250  4.0411e-02
13.000  22.500  4.5985e-02
13.000  22.750  4.8924e-02
13.000  23.000  4.5904e-02
13.000  23.250  4.0331e-02
13.000  23.500  3.5534e-02
13.000  23.750  3.1611e-02
13.000  24.000  2.8939e-02
13.250  17.000  1.2285e-03
13.250  17.250  1.4429e-03
13.250  17.500  1.6375e-03
13.250  17.750  1.8110e-03
13.250  18.000  2.0244e-03
13.250  18.250  2.2792e-03
13.250  18.500  2.5412e-03
13.250  18.750  2.7912e-03
13.250  19.000  3.0233e-03
13.250  19.250  3.2319e-03
13.250  19.500  3.4097e-03
13.250  19.750  3.5658e-03
13.250  20.000  3.7361e-03
13.250  20.250  4.0084e-03
13.250  20.500  4.5336e-03
13.250  20.750  5.4905e-03
13.250  21.000  7.0520e-03
13.250  21.250  9.6751e-03
13.250  21.500  1.3771e-02
13.250  21.750  2.0950e-02
13.250  22.000  3.1299e-02
13.250  22.250  3.8197e-02
13.250  22.500  4.3760e-02
13.250  22.750  4.9419e-02
13.250  23.000  5.2129e-02
13.250  23.250  4.7504e-02
13.250  23.500  4.1120e-02
13.250  23.750  3.5828e-02
13.250  24.000  3.1679e-02
13.500  17.000  1.0541e-03
13.500  17.250  1.2088e-03
13.500  17.500  1.3609e-03
13.500  17.750  1.4950e-03
13.500  18.000  1.6669e-03
13.500  18.250  1.8815e-03
13.500  18.500  2.1202e-03
13.500  18.750  2.3635e-03
13.500  19.000  2.6065e-03
13.500  19.250  2.8421e-03
13.500  19.500  3.0593e-03
13.500  19.750  3.2500e-03
13.500  20.000  3.4202e-03
13.500  20.250  3.6035e-03
13.500  20.500  3.8818e-03
13.500  20.750  4.4063e-03
13.500  21.000  5.3449e-03
13.500  21.250  7.0607e-03
13.500  21.500  9.7040e-03
13.500  21.750  1.3968e-02
13.500  22.000  2.1438e-02
13.500  22.250  3.3304e-02
13.500  22.500  4.1008e-02
13.500  22.750  4.7153e-02
13.500  23.000  5.2938e-02
13.500  23.250  5.5537e-02
13.500  23.500  4.9165e-02
13.500  23.750  4.2176e-02
13.500  24.000  3.6096e-02
13.750  17.000  9.3531e-04
13.750  17.250  1.0604e-03
13.750  17.500  1.1817e-03
13.750  17.750  1.2951e-03
13.750  18.000  1.4324e-03
13.750  18.250  1.6088e-03
13.750  18.500  1.8069e-03
13.750  18.750  2.0148e-03
13.750  19.000  2.2332e-03
13.750  19.250  2.4620e-03
13.750  19.500  2.6922e-03
13.750  19.750  2.9102e-03
13.750  20.000  3.1096e-03
13.750  20.250  3.2955e-03
13.750  20.500  3.4990e-03
13.750  20.750  3.7938e-03
13.750  21.000  4.3158e-03
13.750  21.250  5.2523e-03
13.750  21.500  6.8774e-03
13.750  21.750  9.5677e-03
13.750  22.000  1.4218e-02
13.750  22.250  2.2734e-02
13.750  22.500  3.6078e-02
13.750  22.750  4.4904e-02
13.750  23.000  5.1439e-02
13.750  23.250  5.7448e-02
13.750  23.500  5.9206e-02
13.750  23.750  5.1004e-02
13.750  24.000  4.2894e-02
14.000  17.000  8.5300e-04
14.000  17.250  9.5770e-04
14.000  17.500  1.0653e-03
14.000  17.750  1.1622e-03
14.000  18.000  1.2791e-03
14.000  18.250  1.4239e-03
14.000  18.500  1.5874e-03
14.000  18.750  1.7577e-03
14.000  19.000  1.9383e-03
14.000  19.250  2.1351e-03
14.000  19.500  2.3495e-03
14.000  19.750  2.5733e-03
14.000  20.000  2.7929e-03
14.000  20.250  3.0029e-03
14.000  20.500  3.2105e-03
14.000  20.750  3.4464e-03
14.000  21.000  3.7845e-03
14.000  21.250  4.3622e-03
14.000  21.500  5.3369e-03
14.000  21.750  7.0490e-03
14.000  22.000  1.0029e-02
14.000  22.250  1.5410e-02
14.000  22.500  2.5606e-02
14.000  22.750  4.0604e-02
14.000  23.000  4.9859e-02
14.000  23.250  5.7253e-02
14.000  23.500  6.2928e-02
14.000  23.750  6.3160e-02
14.000  24.000  5.2676e-02
