InwC 1410.00A  relative to Inci 1215.00A scaled to 1215A.
Hden   Phi(H)  Eq_Width (A)
7.000  17.000  2.4006e-02
7.000  17.250  2.4859e-02
7.000  17.500  2.4870e-02
7.000  17.750  2.4881e-02
7.000  18.000  2.4893e-02
7.000  18.250  2.4905e-02
7.000  18.500  2.4911e-02
7.000  18.750  2.4914e-02
7.000  19.000  2.4918e-02
7.000  19.250  2.4920e-02
7.000  19.500  2.4920e-02
7.000  19.750  2.4921e-02
7.000  20.000  2.4921e-02
7.000  20.250  2.4921e-02
7.000  20.500  2.4921e-02
7.000  20.750  2.4921e-02
7.000  21.000  2.4921e-02
7.000  21.250  2.4922e-02
7.000  21.500  2.4922e-02
7.000  21.750  2.4922e-02
7.000  22.000  2.4922e-02
7.000  22.250  2.4922e-02
7.000  22.500  2.4922e-02
7.000  22.750  2.4922e-02
7.000  23.000  2.4922e-02
7.000  23.250  2.4922e-02
7.000  23.500  2.4922e-02
7.000  23.750  2.4922e-02
7.000  24.000  2.4922e-02
7.250  17.000  2.3756e-02
7.250  17.250  2.4012e-02
7.250  17.500  2.4859e-02
7.250  17.750  2.4870e-02
7.250  18.000  2.4881e-02
7.250  18.250  2.4893e-02
7.250  18.500  2.4905e-02
7.250  18.750  2.4911e-02
7.250  19.000  2.4914e-02
7.250  19.250  2.4918e-02
7.250  19.500  2.4920e-02
7.250  19.750  2.4920e-02
7.250  20.000  2.4921e-02
7.250  20.250  2.4921e-02
7.250  20.500  2.4921e-02
7.250  20.750  2.4921e-02
7.250  21.000  2.4921e-02
7.250  21.250  2.4921e-02
7.250  21.500  2.4921e-02
7.250  21.750  2.4921e-02
7.250  22.000  2.4924e-02
7.250  22.250  2.4922e-02
7.250  22.500  2.4922e-02
7.250  22.750  2.4922e-02
7.250  23.000  2.4922e-02
7.250  23.250  2.4923e-02
7.250  23.500  2.4922e-02
7.250  23.750  2.4923e-02
7.250  24.000  2.4922e-02
7.500  17.000  2.9056e-02
7.500  17.250  2.3688e-02
7.500  17.500  2.4017e-02
7.500  17.750  2.4859e-02
7.500  18.000  2.4870e-02
7.500  18.250  2.4881e-02
7.500  18.500  2.4893e-02
7.500  18.750  2.4905e-02
7.500  19.000  2.4911e-02
7.500  19.250  2.4914e-02
7.500  19.500  2.4917e-02
7.500  19.750  2.4920e-02
7.500  20.000  2.4920e-02
7.500  20.250  2.4921e-02
7.500  20.500  2.4921e-02
7.500  20.750  2.4921e-02
7.500  21.000  2.4921e-02
7.500  21.250  2.4921e-02
7.500  21.500  2.4921e-02
7.500  21.750  2.4921e-02
7.500  22.000  2.4921e-02
7.500  22.250  2.4921e-02
7.500  22.500  2.4921e-02
7.500  22.750  2.4921e-02
7.500  23.000  2.4921e-02
7.500  23.250  2.4922e-02
7.500  23.500  2.4922e-02
7.500  23.750  2.4922e-02
7.500  24.000  2.4922e-02
7.750  17.000  3.3843e-02
7.750  17.250  2.8845e-02
7.750  17.500  2.3638e-02
7.750  17.750  2.4021e-02
7.750  18.000  2.4859e-02
7.750  18.250  2.5298e-02
7.750  18.500  2.5603e-02
7.750  18.750  2.5789e-02
7.750  19.000  2.5874e-02
7.750  19.250  2.5875e-02
7.750  19.500  2.5809e-02
7.750  19.750  2.5694e-02
7.750  20.000  2.5546e-02
7.750  20.250  2.5383e-02
7.750  20.500  2.5222e-02
7.750  20.750  2.5080e-02
7.750  21.000  2.4974e-02
7.750  21.250  2.4921e-02
7.750  21.500  2.4921e-02
7.750  21.750  2.4921e-02
7.750  22.000  2.4921e-02
7.750  22.250  2.4921e-02
7.750  22.500  2.4921e-02
7.750  22.750  2.4921e-02
7.750  23.000  2.4922e-02
7.750  23.250  2.4921e-02
7.750  23.500  2.4921e-02
7.750  23.750  2.4921e-02
7.750  24.000  2.4921e-02
8.000  17.000  3.7971e-02
8.000  17.250  3.3657e-02
8.000  17.500  2.8755e-02
8.000  17.750  2.3703e-02
8.000  18.000  2.4016e-02
8.000  18.250  2.4859e-02
8.000  18.500  2.4870e-02
8.000  18.750  2.4881e-02
8.000  19.000  2.4894e-02
8.000  19.250  2.4905e-02
8.000  19.500  2.4911e-02
8.000  19.750  2.4914e-02
8.000  20.000  2.4918e-02
8.000  20.250  2.4920e-02
8.000  20.500  2.4920e-02
8.000  20.750  2.4921e-02
8.000  21.000  2.4921e-02
8.000  21.250  2.4921e-02
8.000  21.500  2.4921e-02
8.000  21.750  2.4921e-02
8.000  22.000  2.4921e-02
8.000  22.250  2.4921e-02
8.000  22.500  2.4921e-02
8.000  22.750  2.4921e-02
8.000  23.000  2.4921e-02
8.000  23.250  2.4921e-02
8.000  23.500  2.4921e-02
8.000  23.750  2.4921e-02
8.000  24.000  2.4924e-02
8.250  17.000  4.1000e-02
8.250  17.250  3.7729e-02
8.250  17.500  3.3362e-02
8.250  17.750  2.8545e-02
8.250  18.000  2.3663e-02
8.250  18.250  2.4020e-02
8.250  18.500  2.4858e-02
8.250  18.750  2.4870e-02
8.250  19.000  2.4881e-02
8.250  19.250  2.4894e-02
8.250  19.500  2.4905e-02
8.250  19.750  2.4911e-02
8.250  20.000  2.4914e-02
8.250  20.250  2.4917e-02
8.250  20.500  2.4920e-02
8.250  20.750  2.4920e-02
8.250  21.000  2.4921e-02
8.250  21.250  2.4921e-02
8.250  21.500  2.4921e-02
8.250  21.750  2.4921e-02
8.250  22.000  2.4921e-02
8.250  22.250  2.4921e-02
8.250  22.500  2.4921e-02
8.250  22.750  2.4921e-02
8.250  23.000  2.4922e-02
8.250  23.250  2.4921e-02
8.250  23.500  2.4921e-02
8.250  23.750  2.4921e-02
8.250  24.000  2.4921e-02
8.500  17.000  4.3142e-02
8.500  17.250  4.0784e-02
8.500  17.500  3.7418e-02
8.500  17.750  3.2947e-02
8.500  18.000  2.8215e-02
8.500  18.250  2.3580e-02
8.500  18.500  2.4022e-02
8.500  18.750  2.4858e-02
8.500  19.000  2.4870e-02
8.500  19.250  2.4881e-02
8.500  19.500  2.4894e-02
8.500  19.750  2.4905e-02
8.500  20.000  2.4911e-02
8.500  20.250  2.4914e-02
8.500  20.500  2.4917e-02
8.500  20.750  2.4920e-02
8.500  21.000  2.4920e-02
8.500  21.250  2.4921e-02
8.500  21.500  2.4921e-02
8.500  21.750  2.4921e-02
8.500  22.000  2.4921e-02
8.500  22.250  2.4921e-02
8.500  22.500  2.4921e-02
8.500  22.750  2.4922e-02
8.500  23.000  2.4921e-02
8.500  23.250  2.4921e-02
8.500  23.500  2.4921e-02
8.500  23.750  2.4921e-02
8.500  24.000  2.4921e-02
8.750  17.000  4.4644e-02
8.750  17.250  4.2941e-02
8.750  17.500  4.0469e-02
8.750  17.750  3.6911e-02
8.750  18.000  3.2339e-02
8.750  18.250  2.7680e-02
8.750  18.500  2.3452e-02
8.750  18.750  2.4023e-02
8.750  19.000  2.4858e-02
8.750  19.250  2.4870e-02
8.750  19.500  2.4882e-02
8.750  19.750  2.4894e-02
8.750  20.000  2.4905e-02
8.750  20.250  2.4911e-02
8.750  20.500  2.4914e-02
8.750  20.750  2.4917e-02
8.750  21.000  2.4920e-02
8.750  21.250  2.4920e-02
8.750  21.500  2.4921e-02
8.750  21.750  2.4921e-02
8.750  22.000  2.4921e-02
8.750  22.250  2.4921e-02
8.750  22.500  2.4921e-02
8.750  22.750  2.4921e-02
8.750  23.000  2.4921e-02
8.750  23.250  2.4921e-02
8.750  23.500  2.4921e-02
8.750  23.750  2.4921e-02
8.750  24.000  2.4921e-02
9.000  17.000  4.5692e-02
9.000  17.250  4.4451e-02
9.000  17.500  4.2628e-02
9.000  17.750  3.9936e-02
9.000  18.000  3.6074e-02
9.000  18.250  3.1251e-02
9.000  18.500  2.6781e-02
9.000  18.750  2.3147e-02
9.000  19.000  2.4022e-02
9.000  19.250  2.4857e-02
9.000  19.500  2.4870e-02
9.000  19.750  2.4882e-02
9.000  20.000  2.4894e-02
9.000  20.250  2.4905e-02
9.000  20.500  2.4911e-02
9.000  20.750  2.4914e-02
9.000  21.000  2.4917e-02
9.000  21.250  2.4920e-02
9.000  21.500  2.4920e-02
9.000  21.750  2.4921e-02
9.000  22.000  2.4921e-02
9.000  22.250  2.4921e-02
9.000  22.500  2.4921e-02
9.000  22.750  2.4921e-02
9.000  23.000  2.4921e-02
9.000  23.250  2.4921e-02
9.000  23.500  2.4921e-02
9.000  23.750  2.4921e-02
9.000  24.000  2.4922e-02
9.250  17.000  4.6424e-02
9.250  17.250  4.5506e-02
9.250  17.500  4.4139e-02
9.250  17.750  4.2077e-02
9.250  18.000  3.8983e-02
9.250  18.250  3.4682e-02
9.250  18.500  2.9699e-02
9.250  18.750  2.5353e-02
9.250  19.000  2.3123e-02
9.250  19.250  2.4018e-02
9.250  19.500  2.4856e-02
9.250  19.750  2.5268e-02
9.250  20.000  2.5445e-02
9.250  20.250  2.5447e-02
9.250  20.500  2.5334e-02
9.250  20.750  2.5168e-02
9.250  21.000  2.5009e-02
9.250  21.250  2.4917e-02
9.250  21.500  2.4916e-02
9.250  21.750  2.4916e-02
9.250  22.000  2.4916e-02
9.250  22.250  2.4917e-02
9.250  22.500  2.4920e-02
9.250  22.750  2.4920e-02
9.250  23.000  2.4921e-02
9.250  23.250  2.4921e-02
9.250  23.500  2.4921e-02
9.250  23.750  2.4921e-02
9.250  24.000  2.4921e-02
9.500  17.000  4.6933e-02
9.500  17.250  4.6238e-02
9.500  17.500  4.5189e-02
9.500  17.750  4.3588e-02
9.500  18.000  4.1115e-02
9.500  18.250  3.7498e-02
9.500  18.500  3.2832e-02
9.500  18.750  2.7938e-02
9.500  19.000  2.4106e-02
9.500  19.250  2.3111e-02
9.500  19.500  2.4007e-02
9.500  19.750  2.4854e-02
9.500  20.000  2.5304e-02
9.500  20.250  2.5451e-02
9.500  20.500  2.5391e-02
9.500  20.750  2.5217e-02
9.500  21.000  2.5025e-02
9.500  21.250  2.4910e-02
9.500  21.500  2.4913e-02
9.500  21.750  2.4913e-02
9.500  22.000  2.4913e-02
9.500  22.250  2.4913e-02
9.500  22.500  2.4913e-02
9.500  22.750  2.4914e-02
9.500  23.000  2.4914e-02
9.500  23.250  2.4914e-02
9.500  23.500  2.4914e-02
9.500  23.750  2.4914e-02
9.500  24.000  2.4914e-02
9.750  17.000  4.7286e-02
9.750  17.250  4.6747e-02
9.750  17.500  4.5928e-02
9.750  17.750  4.4646e-02
9.750  18.000  4.2638e-02
9.750  18.250  3.9620e-02
9.750  18.500  3.5594e-02
9.750  18.750  3.0858e-02
9.750  19.000  2.6322e-02
9.750  19.250  2.2996e-02
9.750  19.500  2.3106e-02
9.750  19.750  2.3990e-02
9.750  20.000  2.4849e-02
9.750  20.250  2.4869e-02
9.750  20.500  2.4882e-02
9.750  20.750  2.4894e-02
9.750  21.000  2.4905e-02
9.750  21.250  2.4908e-02
9.750  21.500  2.4910e-02
9.750  21.750  2.4913e-02
9.750  22.000  2.4914e-02
9.750  22.250  2.4913e-02
9.750  22.500  2.4913e-02
9.750  22.750  2.4913e-02
9.750  23.000  2.4913e-02
9.750  23.250  2.4913e-02
9.750  23.500  2.4913e-02
9.750  23.750  2.4913e-02
9.750  24.000  2.4913e-02
10.000  17.000  4.7532e-02
10.000  17.250  4.7101e-02
10.000  17.500  4.6445e-02
10.000  17.750  4.5392e-02
10.000  18.000  4.3703e-02
10.000  18.250  4.1168e-02
10.000  18.500  3.7769e-02
10.000  18.750  3.3604e-02
10.000  19.000  2.9000e-02
10.000  19.250  2.4897e-02
10.000  19.500  2.2527e-02
10.000  19.750  2.3110e-02
10.000  20.000  2.3972e-02
10.000  20.250  2.4844e-02
10.000  20.500  2.5268e-02
10.000  20.750  2.5267e-02
10.000  21.000  2.5069e-02
10.000  21.250  2.4905e-02
10.000  21.500  2.4910e-02
10.000  21.750  2.4911e-02
10.000  22.000  2.4913e-02
10.000  22.250  2.4915e-02
10.000  22.500  2.4914e-02
10.000  22.750  2.4913e-02
10.000  23.000  2.4913e-02
10.000  23.250  2.4914e-02
10.000  23.500  2.4914e-02
10.000  23.750  2.4913e-02
10.000  24.000  2.4913e-02
10.250  17.000  4.7700e-02
10.250  17.250  4.7345e-02
10.250  17.500  4.6797e-02
10.250  17.750  4.5907e-02
10.250  18.000  4.4444e-02
10.250  18.250  4.2295e-02
10.250  18.500  3.9439e-02
10.250  18.750  3.5876e-02
10.250  19.000  3.1718e-02
10.250  19.250  2.7394e-02
10.250  19.500  2.3537e-02
10.250  19.750  2.2573e-02
10.250  20.000  2.3115e-02
10.250  20.250  2.3957e-02
10.250  20.500  2.4564e-02
10.250  20.750  2.4896e-02
10.250  21.000  2.5026e-02
10.250  21.250  2.5024e-02
10.250  21.500  2.4962e-02
10.250  21.750  2.4911e-02
10.250  22.000  2.4913e-02
10.250  22.250  2.4914e-02
10.250  22.500  2.4915e-02
10.250  22.750  2.4915e-02
10.250  23.000  2.4914e-02
10.250  23.250  2.4913e-02
10.250  23.500  2.4913e-02
10.250  23.750  2.4914e-02
10.250  24.000  2.4914e-02
10.500  17.000  4.7810e-02
10.500  17.250  4.7509e-02
10.500  17.500  4.7032e-02
10.500  17.750  4.6245e-02
10.500  18.000  4.4941e-02
10.500  18.250  4.3050e-02
10.500  18.500  4.0674e-02
10.500  18.750  3.7821e-02
10.500  19.000  3.4556e-02
10.500  19.250  3.0786e-02
10.500  19.500  2.6577e-02
10.500  19.750  2.2877e-02
10.500  20.000  2.2580e-02
10.500  20.250  2.3122e-02
10.500  20.500  2.3949e-02
10.500  20.750  2.4829e-02
10.500  21.000  2.4863e-02
10.500  21.250  2.4881e-02
10.500  21.500  2.4894e-02
10.500  21.750  2.4905e-02
10.500  22.000  2.4911e-02
10.500  22.250  2.4914e-02
10.500  22.500  2.4915e-02
10.500  22.750  2.4915e-02
10.500  23.000  2.4916e-02
10.500  23.250  2.4915e-02
10.500  23.500  2.4914e-02
10.500  23.750  2.4914e-02
10.500  24.000  2.4913e-02
10.750  17.000  4.7868e-02
10.750  17.250  4.7607e-02
10.750  17.500  4.7172e-02
10.750  17.750  4.6422e-02
10.750  18.000  4.5234e-02
10.750  18.250  4.3622e-02
10.750  18.500  4.1679e-02
10.750  18.750  3.9456e-02
10.750  19.000  3.6978e-02
10.750  19.250  3.3870e-02
10.750  19.500  3.0018e-02
10.750  19.750  2.5710e-02
10.750  20.000  2.2172e-02
10.750  20.250  2.2592e-02
10.750  20.500  2.3132e-02
10.750  20.750  2.3959e-02
10.750  21.000  2.4821e-02
10.750  21.250  2.4860e-02
10.750  21.500  2.4880e-02
10.750  21.750  2.4894e-02
10.750  22.000  2.4905e-02
10.750  22.250  2.4911e-02
10.750  22.500  2.4914e-02
10.750  22.750  2.4917e-02
10.750  23.000  2.4916e-02
10.750  23.250  2.4916e-02
10.750  23.500  2.4916e-02
10.750  23.750  2.4915e-02
10.750  24.000  2.4915e-02
11.000  17.000  4.7867e-02
11.000  17.250  4.7640e-02
11.000  17.500  4.7207e-02
11.000  17.750  4.6468e-02
11.000  18.000  4.5365e-02
11.000  18.250  4.3959e-02
11.000  18.500  4.2364e-02
11.000  18.750  4.0768e-02
11.000  19.000  3.8878e-02
11.000  19.250  3.6473e-02
11.000  19.500  3.3275e-02
11.000  19.750  2.9264e-02
11.000  20.000  2.4688e-02
11.000  20.250  2.2079e-02
11.000  20.500  2.2619e-02
11.000  20.750  2.3147e-02
11.000  21.000  2.3993e-02
11.000  21.250  2.4813e-02
11.000  21.500  2.4855e-02
11.000  21.750  2.4878e-02
11.000  22.000  2.4893e-02
11.000  22.250  2.4904e-02
11.000  22.500  2.4911e-02
11.000  22.750  2.4914e-02
11.000  23.000  2.4917e-02
11.000  23.250  2.4916e-02
11.000  23.500  2.4916e-02
11.000  23.750  2.4916e-02
11.000  24.000  2.4916e-02
11.250  17.000  4.7805e-02
11.250  17.250  4.7592e-02
11.250  17.500  4.7137e-02
11.250  17.750  4.6372e-02
11.250  18.000  4.5288e-02
11.250  18.250  4.4022e-02
11.250  18.500  4.2818e-02
11.250  18.750  4.1627e-02
11.250  19.000  4.0273e-02
11.250  19.250  3.8464e-02
11.250  19.500  3.5989e-02
11.250  19.750  3.2652e-02
11.250  20.000  2.8439e-02
11.250  20.250  2.3698e-02
11.250  20.500  2.2085e-02
11.250  20.750  2.2627e-02
11.250  21.000  2.3184e-02
11.250  21.250  2.4083e-02
11.250  21.500  2.4801e-02
11.250  21.750  2.4851e-02
11.250  22.000  2.4876e-02
11.250  22.250  2.4892e-02
11.250  22.500  2.4904e-02
11.250  22.750  2.4911e-02
11.250  23.000  2.4914e-02
11.250  23.250  2.4917e-02
11.250  23.500  2.4918e-02
11.250  23.750  2.4916e-02
11.250  24.000  2.4916e-02
11.500  17.000  4.7704e-02
11.500  17.250  4.7448e-02
11.500  17.500  4.6941e-02
11.500  17.750  4.6090e-02
11.500  18.000  4.4950e-02
11.500  18.250  4.3814e-02
11.500  18.500  4.2948e-02
11.500  18.750  4.2129e-02
11.500  19.000  4.1187e-02
11.500  19.250  3.9892e-02
11.500  19.500  3.8066e-02
11.500  19.750  3.5488e-02
11.500  20.000  3.2007e-02
11.500  20.250  2.7567e-02
11.500  20.500  2.2746e-02
11.500  20.750  2.2065e-02
11.500  21.000  2.2645e-02
11.500  21.250  2.3265e-02
11.500  21.500  2.4267e-02
11.500  21.750  2.4790e-02
11.500  22.000  2.4846e-02
11.500  22.250  2.4874e-02
11.500  22.500  2.4891e-02
11.500  22.750  2.4904e-02
11.500  23.000  2.4911e-02
11.500  23.250  2.4914e-02
11.500  23.500  2.4917e-02
11.500  23.750  2.4919e-02
11.500  24.000  2.4917e-02
11.750  17.000  4.7566e-02
11.750  17.250  4.7209e-02
11.750  17.500  4.6573e-02
11.750  17.750  4.5544e-02
11.750  18.000  4.4299e-02
11.750  18.250  4.3376e-02
11.750  18.500  4.2790e-02
11.750  18.750  4.2311e-02
11.750  19.000  4.1695e-02
11.750  19.250  4.0824e-02
11.750  19.500  3.9549e-02
11.750  19.750  3.7666e-02
11.750  20.000  3.4987e-02
11.750  20.250  3.1316e-02
11.750  20.500  2.6678e-02
11.750  20.750  2.1916e-02
11.750  21.000  2.2037e-02
11.750  21.250  2.2705e-02
11.750  21.500  2.3425e-02
11.750  21.750  2.4526e-02
11.750  22.000  2.4773e-02
11.750  22.250  2.4838e-02
11.750  22.500  2.4871e-02
11.750  22.750  2.4890e-02
11.750  23.000  2.4903e-02
11.750  23.250  2.4911e-02
11.750  23.500  2.4925e-02
11.750  23.750  2.4917e-02
11.750  24.000  2.4920e-02
12.000  17.000  4.7340e-02
12.000  17.250  4.6820e-02
12.000  17.500  4.5939e-02
12.000  17.750  4.4638e-02
12.000  18.000  4.3396e-02
12.000  18.250  4.2723e-02
12.000  18.500  4.2398e-02
12.000  18.750  4.2164e-02
12.000  19.000  4.1839e-02
12.000  19.250  4.1323e-02
12.000  19.500  4.0501e-02
12.000  19.750  3.9219e-02
12.000  20.000  3.7276e-02
12.000  20.250  3.4480e-02
12.000  20.500  3.0621e-02
12.000  20.750  2.5785e-02
12.000  21.000  2.1127e-02
12.000  21.250  2.2056e-02
12.000  21.500  2.2810e-02
12.000  21.750  2.3666e-02
12.000  22.000  2.4652e-02
12.000  22.250  2.4759e-02
12.000  22.500  2.4829e-02
12.000  22.750  2.4867e-02
12.000  23.000  2.4888e-02
12.000  23.250  2.4902e-02
12.000  23.500  2.4911e-02
12.000  23.750  2.4914e-02
12.000  24.000  2.4917e-02
12.250  17.000  4.6752e-02
12.250  17.250  4.6025e-02
12.250  17.500  4.4803e-02
12.250  17.750  4.3288e-02
12.250  18.000  4.2267e-02
12.250  18.250  4.1871e-02
12.250  18.500  4.1765e-02
12.250  18.750  4.1726e-02
12.250  19.000  4.1645e-02
12.250  19.250  4.1442e-02
12.250  19.500  4.1001e-02
12.250  19.750  4.0209e-02
12.250  20.000  3.8905e-02
12.250  20.250  3.6900e-02
12.250  20.500  3.3961e-02
12.250  20.750  2.9918e-02
12.250  21.000  2.4881e-02
12.250  21.250  2.0950e-02
12.250  21.500  2.2097e-02
12.250  21.750  2.2952e-02
12.250  22.000  2.3941e-02
12.250  22.250  2.4639e-02
12.250  22.500  2.4743e-02
12.250  22.750  2.4818e-02
12.250  23.000  2.4862e-02
12.250  23.250  2.4886e-02
12.250  23.500  2.4901e-02
12.250  23.750  2.4910e-02
12.250  24.000  2.4914e-02
12.500  17.000  4.5070e-02
12.500  17.250  4.4275e-02
12.500  17.500  4.2873e-02
12.500  17.750  4.1548e-02
12.500  18.000  4.0925e-02
12.500  18.250  4.0821e-02
12.500  18.500  4.0889e-02
12.500  18.750  4.1029e-02
12.500  19.000  4.1163e-02
12.500  19.250  4.1221e-02
12.500  19.500  4.1107e-02
12.500  19.750  4.0711e-02
12.500  20.000  3.9927e-02
12.500  20.250  3.8582e-02
12.500  20.500  3.6501e-02
12.500  20.750  3.3439e-02
12.500  21.000  2.9139e-02
12.500  21.250  2.3996e-02
12.500  21.500  2.0850e-02
12.500  21.750  2.2194e-02
12.500  22.000  2.3150e-02
12.500  22.250  2.4170e-02
12.500  22.500  2.4627e-02
12.500  22.750  2.4733e-02
12.500  23.000  2.4810e-02
12.500  23.250  2.4856e-02
12.500  23.500  2.4883e-02
12.500  23.750  2.4900e-02
12.500  24.000  2.4910e-02
12.750  17.000  3.1035e-02
12.750  17.250  4.0989e-02
12.750  17.500  4.0149e-02
12.750  17.750  3.9644e-02
12.750  18.000  3.9483e-02
12.750  18.250  3.9533e-02
12.750  18.500  3.9751e-02
12.750  18.750  4.0054e-02
12.750  19.000  4.0391e-02
12.750  19.250  4.0679e-02
12.750  19.500  4.0852e-02
12.750  19.750  4.0799e-02
12.750  20.000  4.0428e-02
12.750  20.250  3.9634e-02
12.750  20.500  3.8242e-02
12.750  20.750  3.6079e-02
12.750  21.000  3.2792e-02
12.750  21.250  2.8273e-02
12.750  21.500  2.3301e-02
12.750  21.750  2.1006e-02
12.750  22.000  2.2345e-02
12.750  22.250  2.3371e-02
12.750  22.500  2.4336e-02
12.750  22.750  2.4615e-02
12.750  23.000  2.4722e-02
12.750  23.250  2.4800e-02
12.750  23.500  2.4849e-02
12.750  23.750  2.4879e-02
12.750  24.000  2.4898e-02
13.000  17.000  5.3505e-03
13.000  17.250  1.2534e-02
13.000  17.500  3.4464e-02
13.000  17.750  3.7525e-02
13.000  18.000  3.7744e-02
13.000  18.250  3.7952e-02
13.000  18.500  3.8319e-02
13.000  18.750  3.8805e-02
13.000  19.000  3.9338e-02
13.000  19.250  3.9846e-02
13.000  19.500  4.0261e-02
13.000  19.750  4.0506e-02
13.000  20.000  4.0494e-02
13.000  20.250  4.0132e-02
13.000  20.500  3.9303e-02
13.000  20.750  3.7841e-02
13.000  21.000  3.5476e-02
13.000  21.250  3.1987e-02
13.000  21.500  2.7479e-02
13.000  21.750  2.2424e-02
13.000  22.000  2.1273e-02
13.000  22.250  2.2485e-02
13.000  22.500  2.3521e-02
13.000  22.750  2.4396e-02
13.000  23.000  2.4609e-02
13.000  23.250  2.4715e-02
13.000  23.500  2.4792e-02
13.000  23.750  2.4842e-02
13.000  24.000  2.4874e-02
13.250  17.000  3.2920e-03
13.250  17.250  6.1461e-03
13.250  17.500  1.4065e-02
13.250  17.750  2.5085e-02
13.250  18.000  3.5465e-02
13.250  18.250  3.5888e-02
13.250  18.500  3.6477e-02
13.250  18.750  3.7204e-02
13.250  19.000  3.7992e-02
13.250  19.250  3.8719e-02
13.250  19.500  3.9358e-02
13.250  19.750  3.9862e-02
13.250  20.000  4.0152e-02
13.250  20.250  4.0154e-02
13.250  20.500  3.9774e-02
13.250  20.750  3.8876e-02
13.250  21.000  3.7267e-02
13.250  21.250  3.4694e-02
13.250  21.500  3.1140e-02
13.250  21.750  2.6180e-02
13.250  22.000  2.1622e-02
13.250  22.250  2.1402e-02
13.250  22.500  2.2581e-02
13.250  22.750  2.3562e-02
13.250  23.000  2.4408e-02
13.250  23.250  2.4601e-02
13.250  23.500  2.4710e-02
13.250  23.750  2.4786e-02
13.250  24.000  2.4835e-02
13.500  17.000  2.0374e-03
13.500  17.250  3.6516e-03
13.500  17.500  8.1119e-03
13.500  17.750  1.6892e-02
13.500  18.000  2.6157e-02
13.500  18.250  3.3373e-02
13.500  18.500  3.4157e-02
13.500  18.750  3.5113e-02
13.500  19.000  3.6219e-02
13.500  19.250  3.7255e-02
13.500  19.500  3.8159e-02
13.500  19.750  3.8892e-02
13.500  20.000  3.9442e-02
13.500  20.250  3.9755e-02
13.500  20.500  3.9744e-02
13.500  20.750  3.9302e-02
13.500  21.000  3.8290e-02
13.500  21.250  3.6437e-02
13.500  21.500  3.3746e-02
13.500  21.750  2.9666e-02
13.500  22.000  2.4556e-02
13.500  22.250  2.0869e-02
13.500  22.500  2.1465e-02
13.500  22.750  2.2565e-02
13.500  23.000  2.3489e-02
13.500  23.250  2.4387e-02
13.500  23.500  2.4590e-02
13.500  23.750  2.4700e-02
13.500  24.000  2.4775e-02
13.750  17.000  1.2344e-03
13.750  17.250  2.4006e-03
13.750  17.500  4.9658e-03
13.750  17.750  9.2448e-03
13.750  18.000  1.8768e-02
13.750  18.250  2.5541e-02
13.750  18.500  3.1528e-02
13.750  18.750  3.2630e-02
13.750  19.000  3.3943e-02
13.750  19.250  3.5328e-02
13.750  19.500  3.6595e-02
13.750  19.750  3.7620e-02
13.750  20.000  3.8408e-02
13.750  20.250  3.8979e-02
13.750  20.500  3.9279e-02
13.750  20.750  3.9203e-02
13.750  21.000  3.8632e-02
13.750  21.250  3.7396e-02
13.750  21.500  3.5387e-02
13.750  21.750  3.2042e-02
13.750  22.000  2.7319e-02
13.750  22.250  2.2274e-02
13.750  22.500  2.0298e-02
13.750  22.750  2.1514e-02
13.750  23.000  2.2509e-02
13.750  23.250  2.3456e-02
13.750  23.500  2.4352e-02
13.750  23.750  2.4570e-02
13.750  24.000  2.4684e-02
14.000  17.000  7.5835e-04
14.000  17.250  1.4330e-03
14.000  17.500  3.0967e-03
14.000  17.750  5.7313e-03
14.000  18.000  1.0690e-02
14.000  18.250  1.9768e-02
14.000  18.500  2.5427e-02
14.000  18.750  2.9884e-02
14.000  19.000  3.1360e-02
14.000  19.250  3.2949e-02
14.000  19.500  3.4527e-02
14.000  19.750  3.5940e-02
14.000  20.000  3.7057e-02
14.000  20.250  3.7889e-02
14.000  20.500  3.8439e-02
14.000  20.750  3.8667e-02
14.000  21.000  3.8456e-02
14.000  21.250  3.7641e-02
14.000  21.500  3.6172e-02
14.000  21.750  3.3416e-02
14.000  22.000  2.9169e-02
14.000  22.250  2.3820e-02
14.000  22.500  1.9806e-02
14.000  22.750  2.0061e-02
14.000  23.000  2.1495e-02
14.000  23.250  2.2467e-02
14.000  23.500  2.3437e-02
14.000  23.750  2.4335e-02
14.000  24.000  2.4536e-02
