InwC 2700.00A  relative to Inci 1215.00A scaled to 1215A.
Hden   Phi(H)  Eq_Width (A)
7.000  17.000  2.0665e-02
7.000  17.250  2.1326e-02
7.000  17.500  2.1336e-02
7.000  17.750  2.1345e-02
7.000  18.000  2.1356e-02
7.000  18.250  2.1366e-02
7.000  18.500  2.1372e-02
7.000  18.750  2.1374e-02
7.000  19.000  2.1377e-02
7.000  19.250  2.1379e-02
7.000  19.500  2.1379e-02
7.000  19.750  2.1380e-02
7.000  20.000  2.1380e-02
7.000  20.250  2.1380e-02
7.000  20.500  2.1380e-02
7.000  20.750  2.1380e-02
7.000  21.000  2.1380e-02
7.000  21.250  2.1380e-02
7.000  21.500  2.1381e-02
7.000  21.750  2.1381e-02
7.000  22.000  2.1381e-02
7.000  22.250  2.1381e-02
7.000  22.500  2.1381e-02
7.000  22.750  2.1381e-02
7.000  23.000  2.1381e-02
7.000  23.250  2.1381e-02
7.000  23.500  2.1381e-02
7.000  23.750  2.1381e-02
7.000  24.000  2.1381e-02
7.250  17.000  1.9543e-02
7.250  17.250  2.0668e-02
7.250  17.500  2.1326e-02
7.250  17.750  2.1336e-02
7.250  18.000  2.1346e-02
7.250  18.250  2.1356e-02
7.250  18.500  2.1366e-02
7.250  18.750  2.1372e-02
7.250  19.000  2.1374e-02
7.250  19.250  2.1377e-02
7.250  19.500  2.1379e-02
7.250  19.750  2.1379e-02
7.250  20.000  2.1380e-02
7.250  20.250  2.1380e-02
7.250  20.500  2.1380e-02
7.250  20.750  2.1380e-02
7.250  21.000  2.1380e-02
7.250  21.250  2.1380e-02
7.250  21.500  2.1380e-02
7.250  21.750  2.1380e-02
7.250  22.000  2.1383e-02
7.250  22.250  2.1380e-02
7.250  22.500  2.1381e-02
7.250  22.750  2.1381e-02
7.250  23.000  2.1381e-02
7.250  23.250  2.1382e-02
7.250  23.500  2.1381e-02
7.250  23.750  2.1382e-02
7.250  24.000  2.1381e-02
7.500  17.000  1.4411e-02
7.500  17.250  1.9597e-02
7.500  17.500  2.0669e-02
7.500  17.750  2.1326e-02
7.500  18.000  2.1336e-02
7.500  18.250  2.1346e-02
7.500  18.500  2.1356e-02
7.500  18.750  2.1366e-02
7.500  19.000  2.1372e-02
7.500  19.250  2.1374e-02
7.500  19.500  2.1377e-02
7.500  19.750  2.1379e-02
7.500  20.000  2.1379e-02
7.500  20.250  2.1380e-02
7.500  20.500  2.1380e-02
7.500  20.750  2.1380e-02
7.500  21.000  2.1380e-02
7.500  21.250  2.1380e-02
7.500  21.500  2.1380e-02
7.500  21.750  2.1380e-02
7.500  22.000  2.1380e-02
7.500  22.250  2.1380e-02
7.500  22.500  2.1380e-02
7.500  22.750  2.1380e-02
7.500  23.000  2.1380e-02
7.500  23.250  2.1380e-02
7.500  23.500  2.1380e-02
7.500  23.750  2.1380e-02
7.500  24.000  2.1380e-02
7.750  17.000  1.0475e-02
7.750  17.250  1.4528e-02
7.750  17.500  1.9630e-02
7.750  17.750  2.0669e-02
7.750  18.000  2.1326e-02
7.750  18.250  2.1336e-02
7.750  18.500  2.1346e-02
7.750  18.750  2.1356e-02
7.750  19.000  2.1366e-02
7.750  19.250  2.1372e-02
7.750  19.500  2.1374e-02
7.750  19.750  2.1377e-02
7.750  20.000  2.1379e-02
7.750  20.250  2.1379e-02
7.750  20.500  2.1380e-02
7.750  20.750  2.1380e-02
7.750  21.000  2.1380e-02
7.750  21.250  2.1380e-02
7.750  21.500  2.1380e-02
7.750  21.750  2.1380e-02
7.750  22.000  2.1380e-02
7.750  22.250  2.1380e-02
7.750  22.500  2.1380e-02
7.750  22.750  2.1380e-02
7.750  23.000  2.1380e-02
7.750  23.250  2.1380e-02
7.750  23.500  2.1380e-02
7.750  23.750  2.1380e-02
7.750  24.000  2.1380e-02
8.000  17.000  7.4088e-03
8.000  17.250  1.0544e-02
8.000  17.500  1.4527e-02
8.000  17.750  1.9535e-02
8.000  18.000  2.0662e-02
8.000  18.250  2.1325e-02
8.000  18.500  2.1336e-02
8.000  18.750  2.1346e-02
8.000  19.000  2.1356e-02
8.000  19.250  2.1366e-02
8.000  19.500  2.1372e-02
8.000  19.750  2.1374e-02
8.000  20.000  2.1377e-02
8.000  20.250  2.1379e-02
8.000  20.500  2.1379e-02
8.000  20.750  2.1380e-02
8.000  21.000  2.1380e-02
8.000  21.250  2.1380e-02
8.000  21.500  2.1380e-02
8.000  21.750  2.1380e-02
8.000  22.000  2.1380e-02
8.000  22.250  2.1380e-02
8.000  22.500  2.1380e-02
8.000  22.750  2.1380e-02
8.000  23.000  2.1380e-02
8.000  23.250  2.1380e-02
8.000  23.500  2.1380e-02
8.000  23.750  2.1380e-02
8.000  24.000  2.1382e-02
8.250  17.000  5.2844e-03
8.250  17.250  7.5142e-03
8.250  17.500  1.0667e-02
8.250  17.750  1.4601e-02
8.250  18.000  1.9537e-02
8.250  18.250  2.0659e-02
8.250  18.500  2.1324e-02
8.250  18.750  2.1336e-02
8.250  19.000  2.1346e-02
8.250  19.250  2.1356e-02
8.250  19.500  2.1366e-02
8.250  19.750  2.1372e-02
8.250  20.000  2.1374e-02
8.250  20.250  2.1377e-02
8.250  20.500  2.1379e-02
8.250  20.750  2.1379e-02
8.250  21.000  2.1380e-02
8.250  21.250  2.1380e-02
8.250  21.500  2.1380e-02
8.250  21.750  2.1380e-02
8.250  22.000  2.1380e-02
8.250  22.250  2.1380e-02
8.250  22.500  2.1380e-02
8.250  22.750  2.1380e-02
8.250  23.000  2.1381e-02
8.250  23.250  2.1380e-02
8.250  23.500  2.1380e-02
8.250  23.750  2.1380e-02
8.250  24.000  2.1380e-02
8.500  17.000  3.8245e-03
8.500  17.250  5.3625e-03
8.500  17.500  7.6312e-03
8.500  17.750  1.0824e-02
8.500  18.000  1.4714e-02
8.500  18.250  1.9555e-02
8.500  18.500  2.0652e-02
8.500  18.750  2.1323e-02
8.500  19.000  2.1335e-02
8.500  19.250  2.1346e-02
8.500  19.500  2.1356e-02
8.500  19.750  2.1366e-02
8.500  20.000  2.1372e-02
8.500  20.250  2.1374e-02
8.500  20.500  2.1377e-02
8.500  20.750  2.1379e-02
8.500  21.000  2.1379e-02
8.500  21.250  2.1380e-02
8.500  21.500  2.1380e-02
8.500  21.750  2.1380e-02
8.500  22.000  2.1380e-02
8.500  22.250  2.1380e-02
8.500  22.500  2.1380e-02
8.500  22.750  2.1381e-02
8.500  23.000  2.1380e-02
8.500  23.250  2.1380e-02
8.500  23.500  2.1380e-02
8.500  23.750  2.1380e-02
8.500  24.000  2.1380e-02
8.750  17.000  2.8158e-03
8.750  17.250  3.8797e-03
8.750  17.500  5.4593e-03
8.750  17.750  7.8021e-03
8.750  18.000  1.1030e-02
8.750  18.250  1.4912e-02
8.750  18.500  1.9591e-02
8.750  18.750  2.0640e-02
8.750  19.000  2.1321e-02
8.750  19.250  2.1335e-02
8.750  19.500  2.1346e-02
8.750  19.750  2.1356e-02
8.750  20.000  2.1366e-02
8.750  20.250  2.1372e-02
8.750  20.500  2.1374e-02
8.750  20.750  2.1377e-02
8.750  21.000  2.1379e-02
8.750  21.250  2.1379e-02
8.750  21.500  2.1380e-02
8.750  21.750  2.1380e-02
8.750  22.000  2.1380e-02
8.750  22.250  2.1380e-02
8.750  22.500  2.1380e-02
8.750  22.750  2.1380e-02
8.750  23.000  2.1380e-02
8.750  23.250  2.1380e-02
8.750  23.500  2.1380e-02
8.750  23.750  2.1380e-02
8.750  24.000  2.1380e-02
9.000  17.000  2.1097e-03
9.000  17.250  2.8518e-03
9.000  17.500  3.9547e-03
9.000  17.750  5.6110e-03
9.000  18.000  8.0841e-03
9.000  18.250  1.1442e-02
9.000  18.500  1.5309e-02
9.000  18.750  1.9773e-02
9.000  19.000  2.0618e-02
9.000  19.250  2.1317e-02
9.000  19.500  2.1334e-02
9.000  19.750  2.1346e-02
9.000  20.000  2.1356e-02
9.000  20.250  2.1366e-02
9.000  20.500  2.1372e-02
9.000  20.750  2.1374e-02
9.000  21.000  2.1377e-02
9.000  21.250  2.1379e-02
9.000  21.500  2.1379e-02
9.000  21.750  2.1380e-02
9.000  22.000  2.1380e-02
9.000  22.250  2.1380e-02
9.000  22.500  2.1380e-02
9.000  22.750  2.1380e-02
9.000  23.000  2.1380e-02
9.000  23.250  2.1380e-02
9.000  23.500  2.1380e-02
9.000  23.750  2.1380e-02
9.000  24.000  2.1381e-02
9.250  17.000  1.6125e-03
9.250  17.250  2.1330e-03
9.250  17.500  2.9094e-03
9.250  17.750  4.0897e-03
9.250  18.000  5.9112e-03
9.250  18.250  8.5968e-03
9.250  18.500  1.2096e-02
9.250  18.750  1.6117e-02
9.250  19.000  1.9691e-02
9.250  19.250  2.0580e-02
9.250  19.500  2.1311e-02
9.250  19.750  2.1333e-02
9.250  20.000  2.1345e-02
9.250  20.250  2.1356e-02
9.250  20.500  2.1366e-02
9.250  20.750  2.1372e-02
9.250  21.000  2.1374e-02
9.250  21.250  2.1377e-02
9.250  21.500  2.1375e-02
9.250  21.750  2.1376e-02
9.250  22.000  2.1376e-02
9.250  22.250  2.1376e-02
9.250  22.500  2.1379e-02
9.250  22.750  2.1380e-02
9.250  23.000  2.1380e-02
9.250  23.250  2.1380e-02
9.250  23.500  2.1380e-02
9.250  23.750  2.1380e-02
9.250  24.000  2.1380e-02
9.500  17.000  1.2627e-03
9.500  17.250  1.6277e-03
9.500  17.500  2.1753e-03
9.500  17.750  3.0257e-03
9.500  18.000  4.3719e-03
9.500  18.250  6.4388e-03
9.500  18.500  9.3244e-03
9.500  18.750  1.2932e-02
9.500  19.000  1.7040e-02
9.500  19.250  1.9604e-02
9.500  19.500  2.0529e-02
9.500  19.750  2.1300e-02
9.500  20.000  2.1331e-02
9.500  20.250  2.1345e-02
9.500  20.500  2.1356e-02
9.500  20.750  2.1365e-02
9.500  21.000  2.1368e-02
9.500  21.250  2.1371e-02
9.500  21.500  2.1373e-02
9.500  21.750  2.1373e-02
9.500  22.000  2.1373e-02
9.500  22.250  2.1373e-02
9.500  22.500  2.1373e-02
9.500  22.750  2.1374e-02
9.500  23.000  2.1374e-02
9.500  23.250  2.1374e-02
9.500  23.500  2.1374e-02
9.500  23.750  2.1374e-02
9.500  24.000  2.1374e-02
9.750  17.000  1.0156e-03
9.750  17.250  1.2711e-03
9.750  17.500  1.6575e-03
9.750  17.750  2.2705e-03
9.750  18.000  3.2769e-03
9.750  18.250  4.8421e-03
9.750  18.500  7.0711e-03
9.750  18.750  1.0037e-02
9.750  19.000  1.3767e-02
9.750  19.250  1.8110e-02
9.750  19.500  1.9517e-02
9.750  19.750  2.0471e-02
9.750  20.000  2.1283e-02
9.750  20.250  2.1327e-02
9.750  20.500  2.1344e-02
9.750  20.750  2.1356e-02
9.750  21.000  2.1366e-02
9.750  21.250  2.1369e-02
9.750  21.500  2.1371e-02
9.750  21.750  2.1373e-02
9.750  22.000  2.1374e-02
9.750  22.250  2.1373e-02
9.750  22.500  2.1373e-02
9.750  22.750  2.1373e-02
9.750  23.000  2.1373e-02
9.750  23.250  2.1373e-02
9.750  23.500  2.1373e-02
9.750  23.750  2.1373e-02
9.750  24.000  2.1373e-02
10.000  17.000  8.4074e-04
10.000  17.250  1.0200e-03
10.000  17.500  1.2933e-03
10.000  17.750  1.7373e-03
10.000  18.000  2.4920e-03
10.000  18.250  3.6613e-03
10.000  18.500  5.3162e-03
10.000  18.750  7.5807e-03
10.000  19.000  1.0639e-02
10.000  19.250  1.4687e-02
10.000  19.500  1.8524e-02
10.000  19.750  1.9445e-02
10.000  20.000  2.0408e-02
10.000  20.250  2.1258e-02
10.000  20.500  2.1322e-02
10.000  20.750  2.1343e-02
10.000  21.000  2.1356e-02
10.000  21.250  2.1366e-02
10.000  21.500  2.1371e-02
10.000  21.750  2.1371e-02
10.000  22.000  2.1373e-02
10.000  22.250  2.1375e-02
10.000  22.500  2.1374e-02
10.000  22.750  2.1373e-02
10.000  23.000  2.1374e-02
10.000  23.250  2.1374e-02
10.000  23.500  2.1374e-02
10.000  23.750  2.1373e-02
10.000  24.000  2.1373e-02
10.250  17.000  7.1728e-04
10.250  17.250  8.4321e-04
10.250  17.500  1.0367e-03
10.250  17.750  1.3601e-03
10.250  18.000  1.9191e-03
10.250  18.250  2.7770e-03
10.250  18.500  3.9802e-03
10.250  18.750  5.6236e-03
10.250  19.000  7.9137e-03
10.250  19.250  1.1300e-02
10.250  19.500  1.5879e-02
10.250  19.750  1.8612e-02
10.250  20.000  1.9376e-02
10.250  20.250  2.0342e-02
10.250  20.500  2.1228e-02
10.250  20.750  2.1313e-02
10.250  21.000  2.1341e-02
10.250  21.250  2.1355e-02
10.250  21.500  2.1365e-02
10.250  21.750  2.1371e-02
10.250  22.000  2.1373e-02
10.250  22.250  2.1374e-02
10.250  22.500  2.1375e-02
10.250  22.750  2.1375e-02
10.250  23.000  2.1374e-02
10.250  23.250  2.1373e-02
10.250  23.500  2.1373e-02
10.250  23.750  2.1374e-02
10.250  24.000  2.1374e-02
10.500  17.000  6.3021e-04
10.500  17.250  7.1844e-04
10.500  17.500  8.5630e-04
10.500  17.750  1.0931e-03
10.500  18.000  1.5026e-03
10.500  18.250  2.1355e-03
10.500  18.500  3.0051e-03
10.500  18.750  4.2221e-03
10.500  19.000  5.9946e-03
10.500  19.250  8.5202e-03
10.500  19.500  1.2119e-02
10.500  19.750  1.6541e-02
10.500  20.000  1.8475e-02
10.500  20.250  1.9310e-02
10.500  20.500  2.0291e-02
10.500  20.750  2.1192e-02
10.500  21.000  2.1300e-02
10.500  21.250  2.1337e-02
10.500  21.500  2.1353e-02
10.500  21.750  2.1365e-02
10.500  22.000  2.1371e-02
10.500  22.250  2.1374e-02
10.500  22.500  2.1375e-02
10.500  22.750  2.1375e-02
10.500  23.000  2.1375e-02
10.500  23.250  2.1375e-02
10.500  23.500  2.1374e-02
10.500  23.750  2.1374e-02
10.500  24.000  2.1373e-02
10.750  17.000  5.6856e-04
10.750  17.250  6.3012e-04
10.750  17.500  7.2856e-04
10.750  17.750  9.0082e-04
10.750  18.000  1.2011e-03
10.750  18.250  1.6615e-03
10.750  18.500  2.3088e-03
10.750  18.750  3.2560e-03
10.750  19.000  4.5627e-03
10.750  19.250  6.4171e-03
10.750  19.500  9.0685e-03
10.750  19.750  1.2801e-02
10.750  20.000  1.7131e-02
10.750  20.250  1.8392e-02
10.750  20.500  1.9255e-02
10.750  20.750  2.0254e-02
10.750  21.000  2.1159e-02
10.750  21.250  2.1285e-02
10.750  21.500  2.1332e-02
10.750  21.750  2.1351e-02
10.750  22.000  2.1364e-02
10.750  22.250  2.1371e-02
10.750  22.500  2.1374e-02
10.750  22.750  2.1376e-02
10.750  23.000  2.1375e-02
10.750  23.250  2.1376e-02
10.750  23.500  2.1375e-02
10.750  23.750  2.1375e-02
10.750  24.000  2.1374e-02
11.000  17.000  5.2453e-04
11.000  17.250  5.6683e-04
11.000  17.500  6.3597e-04
11.000  17.750  7.6140e-04
11.000  18.000  9.8049e-04
11.000  18.250  1.3164e-03
11.000  18.500  1.8130e-03
11.000  18.750  2.5087e-03
11.000  19.000  3.4786e-03
11.000  19.250  4.8193e-03
11.000  19.500  6.7454e-03
11.000  19.750  9.4773e-03
11.000  20.000  1.3380e-02
11.000  20.250  1.7311e-02
11.000  20.500  1.8379e-02
11.000  20.750  1.9217e-02
11.000  21.000  2.0253e-02
11.000  21.250  2.1132e-02
11.000  21.500  2.1267e-02
11.000  21.750  2.1325e-02
11.000  22.000  2.1347e-02
11.000  22.250  2.1363e-02
11.000  22.500  2.1371e-02
11.000  22.750  2.1374e-02
11.000  23.000  2.1377e-02
11.000  23.250  2.1376e-02
11.000  23.500  2.1376e-02
11.000  23.750  2.1376e-02
11.000  24.000  2.1376e-02
11.250  17.000  4.9276e-04
11.250  17.250  5.2058e-04
11.250  17.500  5.6864e-04
11.250  17.750  6.5893e-04
11.250  18.000  8.1770e-04
11.250  18.250  1.0644e-03
11.250  18.500  1.4246e-03
11.250  18.750  1.9491e-03
11.250  19.000  2.6581e-03
11.250  19.250  3.6387e-03
11.250  19.500  5.0197e-03
11.250  19.750  6.9733e-03
11.250  20.000  9.7636e-03
11.250  20.250  1.3759e-02
11.250  20.500  1.7154e-02
11.250  20.750  1.8321e-02
11.250  21.000  1.9223e-02
11.250  21.250  2.0309e-02
11.250  21.500  2.1092e-02
11.250  21.750  2.1249e-02
11.250  22.000  2.1316e-02
11.250  22.250  2.1343e-02
11.250  22.500  2.1361e-02
11.250  22.750  2.1370e-02
11.250  23.000  2.1374e-02
11.250  23.250  2.1377e-02
11.250  23.500  2.1378e-02
11.250  23.750  2.1376e-02
11.250  24.000  2.1376e-02
11.500  17.000  4.6996e-04
11.500  17.250  4.8749e-04
11.500  17.500  5.1992e-04
11.500  17.750  5.8379e-04
11.500  18.000  6.9802e-04
11.500  18.250  8.7811e-04
11.500  18.500  1.1411e-03
11.500  18.750  1.5229e-03
11.500  19.000  2.0442e-03
11.500  19.250  2.7709e-03
11.500  19.500  3.7609e-03
11.500  19.750  5.1584e-03
11.500  20.000  7.1382e-03
11.500  20.250  9.9659e-03
11.500  20.500  1.4040e-02
11.500  20.750  1.7004e-02
11.500  21.000  1.8295e-02
11.500  21.250  1.9279e-02
11.500  21.500  2.0455e-02
11.500  21.750  2.1067e-02
11.500  22.000  2.1232e-02
11.500  22.250  2.1306e-02
11.500  22.500  2.1338e-02
11.500  22.750  2.1359e-02
11.500  23.000  2.1370e-02
11.500  23.250  2.1373e-02
11.500  23.500  2.1377e-02
11.500  23.750  2.1378e-02
11.500  24.000  2.1376e-02
11.750  17.000  4.5399e-04
11.750  17.250  4.6387e-04
11.750  17.500  4.8502e-04
11.750  17.750  5.2930e-04
11.750  18.000  6.1045e-04
11.750  18.250  7.3860e-04
11.750  18.500  9.2979e-04
11.750  18.750  1.2024e-03
11.750  19.000  1.5909e-03
11.750  19.250  2.1215e-03
11.750  19.500  2.8516e-03
11.750  19.750  3.8528e-03
11.750  20.000  5.2621e-03
11.750  20.250  7.2505e-03
11.750  20.500  1.0123e-02
11.750  20.750  1.4183e-02
11.750  21.000  1.6889e-02
11.750  21.250  1.8346e-02
11.750  21.500  1.9433e-02
11.750  21.750  2.0670e-02
11.750  22.000  2.1040e-02
11.750  22.250  2.1214e-02
11.750  22.500  2.1297e-02
11.750  22.750  2.1332e-02
11.750  23.000  2.1356e-02
11.750  23.250  2.1369e-02
11.750  23.500  2.1382e-02
11.750  23.750  2.1376e-02
11.750  24.000  2.1379e-02
12.000  17.000  4.4354e-04
12.000  17.250  4.4790e-04
12.000  17.500  4.6058e-04
12.000  17.750  4.9029e-04
12.000  18.000  5.4626e-04
12.000  18.250  6.3654e-04
12.000  18.500  7.7416e-04
12.000  18.750  9.7243e-04
12.000  19.000  1.2563e-03
12.000  19.250  1.6461e-03
12.000  19.500  2.1813e-03
12.000  19.750  2.9148e-03
12.000  20.000  3.9236e-03
12.000  20.250  5.3405e-03
12.000  20.500  7.3434e-03
12.000  20.750  1.0267e-02
12.000  21.000  1.4391e-02
12.000  21.250  1.6848e-02
12.000  21.500  1.8466e-02
12.000  21.750  1.9674e-02
12.000  22.000  2.0774e-02
12.000  22.250  2.1029e-02
12.000  22.500  2.1196e-02
12.000  22.750  2.1287e-02
12.000  23.000  2.1327e-02
12.000  23.250  2.1353e-02
12.000  23.500  2.1368e-02
12.000  23.750  2.1373e-02
12.000  24.000  2.1376e-02
12.250  17.000  4.3679e-04
12.250  17.250  4.3802e-04
12.250  17.500  4.4469e-04
12.250  17.750  4.6354e-04
12.250  18.000  5.0115e-04
12.250  18.250  5.6494e-04
12.250  18.500  6.6329e-04
12.250  18.750  8.0757e-04
12.250  19.000  1.0138e-03
12.250  19.250  1.2989e-03
12.250  19.500  1.6901e-03
12.250  19.750  2.2279e-03
12.250  20.000  2.9635e-03
12.250  20.250  3.9791e-03
12.250  20.500  5.4090e-03
12.250  20.750  7.4508e-03
12.250  21.000  1.0458e-02
12.250  21.250  1.4312e-02
12.250  21.500  1.6871e-02
12.250  21.750  1.8645e-02
12.250  22.000  1.9947e-02
12.250  22.250  2.0764e-02
12.250  22.500  2.1009e-02
12.250  22.750  2.1180e-02
12.250  23.000  2.1276e-02
12.250  23.250  2.1322e-02
12.250  23.500  2.1350e-02
12.250  23.750  2.1367e-02
12.250  24.000  2.1372e-02
12.500  17.000  4.3128e-04
12.500  17.250  4.3259e-04
12.500  17.500  4.3605e-04
12.500  17.750  4.4733e-04
12.500  18.000  4.7177e-04
12.500  18.250  5.1514e-04
12.500  18.500  5.8453e-04
12.500  18.750  6.8815e-04
12.500  19.000  8.3728e-04
12.500  19.250  1.0458e-03
12.500  19.500  1.3316e-03
12.500  19.750  1.7236e-03
12.500  20.000  2.2651e-03
12.500  20.250  3.0089e-03
12.500  20.500  4.0307e-03
12.500  20.750  5.4802e-03
12.500  21.000  7.5986e-03
12.500  21.250  1.0724e-02
12.500  21.500  1.4394e-02
12.500  21.750  1.7014e-02
12.500  22.000  1.8906e-02
12.500  22.250  2.0171e-02
12.500  22.500  2.0760e-02
12.500  22.750  2.0993e-02
12.500  23.000  2.1166e-02
12.500  23.250  2.1266e-02
12.500  23.500  2.1315e-02
12.500  23.750  2.1347e-02
12.500  24.000  2.1366e-02
12.750  17.000  3.1885e-04
12.750  17.250  4.3086e-04
12.750  17.500  4.3243e-04
12.750  17.750  4.3868e-04
12.750  18.000  4.5383e-04
12.750  18.250  4.8206e-04
12.750  18.500  5.2938e-04
12.750  18.750  6.0288e-04
12.750  19.000  7.0971e-04
12.750  19.250  8.6198e-04
12.750  19.500  1.0704e-03
12.750  19.750  1.3570e-03
12.750  20.000  1.7497e-03
12.750  20.250  2.2942e-03
12.750  20.500  3.0448e-03
12.750  20.750  4.0757e-03
12.750  21.000  5.5784e-03
12.750  21.250  7.7944e-03
12.750  21.500  1.0910e-02
12.750  21.750  1.4604e-02
12.750  22.000  1.7276e-02
12.750  22.250  1.9171e-02
12.750  22.500  2.0333e-02
12.750  22.750  2.0756e-02
12.750  23.000  2.0983e-02
12.750  23.250  2.1151e-02
12.750  23.500  2.1253e-02
12.750  23.750  2.1306e-02
12.750  24.000  2.1342e-02
13.000  17.000  5.4486e-05
13.000  17.250  1.3292e-04
13.000  17.500  3.9588e-04
13.000  17.750  4.3432e-04
13.000  18.000  4.4313e-04
13.000  18.250  4.6066e-04
13.000  18.500  4.9177e-04
13.000  18.750  5.4206e-04
13.000  19.000  6.1753e-04
13.000  19.250  7.2601e-04
13.000  19.500  8.7819e-04
13.000  19.750  1.0867e-03
13.000  20.000  1.3725e-03
13.000  20.250  1.7649e-03
13.000  20.500  2.3141e-03
13.000  20.750  3.0695e-03
13.000  21.000  4.1495e-03
13.000  21.250  5.7157e-03
13.000  21.500  7.9103e-03
13.000  21.750  1.1336e-02
13.000  22.000  1.4934e-02
13.000  22.250  1.7535e-02
13.000  22.500  1.9318e-02
13.000  22.750  2.0392e-02
13.000  23.000  2.0749e-02
13.000  23.250  2.0972e-02
13.000  23.500  2.1137e-02
13.000  23.750  2.1238e-02
13.000  24.000  2.1295e-02
13.250  17.000  3.3251e-05
13.250  17.250  6.3951e-05
13.250  17.500  1.5490e-04
13.250  17.750  2.9473e-04
13.250  18.000  4.3737e-04
13.250  18.250  4.4782e-04
13.250  18.500  4.6691e-04
13.250  18.750  4.9992e-04
13.250  19.000  5.5144e-04
13.250  19.250  6.2774e-04
13.250  19.500  7.3712e-04
13.250  19.750  8.8774e-04
13.250  20.000  1.0967e-03
13.250  20.250  1.3838e-03
13.250  20.500  1.7774e-03
13.250  20.750  2.3287e-03
13.250  21.000  3.0963e-03
13.250  21.250  4.2037e-03
13.250  21.500  5.7401e-03
13.250  21.750  8.1780e-03
13.250  22.000  1.1700e-02
13.250  22.250  1.5103e-02
13.250  22.500  1.7686e-02
13.250  22.750  1.9335e-02
13.250  23.000  2.0396e-02
13.250  23.250  2.0732e-02
13.250  23.500  2.0955e-02
13.250  23.750  2.1118e-02
13.250  24.000  2.1220e-02
13.500  17.000  2.0247e-05
13.500  17.250  3.7449e-05
13.500  17.500  8.8066e-05
13.500  17.750  2.0016e-04
13.500  18.000  3.3259e-04
13.500  18.250  4.4074e-04
13.500  18.500  4.5210e-04
13.500  18.750  4.7243e-04
13.500  19.000  5.0601e-04
13.500  19.250  5.5893e-04
13.500  19.500  6.3432e-04
13.500  19.750  7.4247e-04
13.500  20.000  8.9251e-04
13.500  20.250  1.0989e-03
13.500  20.500  1.3839e-03
13.500  20.750  1.7758e-03
13.500  21.000  2.3211e-03
13.500  21.250  3.1049e-03
13.500  21.500  4.1592e-03
13.500  21.750  5.7435e-03
13.500  22.000  8.1956e-03
13.500  22.250  1.1940e-02
13.500  22.500  1.5200e-02
13.500  22.750  1.7618e-02
13.500  23.000  1.9226e-02
13.500  23.250  2.0350e-02
13.500  23.500  2.0697e-02
13.500  23.750  2.0927e-02
13.500  24.000  2.1090e-02
13.750  17.000  1.2016e-05
13.750  17.250  2.4280e-05
13.750  17.500  5.3086e-05
13.750  17.750  1.0617e-04
13.750  18.000  2.4362e-04
13.750  18.250  3.5053e-04
13.750  18.500  4.4337e-04
13.750  18.750  4.5564e-04
13.750  19.000  4.7646e-04
13.750  19.250  5.1037e-04
13.750  19.500  5.6222e-04
13.750  19.750  6.3778e-04
13.750  20.000  7.4420e-04
13.750  20.250  8.9226e-04
13.750  20.500  1.0959e-03
13.750  20.750  1.3771e-03
13.750  21.000  1.7634e-03
13.750  21.250  2.3015e-03
13.750  21.500  3.0189e-03
13.750  21.750  4.0702e-03
13.750  22.000  5.6329e-03
13.750  22.250  8.1593e-03
13.750  22.500  1.2134e-02
13.750  22.750  1.5257e-02
13.750  23.000  1.7515e-02
13.750  23.250  1.9122e-02
13.750  23.500  2.0261e-02
13.750  23.750  2.0632e-02
13.750  24.000  2.0877e-02
14.000  17.000  7.2428e-06
14.000  17.250  1.4156e-05
14.000  17.500  3.2428e-05
14.000  17.750  6.4444e-05
14.000  18.000  1.3374e-04
14.000  18.250  2.8263e-04
14.000  18.500  3.7802e-04
14.000  18.750  4.4576e-04
14.000  19.000  4.5786e-04
14.000  19.250  4.7844e-04
14.000  19.500  5.1243e-04
14.000  19.750  5.6329e-04
14.000  20.000  6.3745e-04
14.000  20.250  7.4132e-04
14.000  20.500  8.8584e-04
14.000  20.750  1.0841e-03
14.000  21.000  1.3570e-03
14.000  21.250  1.7312e-03
14.000  21.500  2.2215e-03
14.000  21.750  2.9139e-03
14.000  22.000  3.8843e-03
14.000  22.250  5.3653e-03
14.000  22.500  8.0448e-03
14.000  22.750  1.2368e-02
14.000  23.000  1.5182e-02
14.000  23.250  1.7379e-02
14.000  23.500  1.8981e-02
14.000  23.750  2.0140e-02
14.000  24.000  2.0524e-02
