InwT 1458.33A  relative to Inci 1215.00A scaled to 1215A.
Hden   Phi(H)  Eq_Width (A)
7.000  17.000  5.0047e-02
7.000  17.250  4.6206e-02
7.000  17.500  3.7486e-02
7.000  17.750  3.1866e-02
7.000  18.000  2.8635e-02
7.000  18.250  2.6828e-02
7.000  18.500  2.5785e-02
7.000  18.750  2.5321e-02
7.000  19.000  2.5082e-02
7.000  19.250  2.4948e-02
7.000  19.500  2.4892e-02
7.000  19.750  2.4869e-02
7.000  20.000  2.4859e-02
7.000  20.250  2.4854e-02
7.000  20.500  2.4852e-02
7.000  20.750  2.4850e-02
7.000  21.000  2.4850e-02
7.000  21.250  2.4850e-02
7.000  21.500  2.4850e-02
7.000  21.750  2.4850e-02
7.000  22.000  2.4850e-02
7.000  22.250  2.4850e-02
7.000  22.500  2.4850e-02
7.000  22.750  2.4850e-02
7.000  23.000  2.4850e-02
7.000  23.250  2.4850e-02
7.000  23.500  2.4850e-02
7.000  23.750  2.4850e-02
7.000  24.000  2.4850e-02
7.250  17.000  5.3068e-02
7.250  17.250  4.9815e-02
7.250  17.500  4.6106e-02
7.250  17.750  3.7431e-02
7.250  18.000  3.1837e-02
7.250  18.250  2.8621e-02
7.250  18.500  2.6821e-02
7.250  18.750  2.5783e-02
7.250  19.000  2.5320e-02
7.250  19.250  2.5082e-02
7.250  19.500  2.4948e-02
7.250  19.750  2.4892e-02
7.250  20.000  2.4869e-02
7.250  20.250  2.4859e-02
7.250  20.500  2.4854e-02
7.250  20.750  2.4852e-02
7.250  21.000  2.4850e-02
7.250  21.250  2.4850e-02
7.250  21.500  2.4849e-02
7.250  21.750  2.4849e-02
7.250  22.000  2.4852e-02
7.250  22.250  2.4849e-02
7.250  22.500  2.4849e-02
7.250  22.750  2.4850e-02
7.250  23.000  2.4850e-02
7.250  23.250  2.4851e-02
7.250  23.500  2.4850e-02
7.250  23.750  2.4851e-02
7.250  24.000  2.4850e-02
7.500  17.000  5.2417e-02
7.500  17.250  5.2529e-02
7.500  17.500  4.9618e-02
7.500  17.750  4.6050e-02
7.500  18.000  3.7397e-02
7.500  18.250  3.1817e-02
7.500  18.500  2.8612e-02
7.500  18.750  2.6817e-02
7.500  19.000  2.5782e-02
7.500  19.250  2.5320e-02
7.500  19.500  2.5082e-02
7.500  19.750  2.4948e-02
7.500  20.000  2.4892e-02
7.500  20.250  2.4869e-02
7.500  20.500  2.4859e-02
7.500  20.750  2.4854e-02
7.500  21.000  2.4851e-02
7.500  21.250  2.4850e-02
7.500  21.500  2.4850e-02
7.500  21.750  2.4849e-02
7.500  22.000  2.4849e-02
7.500  22.250  2.4849e-02
7.500  22.500  2.4849e-02
7.500  22.750  2.4849e-02
7.500  23.000  2.4849e-02
7.500  23.250  2.4849e-02
7.500  23.500  2.4849e-02
7.500  23.750  2.4849e-02
7.500  24.000  2.4849e-02
7.750  17.000  5.2188e-02
7.750  17.250  5.1725e-02
7.750  17.500  5.2028e-02
7.750  17.750  4.9463e-02
7.750  18.000  4.6019e-02
7.750  18.250  3.7378e-02
7.750  18.500  3.1804e-02
7.750  18.750  2.8605e-02
7.750  19.000  2.6815e-02
7.750  19.250  2.5781e-02
7.750  19.500  2.5320e-02
7.750  19.750  2.5082e-02
7.750  20.000  2.4948e-02
7.750  20.250  2.4892e-02
7.750  20.500  2.4869e-02
7.750  20.750  2.4859e-02
7.750  21.000  2.4854e-02
7.750  21.250  2.4851e-02
7.750  21.500  2.4850e-02
7.750  21.750  2.4850e-02
7.750  22.000  2.4849e-02
7.750  22.250  2.4849e-02
7.750  22.500  2.4849e-02
7.750  22.750  2.4849e-02
7.750  23.000  2.4849e-02
7.750  23.250  2.4849e-02
7.750  23.500  2.4849e-02
7.750  23.750  2.4849e-02
7.750  24.000  2.4849e-02
8.000  17.000  5.1416e-02
8.000  17.250  5.1149e-02
8.000  17.500  5.0891e-02
8.000  17.750  5.1397e-02
8.000  18.000  4.9272e-02
8.000  18.250  4.6002e-02
8.000  18.500  3.7368e-02
8.000  18.750  3.1793e-02
8.000  19.000  2.8600e-02
8.000  19.250  2.6813e-02
8.000  19.500  2.5780e-02
8.000  19.750  2.5319e-02
8.000  20.000  2.5081e-02
8.000  20.250  2.4948e-02
8.000  20.500  2.4892e-02
8.000  20.750  2.4869e-02
8.000  21.000  2.4859e-02
8.000  21.250  2.4854e-02
8.000  21.500  2.4851e-02
8.000  21.750  2.4850e-02
8.000  22.000  2.4850e-02
8.000  22.250  2.4849e-02
8.000  22.500  2.4849e-02
8.000  22.750  2.4849e-02
8.000  23.000  2.4849e-02
8.000  23.250  2.4849e-02
8.000  23.500  2.4849e-02
8.000  23.750  2.4849e-02
8.000  24.000  2.4851e-02
8.250  17.000  5.0755e-02
8.250  17.250  5.0769e-02
8.250  17.500  5.0610e-02
8.250  17.750  5.0485e-02
8.250  18.000  5.1138e-02
8.250  18.250  4.9207e-02
8.250  18.500  4.5992e-02
8.250  18.750  3.7362e-02
8.250  19.000  3.1785e-02
8.250  19.250  2.8596e-02
8.250  19.500  2.6812e-02
8.250  19.750  2.5780e-02
8.250  20.000  2.5319e-02
8.250  20.250  2.5081e-02
8.250  20.500  2.4948e-02
8.250  20.750  2.4892e-02
8.250  21.000  2.4869e-02
8.250  21.250  2.4859e-02
8.250  21.500  2.4854e-02
8.250  21.750  2.4851e-02
8.250  22.000  2.4850e-02
8.250  22.250  2.4849e-02
8.250  22.500  2.4849e-02
8.250  22.750  2.4849e-02
8.250  23.000  2.4850e-02
8.250  23.250  2.4849e-02
8.250  23.500  2.4849e-02
8.250  23.750  2.4849e-02
8.250  24.000  2.4849e-02
8.500  17.000  5.0065e-02
8.500  17.250  5.0262e-02
8.500  17.500  5.0345e-02
8.500  17.750  5.0207e-02
8.500  18.000  5.0200e-02
8.500  18.250  5.0986e-02
8.500  18.500  4.9168e-02
8.500  18.750  4.5986e-02
8.500  19.000  3.7359e-02
8.500  19.250  3.1777e-02
8.500  19.500  2.8592e-02
8.500  19.750  2.6811e-02
8.500  20.000  2.5779e-02
8.500  20.250  2.5319e-02
8.500  20.500  2.5081e-02
8.500  20.750  2.4948e-02
8.500  21.000  2.4892e-02
8.500  21.250  2.4869e-02
8.500  21.500  2.4859e-02
8.500  21.750  2.4854e-02
8.500  22.000  2.4851e-02
8.500  22.250  2.4850e-02
8.500  22.500  2.4849e-02
8.500  22.750  2.4850e-02
8.500  23.000  2.4849e-02
8.500  23.250  2.4849e-02
8.500  23.500  2.4849e-02
8.500  23.750  2.4849e-02
8.500  24.000  2.4849e-02
8.750  17.000  4.9407e-02
8.750  17.250  4.9734e-02
8.750  17.500  4.9977e-02
8.750  17.750  5.0048e-02
8.750  18.000  4.9950e-02
8.750  18.250  5.0005e-02
8.750  18.500  5.0925e-02
8.750  18.750  4.9147e-02
8.750  19.000  4.5980e-02
8.750  19.250  3.7358e-02
8.750  19.500  3.1768e-02
8.750  19.750  2.8588e-02
8.750  20.000  2.6810e-02
8.750  20.250  2.5779e-02
8.750  20.500  2.5319e-02
8.750  20.750  2.5081e-02
8.750  21.000  2.4948e-02
8.750  21.250  2.4892e-02
8.750  21.500  2.4869e-02
8.750  21.750  2.4859e-02
8.750  22.000  2.4854e-02
8.750  22.250  2.4851e-02
8.750  22.500  2.4850e-02
8.750  22.750  2.4849e-02
8.750  23.000  2.4849e-02
8.750  23.250  2.4849e-02
8.750  23.500  2.4849e-02
8.750  23.750  2.4849e-02
8.750  24.000  2.4849e-02
9.000  17.000  4.8717e-02
9.000  17.250  4.9226e-02
9.000  17.500  4.9599e-02
9.000  17.750  4.9841e-02
9.000  18.000  4.9873e-02
9.000  18.250  4.9711e-02
9.000  18.500  4.9908e-02
9.000  18.750  5.0906e-02
9.000  19.000  4.9119e-02
9.000  19.250  4.5971e-02
9.000  19.500  3.7357e-02
9.000  19.750  3.1760e-02
9.000  20.000  2.8585e-02
9.000  20.250  2.6809e-02
9.000  20.500  2.5779e-02
9.000  20.750  2.5319e-02
9.000  21.000  2.5081e-02
9.000  21.250  2.4948e-02
9.000  21.500  2.4892e-02
9.000  21.750  2.4869e-02
9.000  22.000  2.4859e-02
9.000  22.250  2.4854e-02
9.000  22.500  2.4851e-02
9.000  22.750  2.4850e-02
9.000  23.000  2.4849e-02
9.000  23.250  2.4849e-02
9.000  23.500  2.4849e-02
9.000  23.750  2.4849e-02
9.000  24.000  2.4849e-02
9.250  17.000  4.7883e-02
9.250  17.250  4.8629e-02
9.250  17.500  4.9222e-02
9.250  17.750  4.9617e-02
9.250  18.000  4.9789e-02
9.250  18.250  4.9691e-02
9.250  18.500  4.9557e-02
9.250  18.750  5.0106e-02
9.250  19.000  5.0681e-02
9.250  19.250  4.9070e-02
9.250  19.500  4.5959e-02
9.250  19.750  3.7356e-02
9.250  20.000  3.1753e-02
9.250  20.250  2.8581e-02
9.250  20.500  2.6808e-02
9.250  20.750  2.5779e-02
9.250  21.000  2.5319e-02
9.250  21.250  2.5081e-02
9.250  21.500  2.4944e-02
9.250  21.750  2.4888e-02
9.250  22.000  2.4864e-02
9.250  22.250  2.4854e-02
9.250  22.500  2.4853e-02
9.250  22.750  2.4851e-02
9.250  23.000  2.4850e-02
9.250  23.250  2.4849e-02
9.250  23.500  2.4849e-02
9.250  23.750  2.4849e-02
9.250  24.000  2.4849e-02
9.500  17.000  4.6817e-02
9.500  17.250  4.7816e-02
9.500  17.500  4.8711e-02
9.500  17.750  4.9390e-02
9.500  18.000  4.9725e-02
9.500  18.250  4.9742e-02
9.500  18.500  4.9636e-02
9.500  18.750  4.9742e-02
9.500  19.000  5.0866e-02
9.500  19.250  5.0238e-02
9.500  19.500  4.8977e-02
9.500  19.750  4.5942e-02
9.500  20.000  3.7354e-02
9.500  20.250  3.1746e-02
9.500  20.500  2.8578e-02
9.500  20.750  2.6807e-02
9.500  21.000  2.5774e-02
9.500  21.250  2.5315e-02
9.500  21.500  2.5077e-02
9.500  21.750  2.4941e-02
9.500  22.000  2.4884e-02
9.500  22.250  2.4861e-02
9.500  22.500  2.4851e-02
9.500  22.750  2.4846e-02
9.500  23.000  2.4844e-02
9.500  23.250  2.4843e-02
9.500  23.500  2.4843e-02
9.500  23.750  2.4842e-02
9.500  24.000  2.4842e-02
9.750  17.000  4.5472e-02
9.750  17.250  4.6677e-02
9.750  17.500  4.7897e-02
9.750  17.750  4.8960e-02
9.750  18.000  4.9638e-02
9.750  18.250  4.9947e-02
9.750  18.500  4.9959e-02
9.750  18.750  4.9931e-02
9.750  19.000  5.0402e-02
9.750  19.250  5.2225e-02
9.750  19.500  4.9803e-02
9.750  19.750  4.8856e-02
9.750  20.000  4.5921e-02
9.750  20.250  3.7352e-02
9.750  20.500  3.1740e-02
9.750  20.750  2.8576e-02
9.750  21.000  2.6807e-02
9.750  21.250  2.5775e-02
9.750  21.500  2.5315e-02
9.750  21.750  2.5077e-02
9.750  22.000  2.4942e-02
9.750  22.250  2.4885e-02
9.750  22.500  2.4861e-02
9.750  22.750  2.4851e-02
9.750  23.000  2.4846e-02
9.750  23.250  2.4844e-02
9.750  23.500  2.4843e-02
9.750  23.750  2.4842e-02
9.750  24.000  2.4842e-02
10.000  17.000  4.3874e-02
10.000  17.250  4.5184e-02
10.000  17.500  4.6651e-02
10.000  17.750  4.8140e-02
10.000  18.000  4.9379e-02
10.000  18.250  5.0165e-02
10.000  18.500  5.0368e-02
10.000  18.750  5.0302e-02
10.000  19.000  5.0449e-02
10.000  19.250  5.1557e-02
10.000  19.500  5.3421e-02
10.000  19.750  4.9617e-02
10.000  20.000  4.8667e-02
10.000  20.250  4.5897e-02
10.000  20.500  3.7348e-02
10.000  20.750  3.1736e-02
10.000  21.000  2.8574e-02
10.000  21.250  2.6806e-02
10.000  21.500  2.5777e-02
10.000  21.750  2.5315e-02
10.000  22.000  2.5077e-02
10.000  22.250  2.4943e-02
10.000  22.500  2.4886e-02
10.000  22.750  2.4861e-02
10.000  23.000  2.4851e-02
10.000  23.250  2.4847e-02
10.000  23.500  2.4844e-02
10.000  23.750  2.4843e-02
10.000  24.000  2.4842e-02
10.250  17.000  4.2507e-02
10.250  17.250  4.3463e-02
10.250  17.500  4.5055e-02
10.250  17.750  4.6889e-02
10.250  18.000  4.8720e-02
10.250  18.250  5.0056e-02
10.250  18.500  5.0597e-02
10.250  18.750  5.0593e-02
10.250  19.000  5.0505e-02
10.250  19.250  5.1028e-02
10.250  19.500  5.2952e-02
10.250  19.750  5.3928e-02
10.250  20.000  4.9762e-02
10.250  20.250  4.8652e-02
10.250  20.500  4.5876e-02
10.250  20.750  3.7344e-02
10.250  21.000  3.1733e-02
10.250  21.250  2.8573e-02
10.250  21.500  2.6806e-02
10.250  21.750  2.5777e-02
10.250  22.000  2.5317e-02
10.250  22.250  2.5078e-02
10.250  22.500  2.4943e-02
10.250  22.750  2.4887e-02
10.250  23.000  2.4862e-02
10.250  23.250  2.4851e-02
10.250  23.500  2.4846e-02
10.250  23.750  2.4844e-02
10.250  24.000  2.4843e-02
10.500  17.000  4.1553e-02
10.500  17.250  4.2031e-02
10.500  17.500  4.3296e-02
10.500  17.750  4.5343e-02
10.500  18.000  4.7509e-02
10.500  18.250  4.9199e-02
10.500  18.500  5.0136e-02
10.500  18.750  5.0390e-02
10.500  19.000  5.0410e-02
10.500  19.250  5.0782e-02
10.500  19.500  5.1908e-02
10.500  19.750  5.4442e-02
10.500  20.000  5.4149e-02
10.500  20.250  5.0186e-02
10.500  20.500  4.8816e-02
10.500  20.750  4.5884e-02
10.500  21.000  3.7339e-02
10.500  21.250  3.1731e-02
10.500  21.500  2.8574e-02
10.500  21.750  2.6806e-02
10.500  22.000  2.5777e-02
10.500  22.250  2.5318e-02
10.500  22.500  2.5079e-02
10.500  22.750  2.4944e-02
10.500  23.000  2.4887e-02
10.500  23.250  2.4863e-02
10.500  23.500  2.4852e-02
10.500  23.750  2.4846e-02
10.500  24.000  2.4844e-02
10.750  17.000  4.1105e-02
10.750  17.250  4.1131e-02
10.750  17.500  4.1930e-02
10.750  17.750  4.3663e-02
10.750  18.000  4.5732e-02
10.750  18.250  4.7459e-02
10.750  18.500  4.8624e-02
10.750  18.750  4.9261e-02
10.750  19.000  4.9709e-02
10.750  19.250  5.0213e-02
10.750  19.500  5.1022e-02
10.750  19.750  5.2557e-02
10.750  20.000  5.5343e-02
10.750  20.250  5.4729e-02
10.750  20.500  5.1036e-02
10.750  20.750  4.9402e-02
10.750  21.000  4.5927e-02
10.750  21.250  3.7334e-02
10.750  21.500  3.1730e-02
10.750  21.750  2.8574e-02
10.750  22.000  2.6806e-02
10.750  22.250  2.5777e-02
10.750  22.500  2.5319e-02
10.750  22.750  2.5081e-02
10.750  23.000  2.4944e-02
10.750  23.250  2.4888e-02
10.750  23.500  2.4864e-02
10.750  23.750  2.4853e-02
10.750  24.000  2.4847e-02
11.000  17.000  4.1111e-02
11.000  17.250  4.0829e-02
11.000  17.500  4.1129e-02
11.000  17.750  4.2122e-02
11.000  18.000  4.3553e-02
11.000  18.250  4.4918e-02
11.000  18.500  4.6140e-02
11.000  18.750  4.7279e-02
11.000  19.000  4.8276e-02
11.000  19.250  4.9178e-02
11.000  19.500  5.0027e-02
11.000  19.750  5.1115e-02
11.000  20.000  5.2747e-02
11.000  20.250  5.6579e-02
11.000  20.500  5.6333e-02
11.000  20.750  5.2353e-02
11.000  21.000  5.0471e-02
11.000  21.250  4.6022e-02
11.000  21.500  3.7331e-02
11.000  21.750  3.1730e-02
11.000  22.000  2.8576e-02
11.000  22.250  2.6806e-02
11.000  22.500  2.5777e-02
11.000  22.750  2.5319e-02
11.000  23.000  2.5081e-02
11.000  23.250  2.4944e-02
11.000  23.500  2.4888e-02
11.000  23.750  2.4864e-02
11.000  24.000  2.4853e-02
11.250  17.000  4.1543e-02
11.250  17.250  4.1021e-02
11.250  17.500  4.0800e-02
11.250  17.750  4.0937e-02
11.250  18.000  4.1371e-02
11.250  18.250  4.2011e-02
11.250  18.500  4.3094e-02
11.250  18.750  4.4585e-02
11.250  19.000  4.6157e-02
11.250  19.250  4.7516e-02
11.250  19.500  4.8684e-02
11.250  19.750  4.9809e-02
11.250  20.000  5.1121e-02
11.250  20.250  5.3035e-02
11.250  20.500  5.6702e-02
11.250  20.750  5.7392e-02
11.250  21.000  5.4346e-02
11.250  21.250  5.2261e-02
11.250  21.500  4.6184e-02
11.250  21.750  3.7332e-02
11.250  22.000  3.1730e-02
11.250  22.250  2.8578e-02
11.250  22.500  2.6807e-02
11.250  22.750  2.5776e-02
11.250  23.000  2.5319e-02
11.250  23.250  2.5082e-02
11.250  23.500  2.4946e-02
11.250  23.750  2.4888e-02
11.250  24.000  2.4864e-02
11.500  17.000  4.2450e-02
11.500  17.250  4.1573e-02
11.500  17.500  4.0817e-02
11.500  17.750  4.0140e-02
11.500  18.000  3.9523e-02
11.500  18.250  3.9288e-02
11.500  18.500  3.9985e-02
11.500  18.750  4.1547e-02
11.500  19.000  4.3558e-02
11.500  19.250  4.5367e-02
11.500  19.500  4.6926e-02
11.500  19.750  4.8368e-02
11.500  20.000  4.9827e-02
11.500  20.250  5.1428e-02
11.500  20.500  5.3728e-02
11.500  20.750  5.8199e-02
11.500  21.000  5.9844e-02
11.500  21.250  5.7498e-02
11.500  21.500  5.5277e-02
11.500  21.750  4.6343e-02
11.500  22.000  3.7335e-02
11.500  22.250  3.1731e-02
11.500  22.500  2.8581e-02
11.500  22.750  2.6808e-02
11.500  23.000  2.5776e-02
11.500  23.250  2.5319e-02
11.500  23.500  2.5082e-02
11.500  23.750  2.4947e-02
11.500  24.000  2.4889e-02
11.750  17.000  4.3895e-02
11.750  17.250  4.2399e-02
11.750  17.500  4.1020e-02
11.750  17.750  3.9590e-02
11.750  18.000  3.8111e-02
11.750  18.250  3.7211e-02
11.750  18.500  3.7381e-02
11.750  18.750  3.8633e-02
11.750  19.000  4.0683e-02
11.750  19.250  4.2935e-02
11.750  19.500  4.4896e-02
11.750  19.750  4.6673e-02
11.750  20.000  4.8466e-02
11.750  20.250  5.0267e-02
11.750  20.500  5.2261e-02
11.750  20.750  5.5198e-02
11.750  21.000  6.0241e-02
11.750  21.250  6.3869e-02
11.750  21.500  6.2142e-02
11.750  21.750  5.8945e-02
11.750  22.000  4.6491e-02
11.750  22.250  3.7336e-02
11.750  22.500  3.1729e-02
11.750  22.750  2.8584e-02
11.750  23.000  2.6810e-02
11.750  23.250  2.5775e-02
11.750  23.500  2.5329e-02
11.750  23.750  2.5082e-02
11.750  24.000  2.4948e-02
12.000  17.000  4.5866e-02
12.000  17.250  4.3472e-02
12.000  17.500  4.1271e-02
12.000  17.750  3.9074e-02
12.000  18.000  3.7077e-02
12.000  18.250  3.5881e-02
12.000  18.500  3.5594e-02
12.000  18.750  3.6315e-02
12.000  19.000  3.7980e-02
12.000  19.250  4.0317e-02
12.000  19.500  4.2715e-02
12.000  19.750  4.4855e-02
12.000  20.000  4.6939e-02
12.000  20.250  4.9118e-02
12.000  20.500  5.1331e-02
12.000  20.750  5.3885e-02
12.000  21.000  5.8015e-02
12.000  21.250  6.4750e-02
12.000  21.500  6.9809e-02
12.000  21.750  6.8220e-02
12.000  22.000  6.1228e-02
12.000  22.250  4.6589e-02
12.000  22.500  3.7327e-02
12.000  22.750  3.1724e-02
12.000  23.000  2.8587e-02
12.000  23.250  2.6811e-02
12.000  23.500  2.5774e-02
12.000  23.750  2.5318e-02
12.000  24.000  2.5082e-02
12.250  17.000  4.7968e-02
12.250  17.250  4.4577e-02
12.250  17.500  4.1333e-02
12.250  17.750  3.8430e-02
12.250  18.000  3.6298e-02
12.250  18.250  3.5075e-02
12.250  18.500  3.4654e-02
12.250  18.750  3.4927e-02
12.250  19.000  3.5960e-02
12.250  19.250  3.7876e-02
12.250  19.500  4.0007e-02
12.250  19.750  4.2255e-02
12.250  20.000  4.4734e-02
12.250  20.250  4.7554e-02
12.250  20.500  5.0830e-02
12.250  20.750  5.4672e-02
12.250  21.000  5.9194e-02
12.250  21.250  6.4508e-02
12.250  21.500  7.0726e-02
12.250  21.750  7.6500e-02
12.250  22.000  7.4886e-02
12.250  22.250  6.1858e-02
12.250  22.500  4.6666e-02
12.250  22.750  3.7307e-02
12.250  23.000  3.1714e-02
12.250  23.250  2.8588e-02
12.250  23.500  2.6813e-02
12.250  23.750  2.5773e-02
12.250  24.000  2.5318e-02
12.500  17.000  4.9017e-02
12.500  17.250  4.4810e-02
12.500  17.500  4.0850e-02
12.500  17.750  3.7657e-02
12.500  18.000  3.5640e-02
12.500  18.250  3.4608e-02
12.500  18.500  3.4248e-02
12.500  18.750  3.4361e-02
12.500  19.000  3.5915e-02
12.500  19.250  3.8948e-02
12.500  19.500  4.3165e-02
12.500  19.750  4.8272e-02
12.500  20.000  5.3975e-02
12.500  20.250  5.9981e-02
12.500  20.500  6.5993e-02
12.500  20.750  7.1720e-02
12.500  21.000  7.6866e-02
12.500  21.250  8.1138e-02
12.500  21.500  8.4240e-02
12.500  21.750  8.5880e-02
12.500  22.000  8.5763e-02
12.500  22.250  8.0537e-02
12.500  22.500  6.2392e-02
12.500  22.750  4.6754e-02
12.500  23.000  3.7277e-02
12.500  23.250  3.1699e-02
12.500  23.500  2.8588e-02
12.500  23.750  2.6814e-02
12.500  24.000  2.5772e-02
12.750  17.000  3.8991e-02
12.750  17.250  4.3545e-02
12.750  17.500  3.9667e-02
12.750  17.750  3.5816e-02
12.750  18.000  3.4424e-02
12.750  18.250  3.5191e-02
12.750  18.500  3.7817e-02
12.750  18.750  4.2001e-02
12.750  19.000  4.7443e-02
12.750  19.250  5.3843e-02
12.750  19.500  6.0899e-02
12.750  19.750  6.8312e-02
12.750  20.000  7.5781e-02
12.750  20.250  8.3006e-02
12.750  20.500  8.9686e-02
12.750  20.750  9.5521e-02
12.750  21.000  1.0021e-01
12.750  21.250  1.0345e-01
12.750  21.500  1.0495e-01
12.750  21.750  1.0440e-01
12.750  22.000  1.0151e-01
12.750  22.250  9.5964e-02
12.750  22.500  8.4859e-02
12.750  22.750  6.2749e-02
12.750  23.000  4.6804e-02
12.750  23.250  3.7231e-02
12.750  23.500  3.1680e-02
12.750  23.750  2.8585e-02
12.750  24.000  2.6813e-02
13.000  17.000  1.3460e-02
13.000  17.250  1.9820e-02
13.000  17.500  3.6318e-02
13.000  17.750  3.6487e-02
13.000  18.000  3.5078e-02
13.000  18.250  3.6559e-02
13.000  18.500  4.0247e-02
13.000  18.750  4.5779e-02
13.000  19.000  5.2791e-02
13.000  19.250  6.0922e-02
13.000  19.500  6.9809e-02
13.000  19.750  7.9089e-02
13.000  20.000  8.8400e-02
13.000  20.250  9.7379e-02
13.000  20.500  1.0566e-01
13.000  20.750  1.1289e-01
13.000  21.000  1.1870e-01
13.000  21.250  1.2272e-01
13.000  21.500  1.2460e-01
13.000  21.750  1.2398e-01
13.000  22.000  1.2048e-01
13.000  22.250  1.1375e-01
13.000  22.500  1.0342e-01
13.000  22.750  8.7380e-02
13.000  23.000  6.3150e-02
13.000  23.250  4.6833e-02
13.000  23.500  3.7181e-02
13.000  23.750  3.1656e-02
13.000  24.000  2.8577e-02
13.250  17.000  1.1363e-02
13.250  17.250  1.3810e-02
13.250  17.500  2.0502e-02
13.250  17.750  2.8369e-02
13.250  18.000  3.4970e-02
13.250  18.250  3.4156e-02
13.250  18.500  3.3880e-02
13.250  18.750  3.4111e-02
13.250  19.000  3.4683e-02
13.250  19.250  3.5480e-02
13.250  19.500  3.6524e-02
13.250  19.750  3.7912e-02
13.250  20.000  3.9873e-02
13.250  20.250  4.2564e-02
13.250  20.500  4.6099e-02
13.250  20.750  5.0521e-02
13.250  21.000  5.5909e-02
13.250  21.250  6.3383e-02
13.250  21.500  7.1716e-02
13.250  21.750  8.5328e-02
13.250  22.000  9.6917e-02
13.250  22.250  1.0590e-01
13.250  22.500  1.1166e-01
13.250  22.750  1.0757e-01
13.250  23.000  8.9049e-02
13.250  23.250  6.3360e-02
13.250  23.500  4.6807e-02
13.250  23.750  3.7124e-02
13.250  24.000  3.1625e-02
13.500  17.000  1.0156e-02
13.500  17.250  1.1657e-02
13.500  17.500  1.6125e-02
13.500  17.750  2.3381e-02
13.500  18.000  2.9823e-02
13.500  18.250  3.4159e-02
13.500  18.500  3.3790e-02
13.500  18.750  3.3953e-02
13.500  19.000  3.4576e-02
13.500  19.250  3.5512e-02
13.500  19.500  3.6613e-02
13.500  19.750  3.8000e-02
13.500  20.000  3.9829e-02
13.500  20.250  4.2224e-02
13.500  20.500  4.5279e-02
13.500  20.750  4.9147e-02
13.500  21.000  5.3645e-02
13.500  21.250  6.0615e-02
13.500  21.500  6.7160e-02
13.500  21.750  7.5376e-02
13.500  22.000  8.7993e-02
13.500  22.250  1.0611e-01
13.500  22.500  1.1706e-01
13.500  22.750  1.1820e-01
13.500  23.000  1.0890e-01
13.500  23.250  9.0105e-02
13.500  23.500  6.3541e-02
13.500  23.750  4.6824e-02
13.500  24.000  3.7057e-02
13.750  17.000  9.3553e-03
13.750  17.250  1.0979e-02
13.750  17.500  1.4026e-02
13.750  17.750  1.7892e-02
13.750  18.000  2.5980e-02
13.750  18.250  3.0347e-02
13.750  18.500  3.3765e-02
13.750  18.750  3.3824e-02
13.750  19.000  3.4374e-02
13.750  19.250  3.5360e-02
13.750  19.500  3.6633e-02
13.750  19.750  3.8154e-02
13.750  20.000  4.0034e-02
13.750  20.250  4.2446e-02
13.750  20.500  4.5466e-02
13.750  20.750  4.9084e-02
13.750  21.000  5.3210e-02
13.750  21.250  5.7953e-02
13.750  21.500  6.3362e-02
13.750  21.750  7.0216e-02
13.750  22.000  8.0550e-02
13.750  22.250  9.7369e-02
13.750  22.500  1.2049e-01
13.750  22.750  1.3101e-01
13.750  23.000  1.2424e-01
13.750  23.250  1.1237e-01
13.750  23.500  9.0878e-02
13.750  23.750  6.3695e-02
13.750  24.000  4.6728e-02
14.000  17.000  8.9668e-03
14.000  17.250  1.0152e-02
14.000  17.500  1.2911e-02
14.000  17.750  1.5752e-02
14.000  18.000  2.0550e-02
14.000  18.250  2.8072e-02
14.000  18.500  3.1444e-02
14.000  18.750  3.3777e-02
14.000  19.000  3.4144e-02
14.000  19.250  3.5069e-02
14.000  19.500  3.6487e-02
14.000  19.750  3.8198e-02
14.000  20.000  4.0237e-02
14.000  20.250  4.2740e-02
14.000  20.500  4.5887e-02
14.000  20.750  4.9661e-02
14.000  21.000  5.4030e-02
14.000  21.250  5.8995e-02
14.000  21.500  6.3678e-02
14.000  21.750  7.0067e-02
14.000  22.000  7.8948e-02
14.000  22.250  9.2896e-02
14.000  22.500  1.1536e-01
14.000  22.750  1.4620e-01
14.000  23.000  1.4753e-01
14.000  23.250  1.3391e-01
14.000  23.500  1.1674e-01
14.000  23.750  9.2017e-02
14.000  24.000  6.3677e-02
