InwC 1143.64A  relative to Inci 1215.00A scaled to 1215A.
Hden   Phi(H)  Eq_Width (A)
7.000  17.000  2.4219e-02
7.000  17.250  2.5054e-02
7.000  17.500  2.5065e-02
7.000  17.750  2.5076e-02
7.000  18.000  2.5089e-02
7.000  18.250  2.5100e-02
7.000  18.500  2.5107e-02
7.000  18.750  2.5110e-02
7.000  19.000  2.5113e-02
7.000  19.250  2.5115e-02
7.000  19.500  2.5116e-02
7.000  19.750  2.5116e-02
7.000  20.000  2.5117e-02
7.000  20.250  2.5117e-02
7.000  20.500  2.5117e-02
7.000  20.750  2.5117e-02
7.000  21.000  2.5117e-02
7.000  21.250  2.5117e-02
7.000  21.500  2.5117e-02
7.000  21.750  2.5118e-02
7.000  22.000  2.5118e-02
7.000  22.250  2.5118e-02
7.000  22.500  2.5118e-02
7.000  22.750  2.5118e-02
7.000  23.000  2.5118e-02
7.000  23.250  2.5118e-02
7.000  23.500  2.5118e-02
7.000  23.750  2.5118e-02
7.000  24.000  2.5118e-02
7.250  17.000  2.8115e-02
7.250  17.250  2.4225e-02
7.250  17.500  2.5054e-02
7.250  17.750  2.5065e-02
7.250  18.000  2.5076e-02
7.250  18.250  2.5089e-02
7.250  18.500  2.5100e-02
7.250  18.750  2.5107e-02
7.250  19.000  2.5110e-02
7.250  19.250  2.5113e-02
7.250  19.500  2.5115e-02
7.250  19.750  2.5116e-02
7.250  20.000  2.5116e-02
7.250  20.250  2.5117e-02
7.250  20.500  2.5117e-02
7.250  20.750  2.5117e-02
7.250  21.000  2.5117e-02
7.250  21.250  2.5117e-02
7.250  21.500  2.5117e-02
7.250  21.750  2.5117e-02
7.250  22.000  2.5120e-02
7.250  22.250  2.5117e-02
7.250  22.500  2.5117e-02
7.250  22.750  2.5118e-02
7.250  23.000  2.5118e-02
7.250  23.250  2.5119e-02
7.250  23.500  2.5118e-02
7.250  23.750  2.5119e-02
7.250  24.000  2.5118e-02
7.500  17.000  7.0389e-02
7.500  17.250  2.7572e-02
7.500  17.500  -5.0803e-03
7.500  17.750  -2.6754e-02
7.500  18.000  -3.8972e-02
7.500  18.250  -4.3260e-02
7.500  18.500  -4.1140e-02
7.500  18.750  -3.4136e-02
7.500  19.000  -2.3772e-02
7.500  19.250  -1.1572e-02
7.500  19.500  9.4041e-04
7.500  19.750  1.2242e-02
7.500  20.000  2.0808e-02
7.500  20.250  2.5116e-02
7.500  20.500  2.5117e-02
7.500  20.750  2.5117e-02
7.500  21.000  2.5117e-02
7.500  21.250  2.5117e-02
7.500  21.500  2.5117e-02
7.500  21.750  2.5117e-02
7.500  22.000  2.5117e-02
7.500  22.250  2.5117e-02
7.500  22.500  2.5117e-02
7.500  22.750  2.5117e-02
7.500  23.000  2.5117e-02
7.500  23.250  2.5117e-02
7.500  23.500  2.5117e-02
7.500  23.750  2.5117e-02
7.500  24.000  2.5117e-02
7.750  17.000  1.0420e-01
7.750  17.250  6.9020e-02
7.750  17.500  4.2413e-02
7.750  17.750  2.4854e-02
7.750  18.000  1.4793e-02
7.750  18.250  1.0680e-02
7.750  18.500  1.0967e-02
7.750  18.750  1.4102e-02
7.750  19.000  1.8538e-02
7.750  19.250  2.2724e-02
7.750  19.500  2.5110e-02
7.750  19.750  2.5113e-02
7.750  20.000  2.5115e-02
7.750  20.250  2.5116e-02
7.750  20.500  2.5116e-02
7.750  20.750  2.5117e-02
7.750  21.000  2.5117e-02
7.750  21.250  2.5117e-02
7.750  21.500  2.5117e-02
7.750  21.750  2.5117e-02
7.750  22.000  2.5117e-02
7.750  22.250  2.5117e-02
7.750  22.500  2.5117e-02
7.750  22.750  2.5117e-02
7.750  23.000  2.5117e-02
7.750  23.250  2.5117e-02
7.750  23.500  2.5117e-02
7.750  23.750  2.5117e-02
7.750  24.000  2.5117e-02
8.000  17.000  1.3113e-01
8.000  17.250  1.0314e-01
8.000  17.500  6.8559e-02
8.000  17.750  2.7752e-02
8.000  18.000  2.4229e-02
8.000  18.250  2.5054e-02
8.000  18.500  2.5065e-02
8.000  18.750  2.5077e-02
8.000  19.000  2.5089e-02
8.000  19.250  2.5100e-02
8.000  19.500  2.5107e-02
8.000  19.750  2.5110e-02
8.000  20.000  2.5113e-02
8.000  20.250  2.5115e-02
8.000  20.500  2.5116e-02
8.000  20.750  2.5116e-02
8.000  21.000  2.5117e-02
8.000  21.250  2.5117e-02
8.000  21.500  2.5117e-02
8.000  21.750  2.5117e-02
8.000  22.000  2.5117e-02
8.000  22.250  2.5117e-02
8.000  22.500  2.5117e-02
8.000  22.750  2.5117e-02
8.000  23.000  2.5117e-02
8.000  23.250  2.5117e-02
8.000  23.500  2.5117e-02
8.000  23.750  2.5117e-02
8.000  24.000  2.5119e-02
8.250  17.000  1.4990e-01
8.250  17.250  1.2977e-01
8.250  17.500  1.0141e-01
8.250  17.750  6.7274e-02
8.250  18.000  4.2890e-02
8.250  18.250  2.9800e-02
8.250  18.500  2.5054e-02
8.250  18.750  2.5065e-02
8.250  19.000  2.5077e-02
8.250  19.250  2.4967e-02
8.250  19.500  2.4956e-02
8.250  19.750  2.5003e-02
8.250  20.000  2.5069e-02
8.250  20.250  2.5113e-02
8.250  20.500  2.5115e-02
8.250  20.750  2.5116e-02
8.250  21.000  2.5116e-02
8.250  21.250  2.5117e-02
8.250  21.500  2.5117e-02
8.250  21.750  2.5117e-02
8.250  22.000  2.5117e-02
8.250  22.250  2.5117e-02
8.250  22.500  2.5117e-02
8.250  22.750  2.5117e-02
8.250  23.000  2.5117e-02
8.250  23.250  2.5117e-02
8.250  23.500  2.5117e-02
8.250  23.750  2.5117e-02
8.250  24.000  2.5117e-02
8.500  17.000  1.6274e-01
8.500  17.250  1.4878e-01
8.500  17.500  1.2806e-01
8.500  17.750  9.8995e-02
8.500  18.000  6.5250e-02
8.500  18.250  4.1656e-02
8.500  18.500  2.9346e-02
8.500  18.750  2.5054e-02
8.500  19.000  2.5065e-02
8.500  19.250  2.5077e-02
8.500  19.500  2.4982e-02
8.500  19.750  2.4973e-02
8.500  20.000  2.5015e-02
8.500  20.250  2.5074e-02
8.500  20.500  2.5113e-02
8.500  20.750  2.5115e-02
8.500  21.000  2.5116e-02
8.500  21.250  2.5116e-02
8.500  21.500  2.5117e-02
8.500  21.750  2.5117e-02
8.500  22.000  2.5117e-02
8.500  22.250  2.5117e-02
8.500  22.500  2.5117e-02
8.500  22.750  2.5117e-02
8.500  23.000  2.5117e-02
8.500  23.250  2.5117e-02
8.500  23.500  2.5117e-02
8.500  23.750  2.5117e-02
8.500  24.000  2.5117e-02
8.750  17.000  1.7150e-01
8.750  17.250  1.6178e-01
8.750  17.500  1.4719e-01
8.750  17.750  1.2533e-01
8.750  18.000  9.5513e-02
8.750  18.250  6.1925e-02
8.750  18.500  3.6267e-02
8.750  18.750  2.4237e-02
8.750  19.000  2.5054e-02
8.750  19.250  2.5066e-02
8.750  19.500  2.4454e-02
8.750  19.750  2.4160e-02
8.750  20.000  2.4114e-02
8.750  20.250  2.4244e-02
8.750  20.500  2.4481e-02
8.750  20.750  2.4752e-02
8.750  21.000  2.4988e-02
8.750  21.250  2.5116e-02
8.750  21.500  2.5116e-02
8.750  21.750  2.5116e-02
8.750  22.000  2.5117e-02
8.750  22.250  2.5117e-02
8.750  22.500  2.5117e-02
8.750  22.750  2.5117e-02
8.750  23.000  2.5117e-02
8.750  23.250  2.5117e-02
8.750  23.500  2.5117e-02
8.750  23.750  2.5117e-02
8.750  24.000  2.5117e-02
9.000  17.000  1.7748e-01
9.000  17.250  1.7068e-01
9.000  17.500  1.6034e-01
9.000  17.750  1.4453e-01
9.000  18.000  1.2079e-01
9.000  18.250  8.9142e-02
9.000  18.500  5.6162e-02
9.000  18.750  3.5335e-02
9.000  19.000  2.6235e-02
9.000  19.250  2.4324e-02
9.000  19.500  2.5066e-02
9.000  19.750  2.5077e-02
9.000  20.000  2.5089e-02
9.000  20.250  2.5100e-02
9.000  20.500  2.5107e-02
9.000  20.750  2.5110e-02
9.000  21.000  2.5113e-02
9.000  21.250  2.5115e-02
9.000  21.500  2.5116e-02
9.000  21.750  2.5116e-02
9.000  22.000  2.5116e-02
9.000  22.250  2.5117e-02
9.000  22.500  2.5117e-02
9.000  22.750  2.5117e-02
9.000  23.000  2.5117e-02
9.000  23.250  2.5117e-02
9.000  23.500  2.5117e-02
9.000  23.750  2.5117e-02
9.000  24.000  2.5117e-02
9.250  17.000  1.8151e-01
9.250  17.250  1.7676e-01
9.250  17.500  1.6935e-01
9.250  17.750  1.5778e-01
9.250  18.000  1.3966e-01
9.250  18.250  1.1307e-01
9.250  18.500  7.9743e-02
9.250  18.750  4.6371e-02
9.250  19.000  2.3420e-02
9.250  19.250  2.4233e-02
9.250  19.500  2.5053e-02
9.250  19.750  2.5065e-02
9.250  20.000  2.5077e-02
9.250  20.250  2.5090e-02
9.250  20.500  2.5100e-02
9.250  20.750  2.5107e-02
9.250  21.000  2.5110e-02
9.250  21.250  2.5113e-02
9.250  21.500  2.5111e-02
9.250  21.750  2.5112e-02
9.250  22.000  2.5111e-02
9.250  22.250  2.5112e-02
9.250  22.500  2.5116e-02
9.250  22.750  2.5116e-02
9.250  23.000  2.5116e-02
9.250  23.250  2.5116e-02
9.250  23.500  2.5116e-02
9.250  23.750  2.5116e-02
9.250  24.000  2.5117e-02
9.500  17.000  1.8415e-01
9.500  17.250  1.8085e-01
9.500  17.500  1.7552e-01
9.500  17.750  1.6695e-01
9.500  18.000  1.5312e-01
9.500  18.250  1.3178e-01
9.500  18.500  1.0243e-01
9.500  18.750  6.8593e-02
9.500  19.000  3.6894e-02
9.500  19.250  2.4381e-02
9.500  19.500  2.4226e-02
9.500  19.750  2.5051e-02
9.500  20.000  2.5471e-02
9.500  20.250  2.5737e-02
9.500  20.500  2.5875e-02
9.500  20.750  2.5906e-02
9.500  21.000  2.5854e-02
9.500  21.250  2.5743e-02
9.500  21.500  2.5595e-02
9.500  21.750  2.5435e-02
9.500  22.000  2.5285e-02
9.500  22.250  2.5168e-02
9.500  22.500  2.5109e-02
9.500  22.750  2.5109e-02
9.500  23.000  2.5109e-02
9.500  23.250  2.5109e-02
9.500  23.500  2.5110e-02
9.500  23.750  2.5110e-02
9.500  24.000  2.5110e-02
9.750  17.000  1.8576e-01
9.750  17.250  1.8352e-01
9.750  17.500  1.7971e-01
9.750  17.750  1.7329e-01
9.750  18.000  1.6259e-01
9.750  18.250  1.4563e-01
9.750  18.500  1.2160e-01
9.750  18.750  9.1029e-02
9.750  19.000  5.7877e-02
9.750  19.250  3.4064e-02
9.750  19.500  2.3394e-02
9.750  19.750  2.4212e-02
9.750  20.000  2.6391e-02
9.750  20.250  2.7529e-02
9.750  20.500  2.7853e-02
9.750  20.750  2.7586e-02
9.750  21.000  2.6953e-02
9.750  21.250  2.6180e-02
9.750  21.500  2.5490e-02
9.750  21.750  2.5109e-02
9.750  22.000  2.5110e-02
9.750  22.250  2.5108e-02
9.750  22.500  2.5109e-02
9.750  22.750  2.5109e-02
9.750  23.000  2.5109e-02
9.750  23.250  2.5109e-02
9.750  23.500  2.5109e-02
9.750  23.750  2.5109e-02
9.750  24.000  2.5109e-02
10.000  17.000  1.8661e-01
10.000  17.250  1.8515e-01
10.000  17.500  1.8244e-01
10.000  17.750  1.7757e-01
10.000  18.000  1.6910e-01
10.000  18.250  1.5571e-01
10.000  18.500  1.3660e-01
10.000  18.750  1.1127e-01
10.000  19.000  8.0222e-02
10.000  19.250  4.7466e-02
10.000  19.500  2.8238e-02
10.000  19.750  2.1873e-02
10.000  20.000  2.2699e-02
10.000  20.250  2.5046e-02
10.000  20.500  2.5064e-02
10.000  20.750  2.5077e-02
10.000  21.000  2.5090e-02
10.000  21.250  2.5100e-02
10.000  21.500  2.5106e-02
10.000  21.750  2.5107e-02
10.000  22.000  2.5109e-02
10.000  22.250  2.5110e-02
10.000  22.500  2.5109e-02
10.000  22.750  2.5109e-02
10.000  23.000  2.5109e-02
10.000  23.250  2.5109e-02
10.000  23.500  2.5109e-02
10.000  23.750  2.5109e-02
10.000  24.000  2.5109e-02
10.250  17.000  1.8685e-01
10.250  17.250  1.8599e-01
10.250  17.500  1.8408e-01
10.250  17.750  1.8034e-01
10.250  18.000  1.7358e-01
10.250  18.250  1.6305e-01
10.250  18.500  1.4810e-01
10.250  18.750  1.2794e-01
10.250  19.000  1.0192e-01
10.250  19.250  7.0294e-02
10.250  19.500  4.5241e-02
10.250  19.750  2.9726e-02
10.250  20.000  2.3400e-02
10.250  20.250  2.4186e-02
10.250  20.500  2.5042e-02
10.250  20.750  2.5063e-02
10.250  21.000  2.5077e-02
10.250  21.250  2.5090e-02
10.250  21.500  2.5100e-02
10.250  21.750  2.5107e-02
10.250  22.000  2.5109e-02
10.250  22.250  2.5109e-02
10.250  22.500  2.5111e-02
10.250  22.750  2.5110e-02
10.250  23.000  2.5109e-02
10.250  23.250  2.5109e-02
10.250  23.500  2.5109e-02
10.250  23.750  2.5109e-02
10.250  24.000  2.5109e-02
10.500  17.000  1.8657e-01
10.500  17.250  1.8618e-01
10.500  17.500  1.8485e-01
10.500  17.750  1.8192e-01
10.500  18.000  1.7646e-01
10.500  18.250  1.6802e-01
10.500  18.500  1.5659e-01
10.500  18.750  1.4131e-01
10.500  19.000  1.2132e-01
10.500  19.250  9.5609e-02
10.500  19.500  6.3483e-02
10.500  19.750  4.0134e-02
10.500  20.000  2.7634e-02
10.500  20.250  2.3406e-02
10.500  20.500  2.4181e-02
10.500  20.750  2.5037e-02
10.500  21.000  2.5062e-02
10.500  21.250  2.5077e-02
10.500  21.500  2.5090e-02
10.500  21.750  2.5100e-02
10.500  22.000  2.5107e-02
10.500  22.250  2.5110e-02
10.500  22.500  2.5111e-02
10.500  22.750  2.5111e-02
10.500  23.000  2.5111e-02
10.500  23.250  2.5110e-02
10.500  23.500  2.5110e-02
10.500  23.750  2.5109e-02
10.500  24.000  2.5109e-02
10.750  17.000  1.8580e-01
10.750  17.250  1.8580e-01
10.750  17.500  1.8489e-01
10.750  17.750  1.8248e-01
10.750  18.000  1.7803e-01
10.750  18.250  1.7149e-01
10.750  18.500  1.6289e-01
10.750  18.750  1.5139e-01
10.750  19.000  1.3672e-01
10.750  19.250  1.1680e-01
10.750  19.500  9.0095e-02
10.750  19.750  5.6734e-02
10.750  20.000  3.3032e-02
10.750  20.250  2.2948e-02
10.750  20.500  2.3417e-02
10.750  20.750  2.4194e-02
10.750  21.000  2.4474e-02
10.750  21.250  2.4713e-02
10.750  21.500  2.4903e-02
10.750  21.750  2.5034e-02
10.750  22.000  2.5100e-02
10.750  22.250  2.5107e-02
10.750  22.500  2.5110e-02
10.750  22.750  2.5112e-02
10.750  23.000  2.5111e-02
10.750  23.250  2.5111e-02
10.750  23.500  2.5111e-02
10.750  23.750  2.5111e-02
10.750  24.000  2.5110e-02
11.000  17.000  1.8443e-01
11.000  17.250  1.8484e-01
11.000  17.500  1.8421e-01
11.000  17.750  1.8215e-01
11.000  18.000  1.7850e-01
11.000  18.250  1.7343e-01
11.000  18.500  1.6687e-01
11.000  18.750  1.5899e-01
11.000  19.000  1.4825e-01
11.000  19.250  1.3359e-01
11.000  19.500  1.1291e-01
11.000  19.750  8.5042e-02
11.000  20.000  6.1820e-02
11.000  20.250  4.5504e-02
11.000  20.500  3.4881e-02
11.000  20.750  2.8736e-02
11.000  21.000  2.5856e-02
11.000  21.250  2.5027e-02
11.000  21.500  2.5057e-02
11.000  21.750  2.5075e-02
11.000  22.000  2.5089e-02
11.000  22.250  2.5100e-02
11.000  22.500  2.5107e-02
11.000  22.750  2.5110e-02
11.000  23.000  2.5113e-02
11.000  23.250  2.5112e-02
11.000  23.500  2.5112e-02
11.000  23.750  2.5112e-02
11.000  24.000  2.5111e-02
11.250  17.000  1.8227e-01
11.250  17.250  1.8319e-01
11.250  17.500  1.8278e-01
11.250  17.750  1.8094e-01
11.250  18.000  1.7783e-01
11.250  18.250  1.7386e-01
11.250  18.500  1.6932e-01
11.250  18.750  1.6362e-01
11.250  19.000  1.5626e-01
11.250  19.250  1.4570e-01
11.250  19.500  1.3059e-01
11.250  19.750  1.0920e-01
11.250  20.000  7.9968e-02
11.250  20.250  5.6033e-02
11.250  20.500  3.9899e-02
11.250  20.750  3.0168e-02
11.250  21.000  2.5444e-02
11.250  21.250  2.4330e-02
11.250  21.500  2.5020e-02
11.250  21.750  2.5055e-02
11.250  22.000  2.5074e-02
11.250  22.250  2.5089e-02
11.250  22.500  2.5100e-02
11.250  22.750  2.5107e-02
11.250  23.000  2.5110e-02
11.250  23.250  2.5113e-02
11.250  23.500  2.5114e-02
11.250  23.750  2.5112e-02
11.250  24.000  2.5112e-02
11.500  17.000  1.7914e-01
11.500  17.250  1.8056e-01
11.500  17.500  1.8044e-01
11.500  17.750  1.7871e-01
11.500  18.000  1.7591e-01
11.500  18.250  1.7282e-01
11.500  18.500  1.6974e-01
11.500  18.750  1.6592e-01
11.500  19.000  1.6094e-01
11.500  19.250  1.5368e-01
11.500  19.500  1.4312e-01
11.500  19.750  1.2765e-01
11.500  20.000  1.0555e-01
11.500  20.250  7.4832e-02
11.500  20.500  5.0198e-02
11.500  20.750  3.4479e-02
11.500  21.000  2.6119e-02
11.500  21.250  2.3563e-02
11.500  21.500  2.4524e-02
11.500  21.750  2.5014e-02
11.500  22.000  2.5052e-02
11.500  22.250  2.5073e-02
11.500  22.500  2.5088e-02
11.500  22.750  2.5100e-02
11.500  23.000  2.5107e-02
11.500  23.250  2.5110e-02
11.500  23.500  2.5113e-02
11.500  23.750  2.5115e-02
11.500  24.000  2.5112e-02
11.750  17.000  1.7499e-01
11.750  17.250  1.7672e-01
11.750  17.500  1.7685e-01
11.750  17.750  1.7517e-01
11.750  18.000  1.7256e-01
11.750  18.250  1.7034e-01
11.750  18.500  1.6830e-01
11.750  18.750  1.6602e-01
11.750  19.000  1.6276e-01
11.750  19.250  1.5806e-01
11.750  19.500  1.5107e-01
11.750  19.750  1.4052e-01
11.750  20.000  1.2481e-01
11.750  20.250  1.0188e-01
11.750  20.500  6.9678e-02
11.750  20.750  3.0065e-02
11.750  21.000  2.2545e-02
11.750  21.250  2.3070e-02
11.750  21.500  2.3731e-02
11.750  21.750  2.4792e-02
11.750  22.000  2.5004e-02
11.750  22.250  2.5047e-02
11.750  22.500  2.5071e-02
11.750  22.750  2.5087e-02
11.750  23.000  2.5099e-02
11.750  23.250  2.5107e-02
11.750  23.500  2.5121e-02
11.750  23.750  2.5113e-02
11.750  24.000  2.5115e-02
12.000  17.000  1.6982e-01
12.000  17.250  1.7146e-01
12.000  17.500  1.7160e-01
12.000  17.750  1.6995e-01
12.000  18.000  1.6781e-01
12.000  18.250  1.6635e-01
12.000  18.500  1.6518e-01
12.000  18.750  1.6395e-01
12.000  19.000  1.6213e-01
12.000  19.250  1.5939e-01
12.000  19.500  1.5516e-01
12.000  19.750  1.4855e-01
12.000  20.000  1.3808e-01
12.000  20.250  1.2206e-01
12.000  20.500  9.8226e-02
12.000  20.750  6.4462e-02
12.000  21.000  2.4187e-02
12.000  21.250  2.2576e-02
12.000  21.500  2.3181e-02
12.000  21.750  2.3983e-02
12.000  22.000  2.4926e-02
12.000  22.250  2.4997e-02
12.000  22.500  2.5042e-02
12.000  22.750  2.5069e-02
12.000  23.000  2.5087e-02
12.000  23.250  2.5099e-02
12.000  23.500  2.5107e-02
12.000  23.750  2.5110e-02
12.000  24.000  2.5113e-02
12.250  17.000  1.6364e-01
12.250  17.250  1.6471e-01
12.250  17.500  1.6435e-01
12.250  17.750  1.6285e-01
12.250  18.000  1.6159e-01
12.250  18.250  1.6089e-01
12.250  18.500  1.6051e-01
12.250  18.750  1.6017e-01
12.250  19.000  1.5956e-01
12.250  19.250  1.5844e-01
12.250  19.500  1.5633e-01
12.250  19.750  1.5264e-01
12.250  20.000  1.4627e-01
12.250  20.250  1.3580e-01
12.250  20.500  1.1929e-01
12.250  20.750  9.4414e-02
12.250  21.000  5.8901e-02
12.250  21.250  2.2933e-02
12.250  21.500  2.2628e-02
12.250  21.750  2.3330e-02
12.250  22.000  2.4271e-02
12.250  22.250  2.4920e-02
12.250  22.500  2.4987e-02
12.250  22.750  2.5036e-02
12.250  23.000  2.5066e-02
12.250  23.250  2.5085e-02
12.250  23.500  2.5098e-02
12.250  23.750  2.5106e-02
12.250  24.000  2.5110e-02
12.500  17.000  1.5351e-01
12.500  17.250  1.5622e-01
12.500  17.500  1.5569e-01
12.500  17.750  1.5446e-01
12.500  18.000  1.5397e-01
12.500  18.250  1.5414e-01
12.500  18.500  1.5456e-01
12.500  18.750  1.5514e-01
12.500  19.000  1.5565e-01
12.500  19.250  1.5586e-01
12.500  19.500  1.5541e-01
12.500  19.750  1.5380e-01
12.500  20.000  1.5038e-01
12.500  20.250  1.4403e-01
12.500  20.500  1.3344e-01
12.500  20.750  1.1648e-01
12.500  21.000  9.0058e-02
12.500  21.250  5.3034e-02
12.500  21.500  2.1667e-02
12.500  21.750  2.2726e-02
12.500  22.000  2.3534e-02
12.500  22.250  2.4510e-02
12.500  22.500  2.4913e-02
12.500  22.750  2.4982e-02
12.500  23.000  2.5031e-02
12.500  23.250  2.5063e-02
12.500  23.500  2.5083e-02
12.500  23.750  2.5097e-02
12.500  24.000  2.5106e-02
12.750  17.000  1.1234e-01
12.750  17.250  1.4431e-01
12.750  17.500  1.4582e-01
12.750  17.750  1.4555e-01
12.750  18.000  1.4536e-01
12.750  18.250  1.4600e-01
12.750  18.500  1.4728e-01
12.750  18.750  1.4883e-01
12.750  19.000  1.5050e-01
12.750  19.250  1.5193e-01
12.750  19.500  1.5286e-01
12.750  19.750  1.5286e-01
12.750  20.000  1.5147e-01
12.750  20.250  1.4815e-01
12.750  20.500  1.4176e-01
12.750  20.750  1.3097e-01
12.750  21.000  1.1296e-01
12.750  21.250  8.5017e-02
12.750  21.500  4.8378e-02
12.750  21.750  2.1807e-02
12.750  22.000  2.2869e-02
12.750  22.250  2.3768e-02
12.750  22.500  2.4685e-02
12.750  22.750  2.4906e-02
12.750  23.000  2.4975e-02
12.750  23.250  2.5025e-02
12.750  23.500  2.5059e-02
12.750  23.750  2.5081e-02
12.750  24.000  2.5096e-02
13.000  17.000  2.2809e-02
13.000  17.250  5.1793e-02
13.000  17.500  1.2426e-01
13.000  17.750  1.3408e-01
13.000  18.000  1.3514e-01
13.000  18.250  1.3625e-01
13.000  18.500  1.3831e-01
13.000  18.750  1.4104e-01
13.000  19.000  1.4396e-01
13.000  19.250  1.4667e-01
13.000  19.500  1.4887e-01
13.000  19.750  1.5024e-01
13.000  20.000  1.5048e-01
13.000  20.250  1.4919e-01
13.000  20.500  1.4583e-01
13.000  20.750  1.3925e-01
13.000  21.000  1.2757e-01
13.000  21.250  1.0847e-01
13.000  21.500  8.0500e-02
13.000  21.750  4.1649e-02
13.000  22.000  2.2052e-02
13.000  22.250  2.3000e-02
13.000  22.500  2.3930e-02
13.000  22.750  2.4748e-02
13.000  23.000  2.4903e-02
13.000  23.250  2.4971e-02
13.000  23.500  2.5021e-02
13.000  23.750  2.5054e-02
13.000  24.000  2.5078e-02
13.250  17.000  1.4189e-02
13.250  17.250  2.6144e-02
13.250  17.500  5.7239e-02
13.250  17.750  9.3105e-02
13.250  18.000  1.2175e-01
13.250  18.250  1.2388e-01
13.250  18.500  1.2707e-01
13.250  18.750  1.3114e-01
13.250  19.000  1.3562e-01
13.250  19.250  1.3976e-01
13.250  19.500  1.4331e-01
13.250  19.750  1.4605e-01
13.250  20.000  1.4769e-01
13.250  20.250  1.4802e-01
13.250  20.500  1.4670e-01
13.250  20.750  1.4312e-01
13.250  21.000  1.3598e-01
13.250  21.250  1.2341e-01
13.250  21.500  1.0417e-01
13.250  21.750  7.2716e-02
13.250  22.000  3.5330e-02
13.250  22.250  2.2153e-02
13.250  22.500  2.3091e-02
13.250  22.750  2.3978e-02
13.250  23.000  2.4762e-02
13.250  23.250  2.4898e-02
13.250  23.500  2.4967e-02
13.250  23.750  2.5016e-02
13.250  24.000  2.5050e-02
13.500  17.000  8.8249e-03
13.500  17.250  1.5727e-02
13.500  17.500  3.4190e-02
13.500  17.750  6.4403e-02
13.500  18.000  9.0360e-02
13.500  18.250  1.0899e-01
13.500  18.500  1.1327e-01
13.500  18.750  1.1852e-01
13.500  19.000  1.2475e-01
13.500  19.250  1.3070e-01
13.500  19.500  1.3589e-01
13.500  19.750  1.4009e-01
13.500  20.000  1.4316e-01
13.500  20.250  1.4497e-01
13.500  20.500  1.4527e-01
13.500  20.750  1.4375e-01
13.500  21.000  1.3976e-01
13.500  21.250  1.3167e-01
13.500  21.500  1.1888e-01
13.500  21.750  9.6865e-02
13.500  22.000  6.3797e-02
13.500  22.250  2.9526e-02
13.500  22.500  2.2191e-02
13.500  22.750  2.3078e-02
13.500  23.000  2.3905e-02
13.500  23.250  2.4743e-02
13.500  23.500  2.4890e-02
13.500  23.750  2.4961e-02
13.500  24.000  2.5010e-02
13.750  17.000  5.3480e-03
13.750  17.250  1.0402e-02
13.750  17.500  2.1329e-02
13.750  17.750  3.7466e-02
13.750  18.000  6.5037e-02
13.750  18.250  8.2295e-02
13.750  18.500  9.7889e-02
13.750  18.750  1.0392e-01
13.750  19.000  1.1113e-01
13.750  19.250  1.1891e-01
13.750  19.500  1.2621e-01
13.750  19.750  1.3218e-01
13.750  20.000  1.3675e-01
13.750  20.250  1.4006e-01
13.750  20.500  1.4190e-01
13.750  20.750  1.4201e-01
13.750  21.000  1.4001e-01
13.750  21.250  1.3523e-01
13.750  21.500  1.2684e-01
13.750  21.750  1.1119e-01
13.750  22.000  8.5887e-02
13.750  22.250  5.1403e-02
13.750  22.500  2.4847e-02
13.750  22.750  2.2210e-02
13.750  23.000  2.3013e-02
13.750  23.250  2.3881e-02
13.750  23.500  2.4715e-02
13.750  23.750  2.4877e-02
13.750  24.000  2.4951e-02
14.000  17.000  3.2778e-03
14.000  17.250  6.2110e-03
14.000  17.500  1.3420e-02
14.000  17.750  2.3936e-02
14.000  18.000  3.9643e-02
14.000  18.250  6.1611e-02
14.000  18.500  7.5531e-02
14.000  18.750  8.8124e-02
14.000  19.000  9.6111e-02
14.000  19.250  1.0475e-01
14.000  19.500  1.1357e-01
14.000  19.750  1.2173e-01
14.000  20.000  1.2832e-01
14.000  20.250  1.3326e-01
14.000  20.500  1.3661e-01
14.000  20.750  1.3831e-01
14.000  21.000  1.3801e-01
14.000  21.250  1.3522e-01
14.000  21.500  1.2991e-01
14.000  21.750  1.1854e-01
14.000  22.000  9.9190e-02
14.000  22.250  7.0318e-02
14.000  22.500  3.8005e-02
14.000  22.750  2.1951e-02
14.000  23.000  2.2191e-02
14.000  23.250  2.2989e-02
14.000  23.500  2.3881e-02
14.000  23.750  2.4713e-02
14.000  24.000  2.4855e-02
