InwT 9500.00A  relative to Inci 1215.00A scaled to 1215A.
Hden   Phi(H)  Eq_Width (A)
7.000  17.000  1.7550e-02
7.000  17.250  1.2088e-02
7.000  17.500  8.5692e-03
7.000  17.750  6.7593e-03
7.000  18.000  5.8764e-03
7.000  18.250  5.4083e-03
7.000  18.500  5.1446e-03
7.000  18.750  5.0323e-03
7.000  19.000  4.9755e-03
7.000  19.250  4.9441e-03
7.000  19.500  4.9320e-03
7.000  19.750  4.9272e-03
7.000  20.000  4.9251e-03
7.000  20.250  4.9242e-03
7.000  20.500  4.9238e-03
7.000  20.750  4.9235e-03
7.000  21.000  4.9235e-03
7.000  21.250  4.9234e-03
7.000  21.500  4.9234e-03
7.000  21.750  4.9234e-03
7.000  22.000  4.9234e-03
7.000  22.250  4.9234e-03
7.000  22.500  4.9234e-03
7.000  22.750  4.9234e-03
7.000  23.000  4.9234e-03
7.000  23.250  4.9234e-03
7.000  23.500  4.9234e-03
7.000  23.750  4.9234e-03
7.000  24.000  4.9234e-03
7.250  17.000  2.5424e-02
7.250  17.250  1.7534e-02
7.250  17.500  1.2080e-02
7.250  17.750  8.5649e-03
7.250  18.000  6.7572e-03
7.250  18.250  5.8760e-03
7.250  18.500  5.4082e-03
7.250  18.750  5.1446e-03
7.250  19.000  5.0323e-03
7.250  19.250  4.9755e-03
7.250  19.500  4.9441e-03
7.250  19.750  4.9320e-03
7.250  20.000  4.9272e-03
7.250  20.250  4.9251e-03
7.250  20.500  4.9242e-03
7.250  20.750  4.9237e-03
7.250  21.000  4.9235e-03
7.250  21.250  4.9234e-03
7.250  21.500  4.9233e-03
7.250  21.750  4.9233e-03
7.250  22.000  4.9238e-03
7.250  22.250  4.9233e-03
7.250  22.500  4.9234e-03
7.250  22.750  4.9234e-03
7.250  23.000  4.9234e-03
7.250  23.250  4.9235e-03
7.250  23.500  4.9234e-03
7.250  23.750  4.9235e-03
7.250  24.000  4.9234e-03
7.500  17.000  2.6903e-02
7.500  17.250  2.5497e-02
7.500  17.500  1.7522e-02
7.500  17.750  1.2073e-02
7.500  18.000  8.5607e-03
7.500  18.250  6.7547e-03
7.500  18.500  5.8754e-03
7.500  18.750  5.4081e-03
7.500  19.000  5.1446e-03
7.500  19.250  5.0323e-03
7.500  19.500  4.9755e-03
7.500  19.750  4.9441e-03
7.500  20.000  4.9320e-03
7.500  20.250  4.9272e-03
7.500  20.500  4.9251e-03
7.500  20.750  4.9242e-03
7.500  21.000  4.9237e-03
7.500  21.250  4.9235e-03
7.500  21.500  4.9234e-03
7.500  21.750  4.9233e-03
7.500  22.000  4.9233e-03
7.500  22.250  4.9233e-03
7.500  22.500  4.9233e-03
7.500  22.750  4.9233e-03
7.500  23.000  4.9233e-03
7.500  23.250  4.9233e-03
7.500  23.500  4.9233e-03
7.500  23.750  4.9233e-03
7.500  24.000  4.9233e-03
7.750  17.000  2.8034e-02
7.750  17.250  2.7161e-02
7.750  17.500  2.5546e-02
7.750  17.750  1.7513e-02
7.750  18.000  1.2068e-02
7.750  18.250  8.5565e-03
7.750  18.500  6.7519e-03
7.750  18.750  5.8747e-03
7.750  19.000  5.4081e-03
7.750  19.250  5.1445e-03
7.750  19.500  5.0323e-03
7.750  19.750  4.9755e-03
7.750  20.000  4.9441e-03
7.750  20.250  4.9320e-03
7.750  20.500  4.9272e-03
7.750  20.750  4.9251e-03
7.750  21.000  4.9242e-03
7.750  21.250  4.9237e-03
7.750  21.500  4.9235e-03
7.750  21.750  4.9234e-03
7.750  22.000  4.9233e-03
7.750  22.250  4.9232e-03
7.750  22.500  4.9233e-03
7.750  22.750  4.9232e-03
7.750  23.000  4.9233e-03
7.750  23.250  4.9232e-03
7.750  23.500  4.9232e-03
7.750  23.750  4.9232e-03
7.750  24.000  4.9232e-03
8.000  17.000  2.8212e-02
8.000  17.250  2.8160e-02
8.000  17.500  2.7126e-02
8.000  17.750  2.5376e-02
8.000  18.000  1.7496e-02
8.000  18.250  1.2065e-02
8.000  18.500  8.5518e-03
8.000  18.750  6.7485e-03
8.000  19.000  5.8737e-03
8.000  19.250  5.4079e-03
8.000  19.500  5.1445e-03
8.000  19.750  5.0323e-03
8.000  20.000  4.9755e-03
8.000  20.250  4.9441e-03
8.000  20.500  4.9320e-03
8.000  20.750  4.9272e-03
8.000  21.000  4.9251e-03
8.000  21.250  4.9242e-03
8.000  21.500  4.9237e-03
8.000  21.750  4.9235e-03
8.000  22.000  4.9234e-03
8.000  22.250  4.9233e-03
8.000  22.500  4.9232e-03
8.000  22.750  4.9232e-03
8.000  23.000  4.9232e-03
8.000  23.250  4.9232e-03
8.000  23.500  4.9232e-03
8.000  23.750  4.9232e-03
8.000  24.000  4.9237e-03
8.250  17.000  2.8582e-02
8.250  17.250  2.8694e-02
8.250  17.500  2.8620e-02
8.250  17.750  2.7378e-02
8.250  18.000  2.5418e-02
8.250  18.250  1.7493e-02
8.250  18.500  1.2062e-02
8.250  18.750  8.5469e-03
8.250  19.000  6.7447e-03
8.250  19.250  5.8728e-03
8.250  19.500  5.4077e-03
8.250  19.750  5.1444e-03
8.250  20.000  5.0323e-03
8.250  20.250  4.9755e-03
8.250  20.500  4.9441e-03
8.250  20.750  4.9320e-03
8.250  21.000  4.9272e-03
8.250  21.250  4.9251e-03
8.250  21.500  4.9242e-03
8.250  21.750  4.9237e-03
8.250  22.000  4.9235e-03
8.250  22.250  4.9234e-03
8.250  22.500  4.9233e-03
8.250  22.750  4.9233e-03
8.250  23.000  4.9234e-03
8.250  23.250  4.9232e-03
8.250  23.500  4.9232e-03
8.250  23.750  4.9232e-03
8.250  24.000  4.9232e-03
8.500  17.000  2.9048e-02
8.500  17.250  2.9118e-02
8.500  17.500  2.9326e-02
8.500  17.750  2.9295e-02
8.500  18.000  2.7808e-02
8.500  18.250  2.5528e-02
8.500  18.500  1.7493e-02
8.500  18.750  1.2061e-02
8.500  19.000  8.5412e-03
8.500  19.250  6.7404e-03
8.500  19.500  5.8715e-03
8.500  19.750  5.4076e-03
8.500  20.000  5.1444e-03
8.500  20.250  5.0323e-03
8.500  20.500  4.9755e-03
8.500  20.750  4.9441e-03
8.500  21.000  4.9320e-03
8.500  21.250  4.9272e-03
8.500  21.500  4.9251e-03
8.500  21.750  4.9242e-03
8.500  22.000  4.9237e-03
8.500  22.250  4.9235e-03
8.500  22.500  4.9234e-03
8.500  22.750  4.9235e-03
8.500  23.000  4.9232e-03
8.500  23.250  4.9232e-03
8.500  23.500  4.9232e-03
8.500  23.750  4.9232e-03
8.500  24.000  4.9232e-03
8.750  17.000  2.9554e-02
8.750  17.250  2.9653e-02
8.750  17.500  2.9922e-02
8.750  17.750  3.0386e-02
8.750  18.000  3.0390e-02
8.750  18.250  2.8596e-02
8.750  18.500  2.5724e-02
8.750  18.750  1.7494e-02
8.750  19.000  1.2060e-02
8.750  19.250  8.5353e-03
8.750  19.500  6.7357e-03
8.750  19.750  5.8703e-03
8.750  20.000  5.4074e-03
8.750  20.250  5.1444e-03
8.750  20.500  5.0323e-03
8.750  20.750  4.9755e-03
8.750  21.000  4.9441e-03
8.750  21.250  4.9320e-03
8.750  21.500  4.9272e-03
8.750  21.750  4.9251e-03
8.750  22.000  4.9242e-03
8.750  22.250  4.9237e-03
8.750  22.500  4.9235e-03
8.750  22.750  4.9234e-03
8.750  23.000  4.9233e-03
8.750  23.250  4.9232e-03
8.750  23.500  4.9232e-03
8.750  23.750  4.9232e-03
8.750  24.000  4.9232e-03
9.000  17.000  3.0036e-02
9.000  17.250  3.0242e-02
9.000  17.500  3.0656e-02
9.000  17.750  3.1390e-02
9.000  18.000  3.2391e-02
9.000  18.250  3.2589e-02
9.000  18.500  3.0133e-02
9.000  18.750  2.6249e-02
9.000  19.000  1.7494e-02
9.000  19.250  1.2060e-02
9.000  19.500  8.5296e-03
9.000  19.750  6.7309e-03
9.000  20.000  5.8690e-03
9.000  20.250  5.4072e-03
9.000  20.500  5.1443e-03
9.000  20.750  5.0323e-03
9.000  21.000  4.9755e-03
9.000  21.250  4.9441e-03
9.000  21.500  4.9320e-03
9.000  21.750  4.9272e-03
9.000  22.000  4.9251e-03
9.000  22.250  4.9242e-03
9.000  22.500  4.9237e-03
9.000  22.750  4.9235e-03
9.000  23.000  4.9234e-03
9.000  23.250  4.9233e-03
9.000  23.500  4.9232e-03
9.000  23.750  4.9232e-03
9.000  24.000  4.9234e-03
9.250  17.000  3.0468e-02
9.250  17.250  3.0824e-02
9.250  17.500  3.1522e-02
9.250  17.750  3.2697e-02
9.250  18.000  3.4468e-02
9.250  18.250  3.6325e-02
9.250  18.500  3.6347e-02
9.250  18.750  3.3066e-02
9.250  19.000  2.6267e-02
9.250  19.250  1.7490e-02
9.250  19.500  1.2062e-02
9.250  19.750  8.5248e-03
9.250  20.000  6.7263e-03
9.250  20.250  5.8677e-03
9.250  20.500  5.4070e-03
9.250  20.750  5.1443e-03
9.250  21.000  5.0323e-03
9.250  21.250  4.9755e-03
9.250  21.500  4.9434e-03
9.250  21.750  4.9311e-03
9.250  22.000  4.9262e-03
9.250  22.250  4.9243e-03
9.250  22.500  4.9240e-03
9.250  22.750  4.9236e-03
9.250  23.000  4.9235e-03
9.250  23.250  4.9233e-03
9.250  23.500  4.9232e-03
9.250  23.750  4.9232e-03
9.250  24.000  4.9232e-03
9.500  17.000  3.0943e-02
9.500  17.250  3.1451e-02
9.500  17.500  3.2474e-02
9.500  17.750  3.4272e-02
9.500  18.000  3.7024e-02
9.500  18.250  4.0399e-02
9.500  18.500  4.2665e-02
9.500  18.750  4.1593e-02
9.500  19.000  3.6596e-02
9.500  19.250  2.6307e-02
9.500  19.500  1.7482e-02
9.500  19.750  1.2066e-02
9.500  20.000  8.5214e-03
9.500  20.250  6.7223e-03
9.500  20.500  5.8666e-03
9.500  20.750  5.4066e-03
9.500  21.000  5.1434e-03
9.500  21.250  5.0314e-03
9.500  21.500  4.9746e-03
9.500  21.750  4.9429e-03
9.500  22.000  4.9305e-03
9.500  22.250  4.9257e-03
9.500  22.500  4.9236e-03
9.500  22.750  4.9227e-03
9.500  23.000  4.9222e-03
9.500  23.250  4.9220e-03
9.500  23.500  4.9220e-03
9.500  23.750  4.9219e-03
9.500  24.000  4.9219e-03
9.750  17.000  3.1436e-02
9.750  17.250  3.2083e-02
9.750  17.500  3.3480e-02
9.750  17.750  3.6063e-02
9.750  18.000  4.0270e-02
9.750  18.250  4.5293e-02
9.750  18.500  4.9303e-02
9.750  18.750  5.0555e-02
9.750  19.000  4.7516e-02
9.750  19.250  4.0561e-02
9.750  19.500  2.6335e-02
9.750  19.750  1.7464e-02
9.750  20.000  1.2070e-02
9.750  20.250  8.5200e-03
9.750  20.500  6.7192e-03
9.750  20.750  5.8657e-03
9.750  21.000  5.4065e-03
9.750  21.250  5.1435e-03
9.750  21.500  5.0314e-03
9.750  21.750  4.9746e-03
9.750  22.000  4.9430e-03
9.750  22.250  4.9305e-03
9.750  22.500  4.9257e-03
9.750  22.750  4.9236e-03
9.750  23.000  4.9226e-03
9.750  23.250  4.9222e-03
9.750  23.500  4.9220e-03
9.750  23.750  4.9218e-03
9.750  24.000  4.9218e-03
10.000  17.000  3.1946e-02
10.000  17.250  3.2846e-02
10.000  17.500  3.4699e-02
10.000  17.750  3.8286e-02
10.000  18.000  4.4298e-02
10.000  18.250  5.1053e-02
10.000  18.500  5.6492e-02
10.000  18.750  5.9498e-02
10.000  19.000  5.9146e-02
10.000  19.250  5.3963e-02
10.000  19.500  4.2357e-02
10.000  19.750  2.6314e-02
10.000  20.000  1.7449e-02
10.000  20.250  1.2074e-02
10.000  20.500  8.5196e-03
10.000  20.750  6.7166e-03
10.000  21.000  5.8650e-03
10.000  21.250  5.4063e-03
10.000  21.500  5.1438e-03
10.000  21.750  5.0316e-03
10.000  22.000  4.9747e-03
10.000  22.250  4.9432e-03
10.000  22.500  4.9307e-03
10.000  22.750  4.9256e-03
10.000  23.000  4.9237e-03
10.000  23.250  4.9227e-03
10.000  23.500  4.9222e-03
10.000  23.750  4.9220e-03
10.000  24.000  4.9218e-03
10.250  17.000  3.2938e-02
10.250  17.250  3.3813e-02
10.250  17.500  3.6367e-02
10.250  17.750  4.1232e-02
10.250  18.000  4.9033e-02
10.250  18.250  5.7349e-02
10.250  18.500  6.3960e-02
10.250  18.750  6.8243e-02
10.250  19.000  6.9705e-02
10.250  19.250  6.7802e-02
10.250  19.500  6.1003e-02
10.250  19.750  4.2194e-02
10.250  20.000  2.6234e-02
10.250  20.250  1.7406e-02
10.250  20.500  1.2074e-02
10.250  20.750  8.5202e-03
10.250  21.000  6.7150e-03
10.250  21.250  5.8647e-03
10.250  21.500  5.4063e-03
10.250  21.750  5.1439e-03
10.250  22.000  5.0320e-03
10.250  22.250  4.9747e-03
10.250  22.500  4.9432e-03
10.250  22.750  4.9309e-03
10.250  23.000  4.9258e-03
10.250  23.250  4.9236e-03
10.250  23.500  4.9227e-03
10.250  23.750  4.9222e-03
10.250  24.000  4.9220e-03
10.500  17.000  3.4638e-02
10.500  17.250  3.5506e-02
10.500  17.500  3.8724e-02
10.500  17.750  4.5316e-02
10.500  18.000  5.4666e-02
10.500  18.250  6.4303e-02
10.500  18.500  7.1533e-02
10.500  18.750  7.6426e-02
10.500  19.000  7.9159e-02
10.500  19.250  7.8915e-02
10.500  19.500  7.5238e-02
10.500  19.750  6.5480e-02
10.500  20.000  4.2089e-02
10.500  20.250  2.6117e-02
10.500  20.500  1.7352e-02
10.500  20.750  1.2063e-02
10.500  21.000  8.5207e-03
10.500  21.250  6.7140e-03
10.500  21.500  5.8647e-03
10.500  21.750  5.4062e-03
10.500  22.000  5.1438e-03
10.500  22.250  5.0322e-03
10.500  22.500  4.9750e-03
10.500  22.750  4.9433e-03
10.500  23.000  4.9310e-03
10.500  23.250  4.9260e-03
10.500  23.500  4.9238e-03
10.500  23.750  4.9227e-03
10.500  24.000  4.9222e-03
10.750  17.000  3.7262e-02
10.750  17.250  3.8123e-02
10.750  17.500  4.2366e-02
10.750  17.750  5.0543e-02
10.750  18.000  6.1160e-02
10.750  18.250  7.1133e-02
10.750  18.500  7.8799e-02
10.750  18.750  8.4858e-02
10.750  19.000  8.8048e-02
10.750  19.250  8.9112e-02
10.750  19.500  8.7745e-02
10.750  19.750  8.2734e-02
10.750  20.000  7.0215e-02
10.750  20.250  4.1943e-02
10.750  20.500  2.5961e-02
10.750  20.750  1.7280e-02
10.750  21.000  1.2038e-02
10.750  21.250  8.5196e-03
10.750  21.500  6.7140e-03
10.750  21.750  5.8649e-03
10.750  22.000  5.4061e-03
10.750  22.250  5.1437e-03
10.750  22.500  5.0322e-03
10.750  22.750  4.9753e-03
10.750  23.000  4.9433e-03
10.750  23.250  4.9311e-03
10.750  23.500  4.9262e-03
10.750  23.750  4.9240e-03
10.750  24.000  4.9230e-03
11.000  17.000  4.1009e-02
11.000  17.250  4.1745e-02
11.000  17.500  4.7036e-02
11.000  17.750  5.6708e-02
11.000  18.000  6.7953e-02
11.000  18.250  7.8006e-02
11.000  18.500  8.6370e-02
11.000  18.750  9.2416e-02
11.000  19.000  9.6417e-02
11.000  19.250  9.8187e-02
11.000  19.500  9.8380e-02
11.000  19.750  9.6091e-02
11.000  20.000  9.0713e-02
11.000  20.250  7.1258e-02
11.000  20.500  4.1645e-02
11.000  20.750  2.5789e-02
11.000  21.000  1.7222e-02
11.000  21.250  1.1990e-02
11.000  21.500  8.5156e-03
11.000  21.750  6.7142e-03
11.000  22.000  5.8653e-03
11.000  22.250  5.4059e-03
11.000  22.500  5.1435e-03
11.000  22.750  5.0321e-03
11.000  23.000  4.9754e-03
11.000  23.250  4.9435e-03
11.000  23.500  4.9311e-03
11.000  23.750  4.9263e-03
11.000  24.000  4.9241e-03
11.250  17.000  4.6071e-02
11.250  17.250  4.6344e-02
11.250  17.500  5.2412e-02
11.250  17.750  6.3192e-02
11.250  18.000  7.4887e-02
11.250  18.250  8.4909e-02
11.250  18.500  9.2973e-02
11.250  18.750  9.9725e-02
11.250  19.000  1.0409e-01
11.250  19.250  1.0665e-01
11.250  19.500  1.0761e-01
11.250  19.750  1.0690e-01
11.250  20.000  1.0411e-01
11.250  20.250  9.8084e-02
11.250  20.500  7.1697e-02
11.250  20.750  4.1505e-02
11.250  21.000  2.5648e-02
11.250  21.250  1.7243e-02
11.250  21.500  1.1915e-02
11.250  21.750  8.5035e-03
11.250  22.000  6.7142e-03
11.250  22.250  5.8655e-03
11.250  22.500  5.4058e-03
11.250  22.750  5.1432e-03
11.250  23.000  5.0320e-03
11.250  23.250  4.9754e-03
11.250  23.500  4.9438e-03
11.250  23.750  4.9312e-03
11.250  24.000  4.9263e-03
11.500  17.000  5.3005e-02
11.500  17.250  5.2336e-02
11.500  17.500  5.8458e-02
11.500  17.750  6.9727e-02
11.500  18.000  8.1686e-02
11.500  18.250  9.1650e-02
11.500  18.500  9.9605e-02
11.500  18.750  1.0641e-01
11.500  19.000  1.1124e-01
11.500  19.250  1.1458e-01
11.500  19.500  1.1593e-01
11.500  19.750  1.1614e-01
11.500  20.000  1.1497e-01
11.500  20.250  1.1181e-01
11.500  20.500  1.0510e-01
11.500  20.750  7.1344e-02
11.500  21.000  4.1290e-02
11.500  21.250  2.5633e-02
11.500  21.500  1.7418e-02
11.500  21.750  1.1823e-02
11.500  22.000  8.4814e-03
11.500  22.250  6.7135e-03
11.500  22.500  5.8655e-03
11.500  22.750  5.4055e-03
11.500  23.000  5.1428e-03
11.500  23.250  5.0319e-03
11.500  23.500  4.9753e-03
11.500  23.750  4.9440e-03
11.500  24.000  4.9313e-03
11.750  17.000  6.2649e-02
11.750  17.250  6.0123e-02
11.750  17.500  6.5412e-02
11.750  17.750  7.6390e-02
11.750  18.000  8.8212e-02
11.750  18.250  9.7951e-02
11.750  18.500  1.0616e-01
11.750  18.750  1.1281e-01
11.750  19.000  1.1826e-01
11.750  19.250  1.2181e-01
11.750  19.500  1.2380e-01
11.750  19.750  1.2421e-01
11.750  20.000  1.2387e-01
11.750  20.250  1.2237e-01
11.750  20.500  1.1907e-01
11.750  20.750  1.1079e-01
11.750  21.000  7.0995e-02
11.750  21.250  4.1168e-02
11.750  21.500  2.5877e-02
11.750  21.750  1.7702e-02
11.750  22.000  1.1719e-02
11.750  22.250  8.4486e-03
11.750  22.500  6.7109e-03
11.750  22.750  5.8648e-03
11.750  23.000  5.4048e-03
11.750  23.250  5.1421e-03
11.750  23.500  5.0337e-03
11.750  23.750  4.9752e-03
11.750  24.000  4.9440e-03
12.000  17.000  7.6156e-02
12.000  17.250  7.0492e-02
12.000  17.500  7.3650e-02
12.000  17.750  8.3190e-02
12.000  18.000  9.4143e-02
12.000  18.250  1.0398e-01
12.000  18.500  1.1267e-01
12.000  18.750  1.1975e-01
12.000  19.000  1.2531e-01
12.000  19.250  1.2905e-01
12.000  19.500  1.3109e-01
12.000  19.750  1.3176e-01
12.000  20.000  1.3143e-01
12.000  20.250  1.3065e-01
12.000  20.500  1.2903e-01
12.000  20.750  1.2580e-01
12.000  21.000  1.1632e-01
12.000  21.250  7.0553e-02
12.000  21.500  4.1313e-02
12.000  21.750  2.6330e-02
12.000  22.000  1.7685e-02
12.000  22.250  1.1616e-02
12.000  22.500  8.4053e-03
12.000  22.750  6.7050e-03
12.000  23.000  5.8627e-03
12.000  23.250  5.4033e-03
12.000  23.500  5.1412e-03
12.000  23.750  5.0310e-03
12.000  24.000  4.9750e-03
12.250  17.000  9.3511e-02
12.250  17.250  8.4321e-02
12.250  17.500  8.3611e-02
12.250  17.750  9.0200e-02
12.250  18.000  9.9832e-02
12.250  18.250  1.1009e-01
12.250  18.500  1.1950e-01
12.250  18.750  1.2719e-01
12.250  19.000  1.3277e-01
12.250  19.250  1.3626e-01
12.250  19.500  1.3816e-01
12.250  19.750  1.3872e-01
12.250  20.000  1.3829e-01
12.250  20.250  1.3742e-01
12.250  20.500  1.3652e-01
12.250  20.750  1.3523e-01
12.250  21.000  1.3235e-01
12.250  21.250  1.1678e-01
12.250  21.500  7.0502e-02
12.250  21.750  4.1594e-02
12.250  22.000  2.6867e-02
12.250  22.250  1.7400e-02
12.250  22.500  1.1499e-02
12.250  22.750  8.3509e-03
12.250  23.000  6.6939e-03
12.250  23.250  5.8584e-03
12.250  23.500  5.4007e-03
12.250  23.750  5.1398e-03
12.250  24.000  5.0303e-03
12.500  17.000  1.1253e-01
12.500  17.250  9.9948e-02
12.500  17.500  9.5346e-02
12.500  17.750  9.7995e-02
12.500  18.000  1.0594e-01
12.500  18.250  1.1617e-01
12.500  18.500  1.2627e-01
12.500  18.750  1.3458e-01
12.500  19.000  1.4038e-01
12.500  19.250  1.4361e-01
12.500  19.500  1.4499e-01
12.500  19.750  1.4529e-01
12.500  20.000  1.4478e-01
12.500  20.250  1.4374e-01
12.500  20.500  1.4247e-01
12.500  20.750  1.4175e-01
12.500  21.000  1.4151e-01
12.500  21.250  1.3839e-01
12.500  21.500  1.1726e-01
12.500  21.750  6.9809e-02
12.500  22.000  4.1846e-02
12.500  22.250  2.7192e-02
12.500  22.500  1.7088e-02
12.500  22.750  1.1360e-02
12.500  23.000  8.2838e-03
12.500  23.250  6.6752e-03
12.500  23.500  5.8500e-03
12.500  23.750  5.3959e-03
12.500  24.000  5.1375e-03
12.750  17.000  1.1678e-01
12.750  17.250  1.1555e-01
12.750  17.500  1.0708e-01
12.750  17.750  1.0702e-01
12.750  18.000  1.1358e-01
12.750  18.250  1.2301e-01
12.750  18.500  1.3294e-01
12.750  18.750  1.4179e-01
12.750  19.000  1.4787e-01
12.750  19.250  1.5126e-01
12.750  19.500  1.5253e-01
12.750  19.750  1.5225e-01
12.750  20.000  1.5098e-01
12.750  20.250  1.4929e-01
12.750  20.500  1.4776e-01
12.750  20.750  1.4695e-01
12.750  21.000  1.4721e-01
12.750  21.250  1.4778e-01
12.750  21.500  1.4279e-01
12.750  21.750  1.1456e-01
12.750  22.000  6.8865e-02
12.750  22.250  4.2159e-02
12.750  22.500  2.7165e-02
12.750  22.750  1.6769e-02
12.750  23.000  1.1194e-02
12.750  23.250  8.2052e-03
12.750  23.500  6.6484e-03
12.750  23.750  5.8348e-03
12.750  24.000  5.3875e-03
13.000  17.000  6.6725e-02
13.000  17.250  8.5834e-02
13.000  17.500  1.1689e-01
13.000  17.750  1.1905e-01
13.000  18.000  1.2338e-01
13.000  18.250  1.3119e-01
13.000  18.500  1.4032e-01
13.000  18.750  1.4868e-01
13.000  19.000  1.5477e-01
13.000  19.250  1.5816e-01
13.000  19.500  1.5894e-01
13.000  19.750  1.5794e-01
13.000  20.000  1.5633e-01
13.000  20.250  1.5467e-01
13.000  20.500  1.5349e-01
13.000  20.750  1.5227e-01
13.000  21.000  1.5261e-01
13.000  21.250  1.5379e-01
13.000  21.500  1.5260e-01
13.000  21.750  1.4727e-01
13.000  22.000  1.1149e-01
13.000  22.250  6.7339e-02
13.000  22.500  4.1883e-02
13.000  22.750  2.6591e-02
13.000  23.000  1.6378e-02
13.000  23.250  1.1002e-02
13.000  23.500  8.1086e-03
13.000  23.750  6.6052e-03
13.000  24.000  5.8086e-03
13.250  17.000  6.6841e-02
13.250  17.250  7.6897e-02
13.250  17.500  9.8745e-02
13.250  17.750  1.2016e-01
13.250  18.000  1.3686e-01
13.250  18.250  1.4217e-01
13.250  18.500  1.4904e-01
13.250  18.750  1.5622e-01
13.250  19.000  1.6169e-01
13.250  19.250  1.6467e-01
13.250  19.500  1.6539e-01
13.250  19.750  1.6426e-01
13.250  20.000  1.6230e-01
13.250  20.250  1.6015e-01
13.250  20.500  1.5821e-01
13.250  20.750  1.5720e-01
13.250  21.000  1.5671e-01
13.250  21.250  1.5783e-01
13.250  21.500  1.5794e-01
13.250  21.750  1.5930e-01
13.250  22.000  1.4742e-01
13.250  22.250  1.0548e-01
13.250  22.500  6.4835e-02
13.250  22.750  4.0585e-02
13.250  23.000  2.5677e-02
13.250  23.250  1.5949e-02
13.250  23.500  1.0779e-02
13.250  23.750  7.9901e-03
13.250  24.000  6.5391e-03
13.500  17.000  6.7098e-02
13.500  17.250  7.5296e-02
13.500  17.500  9.5712e-02
13.500  17.750  1.2263e-01
13.500  18.000  1.4362e-01
13.500  18.250  1.5712e-01
13.500  18.500  1.6103e-01
13.500  18.750  1.6576e-01
13.500  19.000  1.6971e-01
13.500  19.250  1.7233e-01
13.500  19.500  1.7207e-01
13.500  19.750  1.7047e-01
13.500  20.000  1.6830e-01
13.500  20.250  1.6580e-01
13.500  20.500  1.6334e-01
13.500  20.750  1.6126e-01
13.500  21.000  1.5979e-01
13.500  21.250  1.6082e-01
13.500  21.500  1.6044e-01
13.500  21.750  1.6132e-01
13.500  22.000  1.5966e-01
13.500  22.250  1.4227e-01
13.500  22.500  9.7589e-02
13.500  22.750  6.0736e-02
13.500  23.000  3.8109e-02
13.500  23.250  2.4479e-02
13.500  23.500  1.5409e-02
13.500  23.750  1.0464e-02
13.500  24.000  7.8351e-03
13.750  17.000  6.6731e-02
13.750  17.250  7.7216e-02
13.750  17.500  9.5157e-02
13.750  17.750  1.1552e-01
13.750  18.000  1.4987e-01
13.750  18.250  1.6640e-01
13.750  18.500  1.7619e-01
13.750  18.750  1.7865e-01
13.750  19.000  1.8034e-01
13.750  19.250  1.8119e-01
13.750  19.500  1.8050e-01
13.750  19.750  1.7842e-01
13.750  20.000  1.7547e-01
13.750  20.250  1.7248e-01
13.750  20.500  1.6958e-01
13.750  20.750  1.6688e-01
13.750  21.000  1.6446e-01
13.750  21.250  1.6304e-01
13.750  21.500  1.6205e-01
13.750  21.750  1.6360e-01
13.750  22.000  1.6550e-01
13.750  22.250  1.5976e-01
13.750  22.500  1.3242e-01
13.750  22.750  8.8311e-02
13.750  23.000  5.5321e-02
13.750  23.250  3.5523e-02
13.750  23.500  2.3050e-02
13.750  23.750  1.4713e-02
13.750  24.000  1.0101e-02
14.000  17.000  6.6998e-02
14.000  17.250  7.5982e-02
14.000  17.500  9.4999e-02
14.000  17.750  1.1440e-01
14.000  18.000  1.4289e-01
14.000  18.250  1.7787e-01
14.000  18.500  1.9015e-01
14.000  18.750  1.9524e-01
14.000  19.000  1.9358e-01
14.000  19.250  1.9228e-01
14.000  19.500  1.9093e-01
14.000  19.750  1.8810e-01
14.000  20.000  1.8456e-01
14.000  20.250  1.8061e-01
14.000  20.500  1.7709e-01
14.000  20.750  1.7379e-01
14.000  21.000  1.7088e-01
14.000  21.250  1.6878e-01
14.000  21.500  1.6668e-01
14.000  21.750  1.6800e-01
14.000  22.000  1.7109e-01
14.000  22.250  1.6995e-01
14.000  22.500  1.5360e-01
14.000  22.750  1.1905e-01
14.000  23.000  7.8050e-02
14.000  23.250  5.0024e-02
14.000  23.500  3.2652e-02
14.000  23.750  2.1439e-02
14.000  24.000  1.3862e-02
