InwT 1000.00A  relative to Inci 1215.00A scaled to 1215A.
Hden   Phi(H)  Eq_Width (A)
7.000  17.000  3.7075e-02
7.000  17.250  3.6874e-02
7.000  17.500  3.4603e-02
7.000  17.750  3.1787e-02
7.000  18.000  2.9148e-02
7.000  18.250  2.7396e-02
7.000  18.500  2.6250e-02
7.000  18.750  2.5669e-02
7.000  19.000  2.5361e-02
7.000  19.250  2.5186e-02
7.000  19.500  2.5111e-02
7.000  19.750  2.5079e-02
7.000  20.000  2.5066e-02
7.000  20.250  2.5059e-02
7.000  20.500  2.5056e-02
7.000  20.750  2.5054e-02
7.000  21.000  2.5053e-02
7.000  21.250  2.5053e-02
7.000  21.500  2.5053e-02
7.000  21.750  2.5053e-02
7.000  22.000  2.5053e-02
7.000  22.250  2.5053e-02
7.000  22.500  2.5053e-02
7.000  22.750  2.5053e-02
7.000  23.000  2.5053e-02
7.000  23.250  2.5053e-02
7.000  23.500  2.5053e-02
7.000  23.750  2.5053e-02
7.000  24.000  2.5053e-02
7.250  17.000  3.7761e-02
7.250  17.250  3.6317e-02
7.250  17.500  3.6643e-02
7.250  17.750  3.4495e-02
7.250  18.000  3.1733e-02
7.250  18.250  2.9118e-02
7.250  18.500  2.7381e-02
7.250  18.750  2.6245e-02
7.250  19.000  2.5667e-02
7.250  19.250  2.5360e-02
7.250  19.500  2.5186e-02
7.250  19.750  2.5111e-02
7.250  20.000  2.5079e-02
7.250  20.250  2.5066e-02
7.250  20.500  2.5059e-02
7.250  20.750  2.5056e-02
7.250  21.000  2.5054e-02
7.250  21.250  2.5053e-02
7.250  21.500  2.5053e-02
7.250  21.750  2.5052e-02
7.250  22.000  2.5055e-02
7.250  22.250  2.5052e-02
7.250  22.500  2.5053e-02
7.250  22.750  2.5053e-02
7.250  23.000  2.5053e-02
7.250  23.250  2.5054e-02
7.250  23.500  2.5053e-02
7.250  23.750  2.5054e-02
7.250  24.000  2.5053e-02
7.500  17.000  3.1257e-02
7.500  17.250  3.6096e-02
7.500  17.500  3.5685e-02
7.500  17.750  3.6514e-02
7.500  18.000  3.4441e-02
7.500  18.250  3.1706e-02
7.500  18.500  2.9100e-02
7.500  18.750  2.7372e-02
7.500  19.000  2.6241e-02
7.500  19.250  2.5665e-02
7.500  19.500  2.5360e-02
7.500  19.750  2.5186e-02
7.500  20.000  2.5111e-02
7.500  20.250  2.5079e-02
7.500  20.500  2.5065e-02
7.500  20.750  2.5059e-02
7.500  21.000  2.5056e-02
7.500  21.250  2.5054e-02
7.500  21.500  2.5053e-02
7.500  21.750  2.5053e-02
7.500  22.000  2.5052e-02
7.500  22.250  2.5052e-02
7.500  22.500  2.5052e-02
7.500  22.750  2.5052e-02
7.500  23.000  2.5052e-02
7.500  23.250  2.5052e-02
7.500  23.500  2.5052e-02
7.500  23.750  2.5052e-02
7.500  24.000  2.5052e-02
7.750  17.000  2.3485e-02
7.750  17.250  2.9322e-02
7.750  17.500  3.4620e-02
7.750  17.750  3.5181e-02
7.750  18.000  3.6445e-02
7.750  18.250  3.4421e-02
7.750  18.500  3.1697e-02
7.750  18.750  2.9090e-02
7.750  19.000  2.7366e-02
7.750  19.250  2.6239e-02
7.750  19.500  2.5664e-02
7.750  19.750  2.5360e-02
7.750  20.000  2.5186e-02
7.750  20.250  2.5111e-02
7.750  20.500  2.5079e-02
7.750  20.750  2.5065e-02
7.750  21.000  2.5059e-02
7.750  21.250  2.5056e-02
7.750  21.500  2.5054e-02
7.750  21.750  2.5053e-02
7.750  22.000  2.5052e-02
7.750  22.250  2.5052e-02
7.750  22.500  2.5052e-02
7.750  22.750  2.5052e-02
7.750  23.000  2.5052e-02
7.750  23.250  2.5052e-02
7.750  23.500  2.5052e-02
7.750  23.750  2.5052e-02
7.750  24.000  2.5052e-02
8.000  17.000  1.7185e-02
8.000  17.250  2.1202e-02
8.000  17.500  2.7578e-02
8.000  17.750  3.3368e-02
8.000  18.000  3.4785e-02
8.000  18.250  3.6411e-02
8.000  18.500  3.4425e-02
8.000  18.750  3.1700e-02
8.000  19.000  2.9085e-02
8.000  19.250  2.7363e-02
8.000  19.500  2.6238e-02
8.000  19.750  2.5664e-02
8.000  20.000  2.5359e-02
8.000  20.250  2.5186e-02
8.000  20.500  2.5111e-02
8.000  20.750  2.5079e-02
8.000  21.000  2.5065e-02
8.000  21.250  2.5059e-02
8.000  21.500  2.5056e-02
8.000  21.750  2.5054e-02
8.000  22.000  2.5053e-02
8.000  22.250  2.5052e-02
8.000  22.500  2.5052e-02
8.000  22.750  2.5052e-02
8.000  23.000  2.5052e-02
8.000  23.250  2.5052e-02
8.000  23.500  2.5052e-02
8.000  23.750  2.5052e-02
8.000  24.000  2.5054e-02
8.250  17.000  1.3036e-02
8.250  17.250  1.5353e-02
8.250  17.500  1.9713e-02
8.250  17.750  2.6504e-02
8.250  18.000  3.2579e-02
8.250  18.250  3.4532e-02
8.250  18.500  3.6392e-02
8.250  18.750  3.4443e-02
8.250  19.000  3.1711e-02
8.250  19.250  2.9083e-02
8.250  19.500  2.7361e-02
8.250  19.750  2.6237e-02
8.250  20.000  2.5663e-02
8.250  20.250  2.5359e-02
8.250  20.500  2.5186e-02
8.250  20.750  2.5111e-02
8.250  21.000  2.5079e-02
8.250  21.250  2.5065e-02
8.250  21.500  2.5059e-02
8.250  21.750  2.5056e-02
8.250  22.000  2.5054e-02
8.250  22.250  2.5053e-02
8.250  22.500  2.5052e-02
8.250  22.750  2.5052e-02
8.250  23.000  2.5053e-02
8.250  23.250  2.5052e-02
8.250  23.500  2.5052e-02
8.250  23.750  2.5052e-02
8.250  24.000  2.5052e-02
8.500  17.000  1.0289e-02
8.500  17.250  1.1578e-02
8.500  17.500  1.4125e-02
8.500  17.750  1.8692e-02
8.500  18.000  2.5821e-02
8.500  18.250  3.2071e-02
8.500  18.500  3.4356e-02
8.500  18.750  3.6385e-02
8.500  19.000  3.4472e-02
8.500  19.250  3.1727e-02
8.500  19.500  2.9084e-02
8.500  19.750  2.7360e-02
8.500  20.000  2.6236e-02
8.500  20.250  2.5663e-02
8.500  20.500  2.5359e-02
8.500  20.750  2.5185e-02
8.500  21.000  2.5111e-02
8.500  21.250  2.5079e-02
8.500  21.500  2.5066e-02
8.500  21.750  2.5059e-02
8.500  22.000  2.5056e-02
8.500  22.250  2.5054e-02
8.500  22.500  2.5053e-02
8.500  22.750  2.5053e-02
8.500  23.000  2.5052e-02
8.500  23.250  2.5052e-02
8.500  23.500  2.5052e-02
8.500  23.750  2.5052e-02
8.500  24.000  2.5052e-02
8.750  17.000  8.4844e-03
8.750  17.250  9.1993e-03
8.750  17.500  1.0654e-02
8.750  17.750  1.3348e-02
8.750  18.000  1.8139e-02
8.750  18.250  2.5517e-02
8.750  18.500  3.1756e-02
8.750  18.750  3.4246e-02
8.750  19.000  3.6379e-02
8.750  19.250  3.4508e-02
8.750  19.500  3.1747e-02
8.750  19.750  2.9085e-02
8.750  20.000  2.7359e-02
8.750  20.250  2.6236e-02
8.750  20.500  2.5663e-02
8.750  20.750  2.5359e-02
8.750  21.000  2.5186e-02
8.750  21.250  2.5111e-02
8.750  21.500  2.5079e-02
8.750  21.750  2.5065e-02
8.750  22.000  2.5059e-02
8.750  22.250  2.5056e-02
8.750  22.500  2.5054e-02
8.750  22.750  2.5053e-02
8.750  23.000  2.5052e-02
8.750  23.250  2.5052e-02
8.750  23.500  2.5052e-02
8.750  23.750  2.5052e-02
8.750  24.000  2.5052e-02
9.000  17.000  7.2742e-03
9.000  17.250  7.6970e-03
9.000  17.500  8.5444e-03
9.000  17.750  1.0122e-02
9.000  18.000  1.2997e-02
9.000  18.250  1.8083e-02
9.000  18.500  2.5722e-02
9.000  18.750  3.1554e-02
9.000  19.000  3.4160e-02
9.000  19.250  3.6367e-02
9.000  19.500  3.4543e-02
9.000  19.750  3.1769e-02
9.000  20.000  2.9087e-02
9.000  20.250  2.7358e-02
9.000  20.500  2.6236e-02
9.000  20.750  2.5663e-02
9.000  21.000  2.5359e-02
9.000  21.250  2.5185e-02
9.000  21.500  2.5111e-02
9.000  21.750  2.5079e-02
9.000  22.000  2.5065e-02
9.000  22.250  2.5059e-02
9.000  22.500  2.5056e-02
9.000  22.750  2.5054e-02
9.000  23.000  2.5053e-02
9.000  23.250  2.5052e-02
9.000  23.500  2.5052e-02
9.000  23.750  2.5052e-02
9.000  24.000  2.5053e-02
9.250  17.000  6.4272e-03
9.250  17.250  6.6989e-03
9.250  17.500  7.2465e-03
9.250  17.750  8.2285e-03
9.250  18.000  1.0022e-02
9.250  18.250  1.3229e-02
9.250  18.500  1.8790e-02
9.250  18.750  2.6658e-02
9.250  19.000  3.1386e-02
9.250  19.250  3.4081e-02
9.250  19.500  3.6347e-02
9.250  19.750  3.4574e-02
9.250  20.000  3.1790e-02
9.250  20.250  2.9089e-02
9.250  20.500  2.7358e-02
9.250  20.750  2.6235e-02
9.250  21.000  2.5663e-02
9.250  21.250  2.5359e-02
9.250  21.500  2.5181e-02
9.250  21.750  2.5107e-02
9.250  22.000  2.5074e-02
9.250  22.250  2.5061e-02
9.250  22.500  2.5058e-02
9.250  22.750  2.5055e-02
9.250  23.000  2.5054e-02
9.250  23.250  2.5053e-02
9.250  23.500  2.5052e-02
9.250  23.750  2.5052e-02
9.250  24.000  2.5052e-02
9.500  17.000  5.8210e-03
9.500  17.250  5.9898e-03
9.500  17.500  6.4007e-03
9.500  17.750  7.1157e-03
9.500  18.000  8.3170e-03
9.500  18.250  1.0403e-02
9.500  18.500  1.4100e-02
9.500  18.750  2.0401e-02
9.500  19.000  2.8107e-02
9.500  19.250  3.1230e-02
9.500  19.500  3.3992e-02
9.500  19.750  3.6317e-02
9.500  20.000  3.4595e-02
9.500  20.250  3.1808e-02
9.500  20.500  2.9091e-02
9.500  20.750  2.7357e-02
9.500  21.000  2.6231e-02
9.500  21.250  2.5659e-02
9.500  21.500  2.5355e-02
9.500  21.750  2.5179e-02
9.500  22.000  2.5103e-02
9.500  22.250  2.5072e-02
9.500  22.500  2.5058e-02
9.500  22.750  2.5051e-02
9.500  23.000  2.5048e-02
9.500  23.250  2.5046e-02
9.500  23.500  2.5046e-02
9.500  23.750  2.5046e-02
9.500  24.000  2.5045e-02
9.750  17.000  5.4333e-03
9.750  17.250  5.4578e-03
9.750  17.500  5.7765e-03
9.750  17.750  6.3779e-03
9.750  18.000  7.3319e-03
9.750  18.250  8.8305e-03
9.750  18.500  1.1335e-02
9.750  18.750  1.5651e-02
9.750  19.000  2.2659e-02
9.750  19.250  2.9149e-02
9.750  19.500  3.1097e-02
9.750  19.750  3.3890e-02
9.750  20.000  3.6278e-02
9.750  20.250  3.4601e-02
9.750  20.500  3.1822e-02
9.750  20.750  2.9093e-02
9.750  21.000  2.7357e-02
9.750  21.250  2.6232e-02
9.750  21.500  2.5659e-02
9.750  21.750  2.5355e-02
9.750  22.000  2.5180e-02
9.750  22.250  2.5103e-02
9.750  22.500  2.5072e-02
9.750  22.750  2.5058e-02
9.750  23.000  2.5051e-02
9.750  23.250  2.5048e-02
9.750  23.500  2.5046e-02
9.750  23.750  2.5045e-02
9.750  24.000  2.5045e-02
10.000  17.000  5.2772e-03
10.000  17.250  5.0991e-03
10.000  17.500  5.2690e-03
10.000  17.750  5.7962e-03
10.000  18.000  6.6937e-03
10.000  18.250  7.9350e-03
10.000  18.500  9.7710e-03
10.000  18.750  1.2776e-02
10.000  19.000  1.7904e-02
10.000  19.250  2.5205e-02
10.000  19.500  2.9342e-02
10.000  19.750  3.1029e-02
10.000  20.000  3.3782e-02
10.000  20.250  3.6238e-02
10.000  20.500  3.4600e-02
10.000  20.750  3.1833e-02
10.000  21.000  2.9094e-02
10.000  21.250  2.7357e-02
10.000  21.500  2.6233e-02
10.000  21.750  2.5660e-02
10.000  22.000  2.5355e-02
10.000  22.250  2.5181e-02
10.000  22.500  2.5104e-02
10.000  22.750  2.5072e-02
10.000  23.000  2.5058e-02
10.000  23.250  2.5052e-02
10.000  23.500  2.5048e-02
10.000  23.750  2.5046e-02
10.000  24.000  2.5045e-02
10.250  17.000  5.3813e-03
10.250  17.250  4.9634e-03
10.250  17.500  4.9407e-03
10.250  17.750  5.3537e-03
10.250  18.000  6.2077e-03
10.250  18.250  7.3472e-03
10.250  18.500  8.8559e-03
10.250  18.750  1.1142e-02
10.250  19.000  1.4931e-02
10.250  19.250  2.0582e-02
10.250  19.500  2.6933e-02
10.250  19.750  2.9456e-02
10.250  20.000  3.1046e-02
10.250  20.250  3.3752e-02
10.250  20.500  3.6210e-02
10.250  20.750  3.4590e-02
10.250  21.000  3.1839e-02
10.250  21.250  2.9095e-02
10.250  21.500  2.7357e-02
10.250  21.750  2.6234e-02
10.250  22.000  2.5661e-02
10.250  22.250  2.5355e-02
10.250  22.500  2.5181e-02
10.250  22.750  2.5105e-02
10.250  23.000  2.5072e-02
10.250  23.250  2.5058e-02
10.250  23.500  2.5051e-02
10.250  23.750  2.5048e-02
10.250  24.000  2.5046e-02
10.500  17.000  5.7054e-03
10.500  17.250  5.0889e-03
10.500  17.500  4.8467e-03
10.500  17.750  5.1057e-03
10.500  18.000  5.8354e-03
10.500  18.250  6.8858e-03
10.500  18.500  8.1974e-03
10.500  18.750  9.9353e-03
10.500  19.000  1.2425e-02
10.500  19.250  1.6359e-02
10.500  19.500  2.2289e-02
10.500  19.750  2.7562e-02
10.500  20.000  2.9566e-02
10.500  20.250  3.1189e-02
10.500  20.500  3.3852e-02
10.500  20.750  3.6255e-02
10.500  21.000  3.4578e-02
10.500  21.250  3.1842e-02
10.500  21.500  2.9095e-02
10.500  21.750  2.7357e-02
10.500  22.000  2.6234e-02
10.500  22.250  2.5662e-02
10.500  22.500  2.5357e-02
10.500  22.750  2.5181e-02
10.500  23.000  2.5106e-02
10.500  23.250  2.5073e-02
10.500  23.500  2.5059e-02
10.500  23.750  2.5051e-02
10.500  24.000  2.5048e-02
10.750  17.000  6.1881e-03
10.750  17.250  5.4354e-03
10.750  17.500  5.0335e-03
10.750  17.750  5.1217e-03
10.750  18.000  5.6385e-03
10.750  18.250  6.4455e-03
10.750  18.500  7.5215e-03
10.750  18.750  8.8105e-03
10.750  19.000  1.0544e-02
10.750  19.250  1.3243e-02
10.750  19.500  1.7606e-02
10.750  19.750  2.3792e-02
10.750  20.000  2.8117e-02
10.750  20.250  2.9827e-02
10.750  20.500  3.1530e-02
10.750  20.750  3.4203e-02
10.750  21.000  3.6392e-02
10.750  21.250  3.4572e-02
10.750  21.500  3.1841e-02
10.750  21.750  2.9094e-02
10.750  22.000  2.7357e-02
10.750  22.250  2.6234e-02
10.750  22.500  2.5663e-02
10.750  22.750  2.5359e-02
10.750  23.000  2.5181e-02
10.750  23.250  2.5107e-02
10.750  23.500  2.5074e-02
10.750  23.750  2.5060e-02
10.750  24.000  2.5053e-02
11.000  17.000  6.7688e-03
11.000  17.250  5.9395e-03
11.000  17.500  5.4505e-03
11.000  17.750  5.4089e-03
11.000  18.000  5.6820e-03
11.000  18.250  6.1494e-03
11.000  18.500  6.8662e-03
11.000  18.750  7.8379e-03
11.000  19.000  9.1219e-03
11.000  19.250  1.1013e-02
11.000  19.500  1.4019e-02
11.000  19.750  1.8795e-02
11.000  20.000  2.5113e-02
11.000  20.250  2.8518e-02
11.000  20.500  3.0404e-02
11.000  20.750  3.2148e-02
11.000  21.000  3.4909e-02
11.000  21.250  3.6684e-02
11.000  21.500  3.4590e-02
11.000  21.750  3.1837e-02
11.000  22.000  2.9093e-02
11.000  22.250  2.7357e-02
11.000  22.500  2.6234e-02
11.000  22.750  2.5663e-02
11.000  23.000  2.5359e-02
11.000  23.250  2.5182e-02
11.000  23.500  2.5107e-02
11.000  23.750  2.5075e-02
11.000  24.000  2.5060e-02
11.250  17.000  7.3701e-03
11.250  17.250  6.5252e-03
11.250  17.500  6.0040e-03
11.250  17.750  5.8909e-03
11.250  18.000  5.9649e-03
11.250  18.250  6.0954e-03
11.250  18.500  6.4025e-03
11.250  18.750  7.0447e-03
11.250  19.000  8.0246e-03
11.250  19.250  9.3856e-03
11.250  19.500  1.1462e-02
11.250  19.750  1.4770e-02
11.250  20.000  1.9922e-02
11.250  20.250  2.6278e-02
11.250  20.500  2.9042e-02
11.250  20.750  3.1061e-02
11.250  21.000  3.3177e-02
11.250  21.250  3.6143e-02
11.250  21.500  3.7197e-02
11.250  21.750  3.4654e-02
11.250  22.000  3.1830e-02
11.250  22.250  2.9091e-02
11.250  22.500  2.7357e-02
11.250  22.750  2.6233e-02
11.250  23.000  2.5663e-02
11.250  23.250  2.5360e-02
11.250  23.500  2.5184e-02
11.250  23.750  2.5107e-02
11.250  24.000  2.5075e-02
11.500  17.000  7.9046e-03
11.500  17.250  7.1265e-03
11.500  17.500  6.6149e-03
11.500  17.750  6.4599e-03
11.500  18.000  6.3960e-03
11.500  18.250  6.2820e-03
11.500  18.500  6.0257e-03
11.500  18.750  5.8229e-03
11.500  19.000  5.9471e-03
11.500  19.250  6.6715e-03
11.500  19.500  8.2696e-03
11.500  19.750  1.1015e-02
11.500  20.000  1.5180e-02
11.500  20.250  2.1040e-02
11.500  20.500  2.7374e-02
11.500  20.750  2.9843e-02
11.500  21.000  3.2217e-02
11.500  21.250  3.4844e-02
11.500  21.500  3.8155e-02
11.500  21.750  3.7795e-02
11.500  22.000  3.4783e-02
11.500  22.250  3.1823e-02
11.500  22.500  2.9088e-02
11.500  22.750  2.7357e-02
11.500  23.000  2.6233e-02
11.500  23.250  2.5663e-02
11.500  23.500  2.5360e-02
11.500  23.750  2.5185e-02
11.500  24.000  2.5107e-02
11.750  17.000  8.2271e-03
11.750  17.250  7.6306e-03
11.750  17.500  7.1958e-03
11.750  17.750  7.0307e-03
11.750  18.000  6.8940e-03
11.750  18.250  6.6578e-03
11.750  18.500  6.9943e-03
11.750  18.750  8.0074e-03
11.750  19.000  9.5956e-03
11.750  19.250  1.1657e-02
11.750  19.500  1.4090e-02
11.750  19.750  1.6793e-02
11.750  20.000  1.9664e-02
11.750  20.250  2.2601e-02
11.750  20.500  2.5503e-02
11.750  20.750  2.8268e-02
11.750  21.000  3.0974e-02
11.750  21.250  3.4055e-02
11.750  21.500  3.7365e-02
11.750  21.750  4.0734e-02
11.750  22.000  3.8470e-02
11.750  22.250  3.4971e-02
11.750  22.500  3.1819e-02
11.750  22.750  2.9085e-02
11.750  23.000  2.7357e-02
11.750  23.250  2.6233e-02
11.750  23.500  2.5674e-02
11.750  23.750  2.5360e-02
11.750  24.000  2.5185e-02
12.000  17.000  8.1319e-03
12.000  17.250  7.8574e-03
12.000  17.500  7.6060e-03
12.000  17.750  7.5067e-03
12.000  18.000  7.3773e-03
12.000  18.250  7.5846e-03
12.000  18.500  8.2138e-03
12.000  18.750  9.2287e-03
12.000  19.000  1.0593e-02
12.000  19.250  1.2272e-02
12.000  19.500  1.4227e-02
12.000  19.750  1.6424e-02
12.000  20.000  1.8827e-02
12.000  20.250  2.1398e-02
12.000  20.500  2.4103e-02
12.000  20.750  2.6905e-02
12.000  21.000  2.9767e-02
12.000  21.250  3.2871e-02
12.000  21.500  3.6787e-02
12.000  21.750  4.0725e-02
12.000  22.000  4.3011e-02
12.000  22.250  3.9102e-02
12.000  22.500  3.5203e-02
12.000  22.750  3.1820e-02
12.000  23.000  2.9081e-02
12.000  23.250  2.7358e-02
12.000  23.500  2.6232e-02
12.000  23.750  2.5663e-02
12.000  24.000  2.5360e-02
12.250  17.000  7.5354e-03
12.250  17.250  7.6365e-03
12.250  17.500  7.6840e-03
12.250  17.750  7.7681e-03
12.250  18.000  7.7275e-03
12.250  18.250  7.4886e-03
12.250  18.500  7.1180e-03
12.250  18.750  6.7235e-03
12.250  19.000  6.4044e-03
12.250  19.250  6.2980e-03
12.250  19.500  6.2043e-03
12.250  19.750  6.3821e-03
12.250  20.000  7.2380e-03
12.250  20.250  9.1789e-03
12.250  20.500  1.2611e-02
12.250  20.750  1.7942e-02
12.250  21.000  2.5083e-02
12.250  21.250  3.1653e-02
12.250  21.500  3.5454e-02
12.250  21.750  4.0147e-02
12.250  22.000  4.4580e-02
12.250  22.250  4.4665e-02
12.250  22.500  3.9780e-02
12.250  22.750  3.5466e-02
12.250  23.000  3.1830e-02
12.250  23.250  2.9077e-02
12.250  23.500  2.7358e-02
12.250  23.750  2.6231e-02
12.250  24.000  2.5662e-02
12.500  17.000  6.7741e-03
12.500  17.250  7.0965e-03
12.500  17.500  7.4138e-03
12.500  17.750  7.6798e-03
12.500  18.000  7.7686e-03
12.500  18.250  7.6463e-03
12.500  18.500  7.3642e-03
12.500  18.750  7.0052e-03
12.500  19.000  6.6261e-03
12.500  19.250  6.3172e-03
12.500  19.500  6.3009e-03
12.500  19.750  6.7473e-03
12.500  20.000  7.8036e-03
12.500  20.250  9.6172e-03
12.500  20.500  1.2335e-02
12.500  20.750  1.6106e-02
12.500  21.000  2.1075e-02
12.500  21.250  2.7391e-02
12.500  21.500  3.4201e-02
12.500  21.750  3.8854e-02
12.500  22.000  4.4508e-02
12.500  22.250  4.8368e-02
12.500  22.500  4.6346e-02
12.500  22.750  4.0520e-02
12.500  23.000  3.5749e-02
12.500  23.250  3.1851e-02
12.500  23.500  2.9073e-02
12.500  23.750  2.7357e-02
12.500  24.000  2.6230e-02
12.750  17.000  6.0373e-03
12.750  17.250  6.4752e-03
12.750  17.500  6.8810e-03
12.750  17.750  7.2146e-03
12.750  18.000  7.4496e-03
12.750  18.250  7.5300e-03
12.750  18.500  7.4303e-03
12.750  18.750  7.1944e-03
12.750  19.000  6.8674e-03
12.750  19.250  6.5128e-03
12.750  19.500  6.2176e-03
12.750  19.750  6.2907e-03
12.750  20.000  6.9201e-03
12.750  20.250  8.2456e-03
12.750  20.500  1.0407e-02
12.750  20.750  1.3545e-02
12.750  21.000  1.7799e-02
12.750  21.250  2.3308e-02
12.750  21.500  3.0214e-02
12.750  21.750  3.7699e-02
12.750  22.000  4.3216e-02
12.750  22.250  4.9357e-02
12.750  22.500  5.1994e-02
12.750  22.750  4.7885e-02
12.750  23.000  4.1326e-02
12.750  23.250  3.6007e-02
12.750  23.500  3.1867e-02
12.750  23.750  2.9070e-02
12.750  24.000  2.7357e-02
13.000  17.000  5.3274e-03
13.000  17.250  5.8442e-03
13.000  17.500  6.2355e-03
13.000  17.750  6.6032e-03
13.000  18.000  6.9428e-03
13.000  18.250  7.1933e-03
13.000  18.500  7.2877e-03
13.000  18.750  7.2172e-03
13.000  19.000  7.0121e-03
13.000  19.250  6.7126e-03
13.000  19.500  6.3742e-03
13.000  19.750  6.1048e-03
13.000  20.000  6.3392e-03
13.000  20.250  7.2780e-03
13.000  20.500  9.0367e-03
13.000  20.750  1.1731e-02
13.000  21.000  1.5475e-02
13.000  21.250  2.0385e-02
13.000  21.500  2.6577e-02
13.000  21.750  3.4166e-02
13.000  22.000  4.2120e-02
13.000  22.250  4.7485e-02
13.000  22.500  5.3700e-02
13.000  22.750  5.5327e-02
13.000  23.000  4.9596e-02
13.000  23.250  4.2097e-02
13.000  23.500  3.6261e-02
13.000  23.750  3.1899e-02
13.000  24.000  2.9069e-02
13.250  17.000  4.8726e-03
13.250  17.250  5.3105e-03
13.250  17.500  5.6956e-03
13.250  17.750  6.0402e-03
13.250  18.000  6.4128e-03
13.250  18.250  6.7589e-03
13.250  18.500  6.9897e-03
13.250  18.750  7.0662e-03
13.250  19.000  6.9999e-03
13.250  19.250  6.8139e-03
13.250  19.500  6.5413e-03
13.250  19.750  6.8918e-03
13.250  20.000  8.0173e-03
13.250  20.250  9.8714e-03
13.250  20.500  1.2408e-02
13.250  20.750  1.5582e-02
13.250  21.000  1.9345e-02
13.250  21.250  2.3653e-02
13.250  21.500  2.8459e-02
13.250  21.750  3.3717e-02
13.250  22.000  3.9381e-02
13.250  22.250  4.5404e-02
13.250  22.500  5.1741e-02
13.250  22.750  5.7610e-02
13.250  23.000  5.8672e-02
13.250  23.250  5.1057e-02
13.250  23.500  4.2754e-02
13.250  23.750  3.6486e-02
13.250  24.000  3.1945e-02
13.500  17.000  4.4449e-03
13.500  17.250  4.8570e-03
13.500  17.500  5.2292e-03
13.500  17.750  5.5525e-03
13.500  18.000  5.9190e-03
13.500  18.250  6.2970e-03
13.500  18.500  6.6035e-03
13.500  18.750  6.7844e-03
13.500  19.000  6.8346e-03
13.500  19.250  6.7644e-03
13.500  19.500  6.5921e-03
13.500  19.750  6.3484e-03
13.500  20.000  6.8877e-03
13.500  20.250  8.3685e-03
13.500  20.500  1.0704e-02
13.500  20.750  1.3807e-02
13.500  21.000  1.7590e-02
13.500  21.250  2.1967e-02
13.500  21.500  2.6851e-02
13.500  21.750  3.2154e-02
13.500  22.000  3.7790e-02
13.500  22.250  4.3672e-02
13.500  22.500  4.9713e-02
13.500  22.750  5.5825e-02
13.500  23.000  6.1381e-02
13.500  23.250  6.2094e-02
13.500  23.500  5.2556e-02
13.500  23.750  4.3660e-02
13.500  24.000  3.6686e-02
13.750  17.000  3.9984e-03
13.750  17.250  4.4500e-03
13.750  17.500  4.8098e-03
13.750  17.750  5.1173e-03
13.750  18.000  5.4662e-03
13.750  18.250  5.8489e-03
13.750  18.500  6.1872e-03
13.750  18.750  6.4274e-03
13.750  19.000  6.5608e-03
13.750  19.250  6.5923e-03
13.750  19.500  6.5267e-03
13.750  19.750  6.3774e-03
13.750  20.000  6.1762e-03
13.750  20.250  5.9716e-03
13.750  20.500  5.8411e-03
13.750  20.750  6.3842e-03
13.750  21.000  7.8592e-03
13.750  21.250  1.0396e-02
13.750  21.500  1.4124e-02
13.750  21.750  1.9175e-02
13.750  22.000  2.5676e-02
13.750  22.250  3.3759e-02
13.750  22.500  4.3553e-02
13.750  22.750  5.3936e-02
13.750  23.000  6.0950e-02
13.750  23.250  6.6301e-02
13.750  23.500  6.5648e-02
13.750  23.750  5.4200e-02
13.750  24.000  4.4232e-02
14.000  17.000  3.5241e-03
14.000  17.250  4.0143e-03
14.000  17.500  4.4115e-03
14.000  17.750  4.7100e-03
14.000  18.000  5.0427e-03
14.000  18.250  5.4157e-03
14.000  18.500  5.7666e-03
14.000  18.750  6.0400e-03
14.000  19.000  6.2253e-03
14.000  19.250  6.3292e-03
14.000  19.500  6.3579e-03
14.000  19.750  6.3119e-03
14.000  20.000  6.2008e-03
14.000  20.250  6.0561e-03
14.000  20.500  5.9335e-03
14.000  20.750  5.9053e-03
14.000  21.000  6.0951e-03
14.000  21.250  6.6961e-03
14.000  21.500  7.8438e-03
14.000  21.750  1.0005e-02
14.000  22.000  1.3746e-02
14.000  22.250  2.0341e-02
14.000  22.500  3.2392e-02
14.000  22.750  5.0013e-02
14.000  23.000  6.0650e-02
14.000  23.250  6.7989e-02
14.000  23.500  7.2226e-02
14.000  23.750  6.9439e-02
14.000  24.000  5.5634e-02
