InwC 7000.00A  relative to Inci 1215.00A scaled to 1215A.
Hden   Phi(H)  Eq_Width (A)
7.000  17.000  8.5370e-03
7.000  17.250  8.8087e-03
7.000  17.500  8.8127e-03
7.000  17.750  8.8167e-03
7.000  18.000  8.8211e-03
7.000  18.250  8.8251e-03
7.000  18.500  8.8275e-03
7.000  18.750  8.8286e-03
7.000  19.000  8.8296e-03
7.000  19.250  8.8304e-03
7.000  19.500  8.8306e-03
7.000  19.750  8.8308e-03
7.000  20.000  8.8309e-03
7.000  20.250  8.8309e-03
7.000  20.500  8.8309e-03
7.000  20.750  8.8309e-03
7.000  21.000  8.8310e-03
7.000  21.250  8.8310e-03
7.000  21.500  8.8311e-03
7.000  21.750  8.8312e-03
7.000  22.000  8.8312e-03
7.000  22.250  8.8312e-03
7.000  22.500  8.8312e-03
7.000  22.750  8.8312e-03
7.000  23.000  8.8313e-03
7.000  23.250  8.8312e-03
7.000  23.500  8.8312e-03
7.000  23.750  8.8312e-03
7.000  24.000  8.8312e-03
7.250  17.000  8.0756e-03
7.250  17.250  8.5386e-03
7.250  17.500  8.8087e-03
7.250  17.750  8.8127e-03
7.250  18.000  8.8167e-03
7.250  18.250  8.8211e-03
7.250  18.500  8.8251e-03
7.250  18.750  8.8274e-03
7.250  19.000  8.8286e-03
7.250  19.250  8.8296e-03
7.250  19.500  8.8304e-03
7.250  19.750  8.8306e-03
7.250  20.000  8.8308e-03
7.250  20.250  8.8309e-03
7.250  20.500  8.8309e-03
7.250  20.750  8.8309e-03
7.250  21.000  8.8309e-03
7.250  21.250  8.8309e-03
7.250  21.500  8.8309e-03
7.250  21.750  8.8309e-03
7.250  22.000  8.8319e-03
7.250  22.250  8.8310e-03
7.250  22.500  8.8311e-03
7.250  22.750  8.8312e-03
7.250  23.000  8.8313e-03
7.250  23.250  8.8315e-03
7.250  23.500  8.8312e-03
7.250  23.750  8.8315e-03
7.250  24.000  8.8312e-03
7.500  17.000  5.9196e-03
7.500  17.250  8.1023e-03
7.500  17.500  8.5399e-03
7.500  17.750  8.8087e-03
7.500  18.000  8.8127e-03
7.500  18.250  8.8167e-03
7.500  18.500  8.8212e-03
7.500  18.750  8.8251e-03
7.500  19.000  8.8274e-03
7.500  19.250  8.8286e-03
7.500  19.500  8.8296e-03
7.500  19.750  8.8304e-03
7.500  20.000  8.8306e-03
7.500  20.250  8.8308e-03
7.500  20.500  8.8308e-03
7.500  20.750  8.8309e-03
7.500  21.000  8.8309e-03
7.500  21.250  8.8309e-03
7.500  21.500  8.8309e-03
7.500  21.750  8.8309e-03
7.500  22.000  8.8309e-03
7.500  22.250  8.8309e-03
7.500  22.500  8.8309e-03
7.500  22.750  8.8309e-03
7.500  23.000  8.8310e-03
7.500  23.250  8.8310e-03
7.500  23.500  8.8310e-03
7.500  23.750  8.8311e-03
7.500  24.000  8.8311e-03
7.750  17.000  4.2625e-03
7.750  17.250  5.9769e-03
7.750  17.500  8.1217e-03
7.750  17.750  8.5411e-03
7.750  18.000  8.8087e-03
7.750  18.250  8.8128e-03
7.750  18.500  8.8167e-03
7.750  18.750  8.8212e-03
7.750  19.000  8.8251e-03
7.750  19.250  8.8274e-03
7.750  19.500  8.8286e-03
7.750  19.750  8.8296e-03
7.750  20.000  8.8304e-03
7.750  20.250  8.8306e-03
7.750  20.500  8.8308e-03
7.750  20.750  8.8308e-03
7.750  21.000  8.8309e-03
7.750  21.250  8.8309e-03
7.750  21.500  8.8309e-03
7.750  21.750  8.8309e-03
7.750  22.000  8.8309e-03
7.750  22.250  8.8309e-03
7.750  22.500  8.8309e-03
7.750  22.750  8.8309e-03
7.750  23.000  8.8310e-03
7.750  23.250  8.8309e-03
7.750  23.500  8.8309e-03
7.750  23.750  8.8309e-03
7.750  24.000  8.8309e-03
8.000  17.000  2.9677e-03
8.000  17.250  4.3019e-03
8.000  17.500  5.9887e-03
8.000  17.750  8.0901e-03
8.000  18.000  8.5397e-03
8.000  18.250  8.8088e-03
8.000  18.500  8.8128e-03
8.000  18.750  8.8168e-03
8.000  19.000  8.8212e-03
8.000  19.250  8.8251e-03
8.000  19.500  8.8275e-03
8.000  19.750  8.8286e-03
8.000  20.000  8.8296e-03
8.000  20.250  8.8304e-03
8.000  20.500  8.8306e-03
8.000  20.750  8.8308e-03
8.000  21.000  8.8308e-03
8.000  21.250  8.8309e-03
8.000  21.500  8.8309e-03
8.000  21.750  8.8309e-03
8.000  22.000  8.8309e-03
8.000  22.250  8.8309e-03
8.000  22.500  8.8309e-03
8.000  22.750  8.8309e-03
8.000  23.000  8.8309e-03
8.000  23.250  8.8309e-03
8.000  23.500  8.8309e-03
8.000  23.750  8.8309e-03
8.000  24.000  8.8318e-03
8.250  17.000  2.0695e-03
8.250  17.250  3.0236e-03
8.250  17.500  4.3715e-03
8.250  17.750  6.0397e-03
8.250  18.000  8.1038e-03
8.250  18.250  8.5406e-03
8.250  18.500  8.8088e-03
8.250  18.750  8.8128e-03
8.250  19.000  8.8168e-03
8.250  19.250  8.8212e-03
8.250  19.500  8.8252e-03
8.250  19.750  8.8274e-03
8.250  20.000  8.8286e-03
8.250  20.250  8.8296e-03
8.250  20.500  8.8304e-03
8.250  20.750  8.8306e-03
8.250  21.000  8.8308e-03
8.250  21.250  8.8308e-03
8.250  21.500  8.8309e-03
8.250  21.750  8.8309e-03
8.250  22.000  8.8309e-03
8.250  22.250  8.8309e-03
8.250  22.500  8.8309e-03
8.250  22.750  8.8309e-03
8.250  23.000  8.8311e-03
8.250  23.250  8.8309e-03
8.250  23.500  8.8309e-03
8.250  23.750  8.8309e-03
8.250  24.000  8.8309e-03
8.500  17.000  1.4517e-03
8.500  17.250  2.1138e-03
8.500  17.500  3.0923e-03
8.500  17.750  4.4676e-03
8.500  18.000  6.1198e-03
8.500  18.250  8.1310e-03
8.500  18.500  8.5412e-03
8.500  18.750  8.8088e-03
8.500  19.000  8.8128e-03
8.500  19.250  8.8168e-03
8.500  19.500  8.8212e-03
8.500  19.750  8.8252e-03
8.500  20.000  8.8275e-03
8.500  20.250  8.8286e-03
8.500  20.500  8.8296e-03
8.500  20.750  8.8304e-03
8.500  21.000  8.8306e-03
8.500  21.250  8.8308e-03
8.500  21.500  8.8308e-03
8.500  21.750  8.8309e-03
8.500  22.000  8.8309e-03
8.500  22.250  8.8309e-03
8.500  22.500  8.8309e-03
8.500  22.750  8.8311e-03
8.500  23.000  8.8309e-03
8.500  23.250  8.8309e-03
8.500  23.500  8.8309e-03
8.500  23.750  8.8309e-03
8.500  24.000  8.8309e-03
8.750  17.000  1.0243e-03
8.750  17.250  1.4858e-03
8.750  17.500  2.1741e-03
8.750  17.750  3.1978e-03
8.750  18.000  4.6029e-03
8.750  18.250  6.2530e-03
8.750  18.500  8.1753e-03
8.750  18.750  8.5412e-03
8.750  19.000  8.8087e-03
8.750  19.250  8.8128e-03
8.750  19.500  8.8169e-03
8.750  19.750  8.8212e-03
8.750  20.000  8.8252e-03
8.750  20.250  8.8275e-03
8.750  20.500  8.8286e-03
8.750  20.750  8.8295e-03
8.750  21.000  8.8304e-03
8.750  21.250  8.8306e-03
8.750  21.500  8.8308e-03
8.750  21.750  8.8308e-03
8.750  22.000  8.8309e-03
8.750  22.250  8.8309e-03
8.750  22.500  8.8309e-03
8.750  22.750  8.8309e-03
8.750  23.000  8.8309e-03
8.750  23.250  8.8309e-03
8.750  23.500  8.8309e-03
8.750  23.750  8.8309e-03
8.750  24.000  8.8309e-03
9.000  17.000  7.2469e-04
9.000  17.250  1.0495e-03
9.000  17.500  1.5360e-03
9.000  17.750  2.2715e-03
9.000  18.000  3.3735e-03
9.000  18.250  4.8537e-03
9.000  18.500  6.4884e-03
9.000  18.750  8.2877e-03
9.000  19.000  8.5401e-03
9.000  19.250  8.8086e-03
9.000  19.500  8.8128e-03
9.000  19.750  8.8170e-03
9.000  20.000  8.8213e-03
9.000  20.250  8.8252e-03
9.000  20.500  8.8274e-03
9.000  20.750  8.8286e-03
9.000  21.000  8.8296e-03
9.000  21.250  8.8304e-03
9.000  21.500  8.8306e-03
9.000  21.750  8.8308e-03
9.000  22.000  8.8308e-03
9.000  22.250  8.8309e-03
9.000  22.500  8.8309e-03
9.000  22.750  8.8309e-03
9.000  23.000  8.8309e-03
9.000  23.250  8.8309e-03
9.000  23.500  8.8309e-03
9.000  23.750  8.8309e-03
9.000  24.000  8.8311e-03
9.250  17.000  5.1333e-04
9.250  17.250  7.4362e-04
9.250  17.500  1.0909e-03
9.250  17.750  1.6244e-03
9.250  18.000  2.4551e-03
9.250  18.250  3.6766e-03
9.250  18.500  5.2305e-03
9.250  18.750  6.9102e-03
9.250  19.000  8.2821e-03
9.250  19.250  8.5375e-03
9.250  19.500  8.8083e-03
9.250  19.750  8.8128e-03
9.250  20.000  8.8170e-03
9.250  20.250  8.8213e-03
9.250  20.500  8.8252e-03
9.250  20.750  8.8274e-03
9.250  21.000  8.8286e-03
9.250  21.250  8.8296e-03
9.250  21.500  8.8290e-03
9.250  21.750  8.8291e-03
9.250  22.000  8.8291e-03
9.250  22.250  8.8293e-03
9.250  22.500  8.8306e-03
9.250  22.750  8.8306e-03
9.250  23.000  8.8308e-03
9.250  23.250  8.8308e-03
9.250  23.500  8.8308e-03
9.250  23.750  8.8308e-03
9.250  24.000  8.8309e-03
9.500  17.000  3.6420e-04
9.500  17.250  5.2774e-04
9.500  17.500  7.7646e-04
9.500  17.750  1.1681e-03
9.500  18.000  1.7955e-03
9.500  18.250  2.7621e-03
9.500  18.500  4.0996e-03
9.500  18.750  5.6947e-03
9.500  19.000  7.3610e-03
9.500  19.250  8.2664e-03
9.500  19.500  8.5305e-03
9.500  19.750  8.8079e-03
9.500  20.000  8.8128e-03
9.500  20.250  8.8170e-03
9.500  20.500  8.8213e-03
9.500  20.750  8.8247e-03
9.500  21.000  8.8260e-03
9.500  21.250  8.8270e-03
9.500  21.500  8.8280e-03
9.500  21.750  8.8281e-03
9.500  22.000  8.8280e-03
9.500  22.250  8.8281e-03
9.500  22.500  8.8281e-03
9.500  22.750  8.8282e-03
9.500  23.000  8.8282e-03
9.500  23.250  8.8282e-03
9.500  23.500  8.8285e-03
9.500  23.750  8.8285e-03
9.500  24.000  8.8285e-03
9.750  17.000  2.5860e-04
9.750  17.250  3.7473e-04
9.750  17.500  5.5317e-04
9.750  17.750  8.4099e-04
9.750  18.000  1.3195e-03
9.750  18.250  2.0746e-03
9.750  18.500  3.1540e-03
9.750  18.750  4.5517e-03
9.750  19.000  6.1590e-03
9.750  19.250  7.8473e-03
9.750  19.500  8.2474e-03
9.750  19.750  8.5193e-03
9.750  20.000  8.8063e-03
9.750  20.250  8.8125e-03
9.750  20.500  8.8169e-03
9.750  20.750  8.8213e-03
9.750  21.000  8.8249e-03
9.750  21.250  8.8263e-03
9.750  21.500  8.8271e-03
9.750  21.750  8.8281e-03
9.750  22.000  8.8284e-03
9.750  22.250  8.8280e-03
9.750  22.500  8.8281e-03
9.750  22.750  8.8281e-03
9.750  23.000  8.8281e-03
9.750  23.250  8.8281e-03
9.750  23.500  8.8281e-03
9.750  23.750  8.8281e-03
9.750  24.000  8.8282e-03
10.000  17.000  1.8354e-04
10.000  17.250  2.6634e-04
10.000  17.500  3.9465e-04
10.000  17.750  6.0708e-04
10.000  18.000  9.7407e-04
10.000  18.250  1.5574e-03
10.000  18.500  2.3997e-03
10.000  18.750  3.5389e-03
10.000  19.000  4.9812e-03
10.000  19.250  6.6294e-03
10.000  19.500  8.0605e-03
10.000  19.750  8.2260e-03
10.000  20.000  8.4974e-03
10.000  20.250  8.8033e-03
10.000  20.500  8.8121e-03
10.000  20.750  8.8168e-03
10.000  21.000  8.8212e-03
10.000  21.250  8.8250e-03
10.000  21.500  8.8270e-03
10.000  21.750  8.8273e-03
10.000  22.000  8.8281e-03
10.000  22.250  8.8286e-03
10.000  22.500  8.8283e-03
10.000  22.750  8.8281e-03
10.000  23.000  8.8282e-03
10.000  23.250  8.8282e-03
10.000  23.500  8.8282e-03
10.000  23.750  8.8282e-03
10.000  24.000  8.8281e-03
10.250  17.000  1.3045e-04
10.250  17.250  1.8955e-04
10.250  17.500  2.8222e-04
10.250  17.750  4.3984e-04
10.250  18.000  7.1893e-04
10.250  18.250  1.1616e-03
10.250  18.500  1.8032e-03
10.250  18.750  2.6885e-03
10.250  19.000  3.8667e-03
10.250  19.250  5.3856e-03
10.250  19.500  7.1476e-03
10.250  19.750  8.0424e-03
10.250  20.000  8.2020e-03
10.250  20.250  8.4776e-03
10.250  20.500  8.7950e-03
10.250  20.750  8.8108e-03
10.250  21.000  8.8165e-03
10.250  21.250  8.8211e-03
10.250  21.500  8.8249e-03
10.250  21.750  8.8272e-03
10.250  22.000  8.8280e-03
10.250  22.250  8.8282e-03
10.250  22.500  8.8288e-03
10.250  22.750  8.8286e-03
10.250  23.000  8.8283e-03
10.250  23.250  8.8281e-03
10.250  23.500  8.8281e-03
10.250  23.750  8.8282e-03
10.250  24.000  8.8282e-03
10.500  17.000  9.2840e-05
10.500  17.250  1.3514e-04
10.500  17.500  2.0272e-04
10.500  17.750  3.2066e-04
10.500  18.000  5.3029e-04
10.500  18.250  8.6609e-04
10.500  18.500  1.3412e-03
10.500  18.750  2.0043e-03
10.500  19.000  2.9224e-03
10.500  19.250  4.1381e-03
10.500  19.500  5.6999e-03
10.500  19.750  7.4369e-03
10.500  20.000  8.0178e-03
10.500  20.250  8.1817e-03
10.500  20.500  8.4635e-03
10.500  20.750  8.7876e-03
10.500  21.000  8.8082e-03
10.500  21.250  8.8160e-03
10.500  21.500  8.8209e-03
10.500  21.750  8.8248e-03
10.500  22.000  8.8272e-03
10.500  22.250  8.8283e-03
10.500  22.500  8.8287e-03
10.500  22.750  8.8289e-03
10.500  23.000  8.8289e-03
10.500  23.250  8.8286e-03
10.500  23.500  8.8284e-03
10.500  23.750  8.8282e-03
10.500  24.000  8.8281e-03
10.750  17.000  6.6255e-05
10.750  17.250  9.6708e-05
10.750  17.500  1.4634e-04
10.750  17.750  2.3449e-04
10.750  18.000  3.9029e-04
10.750  18.250  6.3490e-04
10.750  18.500  9.8346e-04
10.750  18.750  1.4895e-03
10.750  19.000  2.1711e-03
10.750  19.250  3.1091e-03
10.750  19.500  4.3745e-03
10.750  19.750  6.0021e-03
10.750  20.000  7.7391e-03
10.750  20.250  7.9828e-03
10.750  20.500  8.1647e-03
10.750  20.750  8.4560e-03
10.750  21.000  8.7765e-03
10.750  21.250  8.8036e-03
10.750  21.500  8.8151e-03
10.750  21.750  8.8202e-03
10.750  22.000  8.8245e-03
10.750  22.250  8.8272e-03
10.750  22.500  8.8283e-03
10.750  22.750  8.8293e-03
10.750  23.000  8.8289e-03
10.750  23.250  8.8291e-03
10.750  23.500  8.8290e-03
10.750  23.750  8.8287e-03
10.750  24.000  8.8286e-03
11.000  17.000  4.7572e-05
11.000  17.250  6.9300e-05
11.000  17.500  1.0568e-04
11.000  17.750  1.7119e-04
11.000  18.000  2.8527e-04
11.000  18.250  4.6082e-04
11.000  18.500  7.2025e-04
11.000  18.750  1.0825e-03
11.000  19.000  1.5903e-03
11.000  19.250  2.2862e-03
11.000  19.500  3.2643e-03
11.000  19.750  4.5828e-03
11.000  20.000  6.3159e-03
11.000  20.250  7.8104e-03
11.000  20.500  7.9816e-03
11.000  20.750  8.1598e-03
11.000  21.000  8.4623e-03
11.000  21.250  8.7624e-03
11.000  21.500  8.7979e-03
11.000  21.750  8.8129e-03
11.000  22.000  8.8193e-03
11.000  22.250  8.8240e-03
11.000  22.500  8.8270e-03
11.000  22.750  8.8282e-03
11.000  23.000  8.8294e-03
11.000  23.250  8.8291e-03
11.000  23.500  8.8291e-03
11.000  23.750  8.8291e-03
11.000  24.000  8.8291e-03
11.250  17.000  3.4403e-05
11.250  17.250  4.9794e-05
11.250  17.500  7.6214e-05
11.250  17.750  1.2428e-04
11.250  18.000  2.0634e-04
11.250  18.250  3.3177e-04
11.250  18.500  5.1374e-04
11.250  18.750  7.8165e-04
11.250  19.000  1.1495e-03
11.250  19.250  1.6644e-03
11.250  19.500  2.3887e-03
11.250  19.750  3.3965e-03
11.250  20.000  4.7724e-03
11.250  20.250  6.5855e-03
11.250  20.500  7.8060e-03
11.250  20.750  7.9667e-03
11.250  21.000  8.1651e-03
11.250  21.250  8.4897e-03
11.250  21.500  8.7584e-03
11.250  21.750  8.7905e-03
11.250  22.000  8.8095e-03
11.250  22.250  8.8174e-03
11.250  22.500  8.8230e-03
11.250  22.750  8.8267e-03
11.250  23.000  8.8281e-03
11.250  23.250  8.8293e-03
11.250  23.500  8.8298e-03
11.250  23.750  8.8291e-03
11.250  24.000  8.8292e-03
11.500  17.000  2.5267e-05
11.500  17.250  3.6049e-05
11.500  17.500  5.4979e-05
11.500  17.750  8.9547e-05
11.500  18.000  1.4774e-04
11.500  18.250  2.3646e-04
11.500  18.500  3.6568e-04
11.500  18.750  5.5638e-04
11.500  19.000  8.2321e-04
11.500  19.250  1.2030e-03
11.500  19.500  1.7288e-03
11.500  19.750  2.4747e-03
11.500  20.000  3.5194e-03
11.500  20.250  4.9481e-03
11.500  20.500  6.8303e-03
11.500  20.750  7.7754e-03
11.500  21.000  7.9650e-03
11.500  21.250  8.1872e-03
11.500  21.500  8.5584e-03
11.500  21.750  8.7500e-03
11.500  22.000  8.7833e-03
11.500  22.250  8.8043e-03
11.500  22.500  8.8139e-03
11.500  22.750  8.8212e-03
11.500  23.000  8.8261e-03
11.500  23.250  8.8278e-03
11.500  23.500  8.8292e-03
11.500  23.750  8.8301e-03
11.500  24.000  8.8294e-03
11.750  17.000  1.8930e-05
11.750  17.250  2.6502e-05
11.750  17.500  3.9918e-05
11.750  17.750  6.4198e-05
11.750  18.000  1.0461e-04
11.750  18.250  1.6601e-04
11.750  18.500  2.5770e-04
11.750  18.750  3.9103e-04
11.750  19.000  5.8568e-04
11.750  19.250  8.5893e-04
11.750  19.500  1.2445e-03
11.750  19.750  1.7840e-03
11.750  20.000  2.5512e-03
11.750  20.250  3.6234e-03
11.750  20.500  5.1052e-03
11.750  20.750  7.0133e-03
11.750  21.000  7.7418e-03
11.750  21.250  7.9722e-03
11.750  21.500  8.2491e-03
11.750  21.750  8.6459e-03
11.750  22.000  8.7412e-03
11.750  22.250  8.7756e-03
11.750  22.500  8.7984e-03
11.750  22.750  8.8095e-03
11.750  23.000  8.8188e-03
11.750  23.250  8.8253e-03
11.750  23.500  8.8311e-03
11.750  23.750  8.8291e-03
11.750  24.000  8.8301e-03
12.000  17.000  1.4568e-05
12.000  17.250  1.9835e-05
12.000  17.500  2.9136e-05
12.000  17.750  4.5761e-05
12.000  18.000  7.3004e-05
12.000  18.250  1.1531e-04
12.000  18.500  1.7984e-04
12.000  18.750  2.7465e-04
12.000  19.000  4.1358e-04
12.000  19.250  6.1029e-04
12.000  19.500  8.8807e-04
12.000  19.750  1.2796e-03
12.000  20.000  1.8305e-03
12.000  20.250  2.6133e-03
12.000  20.500  3.7105e-03
12.000  20.750  5.2360e-03
12.000  21.000  7.1685e-03
12.000  21.250  7.7028e-03
12.000  21.500  8.0090e-03
12.000  21.750  8.3296e-03
12.000  22.000  8.6853e-03
12.000  22.250  8.7309e-03
12.000  22.500  8.7670e-03
12.000  22.750  8.7910e-03
12.000  23.000  8.8040e-03
12.000  23.250  8.8154e-03
12.000  23.500  8.8240e-03
12.000  23.750  8.8267e-03
12.000  24.000  8.8287e-03
12.250  17.000  1.1440e-05
12.250  17.250  1.5226e-05
12.250  17.500  2.1564e-05
12.250  17.750  3.2510e-05
12.250  18.000  5.0617e-05
12.250  18.250  7.9918e-05
12.250  18.500  1.2527e-04
12.250  18.750  1.9309e-04
12.250  19.000  2.9185e-04
12.250  19.250  4.3226e-04
12.250  19.500  6.3070e-04
12.250  19.750  9.1152e-04
12.250  20.000  1.3071e-03
12.250  20.250  1.8654e-03
12.250  20.500  2.6610e-03
12.250  20.750  3.7845e-03
12.250  21.000  5.3450e-03
12.250  21.250  7.1092e-03
12.250  21.500  7.6858e-03
12.250  21.750  8.0379e-03
12.250  22.000  8.4156e-03
12.250  22.250  8.6709e-03
12.250  22.500  8.7179e-03
12.250  22.750  8.7558e-03
12.250  23.000  8.7819e-03
12.250  23.250  8.7966e-03
12.250  23.500  8.8109e-03
12.250  23.750  8.8225e-03
12.250  24.000  8.8258e-03
12.500  17.000  8.8889e-06
12.500  17.250  1.1605e-05
12.500  17.500  1.5967e-05
12.500  17.750  2.3128e-05
12.500  18.000  3.5226e-05
12.500  18.250  5.5309e-05
12.500  18.500  8.7160e-05
12.500  18.750  1.3514e-04
12.500  19.000  2.0527e-04
12.500  19.250  3.0551e-04
12.500  19.500  4.4683e-04
12.500  19.750  6.4650e-04
12.500  20.000  9.3029e-04
12.500  20.250  1.3310e-03
12.500  20.500  1.8921e-03
12.500  20.750  2.6928e-03
12.500  21.000  3.8416e-03
12.500  21.250  5.4181e-03
12.500  21.500  7.0768e-03
12.500  21.750  7.6358e-03
12.500  22.000  8.0740e-03
12.500  22.250  8.4716e-03
12.500  22.500  8.6486e-03
12.500  22.750  8.6991e-03
12.500  23.000  8.7411e-03
12.500  23.250  8.7692e-03
12.500  23.500  8.7863e-03
12.500  23.750  8.8045e-03
12.500  24.000  8.8202e-03
12.750  17.000  5.7613e-06
12.750  17.250  8.8889e-06
12.750  17.500  1.1770e-05
12.750  17.750  1.6626e-05
12.750  18.000  2.4938e-05
12.750  18.250  3.8683e-05
12.750  18.500  6.0658e-05
12.750  18.750  9.4403e-05
12.750  19.000  1.4403e-04
12.750  19.250  2.1580e-04
12.750  19.500  3.1646e-04
12.750  19.750  4.5868e-04
12.750  20.000  6.5926e-04
12.750  20.250  9.4453e-04
12.750  20.500  1.3470e-03
12.750  20.750  1.9062e-03
12.750  21.000  2.7200e-03
12.750  21.250  3.8771e-03
12.750  21.500  5.4416e-03
12.750  21.750  6.9331e-03
12.750  22.000  7.5799e-03
12.750  22.250  8.0939e-03
12.750  22.500  8.4854e-03
12.750  22.750  8.6132e-03
12.750  23.000  8.6721e-03
12.750  23.250  8.7192e-03
12.750  23.500  8.7506e-03
12.750  23.750  8.7714e-03
12.750  24.000  8.7953e-03
13.000  17.000  1.4815e-06
13.000  17.250  3.2922e-06
13.000  17.500  8.3951e-06
13.000  17.750  1.2263e-05
13.000  18.000  1.7942e-05
13.000  18.250  2.7243e-05
13.000  18.500  4.2387e-05
13.000  18.750  6.5761e-05
13.000  19.000  1.0058e-04
13.000  19.250  1.5103e-04
13.000  19.500  2.2305e-04
13.000  19.750  3.2403e-04
13.000  20.000  4.6634e-04
13.000  20.250  6.6691e-04
13.000  20.500  9.5374e-04
13.000  20.750  1.3539e-03
13.000  21.000  1.9278e-03
13.000  21.250  2.7420e-03
13.000  21.500  3.8830e-03
13.000  21.750  5.4417e-03
13.000  22.000  6.7731e-03
13.000  22.250  7.4829e-03
13.000  22.500  8.0430e-03
13.000  22.750  8.4339e-03
13.000  23.000  8.5585e-03
13.000  23.250  8.6308e-03
13.000  23.500  8.6863e-03
13.000  23.750  8.7228e-03
13.000  24.000  8.7486e-03
13.250  17.000  8.2305e-07
13.250  17.250  1.6461e-06
13.250  17.500  3.7860e-06
13.250  17.750  7.4897e-06
13.250  18.000  1.3251e-05
13.250  18.250  1.9588e-05
13.250  18.500  2.9712e-05
13.250  18.750  4.5679e-05
13.250  19.000  6.9712e-05
13.250  19.250  1.0510e-04
13.250  19.500  1.5613e-04
13.250  19.750  2.2782e-04
13.250  20.000  3.2955e-04
13.250  20.250  4.7292e-04
13.250  20.500  6.7416e-04
13.250  20.750  9.6049e-04
13.250  21.000  1.3610e-03
13.250  21.250  1.9309e-03
13.250  21.500  2.7337e-03
13.250  21.750  3.8786e-03
13.250  22.000  5.3246e-03
13.250  22.250  6.5009e-03
13.250  22.500  7.3086e-03
13.250  22.750  7.8996e-03
13.250  23.000  8.3288e-03
13.250  23.250  8.4745e-03
13.250  23.500  8.5671e-03
13.250  23.750  8.6356e-03
13.250  24.000  8.6799e-03
13.500  17.000  1.0000e-07
13.500  17.250  9.0535e-07
13.500  17.500  2.1399e-06
13.500  17.750  4.6914e-06
13.500  18.000  8.7243e-06
13.500  18.250  1.4403e-05
13.500  18.500  2.1317e-05
13.500  18.750  3.2016e-05
13.500  19.000  4.8395e-05
13.500  19.250  7.3086e-05
13.500  19.500  1.0840e-04
13.500  19.750  1.5926e-04
13.500  20.000  2.3136e-04
13.500  20.250  3.3276e-04
13.500  20.500  4.7597e-04
13.500  20.750  6.7679e-04
13.500  21.000  9.5852e-04
13.500  21.250  1.3606e-03
13.500  21.500  1.9177e-03
13.500  21.750  2.6832e-03
13.500  22.000  3.7283e-03
13.500  22.250  5.0702e-03
13.500  22.500  6.1560e-03
13.500  22.750  7.0073e-03
13.500  23.000  7.6616e-03
13.500  23.250  8.1620e-03
13.500  23.500  8.3477e-03
13.500  23.750  8.4714e-03
13.500  24.000  8.5574e-03
13.750  17.000  1.0000e-07
13.750  17.250  1.0000e-07
13.750  17.500  1.2346e-06
13.750  17.750  2.4691e-06
13.750  18.000  5.5967e-06
13.750  18.250  9.7119e-06
13.750  18.500  1.5473e-05
13.750  18.750  2.2881e-05
13.750  19.000  3.3909e-05
13.750  19.250  5.0617e-05
13.750  19.500  7.5144e-05
13.750  19.750  1.1070e-04
13.750  20.000  1.6165e-04
13.750  20.250  2.3374e-04
13.750  20.500  3.3531e-04
13.750  20.750  4.7844e-04
13.750  21.000  6.7794e-04
13.750  21.250  9.5588e-04
13.750  21.500  1.3435e-03
13.750  21.750  1.8709e-03
13.750  22.000  2.5702e-03
13.750  22.250  3.4902e-03
13.750  22.500  4.7165e-03
13.750  22.750  5.7650e-03
13.750  23.000  6.6523e-03
13.750  23.250  7.3638e-03
13.750  23.500  7.9236e-03
13.750  23.750  8.1607e-03
13.750  24.000  8.3270e-03
14.000  17.000  1.0000e-07
14.000  17.250  1.0000e-07
14.000  17.500  1.0000e-07
14.000  17.750  1.4815e-06
14.000  18.000  3.1276e-06
14.000  18.250  6.5844e-06
14.000  18.500  1.0782e-05
14.000  18.750  1.6543e-05
14.000  19.000  2.3951e-05
14.000  19.250  3.5226e-05
14.000  19.500  5.2099e-05
14.000  19.750  7.6626e-05
14.000  20.000  1.1226e-04
14.000  20.250  1.6305e-04
14.000  20.500  2.3531e-04
14.000  20.750  3.3654e-04
14.000  21.000  4.7860e-04
14.000  21.250  6.7523e-04
14.000  21.500  9.4856e-04
14.000  21.750  1.3146e-03
14.000  22.000  1.7801e-03
14.000  22.250  2.3384e-03
14.000  22.500  3.1289e-03
14.000  22.750  4.3155e-03
14.000  23.000  5.2861e-03
14.000  23.250  6.2178e-03
14.000  23.500  6.9783e-03
14.000  23.750  7.5965e-03
14.000  24.000  7.8922e-03
