InwC 9000.00A  relative to Inci 1215.00A scaled to 1215A.
Hden   Phi(H)  Eq_Width (A)
7.000  17.000  5.3704e-03
7.000  17.250  5.5413e-03
7.000  17.500  5.5438e-03
7.000  17.750  5.5463e-03
7.000  18.000  5.5491e-03
7.000  18.250  5.5517e-03
7.000  18.500  5.5531e-03
7.000  18.750  5.5538e-03
7.000  19.000  5.5545e-03
7.000  19.250  5.5550e-03
7.000  19.500  5.5551e-03
7.000  19.750  5.5552e-03
7.000  20.000  5.5552e-03
7.000  20.250  5.5553e-03
7.000  20.500  5.5553e-03
7.000  20.750  5.5553e-03
7.000  21.000  5.5554e-03
7.000  21.250  5.5554e-03
7.000  21.500  5.5555e-03
7.000  21.750  5.5555e-03
7.000  22.000  5.5555e-03
7.000  22.250  5.5555e-03
7.000  22.500  5.5555e-03
7.000  22.750  5.5555e-03
7.000  23.000  5.5556e-03
7.000  23.250  5.5555e-03
7.000  23.500  5.5555e-03
7.000  23.750  5.5555e-03
7.000  24.000  5.5555e-03
7.250  17.000  5.0802e-03
7.250  17.250  5.3714e-03
7.250  17.500  5.5413e-03
7.250  17.750  5.5439e-03
7.250  18.000  5.5463e-03
7.250  18.250  5.5491e-03
7.250  18.500  5.5517e-03
7.250  18.750  5.5531e-03
7.250  19.000  5.5538e-03
7.250  19.250  5.5545e-03
7.250  19.500  5.5550e-03
7.250  19.750  5.5551e-03
7.250  20.000  5.5552e-03
7.250  20.250  5.5552e-03
7.250  20.500  5.5553e-03
7.250  20.750  5.5553e-03
7.250  21.000  5.5553e-03
7.250  21.250  5.5553e-03
7.250  21.500  5.5553e-03
7.250  21.750  5.5553e-03
7.250  22.000  5.5560e-03
7.250  22.250  5.5554e-03
7.250  22.500  5.5555e-03
7.250  22.750  5.5555e-03
7.250  23.000  5.5556e-03
7.250  23.250  5.5557e-03
7.250  23.500  5.5555e-03
7.250  23.750  5.5557e-03
7.250  24.000  5.5555e-03
7.500  17.000  3.7235e-03
7.500  17.250  5.0970e-03
7.500  17.500  5.3723e-03
7.500  17.750  5.5413e-03
7.500  18.000  5.5439e-03
7.500  18.250  5.5463e-03
7.500  18.500  5.5491e-03
7.500  18.750  5.5517e-03
7.500  19.000  5.5531e-03
7.500  19.250  5.5538e-03
7.500  19.500  5.5545e-03
7.500  19.750  5.5550e-03
7.500  20.000  5.5551e-03
7.500  20.250  5.5552e-03
7.500  20.500  5.5552e-03
7.500  20.750  5.5552e-03
7.500  21.000  5.5553e-03
7.500  21.250  5.5553e-03
7.500  21.500  5.5553e-03
7.500  21.750  5.5553e-03
7.500  22.000  5.5553e-03
7.500  22.250  5.5553e-03
7.500  22.500  5.5553e-03
7.500  22.750  5.5553e-03
7.500  23.000  5.5554e-03
7.500  23.250  5.5554e-03
7.500  23.500  5.5554e-03
7.500  23.750  5.5554e-03
7.500  24.000  5.5554e-03
7.750  17.000  2.6809e-03
7.750  17.250  3.7596e-03
7.750  17.500  5.1091e-03
7.750  17.750  5.3730e-03
7.750  18.000  5.5414e-03
7.750  18.250  5.5439e-03
7.750  18.500  5.5464e-03
7.750  18.750  5.5491e-03
7.750  19.000  5.5517e-03
7.750  19.250  5.5531e-03
7.750  19.500  5.5538e-03
7.750  19.750  5.5545e-03
7.750  20.000  5.5550e-03
7.750  20.250  5.5551e-03
7.750  20.500  5.5552e-03
7.750  20.750  5.5552e-03
7.750  21.000  5.5552e-03
7.750  21.250  5.5553e-03
7.750  21.500  5.5553e-03
7.750  21.750  5.5553e-03
7.750  22.000  5.5553e-03
7.750  22.250  5.5553e-03
7.750  22.500  5.5553e-03
7.750  22.750  5.5553e-03
7.750  23.000  5.5554e-03
7.750  23.250  5.5553e-03
7.750  23.500  5.5553e-03
7.750  23.750  5.5553e-03
7.750  24.000  5.5553e-03
8.000  17.000  1.8663e-03
8.000  17.250  2.7058e-03
8.000  17.500  3.7672e-03
8.000  17.750  5.0894e-03
8.000  18.000  5.3721e-03
8.000  18.250  5.5414e-03
8.000  18.500  5.5439e-03
8.000  18.750  5.5464e-03
8.000  19.000  5.5491e-03
8.000  19.250  5.5517e-03
8.000  19.500  5.5531e-03
8.000  19.750  5.5538e-03
8.000  20.000  5.5545e-03
8.000  20.250  5.5550e-03
8.000  20.500  5.5551e-03
8.000  20.750  5.5552e-03
8.000  21.000  5.5552e-03
8.000  21.250  5.5552e-03
8.000  21.500  5.5552e-03
8.000  21.750  5.5553e-03
8.000  22.000  5.5553e-03
8.000  22.250  5.5553e-03
8.000  22.500  5.5553e-03
8.000  22.750  5.5553e-03
8.000  23.000  5.5553e-03
8.000  23.250  5.5553e-03
8.000  23.500  5.5553e-03
8.000  23.750  5.5553e-03
8.000  24.000  5.5558e-03
8.250  17.000  1.3011e-03
8.250  17.250  1.9015e-03
8.250  17.500  2.7498e-03
8.250  17.750  3.7996e-03
8.250  18.000  5.0981e-03
8.250  18.250  5.3727e-03
8.250  18.500  5.5414e-03
8.250  18.750  5.5439e-03
8.250  19.000  5.5464e-03
8.250  19.250  5.5492e-03
8.250  19.500  5.5517e-03
8.250  19.750  5.5531e-03
8.250  20.000  5.5538e-03
8.250  20.250  5.5545e-03
8.250  20.500  5.5550e-03
8.250  20.750  5.5551e-03
8.250  21.000  5.5552e-03
8.250  21.250  5.5552e-03
8.250  21.500  5.5552e-03
8.250  21.750  5.5552e-03
8.250  22.000  5.5553e-03
8.250  22.250  5.5553e-03
8.250  22.500  5.5553e-03
8.250  22.750  5.5553e-03
8.250  23.000  5.5555e-03
8.250  23.250  5.5553e-03
8.250  23.500  5.5553e-03
8.250  23.750  5.5553e-03
8.250  24.000  5.5553e-03
8.500  17.000  9.1226e-04
8.500  17.250  1.3291e-03
8.500  17.500  1.9450e-03
8.500  17.750  2.8110e-03
8.500  18.000  3.8510e-03
8.500  18.250  5.1160e-03
8.500  18.500  5.3731e-03
8.500  18.750  5.5414e-03
8.500  19.000  5.5440e-03
8.500  19.250  5.5464e-03
8.500  19.500  5.5492e-03
8.500  19.750  5.5517e-03
8.500  20.000  5.5531e-03
8.500  20.250  5.5538e-03
8.500  20.500  5.5545e-03
8.500  20.750  5.5550e-03
8.500  21.000  5.5551e-03
8.500  21.250  5.5552e-03
8.500  21.500  5.5552e-03
8.500  21.750  5.5552e-03
8.500  22.000  5.5553e-03
8.500  22.250  5.5553e-03
8.500  22.500  5.5553e-03
8.500  22.750  5.5555e-03
8.500  23.000  5.5553e-03
8.500  23.250  5.5553e-03
8.500  23.500  5.5553e-03
8.500  23.750  5.5553e-03
8.500  24.000  5.5553e-03
8.750  17.000  6.4337e-04
8.750  17.250  9.3391e-04
8.750  17.500  1.3673e-03
8.750  17.750  2.0125e-03
8.750  18.000  2.8984e-03
8.750  18.250  3.9375e-03
8.750  18.500  5.1453e-03
8.750  18.750  5.3734e-03
8.750  19.000  5.5414e-03
8.750  19.250  5.5440e-03
8.750  19.500  5.5465e-03
8.750  19.750  5.5492e-03
8.750  20.000  5.5517e-03
8.750  20.250  5.5531e-03
8.750  20.500  5.5538e-03
8.750  20.750  5.5545e-03
8.750  21.000  5.5550e-03
8.750  21.250  5.5551e-03
8.750  21.500  5.5552e-03
8.750  21.750  5.5552e-03
8.750  22.000  5.5552e-03
8.750  22.250  5.5552e-03
8.750  22.500  5.5553e-03
8.750  22.750  5.5553e-03
8.750  23.000  5.5553e-03
8.750  23.250  5.5553e-03
8.750  23.500  5.5553e-03
8.750  23.750  5.5553e-03
8.750  24.000  5.5553e-03
9.000  17.000  4.5490e-04
9.000  17.250  6.5942e-04
9.000  17.500  9.6584e-04
9.000  17.750  1.4298e-03
9.000  18.000  2.1262e-03
9.000  18.250  3.0619e-03
9.000  18.500  4.0914e-03
9.000  18.750  5.2202e-03
9.000  19.000  5.3733e-03
9.000  19.250  5.5413e-03
9.000  19.500  5.5440e-03
9.000  19.750  5.5465e-03
9.000  20.000  5.5492e-03
9.000  20.250  5.5517e-03
9.000  20.500  5.5531e-03
9.000  20.750  5.5538e-03
9.000  21.000  5.5545e-03
9.000  21.250  5.5550e-03
9.000  21.500  5.5551e-03
9.000  21.750  5.5552e-03
9.000  22.000  5.5552e-03
9.000  22.250  5.5552e-03
9.000  22.500  5.5552e-03
9.000  22.750  5.5553e-03
9.000  23.000  5.5553e-03
9.000  23.250  5.5553e-03
9.000  23.500  5.5553e-03
9.000  23.750  5.5553e-03
9.000  24.000  5.5555e-03
9.250  17.000  3.2189e-04
9.250  17.250  4.6691e-04
9.250  17.500  6.8576e-04
9.250  17.750  1.0226e-03
9.250  18.000  1.5486e-03
9.250  18.250  2.3236e-03
9.250  18.500  3.3085e-03
9.250  18.750  4.3659e-03
9.250  19.000  5.2221e-03
9.250  19.250  5.3725e-03
9.250  19.500  5.5413e-03
9.250  19.750  5.5440e-03
9.250  20.000  5.5465e-03
9.250  20.250  5.5493e-03
9.250  20.500  5.5517e-03
9.250  20.750  5.5531e-03
9.250  21.000  5.5538e-03
9.250  21.250  5.5545e-03
9.250  21.500  5.5541e-03
9.250  21.750  5.5542e-03
9.250  22.000  5.5541e-03
9.250  22.250  5.5542e-03
9.250  22.500  5.5551e-03
9.250  22.750  5.5551e-03
9.250  23.000  5.5552e-03
9.250  23.250  5.5552e-03
9.250  23.500  5.5552e-03
9.250  23.750  5.5552e-03
9.250  24.000  5.5552e-03
9.500  17.000  2.2807e-04
9.500  17.250  3.3103e-04
9.500  17.500  4.8790e-04
9.500  17.750  7.3547e-04
9.500  18.000  1.1334e-03
9.500  18.250  1.7481e-03
9.500  18.500  2.6004e-03
9.500  18.750  3.6129e-03
9.500  19.000  4.6610e-03
9.500  19.250  5.2204e-03
9.500  19.500  5.3707e-03
9.500  19.750  5.5412e-03
9.500  20.000  5.5439e-03
9.500  20.250  5.5465e-03
9.500  20.500  5.5493e-03
9.500  20.750  5.5514e-03
9.500  21.000  5.5522e-03
9.500  21.250  5.5528e-03
9.500  21.500  5.5534e-03
9.500  21.750  5.5535e-03
9.500  22.000  5.5534e-03
9.500  22.250  5.5535e-03
9.500  22.500  5.5536e-03
9.500  22.750  5.5536e-03
9.500  23.000  5.5536e-03
9.500  23.250  5.5536e-03
9.500  23.500  5.5537e-03
9.500  23.750  5.5537e-03
9.500  24.000  5.5537e-03
9.750  17.000  1.6156e-04
9.750  17.250  2.3473e-04
9.750  17.500  3.4733e-04
9.750  17.750  5.2947e-04
9.750  18.000  8.3317e-04
9.750  18.250  1.3145e-03
9.750  18.500  2.0051e-03
9.750  18.750  2.9006e-03
9.750  19.000  3.9224e-03
9.750  19.250  4.9840e-03
9.750  19.500  5.2174e-03
9.750  19.750  5.3677e-03
9.750  20.000  5.5409e-03
9.750  20.250  5.5438e-03
9.750  20.500  5.5465e-03
9.750  20.750  5.5492e-03
9.750  21.000  5.5516e-03
9.750  21.250  5.5524e-03
9.750  21.500  5.5528e-03
9.750  21.750  5.5535e-03
9.750  22.000  5.5537e-03
9.750  22.250  5.5535e-03
9.750  22.500  5.5536e-03
9.750  22.750  5.5536e-03
9.750  23.000  5.5535e-03
9.750  23.250  5.5536e-03
9.750  23.500  5.5536e-03
9.750  23.750  5.5536e-03
9.750  24.000  5.5536e-03
10.000  17.000  1.1432e-04
10.000  17.250  1.6650e-04
10.000  17.500  2.4757e-04
10.000  17.750  3.8198e-04
10.000  18.000  6.1506e-04
10.000  18.250  9.8749e-04
10.000  18.500  1.5281e-03
10.000  18.750  2.2627e-03
10.000  19.000  3.1926e-03
10.000  19.250  4.2421e-03
10.000  19.500  5.1365e-03
10.000  19.750  5.2138e-03
10.000  20.000  5.3640e-03
10.000  20.250  5.5404e-03
10.000  20.500  5.5436e-03
10.000  20.750  5.5464e-03
10.000  21.000  5.5492e-03
10.000  21.250  5.5516e-03
10.000  21.500  5.5528e-03
10.000  21.750  5.5530e-03
10.000  22.000  5.5535e-03
10.000  22.250  5.5539e-03
10.000  22.500  5.5537e-03
10.000  22.750  5.5535e-03
10.000  23.000  5.5536e-03
10.000  23.250  5.5537e-03
10.000  23.500  5.5536e-03
10.000  23.750  5.5536e-03
10.000  24.000  5.5536e-03
10.250  17.000  8.0905e-05
10.250  17.250  1.1819e-04
10.250  17.500  1.7671e-04
10.250  17.750  2.7654e-04
10.250  18.000  4.5374e-04
10.250  18.250  7.3654e-04
10.250  18.500  1.1491e-03
10.250  18.750  1.7225e-03
10.250  19.000  2.4892e-03
10.250  19.250  3.4717e-03
10.250  19.500  4.5908e-03
10.250  19.750  5.1333e-03
10.250  20.000  5.2101e-03
10.250  20.250  5.3601e-03
10.250  20.500  5.5394e-03
10.250  20.750  5.5433e-03
10.250  21.000  5.5463e-03
10.250  21.250  5.5491e-03
10.250  21.500  5.5516e-03
10.250  21.750  5.5530e-03
10.250  22.000  5.5535e-03
10.250  22.250  5.5536e-03
10.250  22.500  5.5540e-03
10.250  22.750  5.5539e-03
10.250  23.000  5.5537e-03
10.250  23.250  5.5535e-03
10.250  23.500  5.5536e-03
10.250  23.750  5.5536e-03
10.250  24.000  5.5537e-03
10.500  17.000  5.7284e-05
10.500  17.250  8.3951e-05
10.500  17.500  1.2658e-04
10.500  17.750  2.0123e-04
10.500  18.000  3.3432e-04
10.500  18.250  5.4864e-04
10.500  18.500  8.5407e-04
10.500  18.750  1.2835e-03
10.500  19.000  1.8812e-03
10.500  19.250  2.6746e-03
10.500  19.500  3.6873e-03
10.500  19.750  4.7942e-03
10.500  20.000  5.1297e-03
10.500  20.250  5.2065e-03
10.500  20.500  5.3570e-03
10.500  20.750  5.5380e-03
10.500  21.000  5.5427e-03
10.500  21.250  5.5460e-03
10.500  21.500  5.5491e-03
10.500  21.750  5.5514e-03
10.500  22.000  5.5530e-03
10.500  22.250  5.5537e-03
10.500  22.500  5.5539e-03
10.500  22.750  5.5540e-03
10.500  23.000  5.5541e-03
10.500  23.250  5.5539e-03
10.500  23.500  5.5537e-03
10.500  23.750  5.5536e-03
10.500  24.000  5.5535e-03
10.750  17.000  4.0576e-05
10.750  17.250  5.9753e-05
10.750  17.500  9.1029e-05
10.750  17.750  1.4683e-04
10.750  18.000  2.4568e-04
10.750  18.250  4.0140e-04
10.750  18.500  6.2502e-04
10.750  18.750  9.5160e-04
10.750  19.000  1.3949e-03
10.750  19.250  2.0085e-03
10.750  19.500  2.8379e-03
10.750  19.750  3.8960e-03
10.750  20.000  5.0069e-03
10.750  20.250  5.1264e-03
10.750  20.500  5.2040e-03
10.750  20.750  5.3577e-03
10.750  21.000  5.5358e-03
10.750  21.250  5.5416e-03
10.750  21.500  5.5458e-03
10.750  21.750  5.5488e-03
10.750  22.000  5.5513e-03
10.750  22.250  5.5529e-03
10.750  22.500  5.5537e-03
10.750  22.750  5.5542e-03
10.750  23.000  5.5540e-03
10.750  23.250  5.5542e-03
10.750  23.500  5.5541e-03
10.750  23.750  5.5539e-03
10.750  24.000  5.5538e-03
11.000  17.000  2.8807e-05
11.000  17.250  4.2469e-05
11.000  17.500  6.5432e-05
11.000  17.750  1.0683e-04
11.000  18.000  1.7901e-04
11.000  18.250  2.9062e-04
11.000  18.500  4.5646e-04
11.000  18.750  6.8947e-04
11.000  19.000  1.0186e-03
11.000  19.250  1.4731e-03
11.000  19.500  2.1157e-03
11.000  19.750  2.9838e-03
11.000  20.000  4.1171e-03
11.000  20.250  5.0591e-03
11.000  20.500  5.1221e-03
11.000  20.750  5.2032e-03
11.000  21.000  5.3639e-03
11.000  21.250  5.5330e-03
11.000  21.500  5.5407e-03
11.000  21.750  5.5452e-03
11.000  22.000  5.5484e-03
11.000  22.250  5.5510e-03
11.000  22.500  5.5528e-03
11.000  22.750  5.5537e-03
11.000  23.000  5.5543e-03
11.000  23.250  5.5542e-03
11.000  23.500  5.5542e-03
11.000  23.750  5.5542e-03
11.000  24.000  5.5541e-03
11.250  17.000  2.0494e-05
11.250  17.250  3.0206e-05
11.250  17.500  4.6831e-05
11.250  17.750  7.7202e-05
11.250  18.000  1.2905e-04
11.250  18.250  2.0864e-04
11.250  18.500  3.2453e-04
11.250  18.750  4.9621e-04
11.250  19.000  7.3358e-04
11.250  19.250  1.0684e-03
11.250  19.500  1.5434e-03
11.250  19.750  2.2088e-03
11.250  20.000  3.1200e-03
11.250  20.250  4.3109e-03
11.250  20.500  5.0664e-03
11.250  20.750  5.1172e-03
11.250  21.000  5.2065e-03
11.250  21.250  5.3821e-03
11.250  21.500  5.5319e-03
11.250  21.750  5.5388e-03
11.250  22.000  5.5440e-03
11.250  22.250  5.5476e-03
11.250  22.500  5.5505e-03
11.250  22.750  5.5527e-03
11.250  23.000  5.5535e-03
11.250  23.250  5.5543e-03
11.250  23.500  5.5547e-03
11.250  23.750  5.5542e-03
11.250  24.000  5.5542e-03
11.500  17.000  1.4733e-05
11.500  17.250  2.1564e-05
11.500  17.500  3.3498e-05
11.500  17.750  5.5226e-05
11.500  18.000  9.2016e-05
11.500  18.250  1.4815e-04
11.500  18.500  2.3029e-04
11.500  18.750  3.5193e-04
11.500  19.000  5.2329e-04
11.500  19.250  7.6905e-04
11.500  19.500  1.1123e-03
11.500  19.750  1.6035e-03
11.500  20.000  2.2970e-03
11.500  20.250  3.2487e-03
11.500  20.500  4.4900e-03
11.500  20.750  5.0513e-03
11.500  21.000  5.1129e-03
11.500  21.250  5.2185e-03
11.500  21.500  5.4253e-03
11.500  21.750  5.5281e-03
11.500  22.000  5.5360e-03
11.500  22.250  5.5422e-03
11.500  22.500  5.5463e-03
11.500  22.750  5.5497e-03
11.500  23.000  5.5523e-03
11.500  23.250  5.5533e-03
11.500  23.500  5.5542e-03
11.500  23.750  5.5548e-03
11.500  24.000  5.5543e-03
11.750  17.000  1.0782e-05
11.750  17.250  1.5556e-05
11.750  17.500  2.3951e-05
11.750  17.750  3.9259e-05
11.750  18.000  6.4774e-05
11.750  18.250  1.0354e-04
11.750  18.500  1.6165e-04
11.750  18.750  2.4642e-04
11.750  19.000  3.7086e-04
11.750  19.250  5.4667e-04
11.750  19.500  7.9687e-04
11.750  19.750  1.1503e-03
11.750  20.000  1.6579e-03
11.750  20.250  2.3737e-03
11.750  20.500  3.3663e-03
11.750  20.750  4.6248e-03
11.750  21.000  5.0287e-03
11.750  21.250  5.1109e-03
11.750  21.500  5.2532e-03
11.750  21.750  5.4788e-03
11.750  22.000  5.5226e-03
11.750  22.250  5.5320e-03
11.750  22.500  5.5395e-03
11.750  22.750  5.5441e-03
11.750  23.000  5.5484e-03
11.750  23.250  5.5519e-03
11.750  23.500  5.5555e-03
11.750  23.750  5.5541e-03
11.750  24.000  5.5548e-03
12.000  17.000  8.0658e-06
12.000  17.250  1.1358e-05
12.000  17.500  1.7284e-05
12.000  17.750  2.7654e-05
12.000  18.000  4.4856e-05
12.000  18.250  7.1523e-05
12.000  18.500  1.1235e-04
12.000  18.750  1.7243e-04
12.000  19.000  2.6091e-04
12.000  19.250  3.8683e-04
12.000  19.500  5.6593e-04
12.000  19.750  8.2074e-04
12.000  20.000  1.1830e-03
12.000  20.250  1.7037e-03
12.000  20.500  2.4404e-03
12.000  20.750  3.4678e-03
12.000  21.000  4.7463e-03
12.000  21.250  4.9980e-03
12.000  21.500  5.1272e-03
12.000  21.750  5.2955e-03
12.000  22.000  5.4992e-03
12.000  22.250  5.5141e-03
12.000  22.500  5.5260e-03
12.000  22.750  5.5352e-03
12.000  23.000  5.5408e-03
12.000  23.250  5.5464e-03
12.000  23.500  5.5511e-03
12.000  23.750  5.5527e-03
12.000  24.000  5.5539e-03
12.250  17.000  6.0905e-06
12.250  17.250  8.4774e-06
12.250  17.500  1.2428e-05
12.250  17.750  1.9342e-05
12.250  18.000  3.0782e-05
12.250  18.250  4.9218e-05
12.250  18.500  7.7860e-05
12.250  18.750  1.2066e-04
12.250  19.000  1.8329e-04
12.250  19.250  2.7284e-04
12.250  19.500  4.0008e-04
12.250  19.750  5.8173e-04
12.250  20.000  8.4008e-04
12.250  20.250  1.2090e-03
12.250  20.500  1.7412e-03
12.250  20.750  2.5004e-03
12.250  21.000  3.5558e-03
12.250  21.250  4.7153e-03
12.250  21.500  4.9821e-03
12.250  21.750  5.1312e-03
12.250  22.000  5.3384e-03
12.250  22.250  5.4832e-03
12.250  22.500  5.5014e-03
12.250  22.750  5.5168e-03
12.250  23.000  5.5286e-03
12.250  23.250  5.5357e-03
12.250  23.500  5.5432e-03
12.250  23.750  5.5500e-03
12.250  24.000  5.5520e-03
12.500  17.000  4.4444e-06
12.500  17.250  6.1728e-06
12.500  17.500  8.9712e-06
12.500  17.750  1.3498e-05
12.500  18.000  2.1070e-05
12.500  18.250  3.3745e-05
12.500  18.500  5.3745e-05
12.500  18.750  8.4033e-05
12.500  19.000  1.2840e-04
12.500  19.250  1.9210e-04
12.500  19.500  2.8230e-04
12.500  19.750  4.1070e-04
12.500  20.000  5.9473e-04
12.500  20.250  8.5761e-04
12.500  20.500  1.2305e-03
12.500  20.750  1.7694e-03
12.500  21.000  2.5508e-03
12.500  21.250  3.6187e-03
12.500  21.500  4.6998e-03
12.500  21.750  4.9317e-03
12.500  22.000  5.1330e-03
12.500  22.250  5.3587e-03
12.500  22.500  5.4585e-03
12.500  22.750  5.4821e-03
12.500  23.000  5.5029e-03
12.500  23.250  5.5178e-03
12.500  23.500  5.5272e-03
12.500  23.750  5.5381e-03
12.500  24.000  5.5481e-03
12.750  17.000  2.7984e-06
12.750  17.250  4.4444e-06
12.750  17.500  6.2551e-06
12.750  17.750  9.3004e-06
12.750  18.000  1.4568e-05
12.750  18.250  2.3210e-05
12.750  18.500  3.7037e-05
12.750  18.750  5.8354e-05
12.750  19.000  8.9630e-05
12.750  19.250  1.3514e-04
12.750  19.500  1.9909e-04
12.750  19.750  2.9012e-04
12.750  20.000  4.1942e-04
12.750  20.250  6.0527e-04
12.750  20.500  8.7078e-04
12.750  20.750  1.2449e-03
12.750  21.000  1.7968e-03
12.750  21.250  2.5880e-03
12.750  21.500  3.6511e-03
12.750  21.750  4.5844e-03
12.750  22.000  4.8651e-03
12.750  22.250  5.1185e-03
12.750  22.500  5.3468e-03
12.750  22.750  5.4208e-03
12.750  23.000  5.4537e-03
12.750  23.250  5.4812e-03
12.750  23.500  5.5005e-03
12.750  23.750  5.5135e-03
12.750  24.000  5.5297e-03
13.000  17.000  1.0000e-07
13.000  17.250  1.7284e-06
13.000  17.500  4.2798e-06
13.000  17.750  6.5844e-06
13.000  18.000  1.0206e-05
13.000  18.250  1.6049e-05
13.000  18.500  2.5597e-05
13.000  18.750  4.0247e-05
13.000  19.000  6.2222e-05
13.000  19.250  9.4074e-05
13.000  19.500  1.3975e-04
13.000  19.750  2.0412e-04
13.000  20.000  2.9539e-04
13.000  20.250  4.2527e-04
13.000  20.500  6.1317e-04
13.000  20.750  8.7901e-04
13.000  21.000  1.2661e-03
13.000  21.250  1.8227e-03
13.000  21.500  2.6086e-03
13.000  21.750  3.6527e-03
13.000  22.000  4.4433e-03
13.000  22.250  4.7612e-03
13.000  22.500  5.0533e-03
13.000  22.750  5.2867e-03
13.000  23.000  5.3651e-03
13.000  23.250  5.4112e-03
13.000  23.500  5.4482e-03
13.000  23.750  5.4733e-03
13.000  24.000  5.4914e-03
13.250  17.000  1.0000e-07
13.250  17.250  9.0535e-07
13.250  17.500  1.9753e-06
13.250  17.750  3.9506e-06
13.250  18.000  7.2428e-06
13.250  18.250  1.1276e-05
13.250  18.500  1.7613e-05
13.250  18.750  2.7654e-05
13.250  19.000  4.2798e-05
13.250  19.250  6.5103e-05
13.250  19.500  9.7366e-05
13.250  19.750  1.4288e-04
13.250  20.000  2.0790e-04
13.250  20.250  3.0025e-04
13.250  20.500  4.3136e-04
13.250  20.750  6.2025e-04
13.250  21.000  8.8872e-04
13.250  21.250  1.2770e-03
13.250  21.500  1.8316e-03
13.250  21.750  2.6184e-03
13.250  22.000  3.5599e-03
13.250  22.250  4.2169e-03
13.250  22.500  4.5982e-03
13.250  22.750  4.9200e-03
13.250  23.000  5.1831e-03
13.250  23.250  5.2821e-03
13.250  23.500  5.3474e-03
13.250  23.750  5.3974e-03
13.250  24.000  5.4306e-03
13.500  17.000  1.0000e-07
13.500  17.250  1.0000e-07
13.500  17.500  1.0700e-06
13.500  17.750  2.3868e-06
13.500  18.000  4.6091e-06
13.500  18.250  7.9835e-06
13.500  18.500  1.2346e-05
13.500  18.750  1.9095e-05
13.500  19.000  2.9383e-05
13.500  19.250  4.4938e-05
13.500  19.500  6.7160e-05
13.500  19.750  9.9424e-05
13.500  20.000  1.4535e-04
13.500  20.250  2.1037e-04
13.500  20.500  3.0313e-04
13.500  20.750  4.3498e-04
13.500  21.000  6.2280e-04
13.500  21.250  8.9580e-04
13.500  21.500  1.2811e-03
13.500  21.750  1.8169e-03
13.500  22.000  2.5314e-03
13.500  22.250  3.3551e-03
13.500  22.500  3.9272e-03
13.500  22.750  4.3487e-03
13.500  23.000  4.7158e-03
13.500  23.250  5.0281e-03
13.500  23.500  5.1605e-03
13.500  23.750  5.2535e-03
13.500  24.000  5.3202e-03
13.750  17.000  1.0000e-07
13.750  17.250  1.0000e-07
13.750  17.500  1.0000e-07
13.750  17.750  1.3169e-06
13.750  18.000  2.8807e-06
13.750  18.250  5.1852e-06
13.750  18.500  8.6420e-06
13.750  18.750  1.3251e-05
13.750  19.000  2.0247e-05
13.750  19.250  3.0782e-05
13.750  19.500  4.6255e-05
13.750  19.750  6.8724e-05
13.750  20.000  1.0107e-04
13.750  20.250  1.4724e-04
13.750  20.500  2.1276e-04
13.750  20.750  3.0634e-04
13.750  21.000  4.3868e-04
13.750  21.250  6.2691e-04
13.750  21.500  8.9506e-04
13.750  21.750  1.2689e-03
13.750  22.000  1.7667e-03
13.750  22.250  2.3727e-03
13.750  22.500  3.0562e-03
13.750  22.750  3.5923e-03
13.750  23.000  4.0512e-03
13.750  23.250  4.4568e-03
13.750  23.500  4.8119e-03
13.750  23.750  4.9856e-03
13.750  24.000  5.1152e-03
14.000  17.000  1.0000e-07
14.000  17.250  1.0000e-07
14.000  17.500  1.0000e-07
14.000  17.750  1.0000e-07
14.000  18.000  1.5638e-06
14.000  18.250  3.3745e-06
14.000  18.500  5.8436e-06
14.000  18.750  9.3004e-06
14.000  19.000  1.3992e-05
14.000  19.250  2.1070e-05
14.000  19.500  3.1770e-05
14.000  19.750  4.7243e-05
14.000  20.000  6.9877e-05
14.000  20.250  1.0222e-04
14.000  20.500  1.4872e-04
14.000  20.750  2.1473e-04
14.000  21.000  3.0872e-04
14.000  21.250  4.4165e-04
14.000  21.500  6.3086e-04
14.000  21.750  8.9317e-04
14.000  22.000  1.2364e-03
14.000  22.250  1.6316e-03
14.000  22.500  2.0942e-03
14.000  22.750  2.6985e-03
14.000  23.000  3.1909e-03
14.000  23.250  3.6853e-03
14.000  23.500  4.1246e-03
14.000  23.750  4.5198e-03
14.000  24.000  4.7407e-03
