InwC 8204.00A  relative to Inci 1215.00A scaled to 1215A.
Hden   Phi(H)  Eq_Width (A)
7.000  17.000  6.4444e-03
7.000  17.250  6.6495e-03
7.000  17.500  6.6525e-03
7.000  17.750  6.6556e-03
7.000  18.000  6.6588e-03
7.000  18.250  6.6619e-03
7.000  18.500  6.6637e-03
7.000  18.750  6.6645e-03
7.000  19.000  6.6653e-03
7.000  19.250  6.6659e-03
7.000  19.500  6.6661e-03
7.000  19.750  6.6662e-03
7.000  20.000  6.6663e-03
7.000  20.250  6.6663e-03
7.000  20.500  6.6663e-03
7.000  20.750  6.6663e-03
7.000  21.000  6.6663e-03
7.000  21.250  6.6664e-03
7.000  21.500  6.6664e-03
7.000  21.750  6.6665e-03
7.000  22.000  6.6665e-03
7.000  22.250  6.6665e-03
7.000  22.500  6.6665e-03
7.000  22.750  6.6665e-03
7.000  23.000  6.6666e-03
7.000  23.250  6.6665e-03
7.000  23.500  6.6665e-03
7.000  23.750  6.6665e-03
7.000  24.000  6.6665e-03
7.250  17.000  6.0961e-03
7.250  17.250  6.4456e-03
7.250  17.500  6.6495e-03
7.250  17.750  6.6525e-03
7.250  18.000  6.6556e-03
7.250  18.250  6.6588e-03
7.250  18.500  6.6620e-03
7.250  18.750  6.6637e-03
7.250  19.000  6.6645e-03
7.250  19.250  6.6653e-03
7.250  19.500  6.6659e-03
7.250  19.750  6.6661e-03
7.250  20.000  6.6662e-03
7.250  20.250  6.6663e-03
7.250  20.500  6.6663e-03
7.250  20.750  6.6663e-03
7.250  21.000  6.6663e-03
7.250  21.250  6.6663e-03
7.250  21.500  6.6663e-03
7.250  21.750  6.6663e-03
7.250  22.000  6.6671e-03
7.250  22.250  6.6664e-03
7.250  22.500  6.6664e-03
7.250  22.750  6.6665e-03
7.250  23.000  6.6666e-03
7.250  23.250  6.6667e-03
7.250  23.500  6.6665e-03
7.250  23.750  6.6667e-03
7.250  24.000  6.6665e-03
7.500  17.000  4.4683e-03
7.500  17.250  6.1163e-03
7.500  17.500  6.4466e-03
7.500  17.750  6.6495e-03
7.500  18.000  6.6526e-03
7.500  18.250  6.6556e-03
7.500  18.500  6.6589e-03
7.500  18.750  6.6620e-03
7.500  19.000  6.6637e-03
7.500  19.250  6.6645e-03
7.500  19.500  6.6653e-03
7.500  19.750  6.6658e-03
7.500  20.000  6.6661e-03
7.500  20.250  6.6662e-03
7.500  20.500  6.6663e-03
7.500  20.750  6.6663e-03
7.500  21.000  6.6663e-03
7.500  21.250  6.6663e-03
7.500  21.500  6.6663e-03
7.500  21.750  6.6663e-03
7.500  22.000  6.6663e-03
7.500  22.250  6.6663e-03
7.500  22.500  6.6663e-03
7.500  22.750  6.6663e-03
7.500  23.000  6.6663e-03
7.500  23.250  6.6664e-03
7.500  23.500  6.6664e-03
7.500  23.750  6.6664e-03
7.500  24.000  6.6664e-03
7.750  17.000  3.2171e-03
7.750  17.250  4.5115e-03
7.750  17.500  6.1309e-03
7.750  17.750  6.4475e-03
7.750  18.000  6.6495e-03
7.750  18.250  6.6526e-03
7.750  18.500  6.6556e-03
7.750  18.750  6.6589e-03
7.750  19.000  6.6619e-03
7.750  19.250  6.6637e-03
7.750  19.500  6.6645e-03
7.750  19.750  6.6653e-03
7.750  20.000  6.6658e-03
7.750  20.250  6.6661e-03
7.750  20.500  6.6662e-03
7.750  20.750  6.6663e-03
7.750  21.000  6.6663e-03
7.750  21.250  6.6663e-03
7.750  21.500  6.6663e-03
7.750  21.750  6.6663e-03
7.750  22.000  6.6663e-03
7.750  22.250  6.6663e-03
7.750  22.500  6.6663e-03
7.750  22.750  6.6663e-03
7.750  23.000  6.6664e-03
7.750  23.250  6.6663e-03
7.750  23.500  6.6663e-03
7.750  23.750  6.6663e-03
7.750  24.000  6.6663e-03
8.000  17.000  2.2396e-03
8.000  17.250  3.2469e-03
8.000  17.500  4.5204e-03
8.000  17.750  6.1070e-03
8.000  18.000  6.4464e-03
8.000  18.250  6.6495e-03
8.000  18.500  6.6526e-03
8.000  18.750  6.6556e-03
8.000  19.000  6.6589e-03
8.000  19.250  6.6620e-03
8.000  19.500  6.6637e-03
8.000  19.750  6.6645e-03
8.000  20.000  6.6653e-03
8.000  20.250  6.6659e-03
8.000  20.500  6.6661e-03
8.000  20.750  6.6662e-03
8.000  21.000  6.6663e-03
8.000  21.250  6.6663e-03
8.000  21.500  6.6663e-03
8.000  21.750  6.6663e-03
8.000  22.000  6.6663e-03
8.000  22.250  6.6663e-03
8.000  22.500  6.6663e-03
8.000  22.750  6.6663e-03
8.000  23.000  6.6663e-03
8.000  23.250  6.6663e-03
8.000  23.500  6.6663e-03
8.000  23.750  6.6663e-03
8.000  24.000  6.6669e-03
8.250  17.000  1.5614e-03
8.250  17.250  2.2817e-03
8.250  17.500  3.2993e-03
8.250  17.750  4.5587e-03
8.250  18.000  6.1172e-03
8.250  18.250  6.4471e-03
8.250  18.500  6.6495e-03
8.250  18.750  6.6526e-03
8.250  19.000  6.6556e-03
8.250  19.250  6.6589e-03
8.250  19.500  6.6620e-03
8.250  19.750  6.6637e-03
8.250  20.000  6.6645e-03
8.250  20.250  6.6653e-03
8.250  20.500  6.6659e-03
8.250  20.750  6.6661e-03
8.250  21.000  6.6662e-03
8.250  21.250  6.6663e-03
8.250  21.500  6.6663e-03
8.250  21.750  6.6663e-03
8.250  22.000  6.6663e-03
8.250  22.250  6.6663e-03
8.250  22.500  6.6663e-03
8.250  22.750  6.6663e-03
8.250  23.000  6.6665e-03
8.250  23.250  6.6663e-03
8.250  23.500  6.6663e-03
8.250  23.750  6.6663e-03
8.250  24.000  6.6663e-03
8.500  17.000  1.0949e-03
8.500  17.250  1.5947e-03
8.500  17.500  2.3334e-03
8.500  17.750  3.3713e-03
8.500  18.000  4.6185e-03
8.500  18.250  6.1373e-03
8.500  18.500  6.4475e-03
8.500  18.750  6.6495e-03
8.500  19.000  6.6526e-03
8.500  19.250  6.6556e-03
8.500  19.500  6.6589e-03
8.500  19.750  6.6620e-03
8.500  20.000  6.6637e-03
8.500  20.250  6.6645e-03
8.500  20.500  6.6653e-03
8.500  20.750  6.6658e-03
8.500  21.000  6.6661e-03
8.500  21.250  6.6662e-03
8.500  21.500  6.6663e-03
8.500  21.750  6.6663e-03
8.500  22.000  6.6663e-03
8.500  22.250  6.6663e-03
8.500  22.500  6.6663e-03
8.500  22.750  6.6665e-03
8.500  23.000  6.6663e-03
8.500  23.250  6.6663e-03
8.500  23.500  6.6663e-03
8.500  23.750  6.6663e-03
8.500  24.000  6.6663e-03
8.750  17.000  7.7226e-04
8.750  17.250  1.1207e-03
8.750  17.500  1.6400e-03
8.750  17.750  2.4123e-03
8.750  18.000  3.4720e-03
8.750  18.250  4.7173e-03
8.750  18.500  6.1698e-03
8.750  18.750  6.4474e-03
8.750  19.000  6.6495e-03
8.750  19.250  6.6526e-03
8.750  19.500  6.6557e-03
8.750  19.750  6.6590e-03
8.750  20.000  6.6620e-03
8.750  20.250  6.6637e-03
8.750  20.500  6.6645e-03
8.750  20.750  6.6653e-03
8.750  21.000  6.6659e-03
8.750  21.250  6.6661e-03
8.750  21.500  6.6662e-03
8.750  21.750  6.6663e-03
8.750  22.000  6.6663e-03
8.750  22.250  6.6663e-03
8.750  22.500  6.6663e-03
8.750  22.750  6.6663e-03
8.750  23.000  6.6663e-03
8.750  23.250  6.6663e-03
8.750  23.500  6.6663e-03
8.750  23.750  6.6663e-03
8.750  24.000  6.6663e-03
9.000  17.000  5.4609e-04
9.000  17.250  7.9128e-04
9.000  17.500  1.1583e-03
9.000  17.750  1.7128e-03
9.000  18.000  2.5429e-03
9.000  18.250  3.6577e-03
9.000  18.500  4.8913e-03
9.000  18.750  6.2518e-03
9.000  19.000  6.4462e-03
9.000  19.250  6.6494e-03
9.000  19.500  6.6526e-03
9.000  19.750  6.6557e-03
9.000  20.000  6.6590e-03
9.000  20.250  6.6620e-03
9.000  20.500  6.6637e-03
9.000  20.750  6.6645e-03
9.000  21.000  6.6653e-03
9.000  21.250  6.6659e-03
9.000  21.500  6.6661e-03
9.000  21.750  6.6662e-03
9.000  22.000  6.6662e-03
9.000  22.250  6.6663e-03
9.000  22.500  6.6663e-03
9.000  22.750  6.6663e-03
9.000  23.000  6.6663e-03
9.000  23.250  6.6663e-03
9.000  23.500  6.6663e-03
9.000  23.750  6.6663e-03
9.000  24.000  6.6665e-03
9.250  17.000  3.8650e-04
9.250  17.250  5.6025e-04
9.250  17.500  8.2214e-04
9.250  17.750  1.2241e-03
9.250  18.000  1.8491e-03
9.250  18.250  2.7673e-03
9.250  18.500  3.9359e-03
9.250  18.750  5.2038e-03
9.250  19.000  6.2441e-03
9.250  19.250  6.4436e-03
9.250  19.500  6.6491e-03
9.250  19.750  6.6526e-03
9.250  20.000  6.6557e-03
9.250  20.250  6.6590e-03
9.250  20.500  6.6620e-03
9.250  20.750  6.6637e-03
9.250  21.000  6.6645e-03
9.250  21.250  6.6653e-03
9.250  21.500  6.6649e-03
9.250  21.750  6.6649e-03
9.250  22.000  6.6649e-03
9.250  22.250  6.6651e-03
9.250  22.500  6.6661e-03
9.250  22.750  6.6661e-03
9.250  23.000  6.6662e-03
9.250  23.250  6.6662e-03
9.250  23.500  6.6663e-03
9.250  23.750  6.6663e-03
9.250  24.000  6.6663e-03
9.500  17.000  2.7391e-04
9.500  17.250  3.9728e-04
9.500  17.500  5.8477e-04
9.500  17.750  8.7975e-04
9.500  18.000  1.3512e-03
9.500  18.250  2.0765e-03
9.500  18.500  3.0795e-03
9.500  18.750  4.2781e-03
9.500  19.000  5.5369e-03
9.500  19.250  6.2272e-03
9.500  19.500  6.4364e-03
9.500  19.750  6.6486e-03
9.500  20.000  6.6525e-03
9.500  20.250  6.6557e-03
9.500  20.500  6.6590e-03
9.500  20.750  6.6616e-03
9.500  21.000  6.6626e-03
9.500  21.250  6.6634e-03
9.500  21.500  6.6640e-03
9.500  21.750  6.6642e-03
9.500  22.000  6.6640e-03
9.500  22.250  6.6642e-03
9.500  22.500  6.6642e-03
9.500  22.750  6.6643e-03
9.500  23.000  6.6643e-03
9.500  23.250  6.6643e-03
9.500  23.500  6.6644e-03
9.500  23.750  6.6644e-03
9.500  24.000  6.6644e-03
9.750  17.000  1.9416e-04
9.750  17.250  2.8173e-04
9.750  17.500  4.1630e-04
9.750  17.750  6.3284e-04
9.750  18.000  9.9235e-04
9.750  18.250  1.5581e-03
9.750  18.500  2.3657e-03
9.750  18.750  3.4108e-03
9.750  19.000  4.6181e-03
9.750  19.250  5.8942e-03
9.750  19.500  6.2071e-03
9.750  19.750  6.4251e-03
9.750  20.000  6.6468e-03
9.750  20.250  6.6523e-03
9.750  20.500  6.6556e-03
9.750  20.750  6.6589e-03
9.750  21.000  6.6617e-03
9.750  21.250  6.6628e-03
9.750  21.500  6.6634e-03
9.750  21.750  6.6641e-03
9.750  22.000  6.6644e-03
9.750  22.250  6.6641e-03
9.750  22.500  6.6642e-03
9.750  22.750  6.6642e-03
9.750  23.000  6.6642e-03
9.750  23.250  6.6642e-03
9.750  23.500  6.6642e-03
9.750  23.750  6.6642e-03
9.750  24.000  6.6643e-03
10.000  17.000  1.3753e-04
10.000  17.250  1.9992e-04
10.000  17.500  2.9663e-04
10.000  17.750  4.5646e-04
10.000  18.000  7.3193e-04
10.000  18.250  1.1687e-03
10.000  18.500  1.7976e-03
10.000  18.750  2.6464e-03
10.000  19.000  3.7220e-03
10.000  19.250  4.9603e-03
10.000  19.500  6.0454e-03
10.000  19.750  6.1849e-03
10.000  20.000  6.4022e-03
10.000  20.250  6.6434e-03
10.000  20.500  6.6517e-03
10.000  20.750  6.6555e-03
10.000  21.000  6.6589e-03
10.000  21.250  6.6617e-03
10.000  21.500  6.6633e-03
10.000  21.750  6.6635e-03
10.000  22.000  6.6642e-03
10.000  22.250  6.6646e-03
10.000  22.500  6.6644e-03
10.000  22.750  6.6641e-03
10.000  23.000  6.6643e-03
10.000  23.250  6.6643e-03
10.000  23.500  6.6643e-03
10.000  23.750  6.6642e-03
10.000  24.000  6.6642e-03
10.250  17.000  9.7366e-05
10.250  17.250  1.4198e-04
10.250  17.500  2.1177e-04
10.250  17.750  3.3037e-04
10.250  18.000  5.3984e-04
10.250  18.250  8.7103e-04
10.250  18.500  1.3495e-03
10.250  18.750  2.0072e-03
10.250  19.000  2.8816e-03
10.250  19.250  4.0137e-03
10.250  19.500  5.3402e-03
10.250  19.750  6.0272e-03
10.250  20.000  6.1600e-03
10.250  20.250  6.3813e-03
10.250  20.500  6.6341e-03
10.250  20.750  6.6503e-03
10.250  21.000  6.6552e-03
10.250  21.250  6.6588e-03
10.250  21.500  6.6617e-03
10.250  21.750  6.6635e-03
10.250  22.000  6.6640e-03
10.250  22.250  6.6643e-03
10.250  22.500  6.6647e-03
10.250  22.750  6.6646e-03
10.250  23.000  6.6643e-03
10.250  23.250  6.6641e-03
10.250  23.500  6.6642e-03
10.250  23.750  6.6643e-03
10.250  24.000  6.6643e-03
10.500  17.000  6.9053e-05
10.500  17.250  1.0099e-04
10.500  17.500  1.5177e-04
10.500  17.750  2.4049e-04
10.500  18.000  3.9778e-04
10.500  18.250  6.4905e-04
10.500  18.500  1.0030e-03
10.500  18.750  1.4956e-03
10.500  19.000  2.1765e-03
10.500  19.250  3.0784e-03
10.500  19.500  4.2424e-03
10.500  19.750  5.5481e-03
10.500  20.000  6.0010e-03
10.500  20.250  6.1388e-03
10.500  20.500  6.3663e-03
10.500  20.750  6.6258e-03
10.500  21.000  6.6474e-03
10.500  21.250  6.6546e-03
10.500  21.500  6.6584e-03
10.500  21.750  6.6616e-03
10.500  22.000  6.6635e-03
10.500  22.250  6.6643e-03
10.500  22.500  6.6646e-03
10.500  22.750  6.6648e-03
10.500  23.000  6.6648e-03
10.500  23.250  6.6646e-03
10.500  23.500  6.6644e-03
10.500  23.750  6.6643e-03
10.500  24.000  6.6642e-03
10.750  17.000  4.8971e-05
10.750  17.250  7.1934e-05
10.750  17.500  1.0930e-04
10.750  17.750  1.7556e-04
10.750  18.000  2.9251e-04
10.750  18.250  4.7556e-04
10.750  18.500  7.3547e-04
10.750  18.750  1.1119e-03
10.750  19.000  1.6174e-03
10.750  19.250  2.3119e-03
10.750  19.500  3.2494e-03
10.750  19.750  4.4609e-03
10.750  20.000  5.7637e-03
10.750  20.250  5.9647e-03
10.750  20.500  6.1205e-03
10.750  20.750  6.3564e-03
10.750  21.000  6.6134e-03
10.750  21.250  6.6421e-03
10.750  21.500  6.6536e-03
10.750  21.750  6.6578e-03
10.750  22.000  6.6612e-03
10.750  22.250  6.6634e-03
10.750  22.500  6.6643e-03
10.750  22.750  6.6650e-03
10.750  23.000  6.6648e-03
10.750  23.250  6.6649e-03
10.750  23.500  6.6648e-03
10.750  23.750  6.6647e-03
10.750  24.000  6.6645e-03
11.000  17.000  3.4897e-05
11.000  17.250  5.1276e-05
11.000  17.500  7.8683e-05
11.000  17.750  1.2790e-04
11.000  18.000  2.1350e-04
11.000  18.250  3.4494e-04
11.000  18.500  5.3868e-04
11.000  18.750  8.0848e-04
11.000  19.000  1.1855e-03
11.000  19.250  1.7007e-03
11.000  19.500  2.4235e-03
11.000  19.750  3.3979e-03
11.000  20.000  4.6845e-03
11.000  20.250  5.8119e-03
11.000  20.500  5.9637e-03
11.000  20.750  6.1137e-03
11.000  21.000  6.3581e-03
11.000  21.250  6.5975e-03
11.000  21.500  6.6359e-03
11.000  21.750  6.6511e-03
11.000  22.000  6.6567e-03
11.000  22.250  6.6606e-03
11.000  22.500  6.6631e-03
11.000  22.750  6.6642e-03
11.000  23.000  6.6651e-03
11.000  23.250  6.6649e-03
11.000  23.500  6.6649e-03
11.000  23.750  6.6649e-03
11.000  24.000  6.6649e-03
11.250  17.000  2.4938e-05
11.250  17.250  3.6461e-05
11.250  17.500  5.6461e-05
11.250  17.750  9.2593e-05
11.250  18.000  1.5416e-04
11.250  18.250  2.4823e-04
11.250  18.500  3.8428e-04
11.250  18.750  5.8403e-04
11.250  19.000  8.5770e-04
11.250  19.250  1.2392e-03
11.250  19.500  1.7744e-03
11.250  19.750  2.5171e-03
11.250  20.000  3.5308e-03
11.250  20.250  4.8726e-03
11.250  20.500  5.7993e-03
11.250  20.750  5.9472e-03
11.250  21.000  6.1151e-03
11.250  21.250  6.3756e-03
11.250  21.500  6.5933e-03
11.250  21.750  6.6275e-03
11.250  22.000  6.6473e-03
11.250  22.250  6.6545e-03
11.250  22.500  6.6595e-03
11.250  22.750  6.6628e-03
11.250  23.000  6.6640e-03
11.250  23.250  6.6650e-03
11.250  23.500  6.6654e-03
11.250  23.750  6.6649e-03
11.250  24.000  6.6650e-03
11.500  17.000  1.8025e-05
11.500  17.250  2.6173e-05
11.500  17.500  4.0412e-05
11.500  17.750  6.6420e-05
11.500  18.000  1.1012e-04
11.500  18.250  1.7663e-04
11.500  18.500  2.7350e-04
11.500  18.750  4.1588e-04
11.500  19.000  6.1465e-04
11.500  19.250  8.9663e-04
11.500  19.500  1.2855e-03
11.500  19.750  1.8350e-03
11.500  20.000  2.6020e-03
11.500  20.250  3.6497e-03
11.500  20.500  5.0370e-03
11.500  20.750  5.7682e-03
11.500  21.000  5.9426e-03
11.500  21.250  6.1282e-03
11.500  21.500  6.4267e-03
11.500  21.750  6.5842e-03
11.500  22.000  6.6197e-03
11.500  22.250  6.6416e-03
11.500  22.500  6.6507e-03
11.500  22.750  6.6575e-03
11.500  23.000  6.6621e-03
11.500  23.250  6.6636e-03
11.500  23.500  6.6649e-03
11.500  23.750  6.6657e-03
11.500  24.000  6.6651e-03
11.750  17.000  1.3251e-05
11.750  17.250  1.9012e-05
11.750  17.500  2.9053e-05
11.750  17.750  4.7325e-05
11.750  18.000  7.7695e-05
11.750  18.250  1.2379e-04
11.750  18.500  1.9251e-04
11.750  18.750  2.9226e-04
11.750  19.000  4.3745e-04
11.750  19.250  6.4074e-04
11.750  19.500  9.2642e-04
11.750  19.750  1.3244e-03
11.750  20.000  1.8872e-03
11.750  20.250  2.6700e-03
11.750  20.500  3.7497e-03
11.750  20.750  5.1510e-03
11.750  21.000  5.7317e-03
11.750  21.250  5.9430e-03
11.750  21.500  6.1760e-03
11.750  21.750  6.4894e-03
11.750  22.000  6.5747e-03
11.750  22.250  6.6113e-03
11.750  22.500  6.6350e-03
11.750  22.750  6.6459e-03
11.750  23.000  6.6548e-03
11.750  23.250  6.6612e-03
11.750  23.500  6.6660e-03
11.750  23.750  6.6646e-03
11.750  24.000  6.6657e-03
12.000  17.000  1.0041e-05
12.000  17.250  1.3992e-05
12.000  17.500  2.0988e-05
12.000  17.750  3.3498e-05
12.000  18.000  5.3992e-05
12.000  18.250  8.5761e-05
12.000  18.500  1.3416e-04
12.000  18.750  2.0519e-04
12.000  19.000  3.0897e-04
12.000  19.250  4.5556e-04
12.000  19.500  6.6173e-04
12.000  19.750  9.5103e-04
12.000  20.000  1.3556e-03
12.000  20.250  1.9265e-03
12.000  20.500  2.7211e-03
12.000  20.750  3.8226e-03
12.000  21.000  5.2311e-03
12.000  21.250  5.6873e-03
12.000  21.500  5.9728e-03
12.000  21.750  6.2332e-03
12.000  22.000  6.5160e-03
12.000  22.250  6.5640e-03
12.000  22.500  6.6022e-03
12.000  22.750  6.6272e-03
12.000  23.000  6.6398e-03
12.000  23.250  6.6512e-03
12.000  23.500  6.6599e-03
12.000  23.750  6.6625e-03
12.000  24.000  6.6644e-03
12.250  17.000  7.5720e-06
12.250  17.250  1.0453e-05
12.250  17.500  1.5226e-05
12.250  17.750  2.3457e-05
12.250  18.000  3.7119e-05
12.250  18.250  5.9095e-05
12.250  18.500  9.3169e-05
12.250  18.750  1.4395e-04
12.250  19.000  2.1786e-04
12.250  19.250  3.2272e-04
12.250  19.500  4.7021e-04
12.250  19.750  6.7819e-04
12.250  20.000  9.6914e-04
12.250  20.250  1.3765e-03
12.250  20.500  1.9515e-03
12.250  20.750  2.7556e-03
12.250  21.000  3.8681e-03
12.250  21.250  5.1481e-03
12.250  21.500  5.6728e-03
12.250  21.750  5.9882e-03
12.250  22.000  6.2923e-03
12.250  22.250  6.5015e-03
12.250  22.500  6.5506e-03
12.250  22.750  6.5904e-03
12.250  23.000  6.6174e-03
12.250  23.250  6.6320e-03
12.250  23.500  6.6463e-03
12.250  23.750  6.6582e-03
12.250  24.000  6.6616e-03
12.500  17.000  5.6790e-06
12.500  17.250  7.7366e-06
12.500  17.500  1.1029e-05
12.500  17.750  1.6461e-05
12.500  18.000  2.5597e-05
12.500  18.250  4.0658e-05
12.500  18.500  6.4527e-05
12.500  18.750  1.0058e-04
12.500  19.000  1.5309e-04
12.500  19.250  2.2798e-04
12.500  19.500  3.3325e-04
12.500  19.750  4.8132e-04
12.500  20.000  6.9045e-04
12.500  20.250  9.8329e-04
12.500  20.500  1.3887e-03
12.500  20.750  1.9597e-03
12.500  21.000  2.7682e-03
12.500  21.250  3.8743e-03
12.500  21.500  5.1137e-03
12.500  21.750  5.6181e-03
12.500  22.000  6.0059e-03
12.500  22.250  6.3264e-03
12.500  22.500  6.4793e-03
12.500  22.750  6.5316e-03
12.500  23.000  6.5751e-03
12.500  23.250  6.6041e-03
12.500  23.500  6.6212e-03
12.500  23.750  6.6397e-03
12.500  24.000  6.6559e-03
12.750  17.000  3.5391e-06
12.750  17.250  5.6790e-06
12.750  17.500  7.9012e-06
12.750  17.750  1.1523e-05
12.750  18.000  1.7778e-05
12.750  18.250  2.8148e-05
12.750  18.500  4.4609e-05
12.750  18.750  6.9959e-05
12.750  19.000  1.0716e-04
12.750  19.250  1.6082e-04
12.750  19.500  2.3588e-04
12.750  19.750  3.4148e-04
12.750  20.000  4.8963e-04
12.750  20.250  6.9844e-04
12.750  20.500  9.8955e-04
12.750  20.750  1.3877e-03
12.750  21.000  1.9567e-03
12.750  21.250  2.7524e-03
12.750  21.500  3.8726e-03
12.750  21.750  4.9738e-03
12.750  22.000  5.5552e-03
12.750  22.250  6.0043e-03
12.750  22.500  6.3247e-03
12.750  22.750  6.4440e-03
12.750  23.000  6.5044e-03
12.750  23.250  6.5529e-03
12.750  23.500  6.5849e-03
12.750  23.750  6.6057e-03
12.750  24.000  6.6300e-03
13.000  17.000  9.8765e-07
13.000  17.250  2.2222e-06
13.000  17.500  5.4321e-06
13.000  17.750  8.2305e-06
13.000  18.000  1.2510e-05
13.000  18.250  1.9588e-05
13.000  18.500  3.0947e-05
13.000  18.750  4.8477e-05
13.000  19.000  7.4568e-05
13.000  19.250  1.1235e-04
13.000  19.500  1.6609e-04
13.000  19.750  2.4123e-04
13.000  20.000  3.4642e-04
13.000  20.250  4.9350e-04
13.000  20.500  7.0123e-04
13.000  20.750  9.8626e-04
13.000  21.000  1.3863e-03
13.000  21.250  1.9397e-03
13.000  21.500  2.7393e-03
13.000  21.750  3.8159e-03
13.000  22.000  4.8170e-03
13.000  22.250  5.4542e-03
13.000  22.500  5.9397e-03
13.000  22.750  6.2682e-03
13.000  23.000  6.3895e-03
13.000  23.250  6.4630e-03
13.000  23.500  6.5196e-03
13.000  23.750  6.5565e-03
13.000  24.000  6.5822e-03
13.250  17.000  1.0000e-07
13.250  17.250  1.0700e-06
13.250  17.500  2.4691e-06
13.250  17.750  5.0206e-06
13.250  18.000  8.9712e-06
13.250  18.250  1.3827e-05
13.250  18.500  2.1399e-05
13.250  18.750  3.3416e-05
13.250  19.000  5.1440e-05
13.250  19.250  7.7860e-05
13.250  19.500  1.1605e-04
13.250  19.750  1.6938e-04
13.250  20.000  2.4477e-04
13.250  20.250  3.5004e-04
13.250  20.500  4.9597e-04
13.250  20.750  7.0008e-04
13.250  21.000  9.7885e-04
13.250  21.250  1.3634e-03
13.250  21.500  1.9193e-03
13.250  21.750  2.6796e-03
13.250  22.000  3.6671e-03
13.250  22.250  4.5691e-03
13.250  22.500  5.2830e-03
13.250  22.750  5.7954e-03
13.250  23.000  6.1634e-03
13.250  23.250  6.3060e-03
13.250  23.500  6.3993e-03
13.250  23.750  6.4686e-03
13.250  24.000  6.5131e-03
13.500  17.000  1.0000e-07
13.500  17.250  1.0000e-07
13.500  17.500  1.3992e-06
13.500  17.750  3.0453e-06
13.500  18.000  5.8436e-06
13.500  18.250  9.8765e-06
13.500  18.500  1.5062e-05
13.500  18.750  2.3128e-05
13.500  19.000  3.5473e-05
13.500  19.250  5.3992e-05
13.500  19.500  8.0329e-05
13.500  19.750  1.1819e-04
13.500  20.000  1.7160e-04
13.500  20.250  2.4617e-04
13.500  20.500  3.5021e-04
13.500  20.750  4.9350e-04
13.500  21.000  6.8947e-04
13.500  21.250  9.5959e-04
13.500  21.500  1.3420e-03
13.500  21.750  1.8340e-03
13.500  22.000  2.5012e-03
13.500  22.250  3.4168e-03
13.500  22.500  4.2645e-03
13.500  22.750  5.0029e-03
13.500  23.000  5.5726e-03
13.500  23.250  6.0013e-03
13.500  23.500  6.1807e-03
13.500  23.750  6.3040e-03
13.500  24.000  6.3900e-03
13.750  17.000  1.0000e-07
13.750  17.250  1.0000e-07
13.750  17.500  1.0000e-07
13.750  17.750  1.6461e-06
13.750  18.000  3.7037e-06
13.750  18.250  6.5021e-06
13.750  18.500  1.0700e-05
13.750  18.750  1.6214e-05
13.750  19.000  2.4609e-05
13.750  19.250  3.7037e-05
13.750  19.500  5.5391e-05
13.750  19.750  8.1975e-05
13.750  20.000  1.1967e-04
13.750  20.250  1.7276e-04
13.750  20.500  2.4658e-04
13.750  20.750  3.4881e-04
13.750  21.000  4.8749e-04
13.750  21.250  6.7350e-04
13.750  21.500  9.3786e-04
13.750  21.750  1.2685e-03
13.750  22.000  1.6886e-03
13.750  22.250  2.2586e-03
13.750  22.500  3.1058e-03
13.750  22.750  3.9291e-03
13.750  23.000  4.6845e-03
13.750  23.250  5.2912e-03
13.750  23.500  5.7718e-03
13.750  23.750  5.9975e-03
13.750  24.000  6.1612e-03
14.000  17.000  1.0000e-07
14.000  17.250  1.0000e-07
14.000  17.500  1.0000e-07
14.000  17.750  9.8765e-07
14.000  18.000  2.0576e-06
14.000  18.250  4.2798e-06
14.000  18.500  7.2428e-06
14.000  18.750  1.1440e-05
14.000  19.000  1.7119e-05
14.000  19.250  2.5514e-05
14.000  19.500  3.8189e-05
14.000  19.750  5.6461e-05
14.000  20.000  8.2881e-05
14.000  20.250  1.2025e-04
14.000  20.500  1.7276e-04
14.000  20.750  2.4510e-04
14.000  21.000  3.4379e-04
14.000  21.250  4.7490e-04
14.000  21.500  6.6016e-04
14.000  21.750  8.8469e-04
14.000  22.000  1.1490e-03
14.000  22.250  1.4622e-03
14.000  22.500  1.9624e-03
14.000  22.750  2.7770e-03
14.000  23.000  3.5272e-03
14.000  23.250  4.2956e-03
14.000  23.500  4.9308e-03
14.000  23.750  5.4578e-03
14.000  24.000  5.7379e-03
