InwC 1650.00A  relative to Inci 1215.00A scaled to 1215A.
Hden   Phi(H)  Eq_Width (A)
7.000  17.000  2.3569e-02
7.000  17.250  2.4427e-02
7.000  17.500  2.4438e-02
7.000  17.750  2.4449e-02
7.000  18.000  2.4461e-02
7.000  18.250  2.4472e-02
7.000  18.500  2.4479e-02
7.000  18.750  2.4482e-02
7.000  19.000  2.4485e-02
7.000  19.250  2.4487e-02
7.000  19.500  2.4488e-02
7.000  19.750  2.4488e-02
7.000  20.000  2.4488e-02
7.000  20.250  2.4488e-02
7.000  20.500  2.4489e-02
7.000  20.750  2.4489e-02
7.000  21.000  2.4489e-02
7.000  21.250  2.4489e-02
7.000  21.500  2.4489e-02
7.000  21.750  2.4489e-02
7.000  22.000  2.4489e-02
7.000  22.250  2.4489e-02
7.000  22.500  2.4489e-02
7.000  22.750  2.4489e-02
7.000  23.000  2.4490e-02
7.000  23.250  2.4489e-02
7.000  23.500  2.4489e-02
7.000  23.750  2.4489e-02
7.000  24.000  2.4489e-02
7.250  17.000  2.2300e-02
7.250  17.250  2.3575e-02
7.250  17.500  2.4427e-02
7.250  17.750  2.4438e-02
7.250  18.000  2.4449e-02
7.250  18.250  2.4461e-02
7.250  18.500  2.4472e-02
7.250  18.750  2.4479e-02
7.250  19.000  2.4482e-02
7.250  19.250  2.4485e-02
7.250  19.500  2.4487e-02
7.250  19.750  2.4488e-02
7.250  20.000  2.4488e-02
7.250  20.250  2.4488e-02
7.250  20.500  2.4488e-02
7.250  20.750  2.4488e-02
7.250  21.000  2.4488e-02
7.250  21.250  2.4489e-02
7.250  21.500  2.4489e-02
7.250  21.750  2.4489e-02
7.250  22.000  2.4491e-02
7.250  22.250  2.4489e-02
7.250  22.500  2.4489e-02
7.250  22.750  2.4489e-02
7.250  23.000  2.4489e-02
7.250  23.250  2.4490e-02
7.250  23.500  2.4489e-02
7.250  23.750  2.4490e-02
7.250  24.000  2.4489e-02
7.500  17.000  1.8383e-02
7.500  17.250  2.2347e-02
7.500  17.500  2.3580e-02
7.500  17.750  2.4427e-02
7.500  18.000  2.4438e-02
7.500  18.250  2.4449e-02
7.500  18.500  2.4461e-02
7.500  18.750  2.4473e-02
7.500  19.000  2.4479e-02
7.500  19.250  2.4482e-02
7.500  19.500  2.4485e-02
7.500  19.750  2.4487e-02
7.500  20.000  2.4488e-02
7.500  20.250  2.4488e-02
7.500  20.500  2.4488e-02
7.500  20.750  2.4488e-02
7.500  21.000  2.4488e-02
7.500  21.250  2.4488e-02
7.500  21.500  2.4488e-02
7.500  21.750  2.4488e-02
7.500  22.000  2.4489e-02
7.500  22.250  2.4489e-02
7.500  22.500  2.4489e-02
7.500  22.750  2.4489e-02
7.500  23.000  2.4489e-02
7.500  23.250  2.4489e-02
7.500  23.500  2.4489e-02
7.500  23.750  2.4489e-02
7.500  24.000  2.4489e-02
7.750  17.000  1.5560e-02
7.750  17.250  1.8469e-02
7.750  17.500  2.2380e-02
7.750  17.750  2.3584e-02
7.750  18.000  2.4427e-02
7.750  18.250  2.4438e-02
7.750  18.500  2.4449e-02
7.750  18.750  2.4461e-02
7.750  19.000  2.4473e-02
7.750  19.250  2.4479e-02
7.750  19.500  2.4482e-02
7.750  19.750  2.4485e-02
7.750  20.000  2.4487e-02
7.750  20.250  2.4488e-02
7.750  20.500  2.4488e-02
7.750  20.750  2.4488e-02
7.750  21.000  2.4488e-02
7.750  21.250  2.4488e-02
7.750  21.500  2.4488e-02
7.750  21.750  2.4488e-02
7.750  22.000  2.4488e-02
7.750  22.250  2.4488e-02
7.750  22.500  2.4489e-02
7.750  22.750  2.4488e-02
7.750  23.000  2.4489e-02
7.750  23.250  2.4489e-02
7.750  23.500  2.4489e-02
7.750  23.750  2.4489e-02
7.750  24.000  2.4489e-02
8.000  17.000  1.3449e-02
8.000  17.250  1.5609e-02
8.000  17.500  1.8474e-02
8.000  17.750  2.2322e-02
8.000  18.000  2.3579e-02
8.000  18.250  2.4427e-02
8.000  18.500  2.4438e-02
8.000  18.750  2.4449e-02
8.000  19.000  2.4461e-02
8.000  19.250  2.4473e-02
8.000  19.500  2.4479e-02
8.000  19.750  2.4482e-02
8.000  20.000  2.4485e-02
8.000  20.250  2.4487e-02
8.000  20.500  2.4488e-02
8.000  20.750  2.4488e-02
8.000  21.000  2.4488e-02
8.000  21.250  2.4488e-02
8.000  21.500  2.4488e-02
8.000  21.750  2.4488e-02
8.000  22.000  2.4488e-02
8.000  22.250  2.4488e-02
8.000  22.500  2.4488e-02
8.000  22.750  2.4488e-02
8.000  23.000  2.4488e-02
8.000  23.250  2.4488e-02
8.000  23.500  2.4488e-02
8.000  23.750  2.4488e-02
8.000  24.000  2.4491e-02
8.250  17.000  1.2019e-02
8.250  17.250  1.3522e-02
8.250  17.500  1.5701e-02
8.250  17.750  1.8541e-02
8.250  18.000  2.2342e-02
8.250  18.250  2.3582e-02
8.250  18.500  2.4426e-02
8.250  18.750  2.4438e-02
8.250  19.000  2.4449e-02
8.250  19.250  2.4461e-02
8.250  19.500  2.4473e-02
8.250  19.750  2.4479e-02
8.250  20.000  2.4482e-02
8.250  20.250  2.4485e-02
8.250  20.500  2.4487e-02
8.250  20.750  2.4488e-02
8.250  21.000  2.4488e-02
8.250  21.250  2.4488e-02
8.250  21.500  2.4488e-02
8.250  21.750  2.4488e-02
8.250  22.000  2.4488e-02
8.250  22.250  2.4488e-02
8.250  22.500  2.4488e-02
8.250  22.750  2.4489e-02
8.250  23.000  2.4489e-02
8.250  23.250  2.4489e-02
8.250  23.500  2.4488e-02
8.250  23.750  2.4488e-02
8.250  24.000  2.4488e-02
8.500  17.000  1.1044e-02
8.500  17.250  1.2069e-02
8.500  17.500  1.3605e-02
8.500  17.750  1.5823e-02
8.500  18.000  1.8645e-02
8.500  18.250  2.2383e-02
8.500  18.500  2.3584e-02
8.500  18.750  2.4426e-02
8.500  19.000  2.4438e-02
8.500  19.250  2.4449e-02
8.500  19.500  2.4462e-02
8.500  19.750  2.4473e-02
8.500  20.000  2.4479e-02
8.500  20.250  2.4482e-02
8.500  20.500  2.4485e-02
8.500  20.750  2.4487e-02
8.500  21.000  2.4488e-02
8.500  21.250  2.4488e-02
8.500  21.500  2.4488e-02
8.500  21.750  2.4488e-02
8.500  22.000  2.4488e-02
8.500  22.250  2.4488e-02
8.500  22.500  2.4488e-02
8.500  22.750  2.4489e-02
8.500  23.000  2.4488e-02
8.500  23.250  2.4488e-02
8.500  23.500  2.4488e-02
8.500  23.750  2.4488e-02
8.500  24.000  2.4488e-02
8.750  17.000  1.0371e-02
8.750  17.250  1.1073e-02
8.750  17.500  1.2130e-02
8.750  17.750  1.3726e-02
8.750  18.000  1.5987e-02
8.750  18.250  1.8821e-02
8.750  18.500  2.2450e-02
8.750  18.750  2.3585e-02
8.750  19.000  2.4425e-02
8.750  19.250  2.4438e-02
8.750  19.500  2.4450e-02
8.750  19.750  2.4462e-02
8.750  20.000  2.4473e-02
8.750  20.250  2.4479e-02
8.750  20.500  2.4482e-02
8.750  20.750  2.4485e-02
8.750  21.000  2.4487e-02
8.750  21.250  2.4488e-02
8.750  21.500  2.4488e-02
8.750  21.750  2.4488e-02
8.750  22.000  2.4488e-02
8.750  22.250  2.4488e-02
8.750  22.500  2.4488e-02
8.750  22.750  2.4488e-02
8.750  23.000  2.4488e-02
8.750  23.250  2.4488e-02
8.750  23.500  2.4488e-02
8.750  23.750  2.4488e-02
8.750  24.000  2.4488e-02
9.000  17.000  9.8966e-03
9.000  17.250  1.0380e-02
9.000  17.500  1.1109e-02
9.000  17.750  1.2222e-02
9.000  18.000  1.3927e-02
9.000  18.250  1.6304e-02
9.000  18.500  1.9149e-02
9.000  18.750  2.2633e-02
9.000  19.000  2.3582e-02
9.000  19.250  2.4424e-02
9.000  19.500  2.4438e-02
9.000  19.750  2.4450e-02
9.000  20.000  2.4462e-02
9.000  20.250  2.4473e-02
9.000  20.500  2.4479e-02
9.000  20.750  2.4482e-02
9.000  21.000  2.4485e-02
9.000  21.250  2.4487e-02
9.000  21.500  2.4488e-02
9.000  21.750  2.4488e-02
9.000  22.000  2.4488e-02
9.000  22.250  2.4488e-02
9.000  22.500  2.4488e-02
9.000  22.750  2.4488e-02
9.000  23.000  2.4488e-02
9.000  23.250  2.4488e-02
9.000  23.500  2.4488e-02
9.000  23.750  2.4488e-02
9.000  24.000  2.4489e-02
9.250  17.000  9.5588e-03
9.250  17.250  9.8914e-03
9.250  17.500  1.0395e-02
9.250  17.750  1.1175e-02
9.250  18.000  1.2413e-02
9.250  18.250  1.4294e-02
9.250  18.500  1.6808e-02
9.250  18.750  1.9798e-02
9.250  19.000  2.2625e-02
9.250  19.250  2.3575e-02
9.250  19.500  2.4422e-02
9.250  19.750  2.4438e-02
9.250  20.000  2.4450e-02
9.250  20.250  2.4462e-02
9.250  20.500  2.4473e-02
9.250  20.750  2.4479e-02
9.250  21.000  2.4482e-02
9.250  21.250  2.4485e-02
9.250  21.500  2.4483e-02
9.250  21.750  2.4483e-02
9.250  22.000  2.4483e-02
9.250  22.250  2.4484e-02
9.250  22.500  2.4488e-02
9.250  22.750  2.4488e-02
9.250  23.000  2.4488e-02
9.250  23.250  2.4488e-02
9.250  23.500  2.4488e-02
9.250  23.750  2.4488e-02
9.250  24.000  2.4488e-02
9.500  17.000  9.3189e-03
9.500  17.250  9.5431e-03
9.500  17.500  9.8851e-03
9.500  17.750  1.0433e-02
9.500  18.000  1.1333e-02
9.500  18.250  1.2766e-02
9.500  18.500  1.4830e-02
9.500  18.750  1.7462e-02
9.500  19.000  2.0561e-02
9.500  19.250  2.2610e-02
9.500  19.500  2.3562e-02
9.500  19.750  2.4419e-02
9.500  20.000  2.4437e-02
9.500  20.250  2.4450e-02
9.500  20.500  2.4462e-02
9.500  20.750  2.4471e-02
9.500  21.000  2.4475e-02
9.500  21.250  2.4478e-02
9.500  21.500  2.4480e-02
9.500  21.750  2.4481e-02
9.500  22.000  2.4480e-02
9.500  22.250  2.4481e-02
9.500  22.500  2.4481e-02
9.500  22.750  2.4481e-02
9.500  23.000  2.4481e-02
9.500  23.250  2.4481e-02
9.500  23.500  2.4482e-02
9.500  23.750  2.4482e-02
9.500  24.000  2.4482e-02
9.750  17.000  9.1475e-03
9.750  17.250  9.2938e-03
9.750  17.500  9.5211e-03
9.750  17.750  9.8961e-03
9.750  18.000  1.0549e-02
9.750  18.250  1.1616e-02
9.750  18.500  1.3206e-02
9.750  18.750  1.5385e-02
9.750  19.000  1.8149e-02
9.750  19.250  2.1491e-02
9.750  19.500  2.2601e-02
9.750  19.750  2.3540e-02
9.750  20.000  2.4413e-02
9.750  20.250  2.4436e-02
9.750  20.500  2.4449e-02
9.750  20.750  2.4462e-02
9.750  21.000  2.4472e-02
9.750  21.250  2.4476e-02
9.750  21.500  2.4478e-02
9.750  21.750  2.4481e-02
9.750  22.000  2.4482e-02
9.750  22.250  2.4480e-02
9.750  22.500  2.4481e-02
9.750  22.750  2.4481e-02
9.750  23.000  2.4481e-02
9.750  23.250  2.4481e-02
9.750  23.500  2.4481e-02
9.750  23.750  2.4481e-02
9.750  24.000  2.4481e-02
10.000  17.000  9.0253e-03
10.000  17.250  9.1169e-03
10.000  17.500  9.2621e-03
10.000  17.750  9.5109e-03
10.000  18.000  9.9723e-03
10.000  18.250  1.0739e-02
10.000  18.500  1.1903e-02
10.000  18.750  1.3581e-02
10.000  19.000  1.5904e-02
10.000  19.250  1.8954e-02
10.000  19.500  2.1935e-02
10.000  19.750  2.2603e-02
10.000  20.000  2.3518e-02
10.000  20.250  2.4405e-02
10.000  20.500  2.4434e-02
10.000  20.750  2.4449e-02
10.000  21.000  2.4462e-02
10.000  21.250  2.4472e-02
10.000  21.500  2.4478e-02
10.000  21.750  2.4479e-02
10.000  22.000  2.4481e-02
10.000  22.250  2.4482e-02
10.000  22.500  2.4481e-02
10.000  22.750  2.4480e-02
10.000  23.000  2.4481e-02
10.000  23.250  2.4481e-02
10.000  23.500  2.4481e-02
10.000  23.750  2.4481e-02
10.000  24.000  2.4481e-02
10.250  17.000  8.9384e-03
10.250  17.250  8.9914e-03
10.250  17.500  9.0766e-03
10.250  17.750  9.2333e-03
10.250  18.000  9.5383e-03
10.250  18.250  1.0060e-02
10.250  18.500  1.0872e-02
10.250  18.750  1.2080e-02
10.250  19.000  1.3845e-02
10.250  19.250  1.6468e-02
10.250  19.500  1.9956e-02
10.250  19.750  2.1998e-02
10.250  20.000  2.2607e-02
10.250  20.250  2.3498e-02
10.250  20.500  2.4395e-02
10.250  20.750  2.4431e-02
10.250  21.000  2.4449e-02
10.250  21.250  2.4462e-02
10.250  21.500  2.4472e-02
10.250  21.750  2.4479e-02
10.250  22.000  2.4481e-02
10.250  22.250  2.4481e-02
10.250  22.500  2.4483e-02
10.250  22.750  2.4482e-02
10.250  23.000  2.4481e-02
10.250  23.250  2.4481e-02
10.250  23.500  2.4481e-02
10.250  23.750  2.4481e-02
10.250  24.000  2.4481e-02
10.500  17.000  8.8759e-03
10.500  17.250  8.9018e-03
10.500  17.500  8.9444e-03
10.500  17.750  9.0314e-03
10.500  18.000  9.2128e-03
10.500  18.250  9.5534e-03
10.500  18.500  1.0101e-02
10.500  18.750  1.0971e-02
10.500  19.000  1.2344e-02
10.500  19.250  1.4332e-02
10.500  19.500  1.7138e-02
10.500  19.750  2.0555e-02
10.500  20.000  2.1999e-02
10.500  20.250  2.2610e-02
10.500  20.500  2.3486e-02
10.500  20.750  2.4382e-02
10.500  21.000  2.4427e-02
10.500  21.250  2.4447e-02
10.500  21.500  2.4461e-02
10.500  21.750  2.4472e-02
10.500  22.000  2.4479e-02
10.500  22.250  2.4481e-02
10.500  22.500  2.4483e-02
10.500  22.750  2.4483e-02
10.500  23.000  2.4483e-02
10.500  23.250  2.4482e-02
10.500  23.500  2.4481e-02
10.500  23.750  2.4481e-02
10.500  24.000  2.4481e-02
10.750  17.000  8.8287e-03
10.750  17.250  8.8360e-03
10.750  17.500  8.8472e-03
10.750  17.750  8.8797e-03
10.750  18.000  8.9760e-03
10.750  18.250  9.1883e-03
10.750  18.500  9.5695e-03
10.750  18.750  1.0238e-02
10.750  19.000  1.1229e-02
10.750  19.250  1.2680e-02
10.750  19.500  1.4776e-02
10.750  19.750  1.7717e-02
10.750  20.000  2.1172e-02
10.750  20.250  2.2007e-02
10.750  20.500  2.2618e-02
10.750  20.750  2.3490e-02
10.750  21.000  2.4371e-02
10.750  21.250  2.4422e-02
10.750  21.500  2.4446e-02
10.750  21.750  2.4461e-02
10.750  22.000  2.4472e-02
10.750  22.250  2.4479e-02
10.750  22.500  2.4482e-02
10.750  22.750  2.4484e-02
10.750  23.000  2.4483e-02
10.750  23.250  2.4483e-02
10.750  23.500  2.4483e-02
10.750  23.750  2.4483e-02
10.750  24.000  2.4482e-02
11.000  17.000  8.7883e-03
11.000  17.250  8.7831e-03
11.000  17.500  8.7705e-03
11.000  17.750  8.7678e-03
11.000  18.000  8.8092e-03
11.000  18.250  8.9402e-03
11.000  18.500  9.2241e-03
11.000  18.750  9.6998e-03
11.000  19.000  1.0410e-02
11.000  19.250  1.1429e-02
11.000  19.500  1.2942e-02
11.000  19.750  1.5120e-02
11.000  20.000  1.8260e-02
11.000  20.250  2.1369e-02
11.000  20.500  2.2038e-02
11.000  20.750  2.2628e-02
11.000  21.000  2.3518e-02
11.000  21.250  2.4359e-02
11.000  21.500  2.4416e-02
11.000  21.750  2.4444e-02
11.000  22.000  2.4460e-02
11.000  22.250  2.4472e-02
11.000  22.500  2.4479e-02
11.000  22.750  2.4482e-02
11.000  23.000  2.4485e-02
11.000  23.250  2.4484e-02
11.000  23.500  2.4484e-02
11.000  23.750  2.4484e-02
11.000  24.000  2.4483e-02
11.250  17.000  8.7500e-03
11.250  17.250  8.7347e-03
11.250  17.500  8.7081e-03
11.250  17.750  8.6835e-03
11.250  18.000  8.6926e-03
11.250  18.250  8.7793e-03
11.250  18.500  8.9793e-03
11.250  18.750  9.3225e-03
11.250  19.000  9.8141e-03
11.250  19.250  1.0529e-02
11.250  19.500  1.1581e-02
11.250  19.750  1.3120e-02
11.250  20.000  1.5381e-02
11.250  20.250  1.8675e-02
11.250  20.500  2.1370e-02
11.250  20.750  2.2039e-02
11.250  21.000  2.2660e-02
11.250  21.250  2.3598e-02
11.250  21.500  2.4341e-02
11.250  21.750  2.4409e-02
11.250  22.000  2.4441e-02
11.250  22.250  2.4458e-02
11.250  22.500  2.4471e-02
11.250  22.750  2.4479e-02
11.250  23.000  2.4482e-02
11.250  23.250  2.4485e-02
11.250  23.500  2.4486e-02
11.250  23.750  2.4484e-02
11.250  24.000  2.4484e-02
11.500  17.000  8.7159e-03
11.500  17.250  8.6898e-03
11.500  17.500  8.6547e-03
11.500  17.750  8.6193e-03
11.500  18.000  8.6144e-03
11.500  18.250  8.6780e-03
11.500  18.500  8.8198e-03
11.500  18.750  9.0543e-03
11.500  19.000  9.3926e-03
11.500  19.250  9.8952e-03
11.500  19.500  1.0613e-02
11.500  19.750  1.1679e-02
11.500  20.000  1.3260e-02
11.500  20.250  1.5592e-02
11.500  20.500  1.9042e-02
11.500  20.750  2.1333e-02
11.500  21.000  2.2048e-02
11.500  21.250  2.2731e-02
11.500  21.500  2.3769e-02
11.500  21.750  2.4324e-02
11.500  22.000  2.4401e-02
11.500  22.250  2.4437e-02
11.500  22.500  2.4456e-02
11.500  22.750  2.4470e-02
11.500  23.000  2.4478e-02
11.500  23.250  2.4482e-02
11.500  23.500  2.4485e-02
11.500  23.750  2.4487e-02
11.500  24.000  2.4484e-02
11.750  17.000  8.6920e-03
11.750  17.250  8.6522e-03
11.750  17.500  8.6090e-03
11.750  17.750  8.5707e-03
11.750  18.000  8.5644e-03
11.750  18.250  8.6124e-03
11.750  18.500  8.7117e-03
11.750  18.750  8.8662e-03
11.750  19.000  9.1026e-03
11.750  19.250  9.4434e-03
11.750  19.500  9.9447e-03
11.750  19.750  1.0668e-02
11.750  20.000  1.1751e-02
11.750  20.250  1.3353e-02
11.750  20.500  1.5775e-02
11.750  20.750  1.9302e-02
11.750  21.000  2.1285e-02
11.750  21.250  2.2100e-02
11.750  21.500  2.2878e-02
11.750  21.750  2.4014e-02
11.750  22.000  2.4300e-02
11.750  22.250  2.4390e-02
11.750  22.500  2.4433e-02
11.750  22.750  2.4455e-02
11.750  23.000  2.4469e-02
11.750  23.250  2.4478e-02
11.750  23.500  2.4492e-02
11.750  23.750  2.4485e-02
11.750  24.000  2.4487e-02
12.000  17.000  8.6826e-03
12.000  17.250  8.6291e-03
12.000  17.500  8.5765e-03
12.000  17.750  8.5381e-03
12.000  18.000  8.5348e-03
12.000  18.250  8.5703e-03
12.000  18.500  8.6386e-03
12.000  18.750  8.7420e-03
12.000  19.000  8.9016e-03
12.000  19.250  9.1339e-03
12.000  19.500  9.4764e-03
12.000  19.750  9.9770e-03
12.000  20.000  1.0707e-02
12.000  20.250  1.1801e-02
12.000  20.500  1.3434e-02
12.000  20.750  1.5952e-02
12.000  21.000  1.9625e-02
12.000  21.250  2.1288e-02
12.000  21.500  2.2196e-02
12.000  21.750  2.3105e-02
12.000  22.000  2.4130e-02
12.000  22.250  2.4280e-02
12.000  22.500  2.4376e-02
12.000  22.750  2.4428e-02
12.000  23.000  2.4452e-02
12.000  23.250  2.4468e-02
12.000  23.500  2.4478e-02
12.000  23.750  2.4481e-02
12.000  24.000  2.4485e-02
12.250  17.000  8.6836e-03
12.250  17.250  8.6255e-03
12.250  17.500  8.5658e-03
12.250  17.750  8.5258e-03
12.250  18.000  8.5212e-03
12.250  18.250  8.5461e-03
12.250  18.500  8.5900e-03
12.250  18.750  8.6581e-03
12.250  19.000  8.7645e-03
12.250  19.250  8.9221e-03
12.250  19.500  9.1551e-03
12.250  19.750  9.4984e-03
12.250  20.000  9.9985e-03
12.250  20.250  1.0734e-02
12.250  20.500  1.1842e-02
12.250  20.750  1.3537e-02
12.250  21.000  1.6175e-02
12.250  21.250  1.9653e-02
12.250  21.500  2.1314e-02
12.250  21.750  2.2328e-02
12.250  22.000  2.3363e-02
12.250  22.250  2.4110e-02
12.250  22.500  2.4256e-02
12.250  22.750  2.4361e-02
12.250  23.000  2.4420e-02
12.250  23.250  2.4449e-02
12.250  23.500  2.4467e-02
12.250  23.750  2.4477e-02
12.250  24.000  2.4481e-02
12.500  17.000  8.6579e-03
12.500  17.250  8.6379e-03
12.500  17.500  8.5821e-03
12.500  17.750  8.5414e-03
12.500  18.000  8.5258e-03
12.500  18.250  8.5319e-03
12.500  18.500  8.5555e-03
12.500  18.750  8.5983e-03
12.500  19.000  8.6681e-03
12.500  19.250  8.7760e-03
12.500  19.500  8.9350e-03
12.500  19.750  9.1679e-03
12.500  20.000  9.5133e-03
12.500  20.250  1.0019e-02
12.500  20.500  1.0759e-02
12.500  20.750  1.1890e-02
12.500  21.000  1.3673e-02
12.500  21.250  1.6469e-02
12.500  21.500  1.9789e-02
12.500  21.750  2.1408e-02
12.500  22.000  2.2515e-02
12.500  22.250  2.3577e-02
12.500  22.500  2.4092e-02
12.500  22.750  2.4241e-02
12.500  23.000  2.4348e-02
12.500  23.250  2.4411e-02
12.500  23.500  2.4444e-02
12.500  23.750  2.4465e-02
12.500  24.000  2.4477e-02
12.750  17.000  6.3928e-03
12.750  17.250  8.6480e-03
12.750  17.500  8.6084e-03
12.750  17.750  8.5712e-03
12.750  18.000  8.5417e-03
12.750  18.250  8.5267e-03
12.750  18.500  8.5308e-03
12.750  18.750  8.5545e-03
12.750  19.000  8.5994e-03
12.750  19.250  8.6732e-03
12.750  19.500  8.7823e-03
12.750  19.750  8.9424e-03
12.750  20.000  9.1746e-03
12.750  20.250  9.5205e-03
12.750  20.500  1.0030e-02
12.750  20.750  1.0777e-02
12.750  21.000  1.1960e-02
12.750  21.250  1.3860e-02
12.750  21.500  1.6694e-02
12.750  21.750  1.9951e-02
12.750  22.000  2.1562e-02
12.750  22.250  2.2719e-02
12.750  22.500  2.3733e-02
12.750  22.750  2.4075e-02
12.750  23.000  2.4225e-02
12.750  23.250  2.4334e-02
12.750  23.500  2.4401e-02
12.750  23.750  2.4439e-02
12.750  24.000  2.4462e-02
13.000  17.000  1.0640e-03
13.000  17.250  2.6146e-03
13.000  17.500  7.9065e-03
13.000  17.750  8.5899e-03
13.000  18.000  8.5588e-03
13.000  18.250  8.5307e-03
13.000  18.500  8.5166e-03
13.000  18.750  8.5226e-03
13.000  19.000  8.5487e-03
13.000  19.250  8.5965e-03
13.000  19.500  8.6719e-03
13.000  19.750  8.7816e-03
13.000  20.000  8.9398e-03
13.000  20.250  9.1690e-03
13.000  20.500  9.5144e-03
13.000  20.750  1.0024e-02
13.000  21.000  1.0816e-02
13.000  21.250  1.2078e-02
13.000  21.500  1.3990e-02
13.000  21.750  1.7155e-02
13.000  22.000  2.0228e-02
13.000  22.250  2.1705e-02
13.000  22.500  2.2854e-02
13.000  22.750  2.3789e-02
13.000  23.000  2.4066e-02
13.000  23.250  2.4215e-02
13.000  23.500  2.4323e-02
13.000  23.750  2.4391e-02
13.000  24.000  2.4432e-02
13.250  17.000  6.4815e-04
13.250  17.250  1.2489e-03
13.250  17.500  3.0477e-03
13.250  17.750  5.8067e-03
13.250  18.000  8.5735e-03
13.250  18.250  8.5424e-03
13.250  18.500  8.5151e-03
13.250  18.750  8.5032e-03
13.250  19.000  8.5117e-03
13.250  19.250  8.5398e-03
13.250  19.500  8.5896e-03
13.250  19.750  8.6635e-03
13.250  20.000  8.7719e-03
13.250  20.250  8.9275e-03
13.250  20.500  9.1522e-03
13.250  20.750  9.4926e-03
13.250  21.000  1.0007e-02
13.250  21.250  1.0829e-02
13.250  21.500  1.2090e-02
13.250  21.750  1.4287e-02
13.250  22.000  1.7589e-02
13.250  22.250  2.0371e-02
13.250  22.500  2.1800e-02
13.250  22.750  2.2886e-02
13.250  23.000  2.3799e-02
13.250  23.250  2.4055e-02
13.250  23.500  2.4207e-02
13.250  23.750  2.4313e-02
13.250  24.000  2.4381e-02
13.500  17.000  3.9547e-04
13.500  17.250  7.3062e-04
13.500  17.500  1.7262e-03
13.500  17.750  3.9366e-03
13.500  18.000  6.5210e-03
13.500  18.250  8.5556e-03
13.500  18.500  8.5246e-03
13.500  18.750  8.4979e-03
13.500  19.000  8.4885e-03
13.500  19.250  8.4997e-03
13.500  19.500  8.5277e-03
13.500  19.750  8.5756e-03
13.500  20.000  8.6460e-03
13.500  20.250  8.7464e-03
13.500  20.500  8.8919e-03
13.500  20.750  9.1040e-03
13.500  21.000  9.4281e-03
13.500  21.250  9.9510e-03
13.500  21.500  1.0742e-02
13.500  21.750  1.2098e-02
13.500  22.000  1.4426e-02
13.500  22.250  1.7944e-02
13.500  22.500  2.0446e-02
13.500  22.750  2.1779e-02
13.500  23.000  2.2815e-02
13.500  23.250  2.3775e-02
13.500  23.500  2.4040e-02
13.500  23.750  2.4194e-02
13.500  24.000  2.4299e-02
13.750  17.000  2.3539e-04
13.750  17.250  4.7481e-04
13.750  17.500  1.0396e-03
13.750  17.750  2.0785e-03
13.750  18.000  4.7797e-03
13.750  18.250  6.8284e-03
13.750  18.500  8.5375e-03
13.750  18.750  8.5064e-03
13.750  19.000  8.4807e-03
13.750  19.250  8.4728e-03
13.750  19.500  8.4844e-03
13.750  19.750  8.5112e-03
13.750  20.000  8.5528e-03
13.750  20.250  8.6136e-03
13.750  20.500  8.7002e-03
13.750  20.750  8.8267e-03
13.750  21.000  9.0158e-03
13.750  21.250  9.3151e-03
13.750  21.500  9.7751e-03
13.750  21.750  1.0575e-02
13.750  22.000  1.1997e-02
13.750  22.250  1.4545e-02
13.750  22.500  1.8256e-02
13.750  22.750  2.0511e-02
13.750  23.000  2.1730e-02
13.750  23.250  2.2775e-02
13.750  23.500  2.3736e-02
13.750  23.750  2.4013e-02
13.750  24.000  2.4173e-02
14.000  17.000  1.4222e-04
14.000  17.250  2.7737e-04
14.000  17.500  6.3539e-04
14.000  17.750  1.2612e-03
14.000  18.000  2.6146e-03
14.000  18.250  5.5248e-03
14.000  18.500  7.3284e-03
14.000  18.750  8.5189e-03
14.000  19.000  8.4886e-03
14.000  19.250  8.4628e-03
14.000  19.500  8.4546e-03
14.000  19.750  8.4639e-03
14.000  20.000  8.4850e-03
14.000  20.250  8.5154e-03
14.000  20.500  8.5593e-03
14.000  20.750  8.6207e-03
14.000  21.000  8.7127e-03
14.000  21.250  8.8579e-03
14.000  21.500  9.0900e-03
14.000  21.750  9.4982e-03
14.000  22.000  1.0242e-02
14.000  22.250  1.1682e-02
14.000  22.500  1.4564e-02
14.000  22.750  1.8575e-02
14.000  23.000  2.0485e-02
14.000  23.250  2.1672e-02
14.000  23.500  2.2737e-02
14.000  23.750  2.3704e-02
14.000  24.000  2.3969e-02
