nFnu 1356.96A  relative to Inci 1215.00A scaled to 1215A.
Hden   Phi(H)  Eq_Width (A)
7.000  17.000  6.9213e-02
7.000  17.250  6.3624e-02
7.000  17.500  4.9132e-02
7.000  17.750  3.8967e-02
7.000  18.000  3.2688e-02
7.000  18.250  2.9071e-02
7.000  18.500  2.6943e-02
7.000  18.750  2.5976e-02
7.000  19.000  2.5475e-02
7.000  19.250  2.5192e-02
7.000  19.500  2.5074e-02
7.000  19.750  2.5024e-02
7.000  20.000  2.5003e-02
7.000  20.250  2.4993e-02
7.000  20.500  2.4988e-02
7.000  20.750  2.4985e-02
7.000  21.000  2.4984e-02
7.000  21.250  2.4983e-02
7.000  21.500  2.4983e-02
7.000  21.750  2.4983e-02
7.000  22.000  2.4983e-02
7.000  22.250  2.4983e-02
7.000  22.500  2.4983e-02
7.000  22.750  2.4982e-02
7.000  23.000  2.4983e-02
7.000  23.250  2.4982e-02
7.000  23.500  2.4982e-02
7.000  23.750  2.4982e-02
7.000  24.000  2.4982e-02
7.250  17.000  7.4745e-02
7.250  17.250  6.8602e-02
7.250  17.500  6.3405e-02
7.250  17.750  4.9012e-02
7.250  18.000  3.8903e-02
7.250  18.250  3.2656e-02
7.250  18.500  2.9056e-02
7.250  18.750  2.6938e-02
7.250  19.000  2.5974e-02
7.250  19.250  2.5474e-02
7.250  19.500  2.5192e-02
7.250  19.750  2.5074e-02
7.250  20.000  2.5024e-02
7.250  20.250  2.5003e-02
7.250  20.500  2.4993e-02
7.250  20.750  2.4988e-02
7.250  21.000  2.4985e-02
7.250  21.250  2.4984e-02
7.250  21.500  2.4983e-02
7.250  21.750  2.4982e-02
7.250  22.000  2.4985e-02
7.250  22.250  2.4982e-02
7.250  22.500  2.4982e-02
7.250  22.750  2.4983e-02
7.250  23.000  2.4983e-02
7.250  23.250  2.4984e-02
7.250  23.500  2.4982e-02
7.250  23.750  2.4983e-02
7.250  24.000  2.4982e-02
7.500  17.000  8.3426e-02
7.500  17.250  7.3174e-02
7.500  17.500  6.8083e-02
7.500  17.750  6.3285e-02
7.500  18.000  4.8946e-02
7.500  18.250  3.8864e-02
7.500  18.500  3.2635e-02
7.500  18.750  2.9047e-02
7.500  19.000  2.6934e-02
7.500  19.250  2.5973e-02
7.500  19.500  2.5473e-02
7.500  19.750  2.5192e-02
7.500  20.000  2.5074e-02
7.500  20.250  2.5024e-02
7.500  20.500  2.5003e-02
7.500  20.750  2.4993e-02
7.500  21.000  2.4987e-02
7.500  21.250  2.4985e-02
7.500  21.500  2.4983e-02
7.500  21.750  2.4983e-02
7.500  22.000  2.4982e-02
7.500  22.250  2.4982e-02
7.500  22.500  2.4982e-02
7.500  22.750  2.4982e-02
7.500  23.000  2.4982e-02
7.500  23.250  2.4982e-02
7.500  23.500  2.4982e-02
7.500  23.750  2.4982e-02
7.500  24.000  2.4982e-02
7.750  17.000  9.0818e-02
7.750  17.250  8.1365e-02
7.750  17.500  7.1763e-02
7.750  17.750  6.7670e-02
7.750  18.000  6.3222e-02
7.750  18.250  4.8912e-02
7.750  18.500  3.8839e-02
7.750  18.750  3.2621e-02
7.750  19.000  2.9041e-02
7.750  19.250  2.6932e-02
7.750  19.500  2.5972e-02
7.750  19.750  2.5473e-02
7.750  20.000  2.5191e-02
7.750  20.250  2.5074e-02
7.750  20.500  2.5024e-02
7.750  20.750  2.5003e-02
7.750  21.000  2.4993e-02
7.750  21.250  2.4987e-02
7.750  21.500  2.4985e-02
7.750  21.750  2.4983e-02
7.750  22.000  2.4983e-02
7.750  22.250  2.4982e-02
7.750  22.500  2.4982e-02
7.750  22.750  2.4982e-02
7.750  23.000  2.4982e-02
7.750  23.250  2.4982e-02
7.750  23.500  2.4982e-02
7.750  23.750  2.4982e-02
7.750  24.000  2.4982e-02
8.000  17.000  9.5715e-02
8.000  17.250  8.8309e-02
8.000  17.500  7.9459e-02
8.000  17.750  7.0510e-02
8.000  18.000  6.7243e-02
8.000  18.250  6.3190e-02
8.000  18.500  4.8900e-02
8.000  18.750  3.8824e-02
8.000  19.000  3.2611e-02
8.000  19.250  2.9037e-02
8.000  19.500  2.6931e-02
8.000  19.750  2.5971e-02
8.000  20.000  2.5473e-02
8.000  20.250  2.5191e-02
8.000  20.500  2.5074e-02
8.000  20.750  2.5024e-02
8.000  21.000  2.5003e-02
8.000  21.250  2.4993e-02
8.000  21.500  2.4987e-02
8.000  21.750  2.4985e-02
8.000  22.000  2.4983e-02
8.000  22.250  2.4983e-02
8.000  22.500  2.4982e-02
8.000  22.750  2.4982e-02
8.000  23.000  2.4982e-02
8.000  23.250  2.4982e-02
8.000  23.500  2.4982e-02
8.000  23.750  2.4982e-02
8.000  24.000  2.4984e-02
8.250  17.000  9.8887e-02
8.250  17.250  9.3814e-02
8.250  17.500  8.6587e-02
8.250  17.750  7.8155e-02
8.250  18.000  6.9746e-02
8.250  18.250  6.7050e-02
8.250  18.500  6.3172e-02
8.250  18.750  4.8900e-02
8.250  19.000  3.8814e-02
8.250  19.250  3.2603e-02
8.250  19.500  2.9034e-02
8.250  19.750  2.6929e-02
8.250  20.000  2.5971e-02
8.250  20.250  2.5473e-02
8.250  20.500  2.5191e-02
8.250  20.750  2.5074e-02
8.250  21.000  2.5024e-02
8.250  21.250  2.5003e-02
8.250  21.500  2.4993e-02
8.250  21.750  2.4987e-02
8.250  22.000  2.4985e-02
8.250  22.250  2.4983e-02
8.250  22.500  2.4983e-02
8.250  22.750  2.4982e-02
8.250  23.000  2.4983e-02
8.250  23.250  2.4982e-02
8.250  23.500  2.4982e-02
8.250  23.750  2.4982e-02
8.250  24.000  2.4982e-02
8.500  17.000  1.0072e-01
8.500  17.250  9.7408e-02
8.500  17.500  9.2366e-02
8.500  17.750  8.5054e-02
8.500  18.000  7.6979e-02
8.500  18.250  6.9160e-02
8.500  18.500  6.6925e-02
8.500  18.750  6.3162e-02
8.500  19.000  4.8909e-02
8.500  19.250  3.8806e-02
8.500  19.500  3.2596e-02
8.500  19.750  2.9032e-02
8.500  20.000  2.6929e-02
8.500  20.250  2.5971e-02
8.500  20.500  2.5473e-02
8.500  20.750  2.5191e-02
8.500  21.000  2.5074e-02
8.500  21.250  2.5024e-02
8.500  21.500  2.5003e-02
8.500  21.750  2.4993e-02
8.500  22.000  2.4987e-02
8.500  22.250  2.4985e-02
8.500  22.500  2.4983e-02
8.500  22.750  2.4983e-02
8.500  23.000  2.4982e-02
8.500  23.250  2.4982e-02
8.500  23.500  2.4982e-02
8.500  23.750  2.4982e-02
8.500  24.000  2.4982e-02
8.750  17.000  1.0175e-01
8.750  17.250  9.9653e-02
8.750  17.500  9.6305e-02
8.750  17.750  9.0993e-02
8.750  18.000  8.3605e-02
8.750  18.250  7.5690e-02
8.750  18.500  6.8681e-02
8.750  18.750  6.6849e-02
8.750  19.000  6.3152e-02
8.750  19.250  4.8923e-02
8.750  19.500  3.8800e-02
8.750  19.750  3.2591e-02
8.750  20.000  2.9030e-02
8.750  20.250  2.6928e-02
8.750  20.500  2.5971e-02
8.750  20.750  2.5473e-02
8.750  21.000  2.5191e-02
8.750  21.250  2.5074e-02
8.750  21.500  2.5024e-02
8.750  21.750  2.5003e-02
8.750  22.000  2.4993e-02
8.750  22.250  2.4987e-02
8.750  22.500  2.4985e-02
8.750  22.750  2.4983e-02
8.750  23.000  2.4983e-02
8.750  23.250  2.4982e-02
8.750  23.500  2.4982e-02
8.750  23.750  2.4982e-02
8.750  24.000  2.4982e-02
9.000  17.000  1.0218e-01
9.000  17.250  1.0105e-01
9.000  17.500  9.8901e-02
9.000  17.750  9.5267e-02
9.000  18.000  8.9433e-02
9.000  18.250  8.1486e-02
9.000  18.500  7.3939e-02
9.000  18.750  6.7892e-02
9.000  19.000  6.6769e-02
9.000  19.250  6.3134e-02
9.000  19.500  4.8937e-02
9.000  19.750  3.8794e-02
9.000  20.000  3.2585e-02
9.000  20.250  2.9029e-02
9.000  20.500  2.6928e-02
9.000  20.750  2.5971e-02
9.000  21.000  2.5473e-02
9.000  21.250  2.5191e-02
9.000  21.500  2.5074e-02
9.000  21.750  2.5024e-02
9.000  22.000  2.5003e-02
9.000  22.250  2.4993e-02
9.000  22.500  2.4987e-02
9.000  22.750  2.4985e-02
9.000  23.000  2.4983e-02
9.000  23.250  2.4983e-02
9.000  23.500  2.4982e-02
9.000  23.750  2.4982e-02
9.000  24.000  2.4983e-02
9.250  17.000  1.0200e-01
9.250  17.250  1.0171e-01
9.250  17.500  1.0059e-01
9.250  17.750  9.8161e-02
9.250  18.000  9.3819e-02
9.250  18.250  8.7022e-02
9.250  18.500  7.8668e-02
9.250  18.750  7.1526e-02
9.250  19.000  6.7438e-02
9.250  19.250  6.6662e-02
9.250  19.500  6.3106e-02
9.250  19.750  4.8948e-02
9.250  20.000  3.8789e-02
9.250  20.250  3.2580e-02
9.250  20.500  2.9027e-02
9.250  20.750  2.6927e-02
9.250  21.000  2.5971e-02
9.250  21.250  2.5473e-02
9.250  21.500  2.5187e-02
9.250  21.750  2.5069e-02
9.250  22.000  2.5019e-02
9.250  22.250  2.4998e-02
9.250  22.500  2.4992e-02
9.250  22.750  2.4987e-02
9.250  23.000  2.4985e-02
9.250  23.250  2.4983e-02
9.250  23.500  2.4982e-02
9.250  23.750  2.4982e-02
9.250  24.000  2.4982e-02
9.500  17.000  1.0119e-01
9.500  17.250  1.0160e-01
9.500  17.500  1.0142e-01
9.500  17.750  1.0012e-01
9.500  18.000  9.6989e-02
9.500  18.250  9.1503e-02
9.500  18.500  8.3947e-02
9.500  18.750  7.5789e-02
9.500  19.000  6.9862e-02
9.500  19.250  6.6668e-02
9.500  19.500  6.6484e-02
9.500  19.750  6.3067e-02
9.500  20.000  4.8955e-02
9.500  20.250  3.8784e-02
9.500  20.500  3.2575e-02
9.500  20.750  2.9025e-02
9.500  21.000  2.6923e-02
9.500  21.250  2.5966e-02
9.500  21.500  2.5468e-02
9.500  21.750  2.5185e-02
9.500  22.000  2.5066e-02
9.500  22.250  2.5017e-02
9.500  22.500  2.4995e-02
9.500  22.750  2.4985e-02
9.500  23.000  2.4980e-02
9.500  23.250  2.4977e-02
9.500  23.500  2.4977e-02
9.500  23.750  2.4976e-02
9.500  24.000  2.4975e-02
9.750  17.000  9.9782e-02
9.750  17.250  1.0069e-01
9.750  17.500  1.0132e-01
9.750  17.750  1.0110e-01
9.750  18.000  9.9180e-02
9.750  18.250  9.5123e-02
9.750  18.500  8.8887e-02
9.750  18.750  8.1113e-02
9.750  19.000  7.3619e-02
9.750  19.250  6.8935e-02
9.750  19.500  6.5925e-02
9.750  19.750  6.6262e-02
9.750  20.000  6.3017e-02
9.750  20.250  4.8954e-02
9.750  20.500  3.8780e-02
9.750  20.750  3.2572e-02
9.750  21.000  2.9025e-02
9.750  21.250  2.6923e-02
9.750  21.500  2.5966e-02
9.750  21.750  2.5468e-02
9.750  22.000  2.5186e-02
9.750  22.250  2.5066e-02
9.750  22.500  2.5017e-02
9.750  22.750  2.4995e-02
9.750  23.000  2.4985e-02
9.750  23.250  2.4980e-02
9.750  23.500  2.4977e-02
9.750  23.750  2.4976e-02
9.750  24.000  2.4975e-02
10.000  17.000  9.7900e-02
10.000  17.250  9.9044e-02
10.000  17.500  1.0022e-01
10.000  17.750  1.0097e-01
10.000  18.000  1.0040e-01
10.000  18.250  9.7886e-02
10.000  18.500  9.3062e-02
10.000  18.750  8.6344e-02
10.000  19.000  7.8674e-02
10.000  19.250  7.2141e-02
10.000  19.500  6.9417e-02
10.000  19.750  6.5603e-02
10.000  20.000  6.5932e-02
10.000  20.250  6.2967e-02
10.000  20.500  4.8949e-02
10.000  20.750  3.8776e-02
10.000  21.000  3.2569e-02
10.000  21.250  2.9024e-02
10.000  21.500  2.6925e-02
10.000  21.750  2.5967e-02
10.000  22.000  2.5468e-02
10.000  22.250  2.5187e-02
10.000  22.500  2.5067e-02
10.000  22.750  2.5016e-02
10.000  23.000  2.4995e-02
10.000  23.250  2.4985e-02
10.000  23.500  2.4980e-02
10.000  23.750  2.4977e-02
10.000  24.000  2.4976e-02
10.250  17.000  9.6248e-02
10.250  17.250  9.6955e-02
10.250  17.500  9.8381e-02
10.250  17.750  9.9816e-02
10.250  18.000  1.0051e-01
10.250  18.250  9.9496e-02
10.250  18.500  9.6155e-02
10.250  18.750  9.0714e-02
10.250  19.000  8.3799e-02
10.250  19.250  7.6483e-02
10.250  19.500  7.0809e-02
10.250  19.750  7.0220e-02
10.250  20.000  6.5849e-02
10.250  20.250  6.5928e-02
10.250  20.500  6.2932e-02
10.250  20.750  4.8940e-02
10.250  21.000  3.8774e-02
10.250  21.250  3.2568e-02
10.250  21.500  2.9024e-02
10.250  21.750  2.6925e-02
10.250  22.000  2.5969e-02
10.250  22.250  2.5469e-02
10.250  22.500  2.5187e-02
10.250  22.750  2.5068e-02
10.250  23.000  2.5017e-02
10.250  23.250  2.4995e-02
10.250  23.500  2.4985e-02
10.250  23.750  2.4980e-02
10.250  24.000  2.4977e-02
10.500  17.000  9.5038e-02
10.500  17.250  9.5188e-02
10.500  17.500  9.6201e-02
10.500  17.750  9.7999e-02
10.500  18.000  9.9428e-02
10.500  18.250  9.9399e-02
10.500  18.500  9.7478e-02
10.500  18.750  9.3544e-02
10.500  19.000  8.8077e-02
10.500  19.250  8.1885e-02
10.500  19.500  7.5444e-02
10.500  19.750  7.1007e-02
10.500  20.000  7.0637e-02
10.500  20.250  6.6614e-02
10.500  20.500  6.6274e-02
10.500  20.750  6.2988e-02
10.500  21.000  4.8931e-02
10.500  21.250  3.8773e-02
10.500  21.500  3.2569e-02
10.500  21.750  2.9023e-02
10.500  22.000  2.6925e-02
10.500  22.250  2.5970e-02
10.500  22.500  2.5471e-02
10.500  22.750  2.5187e-02
10.500  23.000  2.5069e-02
10.500  23.250  2.5018e-02
10.500  23.500  2.4996e-02
10.500  23.750  2.4985e-02
10.500  24.000  2.4980e-02
10.750  17.000  9.4356e-02
10.750  17.250  9.4067e-02
10.750  17.500  9.4520e-02
10.750  17.750  9.5893e-02
10.750  18.000  9.7262e-02
10.750  18.250  9.7637e-02
10.750  18.500  9.6680e-02
10.750  18.750  9.4148e-02
10.750  19.000  9.0616e-02
10.750  19.250  8.6020e-02
10.750  19.500  8.0406e-02
10.750  19.750  7.4398e-02
10.750  20.000  7.0621e-02
10.750  20.250  7.1714e-02
10.750  20.500  6.8170e-02
10.750  20.750  6.7423e-02
10.750  21.000  6.3149e-02
10.750  21.250  4.8925e-02
10.750  21.500  3.8772e-02
10.750  21.750  3.2571e-02
10.750  22.000  2.9024e-02
10.750  22.250  2.6924e-02
10.750  22.500  2.5970e-02
10.750  22.750  2.5472e-02
10.750  23.000  2.5187e-02
10.750  23.250  2.5069e-02
10.750  23.500  2.5019e-02
10.750  23.750  2.4997e-02
10.750  24.000  2.4986e-02
11.000  17.000  9.4098e-02
11.000  17.250  9.3625e-02
11.000  17.500  9.3548e-02
11.000  17.750  9.3907e-02
11.000  18.000  9.4393e-02
11.000  18.250  9.4434e-02
11.000  18.500  9.3920e-02
11.000  18.750  9.2997e-02
11.000  19.000  9.1280e-02
11.000  19.250  8.8603e-02
11.000  19.500  8.4503e-02
11.000  19.750  7.9176e-02
11.000  20.000  7.2887e-02
11.000  20.250  7.2341e-02
11.000  20.500  7.4564e-02
11.000  20.750  7.0630e-02
11.000  21.000  6.9508e-02
11.000  21.250  6.3478e-02
11.000  21.500  4.8935e-02
11.000  21.750  3.8772e-02
11.000  22.000  3.2573e-02
11.000  22.250  2.9025e-02
11.000  22.500  2.6924e-02
11.000  22.750  2.5970e-02
11.000  23.000  2.5473e-02
11.000  23.250  2.5188e-02
11.000  23.500  2.5069e-02
11.000  23.750  2.5020e-02
11.000  24.000  2.4998e-02
11.250  17.000  9.4209e-02
11.250  17.250  9.3675e-02
11.250  17.500  9.3026e-02
11.250  17.750  9.2278e-02
11.250  18.000  9.1403e-02
11.250  18.250  9.0504e-02
11.250  18.500  9.0149e-02
11.250  18.750  9.0230e-02
11.250  19.000  9.0233e-02
11.250  19.250  8.9275e-02
11.250  19.500  8.7024e-02
11.250  19.750  8.3319e-02
11.250  20.000  7.8134e-02
11.250  20.250  7.1953e-02
11.250  20.500  7.3037e-02
11.250  20.750  7.6664e-02
11.250  21.000  7.4366e-02
11.250  21.250  7.2949e-02
11.250  21.500  6.4041e-02
11.250  21.750  4.8972e-02
11.250  22.000  3.8773e-02
11.250  22.250  3.2578e-02
11.250  22.500  2.9026e-02
11.250  22.750  2.6923e-02
11.250  23.000  2.5970e-02
11.250  23.250  2.5473e-02
11.250  23.500  2.5190e-02
11.250  23.750  2.5069e-02
11.250  24.000  2.5020e-02
11.500  17.000  9.4711e-02
11.500  17.250  9.3948e-02
11.500  17.500  9.2693e-02
11.500  17.750  9.0891e-02
11.500  18.000  8.8637e-02
11.500  18.250  8.6659e-02
11.500  18.500  8.6031e-02
11.500  18.750  8.6620e-02
11.500  19.000  8.7843e-02
11.500  19.250  8.8362e-02
11.500  19.500  8.7818e-02
11.500  19.750  8.5987e-02
11.500  20.000  8.2693e-02
11.500  20.250  7.7698e-02
11.500  20.500  7.1845e-02
11.500  20.750  7.6026e-02
11.500  21.000  8.1181e-02
11.500  21.250  8.0198e-02
11.500  21.500  7.8618e-02
11.500  21.750  6.4632e-02
11.500  22.000  4.9042e-02
11.500  22.250  3.8774e-02
11.500  22.500  3.2583e-02
11.500  22.750  2.9029e-02
11.500  23.000  2.6922e-02
11.500  23.250  2.5970e-02
11.500  23.500  2.5473e-02
11.500  23.750  2.5191e-02
11.500  24.000  2.5070e-02
11.750  17.000  9.5587e-02
11.750  17.250  9.4246e-02
11.750  17.500  9.2243e-02
11.750  17.750  8.9429e-02
11.750  18.000  8.6079e-02
11.750  18.250  8.3229e-02
11.750  18.500  8.1090e-02
11.750  18.750  7.9600e-02
11.750  19.000  7.8699e-02
11.750  19.250  7.8326e-02
11.750  19.500  7.8421e-02
11.750  19.750  7.8922e-02
11.750  20.000  7.9768e-02
11.750  20.250  8.0900e-02
11.750  20.500  8.2256e-02
11.750  20.750  8.3776e-02
11.750  21.000  8.5399e-02
11.750  21.250  8.7064e-02
11.750  21.500  8.8710e-02
11.750  21.750  8.5518e-02
11.750  22.000  6.5239e-02
11.750  22.250  4.9134e-02
11.750  22.500  3.8774e-02
11.750  22.750  3.2589e-02
11.750  23.000  2.9032e-02
11.750  23.250  2.6921e-02
11.750  23.500  2.5981e-02
11.750  23.750  2.5474e-02
11.750  24.000  2.5191e-02
12.000  17.000  9.6572e-02
12.000  17.250  9.4387e-02
12.000  17.500  9.1387e-02
12.000  17.750  8.7530e-02
12.000  18.000  8.3626e-02
12.000  18.250  8.0990e-02
12.000  18.500  7.9687e-02
12.000  18.750  7.9812e-02
12.000  19.000  8.1216e-02
12.000  19.250  8.3621e-02
12.000  19.500  8.6742e-02
12.000  19.750  9.0292e-02
12.000  20.000  9.3985e-02
12.000  20.250  9.7534e-02
12.000  20.500  1.0065e-01
12.000  20.750  1.0306e-01
12.000  21.000  1.0446e-01
12.000  21.250  1.0457e-01
12.000  21.500  1.0311e-01
12.000  21.750  9.9781e-02
12.000  22.000  9.0289e-02
12.000  22.250  6.5724e-02
12.000  22.500  4.9231e-02
12.000  22.750  3.8771e-02
12.000  23.000  3.2594e-02
12.000  23.250  2.9036e-02
12.000  23.500  2.6920e-02
12.000  23.750  2.5970e-02
12.000  24.000  2.5474e-02
12.250  17.000  9.6920e-02
12.250  17.250  9.3795e-02
12.250  17.500  8.9601e-02
12.250  17.750  8.4901e-02
12.250  18.000  8.1118e-02
12.250  18.250  7.8775e-02
12.250  18.500  7.7708e-02
12.250  18.750  7.7604e-02
12.250  19.000  8.0192e-02
12.250  19.250  8.5392e-02
12.250  19.500  9.2496e-02
12.250  19.750  1.0079e-01
12.250  20.000  1.0957e-01
12.250  20.250  1.1812e-01
12.250  20.500  1.2574e-01
12.250  20.750  1.3171e-01
12.250  21.000  1.3532e-01
12.250  21.250  1.3586e-01
12.250  21.500  1.3263e-01
12.250  21.750  1.2491e-01
12.250  22.000  1.1199e-01
12.250  22.250  9.2268e-02
12.250  22.500  6.6187e-02
12.250  22.750  4.9320e-02
12.250  23.000  3.8764e-02
12.250  23.250  3.2598e-02
12.250  23.500  2.9039e-02
12.250  23.750  2.6918e-02
12.250  24.000  2.5969e-02
12.500  17.000  9.4801e-02
12.500  17.250  9.1073e-02
12.500  17.500  8.6157e-02
12.500  17.750  8.1485e-02
12.500  18.000  7.8316e-02
12.500  18.250  7.6690e-02
12.500  18.500  7.6079e-02
12.500  18.750  7.6714e-02
12.500  19.000  7.8548e-02
12.500  19.250  8.1399e-02
12.500  19.500  8.5085e-02
12.500  19.750  8.9423e-02
12.500  20.000  9.4231e-02
12.500  20.250  9.9327e-02
12.500  20.500  1.0453e-01
12.500  20.750  1.0966e-01
12.500  21.000  1.1452e-01
12.500  21.250  1.1895e-01
12.500  21.500  1.2276e-01
12.500  21.750  1.2576e-01
12.500  22.000  1.2777e-01
12.500  22.250  1.2267e-01
12.500  22.500  9.4063e-02
12.500  22.750  6.6684e-02
12.500  23.000  4.9395e-02
12.500  23.250  3.8753e-02
12.500  23.500  3.2600e-02
12.500  23.750  2.9042e-02
12.500  24.000  2.6916e-02
12.750  17.000  6.9531e-02
12.750  17.250  8.4816e-02
12.750  17.500  8.0766e-02
12.750  17.750  7.7561e-02
12.750  18.000  7.5552e-02
12.750  18.250  7.4562e-02
12.750  18.500  7.4394e-02
12.750  18.750  7.6432e-02
12.750  19.000  8.0744e-02
12.750  19.250  8.6897e-02
12.750  19.500  9.4455e-02
12.750  19.750  1.0298e-01
12.750  20.000  1.1205e-01
12.750  20.250  1.2121e-01
12.750  20.500  1.3004e-01
12.750  20.750  1.3810e-01
12.750  21.000  1.4496e-01
12.750  21.250  1.5018e-01
12.750  21.500  1.5332e-01
12.750  21.750  1.5396e-01
12.750  22.000  1.5165e-01
12.750  22.250  1.4597e-01
12.750  22.500  1.3130e-01
12.750  22.750  9.5431e-02
12.750  23.000  6.7132e-02
12.750  23.250  4.9433e-02
12.750  23.500  3.8737e-02
12.750  23.750  3.2599e-02
12.750  24.000  2.9044e-02
13.000  17.000  1.7837e-02
13.000  17.250  3.1157e-02
13.000  17.500  6.9932e-02
13.000  17.750  7.3621e-02
13.000  18.000  7.2691e-02
13.000  18.250  7.2230e-02
13.000  18.500  7.2462e-02
13.000  18.750  7.3230e-02
13.000  19.000  7.4319e-02
13.000  19.250  7.5620e-02
13.000  19.500  7.7160e-02
13.000  19.750  7.9335e-02
13.000  20.000  8.2370e-02
13.000  20.250  8.6129e-02
13.000  20.500  9.0431e-02
13.000  20.750  9.4412e-02
13.000  21.000  9.9831e-02
13.000  21.250  1.0642e-01
13.000  21.500  1.1293e-01
13.000  21.750  1.2366e-01
13.000  22.000  1.3817e-01
13.000  22.250  1.5151e-01
13.000  22.500  1.5977e-01
13.000  22.750  1.3718e-01
13.000  23.000  9.6942e-02
13.000  23.250  6.7514e-02
13.000  23.500  4.9456e-02
13.000  23.750  3.8716e-02
13.000  24.000  3.2591e-02
13.250  17.000  1.2605e-02
13.250  17.250  1.7839e-02
13.250  17.500  3.2313e-02
13.250  17.750  5.1613e-02
13.250  18.000  6.9270e-02
13.250  18.250  6.9368e-02
13.250  18.500  7.0042e-02
13.250  18.750  7.1246e-02
13.250  19.000  7.2809e-02
13.250  19.250  7.4506e-02
13.250  19.500  7.6334e-02
13.250  19.750  7.8407e-02
13.250  20.000  8.0977e-02
13.250  20.250  8.4320e-02
13.250  20.500  8.8599e-02
13.250  20.750  9.3733e-02
13.250  21.000  9.9628e-02
13.250  21.250  1.0746e-01
13.250  21.500  1.1546e-01
13.250  21.750  1.2888e-01
13.250  22.000  1.3913e-01
13.250  22.250  1.5365e-01
13.250  22.500  1.6893e-01
13.250  22.750  1.6858e-01
13.250  23.000  1.4178e-01
13.250  23.250  9.7967e-02
13.250  23.500  6.7742e-02
13.250  23.750  4.9454e-02
13.250  24.000  3.8689e-02
13.500  17.000  9.4498e-03
13.500  17.250  1.2505e-02
13.500  17.500  2.1088e-02
13.500  17.750  3.7218e-02
13.500  18.000  5.3596e-02
13.500  18.250  6.6005e-02
13.500  18.500  6.7041e-02
13.500  18.750  6.8615e-02
13.500  19.000  7.0687e-02
13.500  19.250  7.2935e-02
13.500  19.500  7.5213e-02
13.500  19.750  7.7599e-02
13.500  20.000  8.0290e-02
13.500  20.250  8.3453e-02
13.500  20.500  8.7252e-02
13.500  20.750  9.1892e-02
13.500  21.000  9.7009e-02
13.500  21.250  1.0484e-01
13.500  21.500  1.1139e-01
13.500  21.750  1.1830e-01
13.500  22.000  1.2972e-01
13.500  22.250  1.5114e-01
13.500  22.500  1.7237e-01
13.500  22.750  1.8172e-01
13.500  23.000  1.7339e-01
13.500  23.250  1.4543e-01
13.500  23.500  9.8961e-02
13.500  23.750  6.8169e-02
13.500  24.000  4.9426e-02
13.750  17.000  7.4592e-03
13.750  17.250  9.9569e-03
13.750  17.500  1.5204e-02
13.750  17.750  2.3397e-02
13.750  18.000  4.1204e-02
13.750  18.250  5.3261e-02
13.750  18.500  6.3647e-02
13.750  18.750  6.5481e-02
13.750  19.000  6.7860e-02
13.750  19.250  7.0649e-02
13.750  19.500  7.3568e-02
13.750  19.750  7.6489e-02
13.750  20.000  7.9574e-02
13.750  20.250  8.3074e-02
13.750  20.500  8.7085e-02
13.750  20.750  9.1600e-02
13.750  21.000  9.6484e-02
13.750  21.250  1.0170e-01
13.750  21.500  1.0730e-01
13.750  21.750  1.1323e-01
13.750  22.000  1.2199e-01
13.750  22.250  1.3911e-01
13.750  22.500  1.7214e-01
13.750  22.750  1.9709e-01
13.750  23.000  1.9516e-01
13.750  23.250  1.8204e-01
13.750  23.500  1.4862e-01
13.750  23.750  9.9992e-02
13.750  24.000  6.8252e-02
14.000  17.000  6.3481e-03
14.000  17.250  7.9374e-03
14.000  17.500  1.1765e-02
14.000  17.750  1.7180e-02
14.000  18.000  2.6976e-02
14.000  18.250  4.4066e-02
14.000  18.500  5.4191e-02
14.000  18.750  6.2000e-02
14.000  19.000  6.4579e-02
14.000  19.250  6.7675e-02
14.000  19.500  7.1151e-02
14.000  19.750  7.4773e-02
14.000  20.000  7.8449e-02
14.000  20.250  8.2414e-02
14.000  20.500  8.6913e-02
14.000  20.750  9.1956e-02
14.000  21.000  9.7454e-02
14.000  21.250  1.0332e-01
14.000  21.500  1.0840e-01
14.000  21.750  1.1440e-01
14.000  22.000  1.2188e-01
14.000  22.250  1.3445e-01
14.000  22.500  1.6109e-01
14.000  22.750  2.1337e-01
14.000  23.000  2.2761e-01
14.000  23.250  2.1514e-01
14.000  23.500  1.9255e-01
14.000  23.750  1.5242e-01
14.000  24.000  1.0063e-01
