InwT 1035.92A  relative to Inci 1215.00A scaled to 1215A.
Hden   Phi(H)  Eq_Width (A)
7.000  17.000  3.7975e-02
7.000  17.250  3.7775e-02
7.000  17.500  3.5010e-02
7.000  17.750  3.1898e-02
7.000  18.000  2.9170e-02
7.000  18.250  2.7396e-02
7.000  18.500  2.6254e-02
7.000  18.750  2.5684e-02
7.000  19.000  2.5383e-02
7.000  19.250  2.5212e-02
7.000  19.500  2.5139e-02
7.000  19.750  2.5109e-02
7.000  20.000  2.5095e-02
7.000  20.250  2.5089e-02
7.000  20.500  2.5086e-02
7.000  20.750  2.5084e-02
7.000  21.000  2.5083e-02
7.000  21.250  2.5083e-02
7.000  21.500  2.5083e-02
7.000  21.750  2.5083e-02
7.000  22.000  2.5083e-02
7.000  22.250  2.5083e-02
7.000  22.500  2.5083e-02
7.000  22.750  2.5083e-02
7.000  23.000  2.5083e-02
7.000  23.250  2.5083e-02
7.000  23.500  2.5083e-02
7.000  23.750  2.5083e-02
7.000  24.000  2.5083e-02
7.250  17.000  3.8459e-02
7.250  17.250  3.7280e-02
7.250  17.500  3.7565e-02
7.250  17.750  3.4911e-02
7.250  18.000  3.1848e-02
7.250  18.250  2.9142e-02
7.250  18.500  2.7383e-02
7.250  18.750  2.6249e-02
7.250  19.000  2.5682e-02
7.250  19.250  2.5383e-02
7.250  19.500  2.5212e-02
7.250  19.750  2.5139e-02
7.250  20.000  2.5109e-02
7.250  20.250  2.5095e-02
7.250  20.500  2.5089e-02
7.250  20.750  2.5086e-02
7.250  21.000  2.5084e-02
7.250  21.250  2.5083e-02
7.250  21.500  2.5083e-02
7.250  21.750  2.5082e-02
7.250  22.000  2.5085e-02
7.250  22.250  2.5082e-02
7.250  22.500  2.5083e-02
7.250  22.750  2.5083e-02
7.250  23.000  2.5083e-02
7.250  23.250  2.5084e-02
7.250  23.500  2.5083e-02
7.250  23.750  2.5084e-02
7.250  24.000  2.5083e-02
7.500  17.000  3.1921e-02
7.500  17.250  3.6915e-02
7.500  17.500  3.6699e-02
7.500  17.750  3.7448e-02
7.500  18.000  3.4861e-02
7.500  18.250  3.1822e-02
7.500  18.500  2.9125e-02
7.500  18.750  2.7374e-02
7.500  19.000  2.6246e-02
7.500  19.250  2.5681e-02
7.500  19.500  2.5382e-02
7.500  19.750  2.5212e-02
7.500  20.000  2.5139e-02
7.500  20.250  2.5109e-02
7.500  20.500  2.5095e-02
7.500  20.750  2.5089e-02
7.500  21.000  2.5086e-02
7.500  21.250  2.5084e-02
7.500  21.500  2.5083e-02
7.500  21.750  2.5083e-02
7.500  22.000  2.5082e-02
7.500  22.250  2.5082e-02
7.500  22.500  2.5082e-02
7.500  22.750  2.5082e-02
7.500  23.000  2.5082e-02
7.500  23.250  2.5082e-02
7.500  23.500  2.5082e-02
7.500  23.750  2.5082e-02
7.500  24.000  2.5082e-02
7.750  17.000  2.4123e-02
7.750  17.250  3.0114e-02
7.750  17.500  3.5543e-02
7.750  17.750  3.6235e-02
7.750  18.000  3.7387e-02
7.750  18.250  3.4843e-02
7.750  18.500  3.1813e-02
7.750  18.750  2.9116e-02
7.750  19.000  2.7369e-02
7.750  19.250  2.6244e-02
7.750  19.500  2.5680e-02
7.750  19.750  2.5382e-02
7.750  20.000  2.5212e-02
7.750  20.250  2.5139e-02
7.750  20.500  2.5109e-02
7.750  20.750  2.5095e-02
7.750  21.000  2.5089e-02
7.750  21.250  2.5086e-02
7.750  21.500  2.5084e-02
7.750  21.750  2.5083e-02
7.750  22.000  2.5082e-02
7.750  22.250  2.5082e-02
7.750  22.500  2.5082e-02
7.750  22.750  2.5082e-02
7.750  23.000  2.5082e-02
7.750  23.250  2.5082e-02
7.750  23.500  2.5082e-02
7.750  23.750  2.5082e-02
7.750  24.000  2.5082e-02
8.000  17.000  1.7824e-02
8.000  17.250  2.1958e-02
8.000  17.500  2.8462e-02
8.000  17.750  3.4366e-02
8.000  18.000  3.5865e-02
8.000  18.250  3.7357e-02
8.000  18.500  3.4846e-02
8.000  18.750  3.1815e-02
8.000  19.000  2.9111e-02
8.000  19.250  2.7366e-02
8.000  19.500  2.6243e-02
8.000  19.750  2.5679e-02
8.000  20.000  2.5382e-02
8.000  20.250  2.5212e-02
8.000  20.500  2.5139e-02
8.000  20.750  2.5109e-02
8.000  21.000  2.5095e-02
8.000  21.250  2.5089e-02
8.000  21.500  2.5086e-02
8.000  21.750  2.5084e-02
8.000  22.000  2.5083e-02
8.000  22.250  2.5082e-02
8.000  22.500  2.5082e-02
8.000  22.750  2.5082e-02
8.000  23.000  2.5082e-02
8.000  23.250  2.5082e-02
8.000  23.500  2.5082e-02
8.000  23.750  2.5082e-02
8.000  24.000  2.5084e-02
8.250  17.000  1.3718e-02
8.250  17.250  1.6094e-02
8.250  17.500  2.0556e-02
8.250  17.750  2.7458e-02
8.250  18.000  3.3633e-02
8.250  18.250  3.5631e-02
8.250  18.500  3.7341e-02
8.250  18.750  3.4862e-02
8.250  19.000  3.1823e-02
8.250  19.250  2.9109e-02
8.250  19.500  2.7364e-02
8.250  19.750  2.6242e-02
8.250  20.000  2.5679e-02
8.250  20.250  2.5382e-02
8.250  20.500  2.5212e-02
8.250  20.750  2.5139e-02
8.250  21.000  2.5109e-02
8.250  21.250  2.5095e-02
8.250  21.500  2.5089e-02
8.250  21.750  2.5086e-02
8.250  22.000  2.5084e-02
8.250  22.250  2.5083e-02
8.250  22.500  2.5082e-02
8.250  22.750  2.5082e-02
8.250  23.000  2.5083e-02
8.250  23.250  2.5082e-02
8.250  23.500  2.5082e-02
8.250  23.750  2.5082e-02
8.250  24.000  2.5082e-02
8.500  17.000  1.1067e-02
8.500  17.250  1.2336e-02
8.500  17.500  1.4934e-02
8.500  17.750  1.9593e-02
8.500  18.000  2.6821e-02
8.500  18.250  3.3161e-02
8.500  18.500  3.5469e-02
8.500  18.750  3.7334e-02
8.500  19.000  3.4889e-02
8.500  19.250  3.1837e-02
8.500  19.500  2.9109e-02
8.500  19.750  2.7362e-02
8.500  20.000  2.6241e-02
8.500  20.250  2.5679e-02
8.500  20.500  2.5382e-02
8.500  20.750  2.5212e-02
8.500  21.000  2.5139e-02
8.500  21.250  2.5109e-02
8.500  21.500  2.5095e-02
8.500  21.750  2.5089e-02
8.500  22.000  2.5086e-02
8.500  22.250  2.5084e-02
8.500  22.500  2.5083e-02
8.500  22.750  2.5083e-02
8.500  23.000  2.5082e-02
8.500  23.250  2.5082e-02
8.500  23.500  2.5082e-02
8.500  23.750  2.5082e-02
8.500  24.000  2.5082e-02
8.750  17.000  9.4282e-03
8.750  17.250  1.0025e-02
8.750  17.500  1.1459e-02
8.750  17.750  1.4200e-02
8.750  18.000  1.9076e-02
8.750  18.250  2.6545e-02
8.750  18.500  3.2869e-02
8.750  18.750  3.5366e-02
8.750  19.000  3.7328e-02
8.750  19.250  3.4922e-02
8.750  19.500  3.1854e-02
8.750  19.750  2.9109e-02
8.750  20.000  2.7362e-02
8.750  20.250  2.6241e-02
8.750  20.500  2.5679e-02
8.750  20.750  2.5382e-02
8.750  21.000  2.5212e-02
8.750  21.250  2.5139e-02
8.750  21.500  2.5109e-02
8.750  21.750  2.5095e-02
8.750  22.000  2.5089e-02
8.750  22.250  2.5086e-02
8.750  22.500  2.5084e-02
8.750  22.750  2.5083e-02
8.750  23.000  2.5082e-02
8.750  23.250  2.5082e-02
8.750  23.500  2.5082e-02
8.750  23.750  2.5082e-02
8.750  24.000  2.5082e-02
9.000  17.000  8.4769e-03
9.000  17.250  8.6642e-03
9.000  17.500  9.3991e-03
9.000  17.750  1.0958e-02
9.000  18.000  1.3879e-02
9.000  18.250  1.9047e-02
9.000  18.500  2.6771e-02
9.000  18.750  3.2680e-02
9.000  19.000  3.5285e-02
9.000  19.250  3.7317e-02
9.000  19.500  3.4954e-02
9.000  19.750  3.1872e-02
9.000  20.000  2.9111e-02
9.000  20.250  2.7361e-02
9.000  20.500  2.6241e-02
9.000  20.750  2.5679e-02
9.000  21.000  2.5382e-02
9.000  21.250  2.5212e-02
9.000  21.500  2.5139e-02
9.000  21.750  2.5109e-02
9.000  22.000  2.5095e-02
9.000  22.250  2.5089e-02
9.000  22.500  2.5086e-02
9.000  22.750  2.5084e-02
9.000  23.000  2.5083e-02
9.000  23.250  2.5082e-02
9.000  23.500  2.5082e-02
9.000  23.750  2.5082e-02
9.000  24.000  2.5083e-02
9.250  17.000  7.9937e-03
9.250  17.250  7.9022e-03
9.250  17.500  8.2278e-03
9.250  17.750  9.1072e-03
9.250  18.000  1.0889e-02
9.250  18.250  1.4146e-02
9.250  18.500  1.9786e-02
9.250  18.750  2.7724e-02
9.250  19.000  3.2516e-02
9.250  19.250  3.5206e-02
9.250  19.500  3.7296e-02
9.250  19.750  3.4983e-02
9.250  20.000  3.1890e-02
9.250  20.250  2.9112e-02
9.250  20.500  2.7361e-02
9.250  20.750  2.6240e-02
9.250  21.000  2.5679e-02
9.250  21.250  2.5381e-02
9.250  21.500  2.5208e-02
9.250  21.750  2.5135e-02
9.250  22.000  2.5104e-02
9.250  22.250  2.5091e-02
9.250  22.500  2.5088e-02
9.250  22.750  2.5085e-02
9.250  23.000  2.5084e-02
9.250  23.250  2.5083e-02
9.250  23.500  2.5082e-02
9.250  23.750  2.5082e-02
9.250  24.000  2.5082e-02
9.500  17.000  7.8435e-03
9.500  17.250  7.5356e-03
9.500  17.500  7.6037e-03
9.500  17.750  8.1190e-03
9.500  18.000  9.2379e-03
9.500  18.250  1.1323e-02
9.500  18.500  1.5068e-02
9.500  18.750  2.1434e-02
9.500  19.000  2.9185e-02
9.500  19.250  3.2343e-02
9.500  19.500  3.5115e-02
9.500  19.750  3.7266e-02
9.500  20.000  3.5001e-02
9.500  20.250  3.1905e-02
9.500  20.500  2.9113e-02
9.500  20.750  2.7359e-02
9.500  21.000  2.6236e-02
9.500  21.250  2.5674e-02
9.500  21.500  2.5377e-02
9.500  21.750  2.5205e-02
9.500  22.000  2.5132e-02
9.500  22.250  2.5101e-02
9.500  22.500  2.5087e-02
9.500  22.750  2.5081e-02
9.500  23.000  2.5078e-02
9.500  23.250  2.5076e-02
9.500  23.500  2.5076e-02
9.500  23.750  2.5076e-02
9.500  24.000  2.5075e-02
9.750  17.000  7.9657e-03
9.750  17.250  7.4375e-03
9.750  17.500  7.3069e-03
9.750  17.750  7.6072e-03
9.750  18.000  8.4048e-03
9.750  18.250  9.8382e-03
9.750  18.500  1.2337e-02
9.750  18.750  1.6683e-02
9.750  19.000  2.3725e-02
9.750  19.250  3.0234e-02
9.750  19.500  3.2191e-02
9.750  19.750  3.5009e-02
9.750  20.000  3.7227e-02
9.750  20.250  3.5007e-02
9.750  20.500  3.1917e-02
9.750  20.750  2.9115e-02
9.750  21.000  2.7360e-02
9.750  21.250  2.6237e-02
9.750  21.500  2.5674e-02
9.750  21.750  2.5377e-02
9.750  22.000  2.5206e-02
9.750  22.250  2.5132e-02
9.750  22.500  2.5101e-02
9.750  22.750  2.5087e-02
9.750  23.000  2.5081e-02
9.750  23.250  2.5078e-02
9.750  23.500  2.5076e-02
9.750  23.750  2.5075e-02
9.750  24.000  2.5075e-02
10.000  17.000  8.3398e-03
10.000  17.250  7.5726e-03
10.000  17.500  7.2228e-03
10.000  17.750  7.3643e-03
10.000  18.000  8.0349e-03
10.000  18.250  9.1435e-03
10.000  18.500  1.0905e-02
10.000  18.750  1.3881e-02
10.000  19.000  1.9012e-02
10.000  19.250  2.6305e-02
10.000  19.500  3.0451e-02
10.000  19.750  3.2115e-02
10.000  20.000  3.4892e-02
10.000  20.250  3.7187e-02
10.000  20.500  3.5005e-02
10.000  20.750  3.1926e-02
10.000  21.000  2.9116e-02
10.000  21.250  2.7360e-02
10.000  21.500  2.6239e-02
10.000  21.750  2.5675e-02
10.000  22.000  2.5377e-02
10.000  22.250  2.5207e-02
10.000  22.500  2.5133e-02
10.000  22.750  2.5101e-02
10.000  23.000  2.5088e-02
10.000  23.250  2.5081e-02
10.000  23.500  2.5078e-02
10.000  23.750  2.5076e-02
10.000  24.000  2.5075e-02
10.250  17.000  8.9808e-03
10.250  17.250  7.9545e-03
10.250  17.500  7.3846e-03
10.250  17.750  7.3728e-03
10.250  18.000  7.9547e-03
10.250  18.250  8.8989e-03
10.250  18.500  1.0259e-02
10.250  18.750  1.2444e-02
10.250  19.000  1.6179e-02
10.250  19.250  2.1778e-02
10.250  19.500  2.8049e-02
10.250  19.750  3.0593e-02
10.250  20.000  3.2141e-02
10.250  20.250  3.4864e-02
10.250  20.500  3.7160e-02
10.250  20.750  3.4996e-02
10.250  21.000  3.1932e-02
10.250  21.250  2.9116e-02
10.250  21.500  2.7360e-02
10.250  21.750  2.6239e-02
10.250  22.000  2.5677e-02
10.250  22.250  2.5378e-02
10.250  22.500  2.5207e-02
10.250  22.750  2.5134e-02
10.250  23.000  2.5102e-02
10.250  23.250  2.5087e-02
10.250  23.500  2.5081e-02
10.250  23.750  2.5078e-02
10.250  24.000  2.5076e-02
10.500  17.000  9.8491e-03
10.500  17.250  8.6137e-03
10.500  17.500  7.8178e-03
10.500  17.750  7.6638e-03
10.500  18.000  8.1215e-03
10.500  18.250  8.9478e-03
10.500  18.500  1.0031e-02
10.500  18.750  1.1567e-02
10.500  19.000  1.3880e-02
10.500  19.250  1.7683e-02
10.500  19.500  2.3513e-02
10.500  19.750  2.8649e-02
10.500  20.000  3.0717e-02
10.500  20.250  3.2309e-02
10.500  20.500  3.4973e-02
10.500  20.750  3.7204e-02
10.500  21.000  3.4984e-02
10.500  21.250  3.1934e-02
10.500  21.500  2.9116e-02
10.500  21.750  2.7360e-02
10.500  22.000  2.6239e-02
10.500  22.250  2.5678e-02
10.500  22.500  2.5379e-02
10.500  22.750  2.5208e-02
10.500  23.000  2.5134e-02
10.500  23.250  2.5103e-02
10.500  23.500  2.5088e-02
10.500  23.750  2.5081e-02
10.500  24.000  2.5078e-02
10.750  17.000  1.0890e-02
10.750  17.250  9.5085e-03
10.750  17.500  8.5638e-03
10.750  17.750  8.5253e-03
10.750  18.000  9.3704e-03
10.750  18.250  1.0943e-02
10.750  18.500  1.3087e-02
10.750  18.750  1.5645e-02
10.750  19.000  1.8463e-02
10.750  19.250  2.1384e-02
10.750  19.500  2.4252e-02
10.750  19.750  2.6910e-02
10.750  20.000  2.9203e-02
10.750  20.250  3.1015e-02
10.750  20.500  3.2699e-02
10.750  20.750  3.5355e-02
10.750  21.000  3.7339e-02
10.750  21.250  3.4978e-02
10.750  21.500  3.1934e-02
10.750  21.750  2.9116e-02
10.750  22.000  2.7360e-02
10.750  22.250  2.6239e-02
10.750  22.500  2.5679e-02
10.750  22.750  2.5381e-02
10.750  23.000  2.5208e-02
10.750  23.250  2.5135e-02
10.750  23.500  2.5103e-02
10.750  23.750  2.5089e-02
10.750  24.000  2.5082e-02
11.000  17.000  1.2042e-02
11.000  17.250  1.0577e-02
11.000  17.500  9.5634e-03
11.000  17.750  9.3354e-03
11.000  18.000  9.8665e-03
11.000  18.250  1.1042e-02
11.000  18.500  1.2747e-02
11.000  18.750  1.4867e-02
11.000  19.000  1.7287e-02
11.000  19.250  1.9892e-02
11.000  19.500  2.2567e-02
11.000  19.750  2.5198e-02
11.000  20.000  2.7670e-02
11.000  20.250  2.9868e-02
11.000  20.500  3.1678e-02
11.000  20.750  3.3390e-02
11.000  21.000  3.6113e-02
11.000  21.250  3.7625e-02
11.000  21.500  3.4995e-02
11.000  21.750  3.1930e-02
11.000  22.000  2.9115e-02
11.000  22.250  2.7360e-02
11.000  22.500  2.6239e-02
11.000  22.750  2.5679e-02
11.000  23.000  2.5382e-02
11.000  23.250  2.5208e-02
11.000  23.500  2.5135e-02
11.000  23.750  2.5104e-02
11.000  24.000  2.5090e-02
11.250  17.000  1.3195e-02
11.250  17.250  1.1724e-02
11.250  17.500  1.0708e-02
11.250  17.750  1.0341e-02
11.250  18.000  1.0589e-02
11.250  18.250  1.1378e-02
11.250  18.500  1.2632e-02
11.250  18.750  1.4276e-02
11.250  19.000  1.6234e-02
11.250  19.250  1.8431e-02
11.250  19.500  2.0791e-02
11.250  19.750  2.3239e-02
11.250  20.000  2.5700e-02
11.250  20.250  2.8098e-02
11.250  20.500  3.0357e-02
11.250  20.750  3.2403e-02
11.250  21.000  3.4527e-02
11.250  21.250  3.7428e-02
11.250  21.500  3.8129e-02
11.250  21.750  3.5054e-02
11.250  22.000  3.1924e-02
11.250  22.250  2.9113e-02
11.250  22.500  2.7360e-02
11.250  22.750  2.6239e-02
11.250  23.000  2.5679e-02
11.250  23.250  2.5382e-02
11.250  23.500  2.5210e-02
11.250  23.750  2.5135e-02
11.250  24.000  2.5104e-02
11.500  17.000  1.4213e-02
11.500  17.250  1.2863e-02
11.500  17.500  1.1901e-02
11.500  17.750  1.1291e-02
11.500  18.000  1.1002e-02
11.500  18.250  1.1035e-02
11.500  18.500  1.1389e-02
11.500  18.750  1.2063e-02
11.500  19.000  1.3058e-02
11.500  19.250  1.4372e-02
11.500  19.500  1.6006e-02
11.500  19.750  1.7958e-02
11.500  20.000  2.0230e-02
11.500  20.250  2.2820e-02
11.500  20.500  2.5728e-02
11.500  20.750  2.8953e-02
11.500  21.000  3.2496e-02
11.500  21.250  3.6355e-02
11.500  21.500  3.9569e-02
11.500  21.750  3.8709e-02
11.500  22.000  3.5173e-02
11.500  22.250  3.1918e-02
11.500  22.500  2.9111e-02
11.500  22.750  2.7360e-02
11.500  23.000  2.6238e-02
11.500  23.250  2.5679e-02
11.500  23.500  2.5382e-02
11.500  23.750  2.5211e-02
11.500  24.000  2.5136e-02
11.750  17.000  1.4876e-02
11.750  17.250  1.3805e-02
11.750  17.500  1.3001e-02
11.750  17.750  1.2428e-02
11.750  18.000  1.2074e-02
11.750  18.250  1.1956e-02
11.750  18.500  1.2089e-02
11.750  18.750  1.2489e-02
11.750  19.000  1.3173e-02
11.750  19.250  1.4156e-02
11.750  19.500  1.5454e-02
11.750  19.750  1.7084e-02
11.750  20.000  1.9060e-02
11.750  20.250  2.1399e-02
11.750  20.500  2.4117e-02
11.750  20.750  2.7230e-02
11.750  21.000  3.0754e-02
11.750  21.250  3.4705e-02
11.750  21.500  3.9098e-02
11.750  21.750  4.2294e-02
11.750  22.000  3.9359e-02
11.750  22.250  3.5346e-02
11.750  22.500  3.1914e-02
11.750  22.750  2.9109e-02
11.750  23.000  2.7361e-02
11.750  23.250  2.6238e-02
11.750  23.500  2.5690e-02
11.750  23.750  2.5382e-02
11.750  24.000  2.5212e-02
12.000  17.000  1.4861e-02
12.000  17.250  1.4257e-02
12.000  17.500  1.3761e-02
12.000  17.750  1.3516e-02
12.000  18.000  1.3217e-02
12.000  18.250  1.2668e-02
12.000  18.500  1.2421e-02
12.000  18.750  1.2617e-02
12.000  19.000  1.3237e-02
12.000  19.250  1.4263e-02
12.000  19.500  1.5678e-02
12.000  19.750  1.7462e-02
12.000  20.000  1.9598e-02
12.000  20.250  2.2067e-02
12.000  20.500  2.4850e-02
12.000  20.750  2.7931e-02
12.000  21.000  3.1289e-02
12.000  21.250  3.4908e-02
12.000  21.500  3.8768e-02
12.000  21.750  4.2733e-02
12.000  22.000  4.4644e-02
12.000  22.250  3.9960e-02
12.000  22.500  3.5559e-02
12.000  22.750  3.1915e-02
12.000  23.000  2.9106e-02
12.000  23.250  2.7361e-02
12.000  23.500  2.6237e-02
12.000  23.750  2.5678e-02
12.000  24.000  2.5382e-02
12.250  17.000  1.4014e-02
12.250  17.250  1.3961e-02
12.250  17.500  1.3920e-02
12.250  17.750  1.3981e-02
12.250  18.000  1.3859e-02
12.250  18.250  1.3412e-02
12.250  18.500  1.2703e-02
12.250  18.750  1.1871e-02
12.250  19.000  1.1057e-02
12.250  19.250  1.0434e-02
12.250  19.500  1.0848e-02
12.250  19.750  1.2359e-02
12.250  20.000  1.4770e-02
12.250  20.250  1.7882e-02
12.250  20.500  2.1496e-02
12.250  20.750  2.5416e-02
12.250  21.000  2.9443e-02
12.250  21.250  3.3379e-02
12.250  21.500  3.7382e-02
12.250  21.750  4.2449e-02
12.250  22.000  4.6871e-02
12.250  22.250  4.6282e-02
12.250  22.500  4.0599e-02
12.250  22.750  3.5797e-02
12.250  23.000  3.1923e-02
12.250  23.250  2.9103e-02
12.250  23.500  2.7361e-02
12.250  23.750  2.6236e-02
12.250  24.000  2.5678e-02
12.500  17.000  1.2988e-02
12.500  17.250  1.3222e-02
12.500  17.500  1.3561e-02
12.500  17.750  1.3909e-02
12.500  18.000  1.3999e-02
12.500  18.250  1.3748e-02
12.500  18.500  1.3212e-02
12.500  18.750  1.2500e-02
12.500  19.000  1.1682e-02
12.500  19.250  1.0879e-02
12.500  19.500  1.0292e-02
12.500  19.750  1.0790e-02
12.500  20.000  1.2446e-02
12.500  20.250  1.5074e-02
12.500  20.500  1.8484e-02
12.500  20.750  2.2492e-02
12.500  21.000  2.6909e-02
12.500  21.250  3.1548e-02
12.500  21.500  3.6223e-02
12.500  21.750  4.1173e-02
12.500  22.000  4.7233e-02
12.500  22.250  5.0882e-02
12.500  22.500  4.7931e-02
12.500  22.750  4.1295e-02
12.500  23.000  3.6051e-02
12.500  23.250  3.1940e-02
12.500  23.500  2.9100e-02
12.500  23.750  2.7361e-02
12.500  24.000  2.6235e-02
12.750  17.000  1.2133e-02
12.750  17.250  1.2541e-02
12.750  17.500  1.2958e-02
12.750  17.750  1.3327e-02
12.750  18.000  1.3580e-02
12.750  18.250  1.3611e-02
12.750  18.500  1.3361e-02
12.750  18.750  1.2881e-02
12.750  19.000  1.2214e-02
12.750  19.250  1.1437e-02
12.750  19.500  1.0660e-02
12.750  19.750  1.0119e-02
12.750  20.000  1.0243e-02
12.750  20.250  1.1218e-02
12.750  20.500  1.3152e-02
12.750  20.750  1.6152e-02
12.750  21.000  2.0327e-02
12.750  21.250  2.5785e-02
12.750  21.500  3.2634e-02
12.750  21.750  4.0131e-02
12.750  22.000  4.6040e-02
12.750  22.250  5.2526e-02
12.750  22.500  5.4658e-02
12.750  22.750  4.9415e-02
12.750  23.000  4.2044e-02
12.750  23.250  3.6280e-02
12.750  23.500  3.1952e-02
12.750  23.750  2.9097e-02
12.750  24.000  2.7361e-02
13.000  17.000  1.1032e-02
13.000  17.250  1.1698e-02
13.000  17.500  1.2099e-02
13.000  17.750  1.2497e-02
13.000  18.000  1.2863e-02
13.000  18.250  1.3102e-02
13.000  18.500  1.3124e-02
13.000  18.750  1.2910e-02
13.000  19.000  1.2480e-02
13.000  19.250  1.1865e-02
13.000  19.500  1.1124e-02
13.000  19.750  1.0401e-02
13.000  20.000  9.9053e-03
13.000  20.250  1.0273e-02
13.000  20.500  1.1711e-02
13.000  20.750  1.4277e-02
13.000  21.000  1.8032e-02
13.000  21.250  2.3037e-02
13.000  21.500  2.9350e-02
13.000  21.750  3.7033e-02
13.000  22.000  4.5078e-02
13.000  22.250  5.0758e-02
13.000  22.500  5.7171e-02
13.000  22.750  5.8051e-02
13.000  23.000  5.1063e-02
13.000  23.250  4.2757e-02
13.000  23.500  3.6505e-02
13.000  23.750  3.1978e-02
13.000  24.000  2.9095e-02
13.250  17.000  1.0317e-02
13.250  17.250  1.0887e-02
13.250  17.500  1.1307e-02
13.250  17.750  1.1668e-02
13.250  18.000  1.2075e-02
13.250  18.250  1.2440e-02
13.250  18.500  1.2641e-02
13.250  18.750  1.2628e-02
13.250  19.000  1.2415e-02
13.250  19.250  1.2019e-02
13.250  19.500  1.1458e-02
13.250  19.750  1.0789e-02
13.250  20.000  1.0133e-02
13.250  20.250  9.6878e-03
13.250  20.500  9.2093e-03
13.250  20.750  9.2126e-03
13.250  21.000  1.0449e-02
13.250  21.250  1.3671e-02
13.250  21.500  1.9629e-02
13.250  21.750  2.9075e-02
13.250  22.000  4.0704e-02
13.250  22.250  4.8342e-02
13.250  22.500  5.5408e-02
13.250  22.750  6.1235e-02
13.250  23.000  6.1399e-02
13.250  23.250  5.2446e-02
13.250  23.500  4.3355e-02
13.250  23.750  3.6701e-02
13.250  24.000  3.2016e-02
13.500  17.000  9.5705e-03
13.500  17.250  1.0137e-02
13.500  17.500  1.0558e-02
13.500  17.750  1.0882e-02
13.500  18.000  1.1284e-02
13.500  18.250  1.1701e-02
13.500  18.500  1.2014e-02
13.500  18.750  1.2147e-02
13.500  19.000  1.2097e-02
13.500  19.250  1.1875e-02
13.500  19.500  1.1500e-02
13.500  19.750  1.0997e-02
13.500  20.000  1.0410e-02
13.500  20.250  9.8400e-03
13.500  20.500  9.4607e-03
13.500  20.750  1.0298e-02
13.500  21.000  1.2568e-02
13.500  21.250  1.6213e-02
13.500  21.500  2.1171e-02
13.500  21.750  2.7384e-02
13.500  22.000  3.4791e-02
13.500  22.250  4.3334e-02
13.500  22.500  5.2386e-02
13.500  22.750  5.9764e-02
13.500  23.000  6.5039e-02
13.500  23.250  6.4767e-02
13.500  23.500  5.3859e-02
13.500  23.750  4.4190e-02
13.500  24.000  3.6873e-02
13.750  17.000  8.7188e-03
13.750  17.250  9.4231e-03
13.750  17.500  9.8374e-03
13.750  17.750  1.0133e-02
13.750  18.000  1.0508e-02
13.750  18.250  1.0944e-02
13.750  18.500  1.1314e-02
13.750  18.750  1.1539e-02
13.750  19.000  1.1609e-02
13.750  19.250  1.1534e-02
13.750  19.500  1.1320e-02
13.750  19.750  1.0982e-02
13.750  20.000  1.0551e-02
13.750  20.250  1.0070e-02
13.750  20.500  9.6179e-03
13.750  20.750  1.0630e-02
13.750  21.000  1.3298e-02
13.750  21.250  1.7380e-02
13.750  21.500  2.2638e-02
13.750  21.750  2.8831e-02
13.750  22.000  3.5719e-02
13.750  22.250  4.3063e-02
13.750  22.500  5.0622e-02
13.750  22.750  5.8156e-02
13.750  23.000  6.5199e-02
13.750  23.250  7.0061e-02
13.750  23.500  6.8214e-02
13.750  23.750  5.5404e-02
13.750  24.000  4.4700e-02
14.000  17.000  7.7584e-03
14.000  17.250  8.5980e-03
14.000  17.500  9.1236e-03
14.000  17.750  9.4046e-03
14.000  18.000  9.7548e-03
14.000  18.250  1.0182e-02
14.000  18.500  1.0581e-02
14.000  18.750  1.0865e-02
14.000  19.000  1.1016e-02
14.000  19.250  1.1048e-02
14.000  19.500  1.0973e-02
14.000  19.750  1.0793e-02
14.000  20.000  1.0517e-02
14.000  20.250  1.0176e-02
14.000  20.500  1.1616e-02
14.000  20.750  1.5034e-02
14.000  21.000  2.0056e-02
14.000  21.250  2.6307e-02
14.000  21.500  3.3412e-02
14.000  21.750  4.0998e-02
14.000  22.000  4.8690e-02
14.000  22.250  5.6113e-02
14.000  22.500  6.2893e-02
14.000  22.750  6.8655e-02
14.000  23.000  7.3025e-02
14.000  23.250  7.5628e-02
14.000  23.500  7.6091e-02
14.000  23.750  7.1886e-02
14.000  24.000  5.6727e-02
