InwT 1103.23A  relative to Inci 1215.00A scaled to 1215A.
Hden   Phi(H)  Eq_Width (A)
7.000  17.000  3.9716e-02
7.000  17.250  3.9373e-02
7.000  17.500  3.5673e-02
7.000  17.750  3.2046e-02
7.000  18.000  2.9178e-02
7.000  18.250  2.7374e-02
7.000  18.500  2.6241e-02
7.000  18.750  2.5690e-02
7.000  19.000  2.5401e-02
7.000  19.250  2.5237e-02
7.000  19.500  2.5167e-02
7.000  19.750  2.5138e-02
7.000  20.000  2.5125e-02
7.000  20.250  2.5119e-02
7.000  20.500  2.5116e-02
7.000  20.750  2.5115e-02
7.000  21.000  2.5114e-02
7.000  21.250  2.5114e-02
7.000  21.500  2.5114e-02
7.000  21.750  2.5113e-02
7.000  22.000  2.5113e-02
7.000  22.250  2.5113e-02
7.000  22.500  2.5113e-02
7.000  22.750  2.5113e-02
7.000  23.000  2.5114e-02
7.000  23.250  2.5113e-02
7.000  23.500  2.5113e-02
7.000  23.750  2.5113e-02
7.000  24.000  2.5113e-02
7.250  17.000  4.1433e-02
7.250  17.250  3.9124e-02
7.250  17.500  3.9194e-02
7.250  17.750  3.5585e-02
7.250  18.000  3.2002e-02
7.250  18.250  2.9153e-02
7.250  18.500  2.7362e-02
7.250  18.750  2.6237e-02
7.250  19.000  2.5688e-02
7.250  19.250  2.5400e-02
7.250  19.500  2.5237e-02
7.250  19.750  2.5167e-02
7.250  20.000  2.5138e-02
7.250  20.250  2.5125e-02
7.250  20.500  2.5119e-02
7.250  20.750  2.5116e-02
7.250  21.000  2.5115e-02
7.250  21.250  2.5114e-02
7.250  21.500  2.5113e-02
7.250  21.750  2.5113e-02
7.250  22.000  2.5116e-02
7.250  22.250  2.5113e-02
7.250  22.500  2.5113e-02
7.250  22.750  2.5113e-02
7.250  23.000  2.5114e-02
7.250  23.250  2.5114e-02
7.250  23.500  2.5113e-02
7.250  23.750  2.5114e-02
7.250  24.000  2.5113e-02
7.500  17.000  5.2833e-02
7.500  17.250  3.9918e-02
7.500  17.500  3.8627e-02
7.500  17.750  3.9096e-02
7.500  18.000  3.5541e-02
7.500  18.250  3.1978e-02
7.500  18.500  2.9138e-02
7.500  18.750  2.7354e-02
7.500  19.000  2.6234e-02
7.500  19.250  2.5687e-02
7.500  19.500  2.5400e-02
7.500  19.750  2.5237e-02
7.500  20.000  2.5167e-02
7.500  20.250  2.5138e-02
7.500  20.500  2.5125e-02
7.500  20.750  2.5119e-02
7.500  21.000  2.5116e-02
7.500  21.250  2.5114e-02
7.500  21.500  2.5114e-02
7.500  21.750  2.5113e-02
7.500  22.000  2.5113e-02
7.500  22.250  2.5113e-02
7.500  22.500  2.5113e-02
7.500  22.750  2.5113e-02
7.500  23.000  2.5113e-02
7.500  23.250  2.5113e-02
7.500  23.500  2.5113e-02
7.500  23.750  2.5113e-02
7.500  24.000  2.5113e-02
7.750  17.000  6.2216e-02
7.750  17.250  5.0845e-02
7.750  17.500  3.8595e-02
7.750  17.750  3.8229e-02
7.750  18.000  3.9045e-02
7.750  18.250  3.5524e-02
7.750  18.500  3.1968e-02
7.750  18.750  2.9129e-02
7.750  19.000  2.7350e-02
7.750  19.250  2.6232e-02
7.750  19.500  2.5687e-02
7.750  19.750  2.5400e-02
7.750  20.000  2.5237e-02
7.750  20.250  2.5167e-02
7.750  20.500  2.5138e-02
7.750  20.750  2.5125e-02
7.750  21.000  2.5119e-02
7.750  21.250  2.5116e-02
7.750  21.500  2.5114e-02
7.750  21.750  2.5114e-02
7.750  22.000  2.5113e-02
7.750  22.250  2.5113e-02
7.750  22.500  2.5113e-02
7.750  22.750  2.5113e-02
7.750  23.000  2.5113e-02
7.750  23.250  2.5113e-02
7.750  23.500  2.5113e-02
7.750  23.750  2.5113e-02
7.750  24.000  2.5113e-02
8.000  17.000  6.9119e-02
8.000  17.250  6.0139e-02
8.000  17.500  4.9363e-02
8.000  17.750  3.7737e-02
8.000  18.000  3.7899e-02
8.000  18.250  3.9020e-02
8.000  18.500  3.5526e-02
8.000  18.750  3.1968e-02
8.000  19.000  2.9124e-02
8.000  19.250  2.7347e-02
8.000  19.500  2.6231e-02
8.000  19.750  2.5686e-02
8.000  20.000  2.5400e-02
8.000  20.250  2.5237e-02
8.000  20.500  2.5167e-02
8.000  20.750  2.5138e-02
8.000  21.000  2.5125e-02
8.000  21.250  2.5119e-02
8.000  21.500  2.5116e-02
8.000  21.750  2.5114e-02
8.000  22.000  2.5114e-02
8.000  22.250  2.5113e-02
8.000  22.500  2.5113e-02
8.000  22.750  2.5113e-02
8.000  23.000  2.5113e-02
8.000  23.250  2.5113e-02
8.000  23.500  2.5113e-02
8.000  23.750  2.5113e-02
8.000  24.000  2.5115e-02
8.250  17.000  7.3456e-02
8.250  17.250  6.7237e-02
8.250  17.500  5.8417e-02
8.250  17.750  4.8080e-02
8.250  18.000  3.7003e-02
8.250  18.250  3.7699e-02
8.250  18.500  3.9007e-02
8.250  18.750  3.5539e-02
8.250  19.000  3.1973e-02
8.250  19.250  2.9122e-02
8.250  19.500  2.7345e-02
8.250  19.750  2.6230e-02
8.250  20.000  2.5686e-02
8.250  20.250  2.5399e-02
8.250  20.500  2.5237e-02
8.250  20.750  2.5167e-02
8.250  21.000  2.5138e-02
8.250  21.250  2.5125e-02
8.250  21.500  2.5119e-02
8.250  21.750  2.5116e-02
8.250  22.000  2.5114e-02
8.250  22.250  2.5114e-02
8.250  22.500  2.5113e-02
8.250  22.750  2.5113e-02
8.250  23.000  2.5113e-02
8.250  23.250  2.5113e-02
8.250  23.500  2.5113e-02
8.250  23.750  2.5113e-02
8.250  24.000  2.5113e-02
8.500  17.000  7.5972e-02
8.500  17.250  7.1918e-02
8.500  17.500  6.5706e-02
8.500  17.750  5.6820e-02
8.500  18.000  4.6844e-02
8.500  18.250  3.6401e-02
8.500  18.500  3.7561e-02
8.500  18.750  3.9001e-02
8.500  19.000  3.5561e-02
8.500  19.250  3.1982e-02
8.500  19.500  2.9121e-02
8.500  19.750  2.7344e-02
8.500  20.000  2.6230e-02
8.500  20.250  2.5686e-02
8.500  20.500  2.5399e-02
8.500  20.750  2.5236e-02
8.500  21.000  2.5167e-02
8.500  21.250  2.5138e-02
8.500  21.500  2.5125e-02
8.500  21.750  2.5119e-02
8.500  22.000  2.5116e-02
8.500  22.250  2.5114e-02
8.500  22.500  2.5113e-02
8.500  22.750  2.5114e-02
8.500  23.000  2.5113e-02
8.500  23.250  2.5113e-02
8.500  23.500  2.5113e-02
8.500  23.750  2.5113e-02
8.500  24.000  2.5113e-02
8.750  17.000  7.7313e-02
8.750  17.250  7.4758e-02
8.750  17.500  7.0630e-02
8.750  17.750  6.4144e-02
8.750  18.000  5.5177e-02
8.750  18.250  4.5393e-02
8.750  18.500  3.5844e-02
8.750  18.750  3.7472e-02
8.750  19.000  3.8996e-02
8.750  19.250  3.5588e-02
8.750  19.500  3.1994e-02
8.750  19.750  2.9120e-02
8.750  20.000  2.7343e-02
8.750  20.250  2.6230e-02
8.750  20.500  2.5686e-02
8.750  20.750  2.5399e-02
8.750  21.000  2.5237e-02
8.750  21.250  2.5167e-02
8.750  21.500  2.5138e-02
8.750  21.750  2.5125e-02
8.750  22.000  2.5119e-02
8.750  22.250  2.5116e-02
8.750  22.500  2.5114e-02
8.750  22.750  2.5114e-02
8.750  23.000  2.5113e-02
8.750  23.250  2.5113e-02
8.750  23.500  2.5113e-02
8.750  23.750  2.5113e-02
8.750  24.000  2.5113e-02
9.000  17.000  7.7824e-02
9.000  17.250  7.6360e-02
9.000  17.500  7.3700e-02
9.000  17.750  6.9243e-02
9.000  18.000  6.2222e-02
9.000  18.250  5.2728e-02
9.000  18.500  4.3274e-02
9.000  18.750  3.4959e-02
9.000  19.000  3.7397e-02
9.000  19.250  3.8984e-02
9.000  19.500  3.5615e-02
9.000  19.750  3.2007e-02
9.000  20.000  2.9120e-02
9.000  20.250  2.7343e-02
9.000  20.500  2.6229e-02
9.000  20.750  2.5686e-02
9.000  21.000  2.5399e-02
9.000  21.250  2.5237e-02
9.000  21.500  2.5167e-02
9.000  21.750  2.5138e-02
9.000  22.000  2.5125e-02
9.000  22.250  2.5119e-02
9.000  22.500  2.5116e-02
9.000  22.750  2.5114e-02
9.000  23.000  2.5114e-02
9.000  23.250  2.5113e-02
9.000  23.500  2.5113e-02
9.000  23.750  2.5113e-02
9.000  24.000  2.5113e-02
9.250  17.000  7.7703e-02
9.250  17.250  7.7043e-02
9.250  17.500  7.5475e-02
9.250  17.750  7.2465e-02
9.250  18.000  6.7283e-02
9.250  18.250  5.9376e-02
9.250  18.500  4.9415e-02
9.250  18.750  3.9961e-02
9.250  19.000  3.4770e-02
9.250  19.250  3.7321e-02
9.250  19.500  3.8964e-02
9.250  19.750  3.5638e-02
9.250  20.000  3.2019e-02
9.250  20.250  2.9121e-02
9.250  20.500  2.7342e-02
9.250  20.750  2.6229e-02
9.250  21.000  2.5686e-02
9.250  21.250  2.5399e-02
9.250  21.500  2.5233e-02
9.250  21.750  2.5163e-02
9.250  22.000  2.5133e-02
9.250  22.250  2.5121e-02
9.250  22.500  2.5118e-02
9.250  22.750  2.5115e-02
9.250  23.000  2.5114e-02
9.250  23.250  2.5113e-02
9.250  23.500  2.5113e-02
9.250  23.750  2.5113e-02
9.250  24.000  2.5113e-02
9.500  17.000  7.7104e-02
9.500  17.250  7.6994e-02
9.500  17.500  7.6255e-02
9.500  17.750  7.4375e-02
9.500  18.000  7.0658e-02
9.500  18.250  6.4468e-02
9.500  18.500  5.5730e-02
9.500  18.750  4.5691e-02
9.500  19.000  3.6931e-02
9.500  19.250  3.4562e-02
9.500  19.500  3.7226e-02
9.500  19.750  3.8935e-02
9.500  20.000  3.5653e-02
9.500  20.250  3.2029e-02
9.500  20.500  2.9121e-02
9.500  20.750  2.7341e-02
9.500  21.000  2.6225e-02
9.500  21.250  2.5681e-02
9.500  21.500  2.5395e-02
9.500  21.750  2.5230e-02
9.500  22.000  2.5160e-02
9.500  22.250  2.5130e-02
9.500  22.500  2.5117e-02
9.500  22.750  2.5112e-02
9.500  23.000  2.5109e-02
9.500  23.250  2.5107e-02
9.500  23.500  2.5107e-02
9.500  23.750  2.5106e-02
9.500  24.000  2.5106e-02
9.750  17.000  7.6227e-02
9.750  17.250  7.6389e-02
9.750  17.500  7.6236e-02
9.750  17.750  7.5227e-02
9.750  18.000  7.2701e-02
9.750  18.250  6.8043e-02
9.750  18.500  6.1091e-02
9.750  18.750  5.2010e-02
9.750  19.000  4.2252e-02
9.750  19.250  3.3987e-02
9.750  19.500  3.4371e-02
9.750  19.750  3.7114e-02
9.750  20.000  3.8897e-02
9.750  20.250  3.5657e-02
9.750  20.500  3.2038e-02
9.750  20.750  2.9121e-02
9.750  21.000  2.7341e-02
9.750  21.250  2.6226e-02
9.750  21.500  2.5681e-02
9.750  21.750  2.5395e-02
9.750  22.000  2.5231e-02
9.750  22.250  2.5160e-02
9.750  22.500  2.5131e-02
9.750  22.750  2.5118e-02
9.750  23.000  2.5111e-02
9.750  23.250  2.5108e-02
9.750  23.500  2.5107e-02
9.750  23.750  2.5106e-02
9.750  24.000  2.5106e-02
10.000  17.000  7.5265e-02
10.000  17.250  7.5437e-02
10.000  17.500  7.5557e-02
10.000  17.750  7.5137e-02
10.000  18.000  7.3549e-02
10.000  18.250  7.0318e-02
10.000  18.500  6.5159e-02
10.000  18.750  5.7867e-02
10.000  19.000  4.8630e-02
10.000  19.250  3.9042e-02
10.000  19.500  3.2784e-02
10.000  19.750  3.4280e-02
10.000  20.000  3.6983e-02
10.000  20.250  3.8858e-02
10.000  20.500  3.5655e-02
10.000  20.750  3.2044e-02
10.000  21.000  2.9122e-02
10.000  21.250  2.7341e-02
10.000  21.500  2.6227e-02
10.000  21.750  2.5682e-02
10.000  22.000  2.5395e-02
10.000  22.250  2.5232e-02
10.000  22.500  2.5161e-02
10.000  22.750  2.5130e-02
10.000  23.000  2.5118e-02
10.000  23.250  2.5112e-02
10.000  23.500  2.5109e-02
10.000  23.750  2.5107e-02
10.000  24.000  2.5106e-02
10.250  17.000  7.4402e-02
10.250  17.250  7.4345e-02
10.250  17.500  7.4461e-02
10.250  17.750  7.4306e-02
10.250  18.000  7.3400e-02
10.250  18.250  7.1457e-02
10.250  18.500  6.8025e-02
10.250  18.750  6.2664e-02
10.250  19.000  5.5150e-02
10.250  19.250  4.5682e-02
10.250  19.500  3.5668e-02
10.250  19.750  3.2978e-02
10.250  20.000  3.4323e-02
10.250  20.250  3.6956e-02
10.250  20.500  3.8830e-02
10.250  20.750  3.5647e-02
10.250  21.000  3.2048e-02
10.250  21.250  2.9122e-02
10.250  21.500  2.7341e-02
10.250  21.750  2.6228e-02
10.250  22.000  2.5684e-02
10.250  22.250  2.5395e-02
10.250  22.500  2.5232e-02
10.250  22.750  2.5162e-02
10.250  23.000  2.5131e-02
10.250  23.250  2.5117e-02
10.250  23.500  2.5111e-02
10.250  23.750  2.5109e-02
10.250  24.000  2.5107e-02
10.500  17.000  7.3653e-02
10.500  17.250  7.3315e-02
10.500  17.500  7.3161e-02
10.500  17.750  7.2977e-02
10.500  18.000  7.2440e-02
10.500  18.250  7.1458e-02
10.500  18.500  6.9645e-02
10.500  18.750  6.6245e-02
10.500  19.000  6.0890e-02
10.500  19.250  5.3351e-02
10.500  19.500  4.3676e-02
10.500  19.750  3.6216e-02
10.500  20.000  3.3127e-02
10.500  20.250  3.4535e-02
10.500  20.500  3.7081e-02
10.500  20.750  3.8872e-02
10.500  21.000  3.5636e-02
10.500  21.250  3.2049e-02
10.500  21.500  2.9122e-02
10.500  21.750  2.7341e-02
10.500  22.000  2.6228e-02
10.500  22.250  2.5685e-02
10.500  22.500  2.5397e-02
10.500  22.750  2.5232e-02
10.500  23.000  2.5162e-02
10.500  23.250  2.5132e-02
10.500  23.500  2.5118e-02
10.500  23.750  2.5112e-02
10.500  24.000  2.5108e-02
10.750  17.000  7.2960e-02
10.750  17.250  7.2332e-02
10.750  17.500  7.1856e-02
10.750  17.750  7.1410e-02
10.750  18.000  7.0988e-02
10.750  18.250  7.0671e-02
10.750  18.500  7.0086e-02
10.750  18.750  6.8330e-02
10.750  19.000  6.4959e-02
10.750  19.250  5.9573e-02
10.750  19.500  5.1775e-02
10.750  19.750  4.1717e-02
10.750  20.000  3.5312e-02
10.750  20.250  3.3487e-02
10.750  20.500  3.5011e-02
10.750  20.750  3.7513e-02
10.750  21.000  3.9000e-02
10.750  21.250  3.5630e-02
10.750  21.500  3.2049e-02
10.750  21.750  2.9122e-02
10.750  22.000  2.7341e-02
10.750  22.250  2.6228e-02
10.750  22.500  2.5685e-02
10.750  22.750  2.5399e-02
10.750  23.000  2.5232e-02
10.750  23.250  2.5163e-02
10.750  23.500  2.5133e-02
10.750  23.750  2.5119e-02
10.750  24.000  2.5113e-02
11.000  17.000  7.2046e-02
11.000  17.250  7.1290e-02
11.000  17.500  7.0510e-02
11.000  17.750  6.9792e-02
11.000  18.000  6.9337e-02
11.000  18.250  6.9278e-02
11.000  18.500  6.9324e-02
11.000  18.750  6.8903e-02
11.000  19.000  6.7225e-02
11.000  19.250  6.3902e-02
11.000  19.500  5.8441e-02
11.000  19.750  5.0393e-02
11.000  20.000  3.9645e-02
11.000  20.250  3.4543e-02
11.000  20.500  3.4309e-02
11.000  20.750  3.5832e-02
11.000  21.000  3.8356e-02
11.000  21.250  3.9270e-02
11.000  21.500  3.5644e-02
11.000  21.750  3.2046e-02
11.000  22.000  2.9122e-02
11.000  22.250  2.7341e-02
11.000  22.500  2.6227e-02
11.000  22.750  2.5685e-02
11.000  23.000  2.5399e-02
11.000  23.250  2.5233e-02
11.000  23.500  2.5163e-02
11.000  23.750  2.5133e-02
11.000  24.000  2.5120e-02
11.250  17.000  7.0376e-02
11.250  17.250  6.9827e-02
11.250  17.500  6.8903e-02
11.250  17.750  6.8033e-02
11.250  18.000  6.7549e-02
11.250  18.250  6.7487e-02
11.250  18.500  6.7688e-02
11.250  18.750  6.8036e-02
11.250  19.000  6.7781e-02
11.250  19.250  6.6190e-02
11.250  19.500  6.2932e-02
11.250  19.750  5.7426e-02
11.250  20.000  4.9126e-02
11.250  20.250  3.7947e-02
11.250  20.500  3.2674e-02
11.250  20.750  3.5145e-02
11.250  21.000  3.7154e-02
11.250  21.250  3.9800e-02
11.250  21.500  3.9744e-02
11.250  21.750  3.5694e-02
11.250  22.000  3.2042e-02
11.250  22.250  2.9121e-02
11.250  22.500  2.7341e-02
11.250  22.750  2.6227e-02
11.250  23.000  2.5685e-02
11.250  23.250  2.5400e-02
11.250  23.500  2.5235e-02
11.250  23.750  2.5163e-02
11.250  24.000  2.5134e-02
11.500  17.000  6.7398e-02
11.500  17.250  6.7346e-02
11.500  17.500  6.6656e-02
11.500  17.750  6.5833e-02
11.500  18.000  6.5428e-02
11.500  18.250  6.5399e-02
11.500  18.500  6.5638e-02
11.500  18.750  6.6228e-02
11.500  19.000  6.6726e-02
11.500  19.250  6.6613e-02
11.500  19.500  6.5147e-02
11.500  19.750  6.2008e-02
11.500  20.000  5.6540e-02
11.500  20.250  4.8024e-02
11.500  20.500  3.6577e-02
11.500  20.750  3.3734e-02
11.500  21.000  3.6671e-02
11.500  21.250  3.9260e-02
11.500  21.500  4.2155e-02
11.500  21.750  4.0280e-02
11.500  22.000  3.5795e-02
11.500  22.250  3.2037e-02
11.500  22.500  2.9121e-02
11.500  22.750  2.7342e-02
11.500  23.000  2.6227e-02
11.500  23.250  2.5685e-02
11.500  23.500  2.5400e-02
11.500  23.750  2.5236e-02
11.500  24.000  2.5164e-02
11.750  17.000  6.2969e-02
11.750  17.250  6.3310e-02
11.750  17.500  6.3190e-02
11.750  17.750  6.2803e-02
11.750  18.000  6.2745e-02
11.750  18.250  6.3027e-02
11.750  18.500  6.3351e-02
11.750  18.750  6.3814e-02
11.750  19.000  6.4595e-02
11.750  19.250  6.5240e-02
11.750  19.500  6.5294e-02
11.750  19.750  6.4071e-02
11.750  20.000  6.1159e-02
11.750  20.250  5.5769e-02
11.750  20.500  4.7121e-02
11.750  20.750  4.0920e-02
11.750  21.000  3.8389e-02
11.750  21.250  3.9089e-02
11.750  21.500  4.2391e-02
11.750  21.750  4.5116e-02
11.750  22.000  4.0872e-02
11.750  22.250  3.5940e-02
11.750  22.500  3.2034e-02
11.750  22.750  2.9120e-02
11.750  23.000  2.7343e-02
11.750  23.250  2.6226e-02
11.750  23.500  2.5696e-02
11.750  23.750  2.5400e-02
11.750  24.000  2.5236e-02
12.000  17.000  5.6943e-02
12.000  17.250  5.7605e-02
12.000  17.500  5.8163e-02
12.000  17.750  5.8770e-02
12.000  18.000  5.9545e-02
12.000  18.250  6.0224e-02
12.000  18.500  6.0648e-02
12.000  18.750  6.0991e-02
12.000  19.000  6.1674e-02
12.000  19.250  6.2558e-02
12.000  19.500  6.3532e-02
12.000  19.750  6.3890e-02
12.000  20.000  6.3018e-02
12.000  20.250  6.0408e-02
12.000  20.500  5.5174e-02
12.000  20.750  4.6457e-02
12.000  21.000  4.1196e-02
12.000  21.250  4.0334e-02
12.000  21.500  4.2653e-02
12.000  21.750  4.6503e-02
12.000  22.000  4.7561e-02
12.000  22.250  4.1407e-02
12.000  22.500  3.6114e-02
12.000  22.750  3.2034e-02
12.000  23.000  2.9118e-02
12.000  23.250  2.7343e-02
12.000  23.500  2.6226e-02
12.000  23.750  2.5685e-02
12.000  24.000  2.5400e-02
12.250  17.000  4.9791e-02
12.250  17.250  5.0868e-02
12.250  17.500  5.2241e-02
12.250  17.750  5.4113e-02
12.250  18.000  5.5780e-02
12.250  18.250  5.6712e-02
12.250  18.500  5.7194e-02
12.250  18.750  5.7621e-02
12.250  19.000  5.8239e-02
12.250  19.250  5.9145e-02
12.250  19.500  6.0426e-02
12.250  19.750  6.1766e-02
12.250  20.000  6.2468e-02
12.250  20.250  6.2006e-02
12.250  20.500  5.9767e-02
12.250  20.750  5.4802e-02
12.250  21.000  4.6373e-02
12.250  21.250  4.2157e-02
12.250  21.500  4.2902e-02
12.250  21.750  4.6902e-02
12.250  22.000  5.1133e-02
12.250  22.250  4.9134e-02
12.250  22.500  4.1966e-02
12.250  22.750  3.6307e-02
12.250  23.000  3.2039e-02
12.250  23.250  2.9116e-02
12.250  23.500  2.7344e-02
12.250  23.750  2.6225e-02
12.250  24.000  2.5685e-02
12.500  17.000  4.5265e-02
12.500  17.250  4.5985e-02
12.500  17.500  4.7665e-02
12.500  17.750  4.9839e-02
12.500  18.000  5.1397e-02
12.500  18.250  5.2265e-02
12.500  18.500  5.2831e-02
12.500  18.750  5.3519e-02
12.500  19.000  5.4309e-02
12.500  19.250  5.5287e-02
12.500  19.500  5.6582e-02
12.500  19.750  5.8244e-02
12.500  20.000  5.9945e-02
12.500  20.250  6.1019e-02
12.500  20.500  6.1046e-02
12.500  20.750  5.9368e-02
12.500  21.000  5.4955e-02
12.500  21.250  4.7098e-02
12.500  21.500  4.4592e-02
12.500  21.750  4.7402e-02
12.500  22.000  5.2453e-02
12.500  22.250  5.5514e-02
12.500  22.500  5.0687e-02
12.500  22.750  4.2575e-02
12.500  23.000  3.6510e-02
12.500  23.250  3.2049e-02
12.500  23.500  2.9114e-02
12.500  23.750  2.7344e-02
12.500  24.000  2.6223e-02
12.750  17.000  4.4593e-02
12.750  17.250  4.4810e-02
12.750  17.500  4.5279e-02
12.750  17.750  4.5773e-02
12.750  18.000  4.6421e-02
12.750  18.250  4.7126e-02
12.750  18.500  4.7827e-02
12.750  18.750  4.8729e-02
12.750  19.000  4.9814e-02
12.750  19.250  5.1055e-02
12.750  19.500  5.2336e-02
12.750  19.750  5.3965e-02
12.750  20.000  5.5902e-02
12.750  20.250  5.8013e-02
12.750  20.500  5.9577e-02
12.750  20.750  6.0217e-02
12.750  21.000  5.9205e-02
12.750  21.250  5.5722e-02
12.750  21.500  4.9074e-02
12.750  21.750  4.7316e-02
12.750  22.000  5.1538e-02
12.750  22.250  5.8552e-02
12.750  22.500  5.9515e-02
12.750  22.750  5.2046e-02
12.750  23.000  4.3216e-02
12.750  23.250  3.6688e-02
12.750  23.500  3.2055e-02
12.750  23.750  2.9111e-02
12.750  24.000  2.7344e-02
13.000  17.000  4.1194e-02
13.000  17.250  4.2028e-02
13.000  17.500  4.1700e-02
13.000  17.750  4.1683e-02
13.000  18.000  4.1882e-02
13.000  18.250  4.2237e-02
13.000  18.500  4.2774e-02
13.000  18.750  4.3628e-02
13.000  19.000  4.4825e-02
13.000  19.250  4.6234e-02
13.000  19.500  4.7710e-02
13.000  19.750  4.9288e-02
13.000  20.000  5.1184e-02
13.000  20.250  5.3435e-02
13.000  20.500  5.6039e-02
13.000  20.750  5.8116e-02
13.000  21.000  5.9614e-02
13.000  21.250  5.9607e-02
13.000  21.500  5.7079e-02
13.000  21.750  5.1672e-02
13.000  22.000  5.0960e-02
13.000  22.250  5.7110e-02
13.000  22.500  6.3722e-02
13.000  22.750  6.2954e-02
13.000  23.000  5.3552e-02
13.000  23.250  4.3818e-02
13.000  23.500  3.6860e-02
13.000  23.750  3.2071e-02
13.000  24.000  2.9109e-02
13.250  17.000  3.8764e-02
13.250  17.250  3.9273e-02
13.250  17.500  3.8793e-02
13.250  17.750  3.8296e-02
13.250  18.000  3.8193e-02
13.250  18.250  3.8374e-02
13.250  18.500  3.8683e-02
13.250  18.750  3.9161e-02
13.250  19.000  3.9935e-02
13.250  19.250  4.1141e-02
13.250  19.500  4.2662e-02
13.250  19.750  4.4339e-02
13.250  20.000  4.6150e-02
13.250  20.250  4.8279e-02
13.250  20.500  5.0863e-02
13.250  20.750  5.3819e-02
13.250  21.000  5.6499e-02
13.250  21.250  5.8714e-02
13.250  21.500  5.9563e-02
13.250  21.750  5.8338e-02
13.250  22.000  5.3479e-02
13.250  22.250  5.4771e-02
13.250  22.500  6.2502e-02
13.250  22.750  6.8005e-02
13.250  23.000  6.6236e-02
13.250  23.250  5.4777e-02
13.250  23.500  4.4308e-02
13.250  23.750  3.7007e-02
13.250  24.000  3.2094e-02
13.500  17.000  3.6257e-02
13.500  17.250  3.6717e-02
13.500  17.500  3.6172e-02
13.500  17.750  3.5375e-02
13.500  18.000  3.5107e-02
13.500  18.250  3.5141e-02
13.500  18.500  3.5328e-02
13.500  18.750  3.5588e-02
13.500  19.000  3.5983e-02
13.500  19.250  3.6618e-02
13.500  19.500  3.7616e-02
13.500  19.750  3.9069e-02
13.500  20.000  4.0813e-02
13.500  20.250  4.2808e-02
13.500  20.500  4.5136e-02
13.500  20.750  4.7934e-02
13.500  21.000  5.1002e-02
13.500  21.250  5.4291e-02
13.500  21.500  5.6740e-02
13.500  21.750  5.7222e-02
13.500  22.000  5.5748e-02
13.500  22.250  5.4189e-02
13.500  22.500  5.9597e-02
13.500  22.750  6.7331e-02
13.500  23.000  7.1766e-02
13.500  23.250  6.9430e-02
13.500  23.500  5.6018e-02
13.500  23.750  4.5012e-02
13.500  24.000  3.7131e-02
13.750  17.000  3.3325e-02
13.750  17.250  3.4400e-02
13.750  17.500  3.3789e-02
13.750  17.750  3.2852e-02
13.750  18.000  3.2383e-02
13.750  18.250  3.2351e-02
13.750  18.500  3.2453e-02
13.750  18.750  3.2581e-02
13.750  19.000  3.2750e-02
13.750  19.250  3.3040e-02
13.750  19.500  3.3543e-02
13.750  19.750  3.4355e-02
13.750  20.000  3.5619e-02
13.750  20.250  3.7357e-02
13.750  20.500  3.9482e-02
13.750  20.750  4.1956e-02
13.750  21.000  4.4767e-02
13.750  21.250  4.7919e-02
13.750  21.500  5.1120e-02
13.750  21.750  5.3096e-02
13.750  22.000  5.3895e-02
13.750  22.250  5.3883e-02
13.750  22.500  5.7002e-02
13.750  22.750  6.6512e-02
13.750  23.000  7.3255e-02
13.750  23.250  7.6872e-02
13.750  23.500  7.2615e-02
13.750  23.750  5.7366e-02
13.750  24.000  4.5412e-02
14.000  17.000  2.9907e-02
14.000  17.250  3.1689e-02
14.000  17.500  3.1573e-02
14.000  17.750  3.0534e-02
14.000  18.000  3.0213e-02
14.000  18.250  3.0870e-02
14.000  18.500  3.2399e-02
14.000  18.750  3.4695e-02
14.000  19.000  3.7650e-02
14.000  19.250  4.1160e-02
14.000  19.500  4.5119e-02
14.000  19.750  4.9419e-02
14.000  20.000  5.3957e-02
14.000  20.250  5.8625e-02
14.000  20.500  6.3317e-02
14.000  20.750  6.7928e-02
14.000  21.000  7.2352e-02
14.000  21.250  7.6483e-02
14.000  21.500  8.0214e-02
14.000  21.750  8.3441e-02
14.000  22.000  8.6056e-02
14.000  22.250  8.7954e-02
14.000  22.500  8.9030e-02
14.000  22.750  8.9176e-02
14.000  23.000  8.8288e-02
14.000  23.250  8.6259e-02
14.000  23.500  8.2983e-02
14.000  23.750  7.6013e-02
14.000  24.000  5.8479e-02
