InwC 8329.68A  relative to Inci 1215.00A scaled to 1215A.
Hden   Phi(H)  Eq_Width (A)
7.000  17.000  6.2595e-03
7.000  17.250  6.4587e-03
7.000  17.500  6.4616e-03
7.000  17.750  6.4645e-03
7.000  18.000  6.4678e-03
7.000  18.250  6.4708e-03
7.000  18.500  6.4724e-03
7.000  18.750  6.4733e-03
7.000  19.000  6.4741e-03
7.000  19.250  6.4746e-03
7.000  19.500  6.4748e-03
7.000  19.750  6.4749e-03
7.000  20.000  6.4749e-03
7.000  20.250  6.4750e-03
7.000  20.500  6.4750e-03
7.000  20.750  6.4751e-03
7.000  21.000  6.4751e-03
7.000  21.250  6.4751e-03
7.000  21.500  6.4751e-03
7.000  21.750  6.4751e-03
7.000  22.000  6.4752e-03
7.000  22.250  6.4752e-03
7.000  22.500  6.4752e-03
7.000  22.750  6.4751e-03
7.000  23.000  6.4752e-03
7.000  23.250  6.4752e-03
7.000  23.500  6.4752e-03
7.000  23.750  6.4752e-03
7.000  24.000  6.4752e-03
7.250  17.000  5.9212e-03
7.250  17.250  6.2607e-03
7.250  17.500  6.4587e-03
7.250  17.750  6.4616e-03
7.250  18.000  6.4646e-03
7.250  18.250  6.4678e-03
7.250  18.500  6.4708e-03
7.250  18.750  6.4724e-03
7.250  19.000  6.4733e-03
7.250  19.250  6.4740e-03
7.250  19.500  6.4746e-03
7.250  19.750  6.4748e-03
7.250  20.000  6.4749e-03
7.250  20.250  6.4750e-03
7.250  20.500  6.4750e-03
7.250  20.750  6.4750e-03
7.250  21.000  6.4750e-03
7.250  21.250  6.4750e-03
7.250  21.500  6.4750e-03
7.250  21.750  6.4751e-03
7.250  22.000  6.4758e-03
7.250  22.250  6.4751e-03
7.250  22.500  6.4751e-03
7.250  22.750  6.4752e-03
7.250  23.000  6.4752e-03
7.250  23.250  6.4755e-03
7.250  23.500  6.4752e-03
7.250  23.750  6.4755e-03
7.250  24.000  6.4752e-03
7.500  17.000  4.3401e-03
7.500  17.250  5.9407e-03
7.500  17.500  6.2616e-03
7.500  17.750  6.4588e-03
7.500  18.000  6.4616e-03
7.500  18.250  6.4646e-03
7.500  18.500  6.4678e-03
7.500  18.750  6.4708e-03
7.500  19.000  6.4724e-03
7.500  19.250  6.4733e-03
7.500  19.500  6.4741e-03
7.500  19.750  6.4746e-03
7.500  20.000  6.4748e-03
7.500  20.250  6.4749e-03
7.500  20.500  6.4749e-03
7.500  20.750  6.4750e-03
7.500  21.000  6.4750e-03
7.500  21.250  6.4750e-03
7.500  21.500  6.4750e-03
7.500  21.750  6.4750e-03
7.500  22.000  6.4751e-03
7.500  22.250  6.4750e-03
7.500  22.500  6.4751e-03
7.500  22.750  6.4751e-03
7.500  23.000  6.4751e-03
7.500  23.250  6.4751e-03
7.500  23.500  6.4751e-03
7.500  23.750  6.4751e-03
7.500  24.000  6.4751e-03
7.750  17.000  3.1249e-03
7.750  17.250  4.3821e-03
7.750  17.500  5.9550e-03
7.750  17.750  6.2625e-03
7.750  18.000  6.4588e-03
7.750  18.250  6.4616e-03
7.750  18.500  6.4646e-03
7.750  18.750  6.4678e-03
7.750  19.000  6.4708e-03
7.750  19.250  6.4724e-03
7.750  19.500  6.4733e-03
7.750  19.750  6.4741e-03
7.750  20.000  6.4746e-03
7.750  20.250  6.4748e-03
7.750  20.500  6.4749e-03
7.750  20.750  6.4749e-03
7.750  21.000  6.4750e-03
7.750  21.250  6.4750e-03
7.750  21.500  6.4750e-03
7.750  21.750  6.4750e-03
7.750  22.000  6.4750e-03
7.750  22.250  6.4750e-03
7.750  22.500  6.4751e-03
7.750  22.750  6.4750e-03
7.750  23.000  6.4751e-03
7.750  23.250  6.4750e-03
7.750  23.500  6.4750e-03
7.750  23.750  6.4750e-03
7.750  24.000  6.4750e-03
8.000  17.000  2.1754e-03
8.000  17.250  3.1538e-03
8.000  17.500  4.3909e-03
8.000  17.750  5.9319e-03
8.000  18.000  6.2615e-03
8.000  18.250  6.4588e-03
8.000  18.500  6.4617e-03
8.000  18.750  6.4646e-03
8.000  19.000  6.4678e-03
8.000  19.250  6.4708e-03
8.000  19.500  6.4724e-03
8.000  19.750  6.4733e-03
8.000  20.000  6.4741e-03
8.000  20.250  6.4746e-03
8.000  20.500  6.4748e-03
8.000  20.750  6.4749e-03
8.000  21.000  6.4749e-03
8.000  21.250  6.4750e-03
8.000  21.500  6.4750e-03
8.000  21.750  6.4750e-03
8.000  22.000  6.4750e-03
8.000  22.250  6.4750e-03
8.000  22.500  6.4750e-03
8.000  22.750  6.4750e-03
8.000  23.000  6.4750e-03
8.000  23.250  6.4750e-03
8.000  23.500  6.4750e-03
8.000  23.750  6.4750e-03
8.000  24.000  6.4756e-03
8.250  17.000  1.5166e-03
8.250  17.250  2.2165e-03
8.250  17.500  3.2052e-03
8.250  17.750  4.4287e-03
8.250  18.000  5.9421e-03
8.250  18.250  6.2621e-03
8.250  18.500  6.4588e-03
8.250  18.750  6.4617e-03
8.250  19.000  6.4647e-03
8.250  19.250  6.4679e-03
8.250  19.500  6.4708e-03
8.250  19.750  6.4724e-03
8.250  20.000  6.4733e-03
8.250  20.250  6.4741e-03
8.250  20.500  6.4746e-03
8.250  20.750  6.4748e-03
8.250  21.000  6.4749e-03
8.250  21.250  6.4749e-03
8.250  21.500  6.4750e-03
8.250  21.750  6.4750e-03
8.250  22.000  6.4750e-03
8.250  22.250  6.4750e-03
8.250  22.500  6.4750e-03
8.250  22.750  6.4750e-03
8.250  23.000  6.4751e-03
8.250  23.250  6.4750e-03
8.250  23.500  6.4750e-03
8.250  23.750  6.4750e-03
8.250  24.000  6.4750e-03
8.500  17.000  1.0635e-03
8.500  17.250  1.5492e-03
8.500  17.500  2.2672e-03
8.500  17.750  3.2765e-03
8.500  18.000  4.4886e-03
8.500  18.250  5.9630e-03
8.500  18.500  6.2626e-03
8.500  18.750  6.4588e-03
8.500  19.000  6.4617e-03
8.500  19.250  6.4647e-03
8.500  19.500  6.4679e-03
8.500  19.750  6.4708e-03
8.500  20.000  6.4724e-03
8.500  20.250  6.4733e-03
8.500  20.500  6.4740e-03
8.500  20.750  6.4746e-03
8.500  21.000  6.4748e-03
8.500  21.250  6.4749e-03
8.500  21.500  6.4749e-03
8.500  21.750  6.4750e-03
8.500  22.000  6.4750e-03
8.500  22.250  6.4750e-03
8.500  22.500  6.4750e-03
8.500  22.750  6.4751e-03
8.500  23.000  6.4750e-03
8.500  23.250  6.4750e-03
8.500  23.500  6.4750e-03
8.500  23.750  6.4750e-03
8.500  24.000  6.4750e-03
8.750  17.000  7.5012e-04
8.750  17.250  1.0887e-03
8.750  17.500  1.5938e-03
8.750  17.750  2.3458e-03
8.750  18.000  3.3784e-03
8.750  18.250  4.5895e-03
8.750  18.500  5.9971e-03
8.750  18.750  6.2630e-03
8.750  19.000  6.4588e-03
8.750  19.250  6.4617e-03
8.750  19.500  6.4647e-03
8.750  19.750  6.4679e-03
8.750  20.000  6.4708e-03
8.750  20.250  6.4724e-03
8.750  20.500  6.4733e-03
8.750  20.750  6.4740e-03
8.750  21.000  6.4746e-03
8.750  21.250  6.4748e-03
8.750  21.500  6.4749e-03
8.750  21.750  6.4749e-03
8.750  22.000  6.4750e-03
8.750  22.250  6.4750e-03
8.750  22.500  6.4750e-03
8.750  22.750  6.4750e-03
8.750  23.000  6.4750e-03
8.750  23.250  6.4750e-03
8.750  23.500  6.4750e-03
8.750  23.750  6.4750e-03
8.750  24.000  6.4750e-03
9.000  17.000  5.3045e-04
9.000  17.250  7.6881e-04
9.000  17.500  1.1259e-03
9.000  17.750  1.6667e-03
9.000  18.000  2.4784e-03
9.000  18.250  3.5691e-03
9.000  18.500  4.7690e-03
9.000  18.750  6.0847e-03
9.000  19.000  6.2629e-03
9.000  19.250  6.4588e-03
9.000  19.500  6.4617e-03
9.000  19.750  6.4648e-03
9.000  20.000  6.4679e-03
9.000  20.250  6.4708e-03
9.000  20.500  6.4724e-03
9.000  20.750  6.4733e-03
9.000  21.000  6.4741e-03
9.000  21.250  6.4746e-03
9.000  21.500  6.4748e-03
9.000  21.750  6.4749e-03
9.000  22.000  6.4749e-03
9.000  22.250  6.4749e-03
9.000  22.500  6.4750e-03
9.000  22.750  6.4750e-03
9.000  23.000  6.4750e-03
9.000  23.250  6.4750e-03
9.000  23.500  6.4750e-03
9.000  23.750  6.4750e-03
9.000  24.000  6.4751e-03
9.250  17.000  3.7539e-04
9.250  17.250  5.4444e-04
9.250  17.500  7.9951e-04
9.250  17.750  1.1922e-03
9.250  18.000  1.8053e-03
9.250  18.250  2.7086e-03
9.250  18.500  3.8568e-03
9.250  18.750  5.0893e-03
9.250  19.000  6.0868e-03
9.250  19.250  6.2620e-03
9.250  19.500  6.4587e-03
9.250  19.750  6.4617e-03
9.250  20.000  6.4648e-03
9.250  20.250  6.4680e-03
9.250  20.500  6.4708e-03
9.250  20.750  6.4724e-03
9.250  21.000  6.4733e-03
9.250  21.250  6.4740e-03
9.250  21.500  6.4736e-03
9.250  21.750  6.4737e-03
9.250  22.000  6.4736e-03
9.250  22.250  6.4738e-03
9.250  22.500  6.4747e-03
9.250  22.750  6.4748e-03
9.250  23.000  6.4749e-03
9.250  23.250  6.4749e-03
9.250  23.500  6.4749e-03
9.250  23.750  6.4749e-03
9.250  24.000  6.4749e-03
9.500  17.000  2.6601e-04
9.500  17.250  3.8609e-04
9.500  17.500  5.6889e-04
9.500  17.750  8.5753e-04
9.500  18.000  1.3213e-03
9.500  18.250  2.0380e-03
9.500  18.500  3.0316e-03
9.500  18.750  4.2120e-03
9.500  19.000  5.4336e-03
9.500  19.250  6.0853e-03
9.500  19.500  6.2600e-03
9.500  19.750  6.4586e-03
9.500  20.000  6.4617e-03
9.500  20.250  6.4648e-03
9.500  20.500  6.4680e-03
9.500  20.750  6.4705e-03
9.500  21.000  6.4714e-03
9.500  21.250  6.4722e-03
9.500  21.500  6.4728e-03
9.500  21.750  6.4729e-03
9.500  22.000  6.4728e-03
9.500  22.250  6.4729e-03
9.500  22.500  6.4729e-03
9.500  22.750  6.4730e-03
9.500  23.000  6.4730e-03
9.500  23.250  6.4730e-03
9.500  23.500  6.4732e-03
9.500  23.750  6.4732e-03
9.500  24.000  6.4732e-03
9.750  17.000  1.8856e-04
9.750  17.250  2.7383e-04
9.750  17.500  4.0510e-04
9.750  17.750  6.1737e-04
9.750  18.000  9.7136e-04
9.750  18.250  1.5325e-03
9.750  18.500  2.3377e-03
9.750  18.750  3.3819e-03
9.750  19.000  4.5733e-03
9.750  19.250  5.8108e-03
9.750  19.500  6.0821e-03
9.750  19.750  6.2568e-03
9.750  20.000  6.4584e-03
9.750  20.250  6.4616e-03
9.750  20.500  6.4648e-03
9.750  20.750  6.4680e-03
9.750  21.000  6.4706e-03
9.750  21.250  6.4716e-03
9.750  21.500  6.4722e-03
9.750  21.750  6.4729e-03
9.750  22.000  6.4732e-03
9.750  22.250  6.4728e-03
9.750  22.500  6.4730e-03
9.750  22.750  6.4730e-03
9.750  23.000  6.4729e-03
9.750  23.250  6.4730e-03
9.750  23.500  6.4730e-03
9.750  23.750  6.4730e-03
9.750  24.000  6.4730e-03
10.000  17.000  1.3358e-04
10.000  17.250  1.9432e-04
10.000  17.500  2.8872e-04
10.000  17.750  4.4551e-04
10.000  18.000  7.1712e-04
10.000  18.250  1.1514e-03
10.000  18.500  1.7816e-03
10.000  18.750  2.6384e-03
10.000  19.000  3.7228e-03
10.000  19.250  4.9465e-03
10.000  19.500  5.9891e-03
10.000  19.750  6.0784e-03
10.000  20.000  6.2527e-03
10.000  20.250  6.4579e-03
10.000  20.500  6.4615e-03
10.000  20.750  6.4647e-03
10.000  21.000  6.4679e-03
10.000  21.250  6.4707e-03
10.000  21.500  6.4721e-03
10.000  21.750  6.4723e-03
10.000  22.000  6.4729e-03
10.000  22.250  6.4733e-03
10.000  22.500  6.4731e-03
10.000  22.750  6.4728e-03
10.000  23.000  6.4730e-03
10.000  23.250  6.4730e-03
10.000  23.500  6.4730e-03
10.000  23.750  6.4730e-03
10.000  24.000  6.4730e-03
10.250  17.000  9.4568e-05
10.250  17.250  1.3802e-04
10.250  17.500  2.0617e-04
10.250  17.750  3.2255e-04
10.250  18.000  5.2914e-04
10.250  18.250  8.5877e-04
10.250  18.500  1.3398e-03
10.250  18.750  2.0085e-03
10.250  19.000  2.9028e-03
10.250  19.250  4.0488e-03
10.250  19.500  5.3537e-03
10.250  19.750  5.9858e-03
10.250  20.000  6.0746e-03
10.250  20.250  6.2485e-03
10.250  20.500  6.4569e-03
10.250  20.750  6.4612e-03
10.250  21.000  6.4646e-03
10.250  21.250  6.4678e-03
10.250  21.500  6.4707e-03
10.250  21.750  6.4723e-03
10.250  22.000  6.4728e-03
10.250  22.250  6.4730e-03
10.250  22.500  6.4734e-03
10.250  22.750  6.4733e-03
10.250  23.000  6.4731e-03
10.250  23.250  6.4729e-03
10.250  23.500  6.4730e-03
10.250  23.750  6.4730e-03
10.250  24.000  6.4730e-03
10.500  17.000  6.6996e-05
10.500  17.250  9.8107e-05
10.500  17.500  1.4782e-04
10.500  17.750  2.3481e-04
10.500  18.000  3.8996e-04
10.500  18.250  6.3975e-04
10.500  18.500  9.9597e-04
10.500  18.750  1.4967e-03
10.500  19.000  2.1938e-03
10.500  19.250  3.1193e-03
10.500  19.500  4.3007e-03
10.500  19.750  5.5915e-03
10.500  20.000  5.9822e-03
10.500  20.250  6.0709e-03
10.500  20.500  6.2454e-03
10.500  20.750  6.4556e-03
10.500  21.000  6.4606e-03
10.500  21.250  6.4644e-03
10.500  21.500  6.4678e-03
10.500  21.750  6.4706e-03
10.500  22.000  6.4723e-03
10.500  22.250  6.4731e-03
10.500  22.500  6.4734e-03
10.500  22.750  6.4735e-03
10.500  23.000  6.4735e-03
10.500  23.250  6.4733e-03
10.500  23.500  6.4732e-03
10.500  23.750  6.4730e-03
10.500  24.000  6.4729e-03
10.750  17.000  4.7490e-05
10.750  17.250  6.9877e-05
10.750  17.500  1.0642e-04
10.750  17.750  1.7136e-04
10.750  18.000  2.8658e-04
10.750  18.250  4.6815e-04
10.750  18.500  7.2881e-04
10.750  18.750  1.1097e-03
10.750  19.000  1.6267e-03
10.750  19.250  2.3424e-03
10.750  19.500  3.3103e-03
10.750  19.750  4.5449e-03
10.750  20.000  5.8407e-03
10.750  20.250  5.9789e-03
10.750  20.500  6.0685e-03
10.750  20.750  6.2467e-03
10.750  21.000  6.4533e-03
10.750  21.250  6.4595e-03
10.750  21.500  6.4641e-03
10.750  21.750  6.4676e-03
10.750  22.000  6.4705e-03
10.750  22.250  6.4723e-03
10.750  22.500  6.4732e-03
10.750  22.750  6.4738e-03
10.750  23.000  6.4735e-03
10.750  23.250  6.4737e-03
10.750  23.500  6.4736e-03
10.750  23.750  6.4734e-03
10.750  24.000  6.4733e-03
11.000  17.000  3.3827e-05
11.000  17.250  4.9794e-05
11.000  17.500  7.6543e-05
11.000  17.750  1.2477e-04
11.000  18.000  2.0897e-04
11.000  18.250  3.3901e-04
11.000  18.500  5.3226e-04
11.000  18.750  8.0395e-04
11.000  19.000  1.1878e-03
11.000  19.250  1.7179e-03
11.000  19.500  2.4679e-03
11.000  19.750  3.4812e-03
11.000  20.000  4.8044e-03
11.000  20.250  5.9030e-03
11.000  20.500  5.9748e-03
11.000  20.750  6.0683e-03
11.000  21.000  6.2544e-03
11.000  21.250  6.4506e-03
11.000  21.500  6.4586e-03
11.000  21.750  6.4635e-03
11.000  22.000  6.4671e-03
11.000  22.250  6.4701e-03
11.000  22.500  6.4722e-03
11.000  22.750  6.4731e-03
11.000  23.000  6.4739e-03
11.000  23.250  6.4737e-03
11.000  23.500  6.4737e-03
11.000  23.750  6.4737e-03
11.000  24.000  6.4736e-03
11.250  17.000  2.4115e-05
11.250  17.250  3.5391e-05
11.250  17.500  5.4897e-05
11.250  17.750  9.0206e-05
11.250  18.000  1.5070e-04
11.250  18.250  2.4346e-04
11.250  18.500  3.7860e-04
11.250  18.750  5.7868e-04
11.250  19.000  8.5547e-04
11.250  19.250  1.2461e-03
11.250  19.500  1.8003e-03
11.250  19.750  2.5772e-03
11.250  20.000  3.6416e-03
11.250  20.250  5.0331e-03
11.250  20.500  5.9136e-03
11.250  20.750  5.9705e-03
11.250  21.000  6.0731e-03
11.250  21.250  6.2765e-03
11.250  21.500  6.4495e-03
11.250  21.750  6.4567e-03
11.250  22.000  6.4624e-03
11.250  22.250  6.4663e-03
11.250  22.500  6.4696e-03
11.250  22.750  6.4720e-03
11.250  23.000  6.4730e-03
11.250  23.250  6.4739e-03
11.250  23.500  6.4742e-03
11.250  23.750  6.4737e-03
11.250  24.000  6.4737e-03
11.500  17.000  1.7449e-05
11.500  17.250  2.5350e-05
11.500  17.500  3.9342e-05
11.500  17.750  6.4691e-05
11.500  18.000  1.0749e-04
11.500  18.250  1.7292e-04
11.500  18.500  2.6864e-04
11.500  18.750  4.1053e-04
11.500  19.000  6.1029e-04
11.500  19.250  8.9695e-04
11.500  19.500  1.2974e-03
11.500  19.750  1.8710e-03
11.500  20.000  2.6815e-03
11.500  20.250  3.7946e-03
11.500  20.500  5.2466e-03
11.500  20.750  5.8991e-03
11.500  21.000  5.9674e-03
11.500  21.250  6.0886e-03
11.500  21.500  6.3271e-03
11.500  21.750  6.4458e-03
11.500  22.000  6.4540e-03
11.500  22.250  6.4606e-03
11.500  22.500  6.4650e-03
11.500  22.750  6.4689e-03
11.500  23.000  6.4717e-03
11.500  23.250  6.4728e-03
11.500  23.500  6.4738e-03
11.500  23.750  6.4744e-03
11.500  24.000  6.4738e-03
11.750  17.000  1.2840e-05
11.750  17.250  1.8354e-05
11.750  17.500  2.8230e-05
11.750  17.750  4.6008e-05
11.750  18.000  7.5802e-05
11.750  18.250  1.2099e-04
11.750  18.500  1.8864e-04
11.750  18.750  2.8749e-04
11.750  19.000  4.3251e-04
11.750  19.250  6.3770e-04
11.750  19.500  9.2955e-04
11.750  19.750  1.3423e-03
11.750  20.000  1.9356e-03
11.750  20.250  2.7734e-03
11.750  20.500  3.9367e-03
11.750  20.750  5.4114e-03
11.750  21.000  5.8778e-03
11.750  21.250  5.9681e-03
11.750  21.500  6.1291e-03
11.750  21.750  6.3907e-03
11.750  22.000  6.4402e-03
11.750  22.250  6.4500e-03
11.750  22.500  6.4578e-03
11.750  22.750  6.4629e-03
11.750  23.000  6.4676e-03
11.750  23.250  6.4713e-03
11.750  23.500  6.4753e-03
11.750  23.750  6.4737e-03
11.750  24.000  6.4745e-03
12.000  17.000  9.6296e-06
12.000  17.250  1.3498e-05
12.000  17.500  2.0329e-05
12.000  17.750  3.2510e-05
12.000  18.000  5.2510e-05
12.000  18.250  8.3621e-05
12.000  18.500  1.3119e-04
12.000  18.750  2.0123e-04
12.000  19.000  3.0436e-04
12.000  19.250  4.5128e-04
12.000  19.500  6.6025e-04
12.000  19.750  9.5778e-04
12.000  20.000  1.3814e-03
12.000  20.250  1.9910e-03
12.000  20.500  2.8556e-03
12.000  20.750  4.0635e-03
12.000  21.000  5.5659e-03
12.000  21.250  5.8495e-03
12.000  21.500  5.9876e-03
12.000  21.750  6.1809e-03
12.000  22.000  6.4162e-03
12.000  22.250  6.4317e-03
12.000  22.500  6.4440e-03
12.000  22.750  6.4536e-03
12.000  23.000  6.4597e-03
12.000  23.250  6.4655e-03
12.000  23.500  6.4705e-03
12.000  23.750  6.4721e-03
12.000  24.000  6.4734e-03
12.250  17.000  7.3251e-06
12.250  17.250  1.0123e-05
12.250  17.500  1.4733e-05
12.250  17.750  2.2798e-05
12.250  18.000  3.6132e-05
12.250  18.250  5.7613e-05
12.250  18.500  9.0947e-05
12.250  18.750  1.4091e-04
12.250  19.000  2.1399e-04
12.250  19.250  3.1835e-04
12.250  19.500  4.6683e-04
12.250  19.750  6.7893e-04
12.250  20.000  9.8099e-04
12.250  20.250  1.4132e-03
12.250  20.500  2.0381e-03
12.250  20.750  2.9326e-03
12.250  21.000  4.1795e-03
12.250  21.250  5.5470e-03
12.250  21.500  5.8339e-03
12.250  21.750  5.9968e-03
12.250  22.000  6.2346e-03
12.250  22.250  6.4001e-03
12.250  22.500  6.4188e-03
12.250  22.750  6.4347e-03
12.250  23.000  6.4468e-03
12.250  23.250  6.4545e-03
12.250  23.500  6.4624e-03
12.250  23.750  6.4694e-03
12.250  24.000  6.4714e-03
12.500  17.000  5.4321e-06
12.500  17.250  7.4897e-06
12.500  17.500  1.0700e-05
12.500  17.750  1.5967e-05
12.500  18.000  2.4856e-05
12.500  18.250  3.9588e-05
12.500  18.500  6.2881e-05
12.500  18.750  9.8189e-05
12.500  19.000  1.4996e-04
12.500  19.250  2.2420e-04
12.500  19.500  3.2947e-04
12.500  19.750  4.7934e-04
12.500  20.000  6.9457e-04
12.500  20.250  1.0026e-03
12.500  20.500  1.4407e-03
12.500  20.750  2.0765e-03
12.500  21.000  3.0026e-03
12.500  21.250  4.2731e-03
12.500  21.500  5.5377e-03
12.500  21.750  5.7861e-03
12.500  22.000  6.0057e-03
12.500  22.250  6.2637e-03
12.500  22.500  6.3752e-03
12.500  22.750  6.3995e-03
12.500  23.000  6.4207e-03
12.500  23.250  6.4360e-03
12.500  23.500  6.4459e-03
12.500  23.750  6.4572e-03
12.500  24.000  6.4675e-03
12.750  17.000  3.3745e-06
12.750  17.250  5.4321e-06
12.750  17.500  7.5720e-06
12.750  17.750  1.1111e-05
12.750  18.000  1.7284e-05
12.750  18.250  2.7325e-05
12.750  18.500  4.3457e-05
12.750  18.750  6.8230e-05
12.750  19.000  1.0477e-04
12.750  19.250  1.5778e-04
12.750  19.500  2.3243e-04
12.750  19.750  3.3868e-04
12.750  20.000  4.8996e-04
12.750  20.250  7.0765e-04
12.750  20.500  1.0197e-03
12.750  20.750  1.4613e-03
12.750  21.000  2.1168e-03
12.750  21.250  3.0630e-03
12.750  21.500  4.3232e-03
12.750  21.750  5.4239e-03
12.750  22.000  5.7224e-03
12.750  22.250  5.9992e-03
12.750  22.500  6.2578e-03
12.750  22.750  6.3371e-03
12.750  23.000  6.3708e-03
12.750  23.250  6.3988e-03
12.750  23.500  6.4187e-03
12.750  23.750  6.4322e-03
12.750  24.000  6.4488e-03
13.000  17.000  9.0535e-07
13.000  17.250  2.1399e-06
13.000  17.500  5.1852e-06
13.000  17.750  7.9835e-06
13.000  18.000  1.2099e-05
13.000  18.250  1.9012e-05
13.000  18.500  3.0041e-05
13.000  18.750  4.7160e-05
13.000  19.000  7.2757e-05
13.000  19.250  1.0996e-04
13.000  19.500  1.6321e-04
13.000  19.750  2.3835e-04
13.000  20.000  3.4510e-04
13.000  20.250  4.9728e-04
13.000  20.500  7.1811e-04
13.000  20.750  1.0320e-03
13.000  21.000  1.4923e-03
13.000  21.250  2.1601e-03
13.000  21.500  3.0974e-03
13.000  21.750  4.3556e-03
13.000  22.000  5.2841e-03
13.000  22.250  5.6193e-03
13.000  22.500  5.9384e-03
13.000  22.750  6.1987e-03
13.000  23.000  6.2804e-03
13.000  23.250  6.3276e-03
13.000  23.500  6.3653e-03
13.000  23.750  6.3911e-03
13.000  24.000  6.4097e-03
13.250  17.000  1.0000e-07
13.250  17.250  1.0700e-06
13.250  17.500  2.3868e-06
13.250  17.750  4.7737e-06
13.250  18.000  8.7243e-06
13.250  18.250  1.3333e-05
13.250  18.500  2.0823e-05
13.250  18.750  3.2510e-05
13.250  19.000  5.0123e-05
13.250  19.250  7.6132e-05
13.250  19.500  1.1374e-04
13.250  19.750  1.6691e-04
13.250  20.000  2.4296e-04
13.250  20.250  3.5111e-04
13.250  20.500  5.0519e-04
13.250  20.750  7.2831e-04
13.250  21.000  1.0478e-03
13.250  21.250  1.5145e-03
13.250  21.500  2.1783e-03
13.250  21.750  3.1370e-03
13.250  22.000  4.2846e-03
13.250  22.250  5.0494e-03
13.250  22.500  5.4533e-03
13.250  22.750  5.8034e-03
13.250  23.000  6.0933e-03
13.250  23.250  6.1958e-03
13.250  23.500  6.2626e-03
13.250  23.750  6.3138e-03
13.250  24.000  6.3479e-03
13.500  17.000  1.0000e-07
13.500  17.250  1.0000e-07
13.500  17.500  1.3169e-06
13.500  17.750  2.9630e-06
13.500  18.000  5.5967e-06
13.500  18.250  9.5473e-06
13.500  18.500  1.4568e-05
13.500  18.750  2.2469e-05
13.500  19.000  3.4486e-05
13.500  19.250  5.2675e-05
13.500  19.500  7.8601e-05
13.500  19.750  1.1630e-04
13.500  20.000  1.6988e-04
13.500  20.250  2.4609e-04
13.500  20.500  3.5506e-04
13.500  20.750  5.1078e-04
13.500  21.000  7.3432e-04
13.500  21.250  1.0628e-03
13.500  21.500  1.5249e-03
13.500  21.750  2.1830e-03
13.500  22.000  3.0730e-03
13.500  22.250  4.0869e-03
13.500  22.500  4.7430e-03
13.500  22.750  5.1931e-03
13.500  23.000  5.5902e-03
13.500  23.250  5.9334e-03
13.500  23.500  6.0712e-03
13.500  23.750  6.1668e-03
13.500  24.000  6.2352e-03
13.750  17.000  1.0000e-07
13.750  17.250  1.0000e-07
13.750  17.500  1.0000e-07
13.750  17.750  1.5638e-06
13.750  18.000  3.5391e-06
13.750  18.250  6.2551e-06
13.750  18.500  1.0288e-05
13.750  18.750  1.5720e-05
13.750  19.000  2.3868e-05
13.750  19.250  3.6132e-05
13.750  19.500  5.4156e-05
13.750  19.750  8.0412e-05
13.750  20.000  1.1827e-04
13.750  20.250  1.7226e-04
13.750  20.500  2.4930e-04
13.750  20.750  3.5975e-04
13.750  21.000  5.1728e-04
13.750  21.250  7.4395e-04
13.750  21.500  1.0660e-03
13.750  21.750  1.5276e-03
13.750  22.000  2.1575e-03
13.750  22.250  2.9347e-03
13.750  22.500  3.7758e-03
13.750  22.750  4.3822e-03
13.750  23.000  4.8770e-03
13.750  23.250  5.3197e-03
13.750  23.500  5.7091e-03
13.750  23.750  5.8910e-03
13.750  24.000  6.0249e-03
14.000  17.000  1.0000e-07
14.000  17.250  1.0000e-07
14.000  17.500  1.0000e-07
14.000  17.750  9.0535e-07
14.000  18.000  1.9753e-06
14.000  18.250  4.1152e-06
14.000  18.500  6.9959e-06
14.000  18.750  1.1111e-05
14.000  19.000  1.6543e-05
14.000  19.250  2.4856e-05
14.000  19.500  3.7284e-05
14.000  19.750  5.5309e-05
14.000  20.000  8.1728e-05
14.000  20.250  1.1975e-04
14.000  20.500  1.7432e-04
14.000  20.750  2.5226e-04
14.000  21.000  3.6420e-04
14.000  21.250  5.2428e-04
14.000  21.500  7.5177e-04
14.000  21.750  1.0770e-03
14.000  22.000  1.5170e-03
14.000  22.250  2.0434e-03
14.000  22.500  2.6492e-03
14.000  22.750  3.3849e-03
14.000  23.000  3.9424e-03
14.000  23.250  4.4850e-03
14.000  23.500  4.9696e-03
14.000  23.750  5.4045e-03
14.000  24.000  5.6369e-03
