nFnu 925.144A  relative to Inci 1215.00A scaled to 1215A.
Hden   Phi(H)  Eq_Width (A)
7.000  17.000  1.7523e-02
7.000  17.250  1.6098e-02
7.000  17.500  1.4437e-02
7.000  17.750  1.2361e-02
7.000  18.000  1.0594e-02
7.000  18.250  9.4869e-03
7.000  18.500  8.7557e-03
7.000  18.750  8.3723e-03
7.000  19.000  8.1670e-03
7.000  19.250  8.0505e-03
7.000  19.500  8.0002e-03
7.000  19.750  7.9789e-03
7.000  20.000  7.9695e-03
7.000  20.250  7.9652e-03
7.000  20.500  7.9630e-03
7.000  20.750  7.9617e-03
7.000  21.000  7.9611e-03
7.000  21.250  7.9607e-03
7.000  21.500  7.9607e-03
7.000  21.750  7.9605e-03
7.000  22.000  7.9604e-03
7.000  22.250  7.9603e-03
7.000  22.500  7.9603e-03
7.000  22.750  7.9606e-03
7.000  23.000  7.9606e-03
7.000  23.250  7.9603e-03
7.000  23.500  7.9603e-03
7.000  23.750  7.9603e-03
7.000  24.000  7.9603e-03
7.250  17.000  1.8437e-02
7.250  17.250  1.7171e-02
7.250  17.500  1.5929e-02
7.250  17.750  1.4361e-02
7.250  18.000  1.2318e-02
7.250  18.250  1.0570e-02
7.250  18.500  9.4752e-03
7.250  18.750  8.7517e-03
7.250  19.000  8.3707e-03
7.250  19.250  8.1665e-03
7.250  19.500  8.0504e-03
7.250  19.750  8.0002e-03
7.250  20.000  7.9789e-03
7.250  20.250  7.9695e-03
7.250  20.500  7.9651e-03
7.250  20.750  7.9629e-03
7.250  21.000  7.9617e-03
7.250  21.250  7.9612e-03
7.250  21.500  7.9607e-03
7.250  21.750  7.9621e-03
7.250  22.000  7.9605e-03
7.250  22.250  7.9604e-03
7.250  22.500  7.9603e-03
7.250  22.750  7.9612e-03
7.250  23.000  7.9612e-03
7.250  23.250  7.9603e-03
7.250  23.500  7.9603e-03
7.250  23.750  7.9603e-03
7.250  24.000  7.9603e-03
7.500  17.000  2.2194e-02
7.500  17.250  1.8038e-02
7.500  17.500  1.6966e-02
7.500  17.750  1.5836e-02
7.500  18.000  1.4326e-02
7.500  18.250  1.2295e-02
7.500  18.500  1.0556e-02
7.500  18.750  9.4679e-03
7.500  19.000  8.7491e-03
7.500  19.250  8.3697e-03
7.500  19.500  8.1662e-03
7.500  19.750  8.0503e-03
7.500  20.000  8.0002e-03
7.500  20.250  7.9789e-03
7.500  20.500  7.9695e-03
7.500  20.750  7.9651e-03
7.500  21.000  7.9629e-03
7.500  21.250  7.9617e-03
7.500  21.500  7.9611e-03
7.500  21.750  7.9607e-03
7.500  22.000  7.9606e-03
7.500  22.250  7.9605e-03
7.500  22.500  7.9604e-03
7.500  22.750  7.9603e-03
7.500  23.000  7.9607e-03
7.500  23.250  7.9612e-03
7.500  23.500  7.9603e-03
7.500  23.750  7.9613e-03
7.500  24.000  7.9603e-03
7.750  17.000  2.5989e-02
7.750  17.250  2.0018e-02
7.750  17.500  1.7808e-02
7.750  17.750  1.6845e-02
7.750  18.000  1.5788e-02
7.750  18.250  1.4317e-02
7.750  18.500  1.2284e-02
7.750  18.750  1.0548e-02
7.750  19.000  9.4635e-03
7.750  19.250  8.7473e-03
7.750  19.500  8.3691e-03
7.750  19.750  8.1659e-03
7.750  20.000  8.0503e-03
7.750  20.250  8.0002e-03
7.750  20.500  7.9789e-03
7.750  20.750  7.9695e-03
7.750  21.000  7.9651e-03
7.750  21.250  7.9629e-03
7.750  21.500  7.9616e-03
7.750  21.750  7.9611e-03
7.750  22.000  7.9607e-03
7.750  22.250  7.9606e-03
7.750  22.500  7.9604e-03
7.750  22.750  7.9606e-03
7.750  23.000  7.9606e-03
7.750  23.250  7.9604e-03
7.750  23.500  7.9612e-03
7.750  23.750  7.9612e-03
7.750  24.000  7.9603e-03
8.000  17.000  1.9654e-02
8.000  17.250  2.1448e-02
8.000  17.500  1.8412e-02
8.000  17.750  1.7675e-02
8.000  18.000  1.6773e-02
8.000  18.250  1.5768e-02
8.000  18.500  1.4325e-02
8.000  18.750  1.2282e-02
8.000  19.000  1.0543e-02
8.000  19.250  9.4609e-03
8.000  19.500  8.7463e-03
8.000  19.750  8.3687e-03
8.000  20.000  8.1658e-03
8.000  20.250  8.0502e-03
8.000  20.500  8.0002e-03
8.000  20.750  7.9789e-03
8.000  21.000  7.9695e-03
8.000  21.250  7.9651e-03
8.000  21.500  7.9629e-03
8.000  21.750  7.9616e-03
8.000  22.000  7.9611e-03
8.000  22.250  7.9607e-03
8.000  22.500  7.9605e-03
8.000  22.750  7.9606e-03
8.000  23.000  7.9603e-03
8.000  23.250  7.9608e-03
8.000  23.500  7.9603e-03
8.000  23.750  7.9602e-03
8.000  24.000  7.9603e-03
8.250  17.000  1.4589e-02
8.250  17.250  1.6197e-02
8.250  17.500  1.8414e-02
8.250  17.750  1.7132e-02
8.250  18.000  1.7587e-02
8.250  18.250  1.6725e-02
8.250  18.500  1.5765e-02
8.250  18.750  1.4344e-02
8.250  19.000  1.2286e-02
8.250  19.250  1.0542e-02
8.250  19.500  9.4593e-03
8.250  19.750  8.7457e-03
8.250  20.000  8.3685e-03
8.250  20.250  8.1658e-03
8.250  20.500  8.0502e-03
8.250  20.750  8.0002e-03
8.250  21.000  7.9789e-03
8.250  21.250  7.9695e-03
8.250  21.500  7.9651e-03
8.250  21.750  7.9629e-03
8.250  22.000  7.9616e-03
8.250  22.250  7.9610e-03
8.250  22.500  7.9607e-03
8.250  22.750  7.9607e-03
8.250  23.000  7.9604e-03
8.250  23.250  7.9624e-03
8.250  23.500  7.9602e-03
8.250  23.750  7.9602e-03
8.250  24.000  7.9608e-03
8.500  17.000  1.1057e-02
8.500  17.250  1.2009e-02
8.500  17.500  1.3922e-02
8.500  17.750  1.6441e-02
8.500  18.000  1.6368e-02
8.500  18.250  1.7519e-02
8.500  18.500  1.6690e-02
8.500  18.750  1.5771e-02
8.500  19.000  1.4372e-02
8.500  19.250  1.2292e-02
8.500  19.500  1.0541e-02
8.500  19.750  9.4584e-03
8.500  20.000  8.7453e-03
8.500  20.250  8.3683e-03
8.500  20.500  8.1657e-03
8.500  20.750  8.0502e-03
8.500  21.000  8.0002e-03
8.500  21.250  7.9789e-03
8.500  21.500  7.9695e-03
8.500  21.750  7.9651e-03
8.500  22.000  7.9629e-03
8.500  22.250  7.9616e-03
8.500  22.500  7.9610e-03
8.500  22.750  7.9607e-03
8.500  23.000  7.9605e-03
8.500  23.250  7.9606e-03
8.500  23.500  7.9603e-03
8.500  23.750  7.9602e-03
8.500  24.000  7.9602e-03
8.750  17.000  8.7455e-03
8.750  17.250  9.2290e-03
8.750  17.500  1.0419e-02
8.750  17.750  1.2537e-02
8.750  18.000  1.5227e-02
8.750  18.250  1.5922e-02
8.750  18.500  1.7459e-02
8.750  18.750  1.6658e-02
8.750  19.000  1.5783e-02
8.750  19.250  1.4404e-02
8.750  19.500  1.2301e-02
8.750  19.750  1.0542e-02
8.750  20.000  9.4579e-03
8.750  20.250  8.7450e-03
8.750  20.500  8.3682e-03
8.750  20.750  8.1657e-03
8.750  21.000  8.0502e-03
8.750  21.250  8.0002e-03
8.750  21.500  7.9789e-03
8.750  21.750  7.9695e-03
8.750  22.000  7.9651e-03
8.750  22.250  7.9629e-03
8.750  22.500  7.9616e-03
8.750  22.750  7.9611e-03
8.750  23.000  7.9615e-03
8.750  23.250  7.9605e-03
8.750  23.500  7.9606e-03
8.750  23.750  7.9603e-03
8.750  24.000  7.9602e-03
9.000  17.000  7.2438e-03
9.000  17.250  7.4677e-03
9.000  17.500  8.1463e-03
9.000  17.750  9.4909e-03
9.000  18.000  1.1739e-02
9.000  18.250  1.4545e-02
9.000  18.500  1.5633e-02
9.000  18.750  1.7400e-02
9.000  19.000  1.6624e-02
9.000  19.250  1.5793e-02
9.000  19.500  1.4439e-02
9.000  19.750  1.2311e-02
9.000  20.000  1.0543e-02
9.000  20.250  9.4575e-03
9.000  20.500  8.7448e-03
9.000  20.750  8.3682e-03
9.000  21.000  8.1656e-03
9.000  21.250  8.0502e-03
9.000  21.500  8.0002e-03
9.000  21.750  7.9788e-03
9.000  22.000  7.9695e-03
9.000  22.250  7.9650e-03
9.000  22.500  7.9628e-03
9.000  22.750  7.9616e-03
9.000  23.000  7.9610e-03
9.000  23.250  7.9607e-03
9.000  23.500  7.9605e-03
9.000  23.750  7.9603e-03
9.000  24.000  7.9604e-03
9.250  17.000  6.2439e-03
9.250  17.250  6.3341e-03
9.250  17.500  6.7393e-03
9.250  17.750  7.5677e-03
9.250  18.000  9.0593e-03
9.250  18.250  1.1439e-02
9.250  18.500  1.4193e-02
9.250  18.750  1.5444e-02
9.250  19.000  1.7339e-02
9.250  19.250  1.6583e-02
9.250  19.500  1.5796e-02
9.250  19.750  1.4470e-02
9.250  20.000  1.2321e-02
9.250  20.250  1.0544e-02
9.250  20.500  9.4574e-03
9.250  20.750  8.7446e-03
9.250  21.000  8.3681e-03
9.250  21.250  8.1657e-03
9.250  21.500  8.0497e-03
9.250  21.750  7.9997e-03
9.250  22.000  7.9783e-03
9.250  22.250  7.9690e-03
9.250  22.500  7.9647e-03
9.250  22.750  7.9625e-03
9.250  23.000  7.9614e-03
9.250  23.250  7.9608e-03
9.250  23.500  7.9605e-03
9.250  23.750  7.9603e-03
9.250  24.000  7.9602e-03
9.500  17.000  5.5433e-03
9.500  17.250  5.5651e-03
9.500  17.500  5.8440e-03
9.500  17.750  6.4092e-03
9.500  18.000  7.3791e-03
9.500  18.250  9.0285e-03
9.500  18.500  1.1573e-02
9.500  18.750  1.3995e-02
9.500  19.000  1.5319e-02
9.500  19.250  1.7277e-02
9.500  19.500  1.6536e-02
9.500  19.750  1.5786e-02
9.500  20.000  1.4494e-02
9.500  20.250  1.2329e-02
9.500  20.500  1.0545e-02
9.500  20.750  9.4568e-03
9.500  21.000  8.7440e-03
9.500  21.250  8.3677e-03
9.500  21.500  8.1650e-03
9.500  21.750  8.0494e-03
9.500  22.000  7.9994e-03
9.500  22.250  7.9781e-03
9.500  22.500  7.9687e-03
9.500  22.750  7.9643e-03
9.500  23.000  7.9621e-03
9.500  23.250  7.9609e-03
9.500  23.500  7.9602e-03
9.500  23.750  7.9599e-03
9.500  24.000  7.9598e-03
9.750  17.000  5.0812e-03
9.750  17.250  5.0078e-03
9.750  17.500  5.2098e-03
9.750  17.750  5.6510e-03
9.750  18.000  6.3822e-03
9.750  18.250  7.5638e-03
9.750  18.500  9.4279e-03
9.750  18.750  1.2024e-02
9.750  19.000  1.3827e-02
9.750  19.250  1.5229e-02
9.750  19.500  1.7219e-02
9.750  19.750  1.6483e-02
9.750  20.000  1.5765e-02
9.750  20.250  1.4508e-02
9.750  20.500  1.2336e-02
9.750  20.750  1.0545e-02
9.750  21.000  9.4568e-03
9.750  21.250  8.7439e-03
9.750  21.500  8.3677e-03
9.750  21.750  8.1651e-03
9.750  22.000  8.0495e-03
9.750  22.250  7.9995e-03
9.750  22.500  7.9781e-03
9.750  22.750  7.9687e-03
9.750  23.000  7.9643e-03
9.750  23.250  7.9621e-03
9.750  23.500  7.9608e-03
9.750  23.750  7.9602e-03
9.750  24.000  7.9598e-03
10.000  17.000  4.8163e-03
10.000  17.250  4.6156e-03
10.000  17.500  4.7118e-03
10.000  17.750  5.0914e-03
10.000  18.000  5.7497e-03
10.000  18.250  6.6941e-03
10.000  18.500  8.0663e-03
10.000  18.750  1.0071e-02
10.000  19.000  1.2344e-02
10.000  19.250  1.3711e-02
10.000  19.500  1.5164e-02
10.000  19.750  1.7170e-02
10.000  20.000  1.6432e-02
10.000  20.250  1.5735e-02
10.000  20.500  1.4515e-02
10.000  20.750  1.2341e-02
10.000  21.000  1.0546e-02
10.000  21.250  9.4570e-03
10.000  21.500  8.7438e-03
10.000  21.750  8.3677e-03
10.000  22.000  8.1652e-03
10.000  22.250  8.0495e-03
10.000  22.500  7.9994e-03
10.000  22.750  7.9781e-03
10.000  23.000  7.9687e-03
10.000  23.250  7.9643e-03
10.000  23.500  7.9621e-03
10.000  23.750  7.9609e-03
10.000  24.000  7.9602e-03
10.250  17.000  4.7483e-03
10.250  17.250  4.4063e-03
10.250  17.500  4.3671e-03
10.250  17.750  4.6556e-03
10.250  18.000  5.2674e-03
10.250  18.250  6.1091e-03
10.250  18.500  7.2161e-03
10.250  18.750  8.7371e-03
10.250  19.000  1.0756e-02
10.250  19.250  1.2544e-02
10.250  19.500  1.3684e-02
10.250  19.750  1.5130e-02
10.250  20.000  1.7170e-02
10.250  20.250  1.6402e-02
10.250  20.500  1.5700e-02
10.250  20.750  1.4514e-02
10.250  21.000  1.2343e-02
10.250  21.250  1.0546e-02
10.250  21.500  9.4570e-03
10.250  21.750  8.7438e-03
10.250  22.000  8.3677e-03
10.250  22.250  8.1652e-03
10.250  22.500  8.0496e-03
10.250  22.750  7.9994e-03
10.250  23.000  7.9782e-03
10.250  23.250  7.9687e-03
10.250  23.500  7.9643e-03
10.250  23.750  7.9621e-03
10.250  24.000  7.9609e-03
10.500  17.000  4.8164e-03
10.500  17.250  4.3820e-03
10.500  17.500  4.2028e-03
10.500  17.750  4.3695e-03
10.500  18.000  4.8821e-03
10.500  18.250  5.6503e-03
10.500  18.500  6.5898e-03
10.500  18.750  7.7507e-03
10.500  19.000  9.2826e-03
10.500  19.250  1.1222e-02
10.500  19.500  1.2740e-02
10.500  19.750  1.3812e-02
10.500  20.000  1.5227e-02
10.500  20.250  1.7227e-02
10.500  20.500  1.6406e-02
10.500  20.750  1.5671e-02
10.500  21.000  1.4505e-02
10.500  21.250  1.2344e-02
10.500  21.500  1.0545e-02
10.500  21.750  9.4570e-03
10.500  22.000  8.7439e-03
10.500  22.250  8.3678e-03
10.500  22.500  8.1653e-03
10.500  22.750  8.0497e-03
10.500  23.000  7.9996e-03
10.500  23.250  7.9781e-03
10.500  23.500  7.9687e-03
10.500  23.750  7.9644e-03
10.500  24.000  7.9621e-03
10.750  17.000  4.9624e-03
10.750  17.250  4.4941e-03
10.750  17.500  4.2300e-03
10.750  17.750  4.2691e-03
10.750  18.000  4.6215e-03
10.750  18.250  5.2178e-03
10.750  18.500  5.9829e-03
10.750  18.750  6.8878e-03
10.750  19.000  8.0789e-03
10.750  19.250  9.7131e-03
10.750  19.500  1.1512e-02
10.750  19.750  1.2924e-02
10.750  20.000  1.4113e-02
10.750  20.250  1.5529e-02
10.750  20.500  1.7464e-02
10.750  20.750  1.6466e-02
10.750  21.000  1.5656e-02
10.750  21.250  1.4489e-02
10.750  21.500  1.2342e-02
10.750  21.750  1.0544e-02
10.750  22.000  9.4570e-03
10.750  22.250  8.7438e-03
10.750  22.500  8.3680e-03
10.750  22.750  8.1653e-03
10.750  23.000  8.0497e-03
10.750  23.250  7.9997e-03
10.750  23.500  7.9782e-03
10.750  23.750  7.9687e-03
10.750  24.000  7.9643e-03
11.000  17.000  5.1479e-03
11.000  17.250  4.6850e-03
11.000  17.500  4.3916e-03
11.000  17.750  4.3416e-03
11.000  18.000  4.5207e-03
11.000  18.250  4.8724e-03
11.000  18.500  5.4109e-03
11.000  18.750  6.1304e-03
11.000  19.000  7.0709e-03
11.000  19.250  8.3623e-03
11.000  19.500  1.0136e-02
11.000  19.750  1.1948e-02
11.000  20.000  1.3378e-02
11.000  20.250  1.4787e-02
11.000  20.500  1.6105e-02
11.000  20.750  1.7935e-02
11.000  21.000  1.6690e-02
11.000  21.250  1.5671e-02
11.000  21.500  1.4467e-02
11.000  21.750  1.2338e-02
11.000  22.000  1.0543e-02
11.000  22.250  9.4570e-03
11.000  22.500  8.7437e-03
11.000  22.750  8.3681e-03
11.000  23.000  8.1655e-03
11.000  23.250  8.0498e-03
11.000  23.500  7.9998e-03
11.000  23.750  7.9783e-03
11.000  24.000  7.9688e-03
11.250  17.000  5.3322e-03
11.250  17.250  4.9067e-03
11.250  17.500  4.6130e-03
11.250  17.750  4.5156e-03
11.250  18.000  4.5619e-03
11.250  18.250  4.6807e-03
11.250  18.500  4.9595e-03
11.250  18.750  5.4947e-03
11.250  19.000  6.2305e-03
11.250  19.250  7.2285e-03
11.250  19.500  8.6528e-03
11.250  19.750  1.0595e-02
11.250  20.000  1.2357e-02
11.250  20.250  1.3991e-02
11.250  20.500  1.5513e-02
11.250  20.750  1.7053e-02
11.250  21.000  1.8861e-02
11.250  21.250  1.7086e-02
11.250  21.500  1.5760e-02
11.250  21.750  1.4444e-02
11.250  22.000  1.2331e-02
11.250  22.250  1.0541e-02
11.250  22.500  9.4570e-03
11.250  22.750  8.7435e-03
11.250  23.000  8.3681e-03
11.250  23.250  8.1658e-03
11.250  23.500  8.0498e-03
11.250  23.750  7.9998e-03
11.250  24.000  7.9784e-03
11.500  17.000  5.4691e-03
11.500  17.250  5.1119e-03
11.500  17.500  4.8397e-03
11.500  17.750  4.7160e-03
11.500  18.000  4.6765e-03
11.500  18.250  4.6573e-03
11.500  18.500  4.8585e-03
11.500  18.750  5.3263e-03
11.500  19.000  6.0475e-03
11.500  19.250  7.0088e-03
11.500  19.500  8.1969e-03
11.500  19.750  9.5985e-03
11.500  20.000  1.1200e-02
11.500  20.250  1.2989e-02
11.500  20.500  1.4908e-02
11.500  20.750  1.6720e-02
11.500  21.000  1.8499e-02
11.500  21.250  2.0086e-02
11.500  21.500  1.7711e-02
11.500  21.750  1.5933e-02
11.500  22.000  1.4426e-02
11.500  22.250  1.2322e-02
11.500  22.500  1.0539e-02
11.500  22.750  9.4570e-03
11.500  23.000  8.7434e-03
11.500  23.250  8.3681e-03
11.500  23.500  8.1658e-03
11.500  23.750  8.0499e-03
11.500  24.000  7.9998e-03
11.750  17.000  5.4709e-03
11.750  17.250  5.2349e-03
11.750  17.500  5.0174e-03
11.750  17.750  4.8916e-03
11.750  18.000  4.8090e-03
11.750  18.250  4.8694e-03
11.750  18.500  5.1082e-03
11.750  18.750  5.5303e-03
11.750  19.000  6.1407e-03
11.750  19.250  6.9442e-03
11.750  19.500  7.9458e-03
11.750  19.750  9.1504e-03
11.750  20.000  1.0563e-02
11.750  20.250  1.2188e-02
11.750  20.500  1.4031e-02
11.750  20.750  1.6097e-02
11.750  21.000  1.8371e-02
11.750  21.250  2.0643e-02
11.750  21.500  2.1453e-02
11.750  21.750  1.8517e-02
11.750  22.000  1.6253e-02
11.750  22.250  1.4425e-02
11.750  22.500  1.2312e-02
11.750  22.750  1.0536e-02
11.750  23.000  9.4570e-03
11.750  23.250  8.7431e-03
11.750  23.500  8.3681e-03
11.750  23.750  8.1659e-03
11.750  24.000  8.0501e-03
12.000  17.000  5.2374e-03
12.000  17.250  5.1858e-03
12.000  17.500  5.0793e-03
12.000  17.750  4.9989e-03
12.000  18.000  4.9300e-03
12.000  18.250  4.8530e-03
12.000  18.500  4.7598e-03
12.000  18.750  4.6921e-03
12.000  19.000  4.7479e-03
12.000  19.250  5.0346e-03
12.000  19.500  5.6160e-03
12.000  19.750  6.5082e-03
12.000  20.000  7.8792e-03
12.000  20.250  9.9491e-03
12.000  20.500  1.2681e-02
12.000  20.750  1.4980e-02
12.000  21.000  1.7779e-02
12.000  21.250  2.0978e-02
12.000  21.500  2.3713e-02
12.000  21.750  2.2866e-02
12.000  22.000  1.9492e-02
12.000  22.250  1.6695e-02
12.000  22.500  1.4452e-02
12.000  22.750  1.2301e-02
12.000  23.000  1.0533e-02
12.000  23.250  9.4571e-03
12.000  23.500  8.7428e-03
12.000  23.750  8.3681e-03
12.000  24.000  8.1660e-03
12.250  17.000  4.6940e-03
12.250  17.250  4.8797e-03
12.250  17.500  4.9507e-03
12.250  17.750  4.9828e-03
12.250  18.000  4.9762e-03
12.250  18.250  4.9281e-03
12.250  18.500  4.8374e-03
12.250  18.750  4.7373e-03
12.250  19.000  4.6655e-03
12.250  19.250  4.7206e-03
12.250  19.500  5.0348e-03
12.250  19.750  5.6605e-03
12.250  20.000  6.6528e-03
12.250  20.250  8.2254e-03
12.250  20.500  1.0632e-02
12.250  20.750  1.3792e-02
12.250  21.000  1.6688e-02
12.250  21.250  2.0399e-02
12.250  21.500  2.4537e-02
12.250  21.750  2.7427e-02
12.250  22.000  2.4428e-02
12.250  22.250  2.0158e-02
12.250  22.500  1.6928e-02
12.250  22.750  1.4513e-02
12.250  23.000  1.2290e-02
12.250  23.250  1.0529e-02
12.250  23.500  9.4571e-03
12.250  23.750  8.7424e-03
12.250  24.000  8.3679e-03
12.500  17.000  3.8449e-03
12.500  17.250  4.3250e-03
12.500  17.500  4.6010e-03
12.500  17.750  4.7737e-03
12.500  18.000  4.8725e-03
12.500  18.250  4.8973e-03
12.500  18.500  4.8649e-03
12.500  18.750  4.7852e-03
12.500  19.000  4.6819e-03
12.500  19.250  4.6192e-03
12.500  19.500  4.6869e-03
12.500  19.750  5.0415e-03
12.500  20.000  5.7255e-03
12.500  20.250  6.8493e-03
12.500  20.500  8.6839e-03
12.500  20.750  1.1582e-02
12.500  21.000  1.5493e-02
12.500  21.250  1.9368e-02
12.500  21.500  2.4082e-02
12.500  21.750  2.8982e-02
12.500  22.000  3.0587e-02
12.500  22.250  2.5776e-02
12.500  22.500  2.1135e-02
12.500  22.750  1.7524e-02
12.500  23.000  1.4605e-02
12.500  23.250  1.2282e-02
12.500  23.500  1.0526e-02
12.500  23.750  9.4571e-03
12.500  24.000  8.7417e-03
12.750  17.000  2.9702e-03
12.750  17.250  3.5072e-03
12.750  17.500  4.0112e-03
12.750  17.750  4.3348e-03
12.750  18.000  4.5626e-03
12.750  18.250  4.7148e-03
12.750  18.500  4.7847e-03
12.750  18.750  4.7815e-03
12.750  19.000  4.7187e-03
12.750  19.250  4.6269e-03
12.750  19.500  4.5681e-03
12.750  19.750  4.6547e-03
12.750  20.000  5.0452e-03
12.750  20.250  5.8240e-03
12.750  20.500  7.1240e-03
12.750  20.750  9.3543e-03
12.750  21.000  1.3050e-02
12.750  21.250  1.8070e-02
12.750  21.500  2.2896e-02
12.750  21.750  2.9129e-02
12.750  22.000  3.4152e-02
12.750  22.250  3.3645e-02
12.750  22.500  2.7580e-02
12.750  22.750  2.2333e-02
12.750  23.000  1.8052e-02
12.750  23.250  1.4715e-02
12.750  23.500  1.2277e-02
12.750  23.750  1.0523e-02
12.750  24.000  9.4570e-03
13.000  17.000  2.5918e-03
13.000  17.250  2.7277e-03
13.000  17.500  3.1489e-03
13.000  17.750  3.6323e-03
13.000  18.000  4.0166e-03
13.000  18.250  4.3257e-03
13.000  18.500  4.5464e-03
13.000  18.750  4.6628e-03
13.000  19.000  4.6882e-03
13.000  19.250  4.6450e-03
13.000  19.500  4.5622e-03
13.000  19.750  4.5149e-03
13.000  20.000  4.6219e-03
13.000  20.250  5.0483e-03
13.000  20.500  5.9580e-03
13.000  20.750  7.5071e-03
13.000  21.000  1.0204e-02
13.000  21.250  1.4908e-02
13.000  21.500  2.1144e-02
13.000  21.750  2.7797e-02
13.000  22.000  3.4299e-02
13.000  22.250  3.9291e-02
13.000  22.500  3.6653e-02
13.000  22.750  2.9280e-02
13.000  23.000  2.3300e-02
13.000  23.250  1.8537e-02
13.000  23.500  1.4848e-02
13.000  23.750  1.2278e-02
13.000  24.000  1.0520e-02
13.250  17.000  2.3086e-03
13.250  17.250  2.3147e-03
13.250  17.500  2.9622e-03
13.250  17.750  4.3083e-03
13.250  18.000  6.2639e-03
13.250  18.250  8.7400e-03
13.250  18.500  1.1648e-02
13.250  18.750  1.4898e-02
13.250  19.000  1.8402e-02
13.250  19.250  2.2070e-02
13.250  19.500  2.5814e-02
13.250  19.750  2.9544e-02
13.250  20.000  3.3173e-02
13.250  20.250  3.6609e-02
13.250  20.500  3.9765e-02
13.250  20.750  4.2552e-02
13.250  21.000  4.4881e-02
13.250  21.250  4.6662e-02
13.250  21.500  4.7806e-02
13.250  21.750  4.8226e-02
13.250  22.000  4.7830e-02
13.250  22.250  4.6532e-02
13.250  22.500  4.4241e-02
13.250  22.750  3.9870e-02
13.250  23.000  3.1104e-02
13.250  23.250  2.3771e-02
13.250  23.500  1.8720e-02
13.250  23.750  1.4991e-02
13.250  24.000  1.2287e-02
13.500  17.000  2.1458e-03
13.500  17.250  2.0821e-03
13.500  17.500  1.6606e-03
13.500  17.750  1.7900e-03
13.500  18.000  1.9821e-03
13.500  18.250  2.4016e-03
13.500  18.500  3.1515e-03
13.500  18.750  3.7367e-03
13.500  19.000  5.3149e-03
13.500  19.250  8.0630e-03
13.500  19.500  1.1767e-02
13.500  19.750  1.6212e-02
13.500  20.000  2.1184e-02
13.500  20.250  2.6470e-02
13.500  20.500  3.1854e-02
13.500  20.750  3.7123e-02
13.500  21.000  4.2062e-02
13.500  21.250  4.6457e-02
13.500  21.500  5.0094e-02
13.500  21.750  5.2758e-02
13.500  22.000  5.4236e-02
13.500  22.250  5.4313e-02
13.500  22.500  5.2775e-02
13.500  22.750  4.9408e-02
13.500  23.000  4.3286e-02
13.500  23.250  3.3196e-02
13.500  23.500  2.5200e-02
13.500  23.750  1.9402e-02
13.500  24.000  1.5124e-02
13.750  17.000  2.0537e-03
13.750  17.250  1.9951e-03
13.750  17.500  2.8566e-03
13.750  17.750  4.7223e-03
13.750  18.000  7.4678e-03
13.750  18.250  1.0968e-02
13.750  18.500  1.5099e-02
13.750  18.750  1.9735e-02
13.750  19.000  2.4752e-02
13.750  19.250  3.0026e-02
13.750  19.500  3.5431e-02
13.750  19.750  4.0843e-02
13.750  20.000  4.6137e-02
13.750  20.250  5.1188e-02
13.750  20.500  5.5873e-02
13.750  20.750  6.0066e-02
13.750  21.000  6.3642e-02
13.750  21.250  6.6477e-02
13.750  21.500  6.8446e-02
13.750  21.750  6.9424e-02
13.750  22.000  6.9287e-02
13.750  22.250  6.7911e-02
13.750  22.500  6.5169e-02
13.750  22.750  6.0939e-02
13.750  23.000  5.5094e-02
13.750  23.250  4.6781e-02
13.750  23.500  3.4940e-02
13.750  23.750  2.6141e-02
13.750  24.000  1.9825e-02
14.000  17.000  1.9998e-03
14.000  17.250  1.9747e-03
14.000  17.500  1.5373e-03
14.000  17.750  1.4447e-03
14.000  18.000  1.5022e-03
14.000  18.250  1.6043e-03
14.000  18.500  1.7583e-03
14.000  18.750  1.9716e-03
14.000  19.000  2.2516e-03
14.000  19.250  2.7219e-03
14.000  19.500  3.5674e-03
14.000  19.750  3.9998e-03
14.000  20.000  4.6994e-03
14.000  20.250  5.9172e-03
14.000  20.500  7.6650e-03
14.000  20.750  9.9545e-03
14.000  21.000  1.2797e-02
14.000  21.250  1.6205e-02
14.000  21.500  2.0190e-02
14.000  21.750  2.4764e-02
14.000  22.000  2.9938e-02
14.000  22.250  3.5724e-02
14.000  22.500  4.2134e-02
14.000  22.750  4.9179e-02
14.000  23.000  5.6872e-02
14.000  23.250  6.1260e-02
14.000  23.500  5.0348e-02
14.000  23.750  3.6629e-02
14.000  24.000  2.7122e-02
