InwT 1000.00A  relative to Inci 1215.00A scaled to 1215A.
Hden   Phi(H)  Eq_Width (A)
7.000  17.000  1.3845e-02
7.000  17.250  1.2648e-02
7.000  17.500  1.1447e-02
7.000  17.750  1.0228e-02
7.000  18.000  9.3005e-03
7.000  18.250  8.7332e-03
7.000  18.500  8.3706e-03
7.000  18.750  8.1872e-03
7.000  19.000  8.0900e-03
7.000  19.250  8.0351e-03
7.000  19.500  8.0114e-03
7.000  19.750  8.0015e-03
7.000  20.000  7.9971e-03
7.000  20.250  7.9951e-03
7.000  20.500  7.9941e-03
7.000  20.750  7.9935e-03
7.000  21.000  7.9933e-03
7.000  21.250  7.9931e-03
7.000  21.500  7.9932e-03
7.000  21.750  7.9929e-03
7.000  22.000  7.9929e-03
7.000  22.250  7.9929e-03
7.000  22.500  7.9928e-03
7.000  22.750  7.9931e-03
7.000  23.000  7.9931e-03
7.000  23.250  7.9928e-03
7.000  23.500  7.9928e-03
7.000  23.750  7.9928e-03
7.000  24.000  7.9928e-03
7.250  17.000  1.4873e-02
7.250  17.250  1.3702e-02
7.250  17.500  1.2578e-02
7.250  17.750  1.1415e-02
7.250  18.000  1.0210e-02
7.250  18.250  9.2905e-03
7.250  18.500  8.7282e-03
7.250  18.750  8.3690e-03
7.250  19.000  8.1866e-03
7.250  19.250  8.0897e-03
7.250  19.500  8.0350e-03
7.250  19.750  8.0114e-03
7.250  20.000  8.0015e-03
7.250  20.250  7.9971e-03
7.250  20.500  7.9951e-03
7.250  20.750  7.9941e-03
7.250  21.000  7.9935e-03
7.250  21.250  7.9933e-03
7.250  21.500  7.9931e-03
7.250  21.750  7.9946e-03
7.250  22.000  7.9929e-03
7.250  22.250  7.9929e-03
7.250  22.500  7.9929e-03
7.250  22.750  7.9937e-03
7.250  23.000  7.9937e-03
7.250  23.250  7.9928e-03
7.250  23.500  7.9928e-03
7.250  23.750  7.9928e-03
7.250  24.000  7.9928e-03
7.500  17.000  1.6076e-02
7.500  17.250  1.4720e-02
7.500  17.500  1.3620e-02
7.500  17.750  1.2540e-02
7.500  18.000  1.1400e-02
7.500  18.250  1.0200e-02
7.500  18.500  9.2844e-03
7.500  18.750  8.7252e-03
7.500  19.000  8.3678e-03
7.500  19.250  8.1862e-03
7.500  19.500  8.0896e-03
7.500  19.750  8.0350e-03
7.500  20.000  8.0114e-03
7.500  20.250  8.0015e-03
7.500  20.500  7.9971e-03
7.500  20.750  7.9951e-03
7.500  21.000  7.9940e-03
7.500  21.250  7.9935e-03
7.500  21.500  7.9933e-03
7.500  21.750  7.9931e-03
7.500  22.000  7.9930e-03
7.500  22.250  7.9929e-03
7.500  22.500  7.9929e-03
7.500  22.750  7.9929e-03
7.500  23.000  7.9933e-03
7.500  23.250  7.9937e-03
7.500  23.500  7.9928e-03
7.500  23.750  7.9938e-03
7.500  24.000  7.9928e-03
7.750  17.000  1.7637e-02
7.750  17.250  1.5147e-02
7.750  17.500  1.4633e-02
7.750  17.750  1.3571e-02
7.750  18.000  1.2522e-02
7.750  18.250  1.1396e-02
7.750  18.500  1.0195e-02
7.750  18.750  9.2809e-03
7.750  19.000  8.7233e-03
7.750  19.250  8.3672e-03
7.750  19.500  8.1859e-03
7.750  19.750  8.0895e-03
7.750  20.000  8.0349e-03
7.750  20.250  8.0114e-03
7.750  20.500  8.0015e-03
7.750  20.750  7.9971e-03
7.750  21.000  7.9951e-03
7.750  21.250  7.9940e-03
7.750  21.500  7.9935e-03
7.750  21.750  7.9932e-03
7.750  22.000  7.9930e-03
7.750  22.250  7.9929e-03
7.750  22.500  7.9929e-03
7.750  22.750  7.9931e-03
7.750  23.000  7.9932e-03
7.750  23.250  7.9929e-03
7.750  23.500  7.9937e-03
7.750  23.750  7.9937e-03
7.750  24.000  7.9928e-03
8.000  17.000  1.4502e-02
8.000  17.250  1.5623e-02
8.000  17.500  1.4444e-02
8.000  17.750  1.4580e-02
8.000  18.000  1.3542e-02
8.000  18.250  1.2514e-02
8.000  18.500  1.1399e-02
8.000  18.750  1.0193e-02
8.000  19.000  9.2789e-03
8.000  19.250  8.6894e-03
8.000  19.500  8.3472e-03
8.000  19.750  8.1734e-03
8.000  20.000  8.0895e-03
8.000  20.250  8.0349e-03
8.000  20.500  8.0114e-03
8.000  20.750  8.0015e-03
8.000  21.000  7.9971e-03
8.000  21.250  7.9951e-03
8.000  21.500  7.9940e-03
8.000  21.750  7.9934e-03
8.000  22.000  7.9932e-03
8.000  22.250  7.9930e-03
8.000  22.500  7.9929e-03
8.000  22.750  7.9931e-03
8.000  23.000  7.9928e-03
8.000  23.250  7.9933e-03
8.000  23.500  7.9928e-03
8.000  23.750  7.9928e-03
8.000  24.000  7.9928e-03
8.250  17.000  1.1491e-02
8.250  17.250  1.2821e-02
8.250  17.500  1.4282e-02
8.250  17.750  1.3893e-02
8.250  18.000  1.4545e-02
8.250  18.250  1.3522e-02
8.250  18.500  1.2513e-02
8.250  18.750  1.1406e-02
8.250  19.000  1.0194e-02
8.250  19.250  9.2780e-03
8.250  19.500  8.7215e-03
8.250  19.750  8.3664e-03
8.250  20.000  8.1857e-03
8.250  20.250  8.0894e-03
8.250  20.500  8.0349e-03
8.250  20.750  8.0114e-03
8.250  21.000  8.0015e-03
8.250  21.250  7.9971e-03
8.250  21.500  7.9951e-03
8.250  21.750  7.9940e-03
8.250  22.000  7.9934e-03
8.250  22.250  7.9932e-03
8.250  22.500  7.9930e-03
8.250  22.750  7.9931e-03
8.250  23.000  7.9928e-03
8.250  23.250  7.9949e-03
8.250  23.500  7.9928e-03
8.250  23.750  7.9928e-03
8.250  24.000  7.9934e-03
8.500  17.000  9.2025e-03
8.500  17.250  1.0141e-02
8.500  17.500  1.1711e-02
8.500  17.750  1.3409e-02
8.500  18.000  1.3565e-02
8.500  18.250  1.4516e-02
8.500  18.500  1.3507e-02
8.500  18.750  1.2517e-02
8.500  19.000  1.1418e-02
8.500  19.250  1.0196e-02
8.500  19.500  9.2777e-03
8.500  19.750  8.7211e-03
8.500  20.000  8.3663e-03
8.500  20.250  8.1856e-03
8.500  20.500  8.0894e-03
8.500  20.750  8.0349e-03
8.500  21.000  8.0114e-03
8.500  21.250  8.0015e-03
8.500  21.500  7.9971e-03
8.500  21.750  7.9951e-03
8.500  22.000  7.9940e-03
8.500  22.250  7.9934e-03
8.500  22.500  7.9932e-03
8.500  22.750  7.9930e-03
8.500  23.000  7.9929e-03
8.500  23.250  7.9930e-03
8.500  23.500  7.9928e-03
8.500  23.750  7.9928e-03
8.500  24.000  7.9928e-03
8.750  17.000  7.6214e-03
8.750  17.250  8.2037e-03
8.750  17.500  9.3086e-03
8.750  17.750  1.1038e-02
8.750  18.000  1.2871e-02
8.750  18.250  1.3372e-02
8.750  18.500  1.4487e-02
8.750  18.750  1.3492e-02
8.750  19.000  1.2523e-02
8.750  19.250  1.1431e-02
8.750  19.500  1.0199e-02
8.750  19.750  9.2777e-03
8.750  20.000  8.7208e-03
8.750  20.250  8.3661e-03
8.750  20.500  8.1856e-03
8.750  20.750  8.0894e-03
8.750  21.000  8.0349e-03
8.750  21.250  8.0114e-03
8.750  21.500  8.0015e-03
8.750  21.750  7.9971e-03
8.750  22.000  7.9951e-03
8.750  22.250  7.9940e-03
8.750  22.500  7.9934e-03
8.750  22.750  7.9932e-03
8.750  23.000  7.9937e-03
8.750  23.250  7.9929e-03
8.750  23.500  7.9931e-03
8.750  23.750  7.9928e-03
8.750  24.000  7.9928e-03
9.000  17.000  6.5439e-03
9.000  17.250  6.9093e-03
9.000  17.500  7.6166e-03
9.000  17.750  8.8288e-03
9.000  18.000  1.0660e-02
9.000  18.250  1.2565e-02
9.000  18.500  1.3244e-02
9.000  18.750  1.4457e-02
9.000  19.000  1.3475e-02
9.000  19.250  1.2528e-02
9.000  19.500  1.1445e-02
9.000  19.750  1.0203e-02
9.000  20.000  9.2778e-03
9.000  20.250  8.7206e-03
9.000  20.500  8.3660e-03
9.000  20.750  8.1855e-03
9.000  21.000  8.0894e-03
9.000  21.250  8.0349e-03
9.000  21.500  8.0114e-03
9.000  21.750  8.0015e-03
9.000  22.000  7.9970e-03
9.000  22.250  7.9950e-03
9.000  22.500  7.9940e-03
9.000  22.750  7.9934e-03
9.000  23.000  7.9932e-03
9.000  23.250  7.9930e-03
9.000  23.500  7.9929e-03
9.000  23.750  7.9928e-03
9.000  24.000  7.9929e-03
9.250  17.000  5.7871e-03
9.250  17.250  6.0358e-03
9.250  17.500  6.5166e-03
9.250  17.750  7.3269e-03
9.250  18.000  8.6438e-03
9.250  18.250  1.0557e-02
9.250  18.500  1.2396e-02
9.250  18.750  1.3157e-02
9.250  19.000  1.4422e-02
9.250  19.250  1.3454e-02
9.250  19.500  1.2529e-02
9.250  19.750  1.1457e-02
9.250  20.000  1.0206e-02
9.250  20.250  9.2780e-03
9.250  20.500  8.7205e-03
9.250  20.750  8.3659e-03
9.250  21.000  8.1855e-03
9.250  21.250  8.0894e-03
9.250  21.500  8.0345e-03
9.250  21.750  8.0109e-03
9.250  22.000  8.0008e-03
9.250  22.250  7.9965e-03
9.250  22.500  7.9947e-03
9.250  22.750  7.9937e-03
9.250  23.000  7.9932e-03
9.250  23.250  7.9930e-03
9.250  23.500  7.9928e-03
9.250  23.750  7.9927e-03
9.250  24.000  7.9928e-03
9.500  17.000  5.2309e-03
9.500  17.250  5.4109e-03
9.500  17.500  5.7870e-03
9.500  17.750  6.3839e-03
9.500  18.000  7.2902e-03
9.500  18.250  8.7183e-03
9.500  18.500  1.0734e-02
9.500  18.750  1.2269e-02
9.500  19.000  1.3093e-02
9.500  19.250  1.4385e-02
9.500  19.500  1.3430e-02
9.500  19.750  1.2525e-02
9.500  20.000  1.1467e-02
9.500  20.250  1.0209e-02
9.500  20.500  9.2783e-03
9.500  20.750  8.7200e-03
9.500  21.000  8.3654e-03
9.500  21.250  8.1850e-03
9.500  21.500  8.0887e-03
9.500  21.750  8.0342e-03
9.500  22.000  8.0106e-03
9.500  22.250  8.0007e-03
9.500  22.500  7.9963e-03
9.500  22.750  7.9942e-03
9.500  23.000  7.9932e-03
9.500  23.250  7.9927e-03
9.500  23.500  7.9923e-03
9.500  23.750  7.9922e-03
9.500  24.000  7.9921e-03
9.750  17.000  4.8528e-03
9.750  17.250  4.9328e-03
9.750  17.500  5.2406e-03
9.750  17.750  5.7407e-03
9.750  18.000  6.4638e-03
9.750  18.250  7.5339e-03
9.750  18.500  9.1133e-03
9.750  18.750  1.1098e-02
9.750  19.000  1.2176e-02
9.750  19.250  1.3042e-02
9.750  19.500  1.4347e-02
9.750  19.750  1.3403e-02
9.750  20.000  1.2515e-02
9.750  20.250  1.1473e-02
9.750  20.500  1.0211e-02
9.750  20.750  9.2783e-03
9.750  21.000  8.7200e-03
9.750  21.250  8.3653e-03
9.750  21.500  8.1850e-03
9.750  21.750  8.0888e-03
9.750  22.000  8.0342e-03
9.750  22.250  8.0107e-03
9.750  22.500  8.0007e-03
9.750  22.750  7.9963e-03
9.750  23.000  7.9942e-03
9.750  23.250  7.9932e-03
9.750  23.500  7.9926e-03
9.750  23.750  7.9923e-03
9.750  24.000  7.9922e-03
10.000  17.000  4.6588e-03
10.000  17.250  4.5861e-03
10.000  17.500  4.7878e-03
10.000  17.750  5.2426e-03
10.000  18.000  5.9274e-03
10.000  18.250  6.8188e-03
10.000  18.500  8.0271e-03
10.000  18.750  9.6779e-03
10.000  19.000  1.1320e-02
10.000  19.250  1.2090e-02
10.000  19.500  1.2997e-02
10.000  19.750  1.4311e-02
10.000  20.000  1.3376e-02
10.000  20.250  1.2501e-02
10.000  20.500  1.1476e-02
10.000  20.750  1.0213e-02
10.000  21.000  9.2785e-03
10.000  21.250  8.7202e-03
10.000  21.500  8.3653e-03
10.000  21.750  8.1851e-03
10.000  22.000  8.0889e-03
10.000  22.250  8.0342e-03
10.000  22.500  8.0107e-03
10.000  22.750  8.0007e-03
10.000  23.000  7.9963e-03
10.000  23.250  7.9942e-03
10.000  23.500  7.9933e-03
10.000  23.750  7.9927e-03
10.000  24.000  7.9923e-03
10.250  17.000  4.6875e-03
10.250  17.250  4.4238e-03
10.250  17.500  4.4719e-03
10.250  17.750  4.8449e-03
10.250  18.000  5.5087e-03
10.250  18.250  6.3342e-03
10.250  18.500  7.3399e-03
10.250  18.750  8.6415e-03
10.250  19.000  1.0251e-02
10.250  19.250  1.1380e-02
10.250  19.500  1.2062e-02
10.250  19.750  1.2965e-02
10.250  20.000  1.4299e-02
10.250  20.250  1.3360e-02
10.250  20.500  1.2485e-02
10.250  20.750  1.1475e-02
10.250  21.000  1.0214e-02
10.250  21.250  9.2786e-03
10.250  21.500  8.7202e-03
10.250  21.750  8.3653e-03
10.250  22.000  8.1851e-03
10.250  22.250  8.0890e-03
10.250  22.500  8.0343e-03
10.250  22.750  8.0107e-03
10.250  23.000  8.0007e-03
10.250  23.250  7.9963e-03
10.250  23.500  7.9942e-03
10.250  23.750  7.9933e-03
10.250  24.000  7.9927e-03
10.500  17.000  4.9000e-03
10.500  17.250  4.4843e-03
10.500  17.500  4.3519e-03
10.500  17.750  4.5964e-03
10.500  18.000  5.1765e-03
10.500  18.250  5.9545e-03
10.500  18.500  6.8293e-03
10.500  18.750  7.8431e-03
10.500  19.000  9.1197e-03
10.500  19.250  1.0608e-02
10.500  19.500  1.1550e-02
10.500  19.750  1.2147e-02
10.500  20.000  1.3022e-02
10.500  20.250  1.4318e-02
10.500  20.500  1.3361e-02
10.500  20.750  1.2471e-02
10.500  21.000  1.1471e-02
10.500  21.250  1.0214e-02
10.500  21.500  9.2784e-03
10.500  21.750  8.7202e-03
10.500  22.000  8.3655e-03
10.500  22.250  8.1852e-03
10.500  22.500  8.0890e-03
10.500  22.750  8.0344e-03
10.500  23.000  8.0108e-03
10.500  23.250  8.0007e-03
10.500  23.500  7.9964e-03
10.500  23.750  7.9943e-03
10.500  24.000  7.9933e-03
10.750  17.000  5.2445e-03
10.750  17.250  4.7346e-03
10.750  17.500  4.4751e-03
10.750  17.750  4.5680e-03
10.750  18.000  4.9802e-03
10.750  18.250  5.5954e-03
10.750  18.500  6.3207e-03
10.750  18.750  7.1321e-03
10.750  19.000  8.1536e-03
10.750  19.250  9.4932e-03
10.750  19.500  1.0801e-02
10.750  19.750  1.1666e-02
10.750  20.000  1.2354e-02
10.750  20.250  1.3217e-02
10.750  20.500  1.4443e-02
10.750  20.750  1.3392e-02
10.750  21.000  1.2463e-02
10.750  21.250  1.1465e-02
10.750  21.500  1.0213e-02
10.750  21.750  9.2783e-03
10.750  22.000  8.7202e-03
10.750  22.250  8.3655e-03
10.750  22.500  8.1853e-03
10.750  22.750  8.0891e-03
10.750  23.000  8.0344e-03
10.750  23.250  8.0109e-03
10.750  23.500  8.0007e-03
10.750  23.750  7.9963e-03
10.750  24.000  7.9942e-03
11.000  17.000  5.6778e-03
11.000  17.250  5.1195e-03
11.000  17.500  4.7966e-03
11.000  17.750  4.7751e-03
11.000  18.000  4.9814e-03
11.000  18.250  5.3349e-03
11.000  18.500  5.8477e-03
11.000  18.750  6.5060e-03
11.000  19.000  7.3326e-03
11.000  19.250  8.4249e-03
11.000  19.500  9.8504e-03
11.000  19.750  1.1023e-02
11.000  20.000  1.1986e-02
11.000  20.250  1.2841e-02
11.000  20.500  1.3589e-02
11.000  20.750  1.4707e-02
11.000  21.000  1.3507e-02
11.000  21.250  1.2470e-02
11.000  21.500  1.1456e-02
11.000  21.750  1.0212e-02
11.000  22.000  9.2779e-03
11.000  22.250  8.7203e-03
11.000  22.500  8.3654e-03
11.000  22.750  8.1855e-03
11.000  23.000  8.0892e-03
11.000  23.250  8.0345e-03
11.000  23.500  8.0109e-03
11.000  23.750  8.0009e-03
11.000  24.000  7.9964e-03
11.250  17.000  6.1609e-03
11.250  17.250  5.5870e-03
11.250  17.500  5.2420e-03
11.250  17.750  5.1534e-03
11.250  18.000  5.1862e-03
11.250  18.250  5.2643e-03
11.250  18.500  5.5026e-03
11.250  18.750  5.9861e-03
11.250  19.000  6.6401e-03
11.250  19.250  7.5060e-03
11.250  19.500  8.6972e-03
11.250  19.750  1.0214e-02
11.250  20.000  1.1278e-02
11.250  20.250  1.2405e-02
11.250  20.500  1.3317e-02
11.250  20.750  1.4199e-02
11.250  21.000  1.5243e-02
11.250  21.250  1.3709e-02
11.250  21.500  1.2511e-02
11.250  21.750  1.1447e-02
11.250  22.000  1.0210e-02
11.250  22.250  9.2774e-03
11.250  22.500  8.7204e-03
11.250  22.750  8.3654e-03
11.250  23.000  8.1855e-03
11.250  23.250  8.0894e-03
11.250  23.500  8.0345e-03
11.250  23.750  8.0109e-03
11.250  24.000  8.0010e-03
11.500  17.000  6.6523e-03
11.500  17.250  6.0941e-03
11.500  17.500  5.7486e-03
11.500  17.750  5.6157e-03
11.500  18.000  5.5282e-03
11.500  18.250  5.4188e-03
11.500  18.500  5.4027e-03
11.500  18.750  5.5469e-03
11.500  19.000  5.9128e-03
11.500  19.250  6.5668e-03
11.500  19.500  7.5751e-03
11.500  19.750  9.0040e-03
11.500  20.000  1.0633e-02
11.500  20.250  1.1703e-02
11.500  20.500  1.3045e-02
11.500  20.750  1.4136e-02
11.500  21.000  1.5128e-02
11.500  21.250  1.5946e-02
11.500  21.500  1.4025e-02
11.500  21.750  1.2590e-02
11.500  22.000  1.1439e-02
11.500  22.250  1.0207e-02
11.500  22.500  9.2769e-03
11.500  22.750  8.7206e-03
11.500  23.000  8.3653e-03
11.500  23.250  8.1855e-03
11.500  23.500  8.0895e-03
11.500  23.750  8.0346e-03
11.500  24.000  8.0110e-03
11.750  17.000  7.0594e-03
11.750  17.250  6.5765e-03
11.750  17.500  6.2569e-03
11.750  17.750  6.0955e-03
11.750  18.000  5.9345e-03
11.750  18.250  5.7415e-03
11.750  18.500  5.7040e-03
11.750  18.750  5.8682e-03
11.750  19.000  6.2301e-03
11.750  19.250  6.7852e-03
11.750  19.500  7.5294e-03
11.750  19.750  8.4585e-03
11.750  20.000  9.5681e-03
11.750  20.250  1.0854e-02
11.750  20.500  1.2312e-02
11.750  20.750  1.3858e-02
11.750  21.000  1.5237e-02
11.750  21.250  1.6511e-02
11.750  21.500  1.6689e-02
11.750  21.750  1.4425e-02
11.750  22.000  1.2736e-02
11.750  22.250  1.1439e-02
11.750  22.500  1.0203e-02
11.750  22.750  9.2761e-03
11.750  23.000  8.7207e-03
11.750  23.250  8.3652e-03
11.750  23.500  8.1855e-03
11.750  23.750  8.0895e-03
11.750  24.000  8.0347e-03
12.000  17.000  7.2565e-03
12.000  17.250  6.9273e-03
12.000  17.500  6.6863e-03
12.000  17.750  6.5337e-03
12.000  18.000  6.3612e-03
12.000  18.250  6.1395e-03
12.000  18.500  6.0495e-03
12.000  18.750  6.1398e-03
12.000  19.000  6.4106e-03
12.000  19.250  6.8622e-03
12.000  19.500  7.4947e-03
12.000  19.750  8.3083e-03
12.000  20.000  9.3032e-03
12.000  20.250  1.0479e-02
12.000  20.500  1.1837e-02
12.000  20.750  1.3377e-02
12.000  21.000  1.5099e-02
12.000  21.250  1.7003e-02
12.000  21.500  1.8486e-02
12.000  21.750  1.7433e-02
12.000  22.000  1.4902e-02
12.000  22.250  1.2936e-02
12.000  22.500  1.1450e-02
12.000  22.750  1.0199e-02
12.000  23.000  9.2752e-03
12.000  23.250  8.7209e-03
12.000  23.500  8.3650e-03
12.000  23.750  8.1854e-03
12.000  24.000  8.0895e-03
12.250  17.000  7.1186e-03
12.250  17.250  7.0209e-03
12.250  17.500  6.9360e-03
12.250  17.750  6.8635e-03
12.250  18.000  6.7351e-03
12.250  18.250  6.5280e-03
12.250  18.500  6.2450e-03
12.250  18.750  5.9351e-03
12.250  19.000  5.6618e-03
12.250  19.250  5.6638e-03
12.250  19.500  5.9948e-03
12.250  19.750  6.6463e-03
12.250  20.000  7.6097e-03
12.250  20.250  8.8766e-03
12.250  20.500  1.0438e-02
12.250  20.750  1.2287e-02
12.250  21.000  1.4413e-02
12.250  21.250  1.6809e-02
12.250  21.500  1.9383e-02
12.250  21.750  2.0817e-02
12.250  22.000  1.8235e-02
12.250  22.250  1.5215e-02
12.250  22.500  1.3035e-02
12.250  22.750  1.1474e-02
12.250  23.000  1.0195e-02
12.250  23.250  9.2743e-03
12.250  23.500  8.7211e-03
12.250  23.750  8.3648e-03
12.250  24.000  8.1854e-03
12.500  17.000  6.6886e-03
12.500  17.250  6.8372e-03
12.500  17.500  6.9471e-03
12.500  17.750  6.9992e-03
12.500  18.000  6.9684e-03
12.500  18.250  6.8254e-03
12.500  18.500  6.5884e-03
12.500  18.750  6.2793e-03
12.500  19.000  5.9386e-03
12.500  19.250  5.6533e-03
12.500  19.500  5.6495e-03
12.500  19.750  5.9938e-03
12.500  20.000  6.7008e-03
12.500  20.250  7.7850e-03
12.500  20.500  9.2610e-03
12.500  20.750  1.1143e-02
12.500  21.000  1.3447e-02
12.500  21.250  1.6186e-02
12.500  21.500  1.9333e-02
12.500  21.750  2.2291e-02
12.500  22.000  2.2650e-02
12.500  22.250  1.8905e-02
12.500  22.500  1.5676e-02
12.500  22.750  1.3299e-02
12.500  23.000  1.1510e-02
12.500  23.250  1.0192e-02
12.500  23.500  9.2733e-03
12.500  23.750  8.7212e-03
12.500  24.000  8.3644e-03
12.750  17.000  5.9905e-03
12.750  17.250  6.4125e-03
12.750  17.500  6.6937e-03
12.750  17.750  6.8909e-03
12.750  18.000  6.9978e-03
12.750  18.250  6.9848e-03
12.750  18.500  6.8397e-03
12.750  18.750  6.5902e-03
12.750  19.000  6.2667e-03
12.750  19.250  5.9157e-03
12.750  19.500  5.6257e-03
12.750  19.750  5.7640e-03
12.750  20.000  6.4034e-03
12.750  20.250  7.5183e-03
12.750  20.500  9.0834e-03
12.750  20.750  1.1073e-02
12.750  21.000  1.3462e-02
12.750  21.250  1.6224e-02
12.750  21.500  1.9335e-02
12.750  21.750  2.2768e-02
12.750  22.000  2.5580e-02
12.750  22.250  2.4278e-02
12.750  22.500  1.9796e-02
12.750  22.750  1.6236e-02
12.750  23.000  1.3527e-02
12.750  23.250  1.1553e-02
12.750  23.500  1.0190e-02
12.750  23.750  9.2723e-03
12.750  24.000  8.7213e-03
13.000  17.000  5.3281e-03
13.000  17.250  5.8119e-03
13.000  17.500  6.2148e-03
13.000  17.750  6.5556e-03
13.000  18.000  6.8073e-03
13.000  18.250  6.9547e-03
13.000  18.500  6.9519e-03
13.000  18.750  6.8035e-03
13.000  19.000  6.5443e-03
13.000  19.250  6.2172e-03
13.000  19.500  5.8603e-03
13.000  19.750  5.5802e-03
13.000  20.000  5.8791e-03
13.000  20.250  6.8315e-03
13.000  20.500  8.3707e-03
13.000  20.750  1.0430e-02
13.000  21.000  1.2941e-02
13.000  21.250  1.5839e-02
13.000  21.500  1.9056e-02
13.000  21.750  2.2524e-02
13.000  22.000  2.6178e-02
13.000  22.250  2.8687e-02
13.000  22.500  2.5828e-02
13.000  22.750  2.0615e-02
13.000  23.000  1.6674e-02
13.000  23.250  1.3732e-02
13.000  23.500  1.1604e-02
13.000  23.750  1.0190e-02
13.000  24.000  9.2713e-03
13.250  17.000  4.8729e-03
13.250  17.250  5.3082e-03
13.250  17.500  5.7006e-03
13.250  17.750  6.0671e-03
13.250  18.000  6.4241e-03
13.250  18.250  6.7163e-03
13.250  18.500  6.8770e-03
13.250  18.750  6.8705e-03
13.250  19.000  6.7179e-03
13.250  19.250  6.4582e-03
13.250  19.500  6.1320e-03
13.250  19.750  5.8024e-03
13.250  20.000  5.5419e-03
13.250  20.250  5.7539e-03
13.250  20.500  6.5554e-03
13.250  20.750  7.9626e-03
13.250  21.000  9.9920e-03
13.250  21.250  1.2660e-02
13.250  21.500  1.5983e-02
13.250  21.750  1.9976e-02
13.250  22.000  2.4658e-02
13.250  22.250  2.9503e-02
13.250  22.500  3.1459e-02
13.250  22.750  2.7453e-02
13.250  23.000  2.1481e-02
13.250  23.250  1.6865e-02
13.250  23.500  1.3800e-02
13.250  23.750  1.1658e-02
13.250  24.000  1.0193e-02
13.500  17.000  4.4379e-03
13.500  17.250  4.8683e-03
13.500  17.500  5.2311e-03
13.500  17.750  5.5629e-03
13.500  18.000  5.9309e-03
13.500  18.250  6.3007e-03
13.500  18.500  6.5923e-03
13.500  18.750  6.7411e-03
13.500  19.000  6.7293e-03
13.500  19.250  6.5792e-03
13.500  19.500  6.3307e-03
13.500  19.750  6.0296e-03
13.500  20.000  5.7272e-03
13.500  20.250  5.5114e-03
13.500  20.500  5.7456e-03
13.500  20.750  6.5633e-03
13.500  21.000  8.0173e-03
13.500  21.250  1.0161e-02
13.500  21.500  1.3046e-02
13.500  21.750  1.6726e-02
13.500  22.000  2.1254e-02
13.500  22.250  2.6682e-02
13.500  22.500  3.2299e-02
13.500  22.750  3.4153e-02
13.500  23.000  2.9141e-02
13.500  23.250  2.2466e-02
13.500  23.500  1.7511e-02
13.500  23.750  1.4088e-02
13.500  24.000  1.1709e-02
13.750  17.000  4.0007e-03
13.750  17.250  4.4469e-03
13.750  17.500  4.8097e-03
13.750  17.750  5.1206e-03
13.750  18.000  5.4693e-03
13.750  18.250  5.8424e-03
13.750  18.500  6.1773e-03
13.750  18.750  6.4199e-03
13.750  19.000  6.5478e-03
13.750  19.250  6.5427e-03
13.750  19.500  6.4130e-03
13.750  19.750  6.1941e-03
13.750  20.000  6.4676e-03
13.750  20.250  7.3392e-03
13.750  20.500  8.7481e-03
13.750  20.750  1.0633e-02
13.750  21.000  1.2934e-02
13.750  21.250  1.5590e-02
13.750  21.500  1.8541e-02
13.750  21.750  2.1724e-02
13.750  22.000  2.5080e-02
13.750  22.250  2.8548e-02
13.750  22.500  3.2067e-02
13.750  22.750  3.5576e-02
13.750  23.000  3.7087e-02
13.750  23.250  3.0830e-02
13.750  23.500  2.3260e-02
13.750  23.750  1.7914e-02
13.750  24.000  1.4256e-02
14.000  17.000  3.5205e-03
14.000  17.250  4.0216e-03
14.000  17.500  4.4115e-03
14.000  17.750  4.7106e-03
14.000  18.000  5.0413e-03
14.000  18.250  5.4121e-03
14.000  18.500  5.7566e-03
14.000  18.750  6.0310e-03
14.000  19.000  6.2161e-03
14.000  19.250  6.3234e-03
14.000  19.500  6.3387e-03
14.000  19.750  6.2478e-03
14.000  20.000  6.0776e-03
14.000  20.250  6.5044e-03
14.000  20.500  7.6398e-03
14.000  20.750  9.3987e-03
14.000  21.000  1.1695e-02
14.000  21.250  1.4445e-02
14.000  21.500  1.7561e-02
14.000  21.750  2.0960e-02
14.000  22.000  2.4554e-02
14.000  22.250  2.8260e-02
14.000  22.500  3.1992e-02
14.000  22.750  3.5663e-02
14.000  23.000  3.9190e-02
14.000  23.250  4.0281e-02
14.000  23.500  3.2518e-02
14.000  23.750  2.4011e-02
14.000  24.000  1.8326e-02
