nFnu 1297.29A  relative to Inci 1215.00A scaled to 1215A.
Hden   Phi(H)  Eq_Width (A)
7.000  17.000  2.8168e-02
7.000  17.250  2.0889e-02
7.000  17.500  1.5828e-02
7.000  17.750  1.2450e-02
7.000  18.000  1.0456e-02
7.000  18.250  9.3068e-03
7.000  18.500  8.6293e-03
7.000  18.750  8.3149e-03
7.000  19.000  8.1506e-03
7.000  19.250  8.0588e-03
7.000  19.500  8.0201e-03
7.000  19.750  8.0039e-03
7.000  20.000  7.9968e-03
7.000  20.250  7.9935e-03
7.000  20.500  7.9919e-03
7.000  20.750  7.9909e-03
7.000  21.000  7.9905e-03
7.000  21.250  7.9902e-03
7.000  21.500  7.9902e-03
7.000  21.750  7.9900e-03
7.000  22.000  7.9900e-03
7.000  22.250  7.9899e-03
7.000  22.500  7.9899e-03
7.000  22.750  7.9901e-03
7.000  23.000  7.9901e-03
7.000  23.250  7.9899e-03
7.000  23.500  7.9899e-03
7.000  23.750  7.9899e-03
7.000  24.000  7.9899e-03
7.250  17.000  3.7894e-02
7.250  17.250  2.8018e-02
7.250  17.500  2.0810e-02
7.250  17.750  1.5788e-02
7.250  18.000  1.2428e-02
7.250  18.250  1.0444e-02
7.250  18.500  9.3014e-03
7.250  18.750  8.6274e-03
7.250  19.000  8.3142e-03
7.250  19.250  8.1504e-03
7.250  19.500  8.0587e-03
7.250  19.750  8.0201e-03
7.250  20.000  8.0039e-03
7.250  20.250  7.9968e-03
7.250  20.500  7.9934e-03
7.250  20.750  7.9918e-03
7.250  21.000  7.9909e-03
7.250  21.250  7.9905e-03
7.250  21.500  7.9902e-03
7.250  21.750  7.9916e-03
7.250  22.000  7.9900e-03
7.250  22.250  7.9900e-03
7.250  22.500  7.9899e-03
7.250  22.750  7.9907e-03
7.250  23.000  7.9907e-03
7.250  23.250  7.9899e-03
7.250  23.500  7.9899e-03
7.250  23.750  7.9899e-03
7.250  24.000  7.9899e-03
7.500  17.000  4.0299e-02
7.500  17.250  3.7775e-02
7.500  17.500  2.7931e-02
7.500  17.750  2.0766e-02
7.500  18.000  1.5766e-02
7.500  18.250  1.2414e-02
7.500  18.500  1.0437e-02
7.500  18.750  9.2979e-03
7.500  19.000  8.6262e-03
7.500  19.250  8.3137e-03
7.500  19.500  8.1502e-03
7.500  19.750  8.0587e-03
7.500  20.000  8.0200e-03
7.500  20.250  8.0039e-03
7.500  20.500  7.9967e-03
7.500  20.750  7.9934e-03
7.500  21.000  7.9918e-03
7.500  21.250  7.9909e-03
7.500  21.500  7.9905e-03
7.500  21.750  7.9902e-03
7.500  22.000  7.9900e-03
7.500  22.250  7.9900e-03
7.500  22.500  7.9900e-03
7.500  22.750  7.9899e-03
7.500  23.000  7.9903e-03
7.500  23.250  7.9907e-03
7.500  23.500  7.9899e-03
7.500  23.750  7.9909e-03
7.500  24.000  7.9899e-03
7.750  17.000  4.7592e-02
7.750  17.250  3.9344e-02
7.750  17.500  3.7715e-02
7.750  17.750  2.7881e-02
7.750  18.000  2.0743e-02
7.750  18.250  1.5754e-02
7.750  18.500  1.2405e-02
7.750  18.750  1.0432e-02
7.750  19.000  9.2957e-03
7.750  19.250  8.6253e-03
7.750  19.500  8.3135e-03
7.750  19.750  8.1501e-03
7.750  20.000  8.0586e-03
7.750  20.250  8.0200e-03
7.750  20.500  8.0039e-03
7.750  20.750  7.9967e-03
7.750  21.000  7.9934e-03
7.750  21.250  7.9918e-03
7.750  21.500  7.9909e-03
7.750  21.750  7.9904e-03
7.750  22.000  7.9901e-03
7.750  22.250  7.9900e-03
7.750  22.500  7.9900e-03
7.750  22.750  7.9901e-03
7.750  23.000  7.9901e-03
7.750  23.250  7.9900e-03
7.750  23.500  7.9907e-03
7.750  23.750  7.9907e-03
7.750  24.000  7.9899e-03
8.000  17.000  5.8853e-02
8.000  17.250  4.5418e-02
8.000  17.500  3.8474e-02
8.000  17.750  3.3604e-02
8.000  18.000  2.7851e-02
8.000  18.250  2.0733e-02
8.000  18.500  1.5750e-02
8.000  18.750  1.2400e-02
8.000  19.000  1.0429e-02
8.000  19.250  9.2943e-03
8.000  19.500  8.6249e-03
8.000  19.750  8.3133e-03
8.000  20.000  8.1500e-03
8.000  20.250  8.0586e-03
8.000  20.500  8.0200e-03
8.000  20.750  8.0038e-03
8.000  21.000  7.9967e-03
8.000  21.250  7.9934e-03
8.000  21.500  7.9918e-03
8.000  21.750  7.9909e-03
8.000  22.000  7.9904e-03
8.000  22.250  7.9901e-03
8.000  22.500  7.9900e-03
8.000  22.750  7.9901e-03
8.000  23.000  7.9899e-03
8.000  23.250  7.9904e-03
8.000  23.500  7.9899e-03
8.000  23.750  7.9899e-03
8.000  24.000  7.9899e-03
8.250  17.000  6.7196e-02
8.250  17.250  5.6872e-02
8.250  17.500  4.3909e-02
8.250  17.750  3.7904e-02
8.250  18.000  3.7627e-02
8.250  18.250  2.7829e-02
8.250  18.500  2.0731e-02
8.250  18.750  1.5750e-02
8.250  19.000  1.2396e-02
8.250  19.250  1.0427e-02
8.250  19.500  9.2933e-03
8.250  19.750  8.6245e-03
8.250  20.000  8.3132e-03
8.250  20.250  8.1500e-03
8.250  20.500  8.0586e-03
8.250  20.750  8.0200e-03
8.250  21.000  8.0038e-03
8.250  21.250  7.9967e-03
8.250  21.500  7.9934e-03
8.250  21.750  7.9918e-03
8.250  22.000  7.9909e-03
8.250  22.250  7.9904e-03
8.250  22.500  7.9901e-03
8.250  22.750  7.9902e-03
8.250  23.000  7.9899e-03
8.250  23.250  7.9919e-03
8.250  23.500  7.9898e-03
8.250  23.750  7.9898e-03
8.250  24.000  7.9904e-03
8.500  17.000  7.2951e-02
8.500  17.250  6.5509e-02
8.500  17.500  5.5472e-02
8.500  17.750  4.2891e-02
8.500  18.000  3.7572e-02
8.500  18.250  3.7597e-02
8.500  18.500  2.7811e-02
8.500  18.750  2.0733e-02
8.500  19.000  1.6113e-02
8.500  19.250  1.2606e-02
8.500  19.500  1.0072e-02
8.500  19.750  8.3705e-03
8.500  20.000  7.3616e-03
8.500  20.250  6.9049e-03
8.500  20.500  6.8602e-03
8.500  20.750  7.0873e-03
8.500  21.000  7.4458e-03
8.500  21.250  7.7957e-03
8.500  21.500  7.9967e-03
8.500  21.750  7.9934e-03
8.500  22.000  7.9918e-03
8.500  22.250  7.9909e-03
8.500  22.500  7.9904e-03
8.500  22.750  7.9901e-03
8.500  23.000  7.9900e-03
8.500  23.250  7.9901e-03
8.500  23.500  7.9898e-03
8.500  23.750  7.9898e-03
8.500  24.000  7.9898e-03
8.750  17.000  7.6883e-02
8.750  17.250  7.1678e-02
8.750  17.500  6.4313e-02
8.750  17.750  5.4590e-02
8.750  18.000  4.2180e-02
8.750  18.250  3.7377e-02
8.750  18.500  3.7556e-02
8.750  18.750  2.7791e-02
8.750  19.000  2.0738e-02
8.750  19.250  1.6176e-02
8.750  19.500  1.2757e-02
8.750  19.750  1.0326e-02
8.750  20.000  8.7292e-03
8.750  20.250  7.8112e-03
8.750  20.500  7.4179e-03
8.750  20.750  7.3950e-03
8.750  21.000  7.5880e-03
8.750  21.250  7.8424e-03
8.750  21.500  8.0038e-03
8.750  21.750  7.9967e-03
8.750  22.000  7.9934e-03
8.750  22.250  7.9917e-03
8.750  22.500  7.9909e-03
8.750  22.750  7.9904e-03
8.750  23.000  7.9909e-03
8.750  23.250  7.9900e-03
8.750  23.500  7.9901e-03
8.750  23.750  7.9899e-03
8.750  24.000  7.9898e-03
9.000  17.000  7.9387e-02
9.000  17.250  7.5963e-02
9.000  17.500  7.0714e-02
9.000  17.750  6.3253e-02
9.000  18.000  5.3533e-02
9.000  18.250  4.1431e-02
9.000  18.500  3.7237e-02
9.000  18.750  3.7501e-02
9.000  19.000  2.7769e-02
9.000  19.250  2.0742e-02
9.000  19.500  1.5763e-02
9.000  19.750  1.2390e-02
9.000  20.000  1.0423e-02
9.000  20.250  9.2916e-03
9.000  20.500  8.6240e-03
9.000  20.750  8.3130e-03
9.000  21.000  8.1500e-03
9.000  21.250  8.0586e-03
9.000  21.500  8.0200e-03
9.000  21.750  8.0038e-03
9.000  22.000  7.9967e-03
9.000  22.250  7.9934e-03
9.000  22.500  7.9917e-03
9.000  22.750  7.9909e-03
9.000  23.000  7.9904e-03
9.000  23.250  7.9901e-03
9.000  23.500  7.9900e-03
9.000  23.750  7.9899e-03
9.000  24.000  7.9899e-03
9.250  17.000  8.0710e-02
9.250  17.250  7.8719e-02
9.250  17.500  7.5225e-02
9.250  17.750  6.9718e-02
9.250  18.000  6.1981e-02
9.250  18.250  5.2133e-02
9.250  18.500  4.0302e-02
9.250  18.750  3.7112e-02
9.250  19.000  3.7431e-02
9.250  19.250  2.7741e-02
9.250  19.500  2.0742e-02
9.250  19.750  1.5767e-02
9.250  20.000  1.2388e-02
9.250  20.250  1.0421e-02
9.250  20.500  9.2912e-03
9.250  20.750  8.6238e-03
9.250  21.000  8.3130e-03
9.250  21.250  8.1500e-03
9.250  21.500  8.0581e-03
9.250  21.750  8.0195e-03
9.250  22.000  8.0031e-03
9.250  22.250  7.9962e-03
9.250  22.500  7.9930e-03
9.250  22.750  7.9914e-03
9.250  23.000  7.9906e-03
9.250  23.250  7.9902e-03
9.250  23.500  7.9900e-03
9.250  23.750  7.9898e-03
9.250  24.000  7.9898e-03
9.500  17.000  8.1027e-02
9.500  17.250  8.0142e-02
9.500  17.500  7.8149e-02
9.500  17.750  7.4407e-02
9.500  18.000  6.8383e-02
9.500  18.250  5.9993e-02
9.500  18.500  4.9745e-02
9.500  18.750  3.8557e-02
9.500  19.000  3.6988e-02
9.500  19.250  3.7342e-02
9.500  19.500  2.7707e-02
9.500  19.750  2.0738e-02
9.500  20.000  1.5771e-02
9.500  20.250  1.2387e-02
9.500  20.500  1.0421e-02
9.500  20.750  9.2905e-03
9.500  21.000  8.6232e-03
9.500  21.250  8.3125e-03
9.500  21.500  8.1493e-03
9.500  21.750  8.0578e-03
9.500  22.000  8.0193e-03
9.500  22.250  8.0030e-03
9.500  22.500  7.9959e-03
9.500  22.750  7.9926e-03
9.500  23.000  7.9909e-03
9.500  23.250  7.9900e-03
9.500  23.500  7.9896e-03
9.500  23.750  7.9894e-03
9.500  24.000  7.9892e-03
9.750  17.000  8.0537e-02
9.750  17.250  8.0432e-02
9.750  17.500  7.9645e-02
9.750  17.750  7.7451e-02
9.750  18.000  7.3055e-02
9.750  18.250  6.6208e-02
9.750  18.500  5.6938e-02
9.750  18.750  4.5727e-02
9.750  19.000  3.8074e-02
9.750  19.250  3.6842e-02
9.750  19.500  3.7233e-02
9.750  19.750  2.7668e-02
9.750  20.000  2.0729e-02
9.750  20.250  1.5772e-02
9.750  20.500  1.2386e-02
9.750  20.750  1.0420e-02
9.750  21.000  9.2904e-03
9.750  21.250  8.6230e-03
9.750  21.500  8.3125e-03
9.750  21.750  8.1495e-03
9.750  22.000  8.0579e-03
9.750  22.250  8.0193e-03
9.750  22.500  8.0030e-03
9.750  22.750  7.9960e-03
9.750  23.000  7.9926e-03
9.750  23.250  7.9909e-03
9.750  23.500  7.9900e-03
9.750  23.750  7.9895e-03
9.750  24.000  7.9893e-03
10.000  17.000  7.9493e-02
10.000  17.250  7.9784e-02
10.000  17.500  7.9794e-02
10.000  17.750  7.8936e-02
10.000  18.000  7.6183e-02
10.000  18.250  7.1046e-02
10.000  18.500  6.3242e-02
10.000  18.750  5.3399e-02
10.000  19.000  4.2840e-02
10.000  19.250  3.7483e-02
10.000  19.500  3.6646e-02
10.000  19.750  3.7095e-02
10.000  20.000  2.7630e-02
10.000  20.250  2.0715e-02
10.000  20.500  1.5773e-02
10.000  20.750  1.2385e-02
10.000  21.000  1.0420e-02
10.000  21.250  9.2904e-03
10.000  21.500  8.6230e-03
10.000  21.750  8.3125e-03
10.000  22.000  8.1495e-03
10.000  22.250  8.0579e-03
10.000  22.500  8.0193e-03
10.000  22.750  8.0030e-03
10.000  23.000  7.9960e-03
10.000  23.250  7.9927e-03
10.000  23.500  7.9909e-03
10.000  23.750  7.9901e-03
10.000  24.000  7.9896e-03
10.250  17.000  7.8495e-02
10.250  17.250  7.8594e-02
10.250  17.500  7.9011e-02
10.250  17.750  7.9001e-02
10.250  18.000  7.7746e-02
10.250  18.250  7.4426e-02
10.250  18.500  6.8464e-02
10.250  18.750  5.9995e-02
10.250  19.000  4.9454e-02
10.250  19.250  3.8921e-02
10.250  19.500  3.7130e-02
10.250  19.750  3.6409e-02
10.250  20.000  3.6978e-02
10.250  20.250  2.7606e-02
10.250  20.500  2.0700e-02
10.250  20.750  1.5773e-02
10.250  21.000  1.2384e-02
10.250  21.250  1.0420e-02
10.250  21.500  9.2903e-03
10.250  21.750  8.6230e-03
10.250  22.000  8.3126e-03
10.250  22.250  8.1495e-03
10.250  22.500  8.0580e-03
10.250  22.750  8.0193e-03
10.250  23.000  8.0030e-03
10.250  23.250  7.9960e-03
10.250  23.500  7.9926e-03
10.250  23.750  7.9909e-03
10.250  24.000  7.9900e-03
10.500  17.000  7.7745e-02
10.500  17.250  7.7530e-02
10.500  17.500  7.7735e-02
10.500  17.750  7.8169e-02
10.500  18.000  7.7827e-02
10.500  18.250  7.5888e-02
10.500  18.500  7.1925e-02
10.500  18.750  6.5302e-02
10.500  19.000  5.6486e-02
10.500  19.250  4.5709e-02
10.500  19.500  3.9949e-02
10.500  19.750  3.7362e-02
10.500  20.000  3.6508e-02
10.500  20.250  3.6901e-02
10.500  20.500  2.7607e-02
10.500  20.750  2.0687e-02
10.500  21.000  1.5771e-02
10.500  21.250  1.2384e-02
10.500  21.500  1.0420e-02
10.500  21.750  9.2904e-03
10.500  22.000  8.6230e-03
10.500  22.250  8.3127e-03
10.500  22.500  8.1495e-03
10.500  22.750  8.0581e-03
10.500  23.000  8.0193e-03
10.500  23.250  8.0030e-03
10.500  23.500  7.9960e-03
10.500  23.750  7.9927e-03
10.500  24.000  7.9909e-03
10.750  17.000  7.7282e-02
10.750  17.250  7.6844e-02
10.750  17.500  7.6707e-02
10.750  17.750  7.6904e-02
10.750  18.000  7.6765e-02
10.750  18.250  7.5683e-02
10.750  18.500  7.3177e-02
10.750  18.750  6.8887e-02
10.750  19.000  6.2395e-02
10.750  19.250  5.3473e-02
10.750  19.500  4.2974e-02
10.750  19.750  4.0052e-02
10.750  20.000  3.8097e-02
10.750  20.250  3.7108e-02
10.750  20.500  3.7059e-02
10.750  20.750  2.7648e-02
10.750  21.000  2.0680e-02
10.750  21.250  1.5769e-02
10.750  21.500  1.2385e-02
10.750  21.750  1.0421e-02
10.750  22.000  9.2906e-03
10.750  22.250  8.6230e-03
10.750  22.500  8.3128e-03
10.750  22.750  8.1496e-03
10.750  23.000  8.0581e-03
10.750  23.250  8.0194e-03
10.750  23.500  8.0031e-03
10.750  23.750  7.9960e-03
10.750  24.000  7.9927e-03
11.000  17.000  7.7073e-02
11.000  17.250  7.6570e-02
11.000  17.500  7.6121e-02
11.000  17.750  7.5627e-02
11.000  18.000  7.5040e-02
11.000  18.250  7.4176e-02
11.000  18.500  7.2867e-02
11.000  18.750  7.0522e-02
11.000  19.000  6.6363e-02
11.000  19.250  5.9840e-02
11.000  19.500  5.0767e-02
11.000  19.750  3.9389e-02
11.000  20.000  4.1324e-02
11.000  20.250  4.0341e-02
11.000  20.500  3.8255e-02
11.000  20.750  3.7540e-02
11.000  21.000  2.7806e-02
11.000  21.250  2.0685e-02
11.000  21.500  1.5765e-02
11.000  21.750  1.2385e-02
11.000  22.000  1.0422e-02
11.000  22.250  9.2909e-03
11.000  22.500  8.6229e-03
11.000  22.750  8.3130e-03
11.000  23.000  8.1499e-03
11.000  23.250  8.0582e-03
11.000  23.500  8.0195e-03
11.000  23.750  8.0032e-03
11.000  24.000  7.9960e-03
11.250  17.000  7.7070e-02
11.250  17.250  7.6596e-02
11.250  17.500  7.5766e-02
11.250  17.750  7.4566e-02
11.250  18.000  7.3244e-02
11.250  18.250  7.2185e-02
11.250  18.500  7.1483e-02
11.250  18.750  7.0458e-02
11.250  19.000  6.8377e-02
11.250  19.250  6.4338e-02
11.250  19.500  5.7787e-02
11.250  19.750  4.8338e-02
11.250  20.000  3.9227e-02
11.250  20.250  4.2729e-02
11.250  20.500  4.1776e-02
11.250  20.750  4.0144e-02
11.250  21.000  3.8680e-02
11.250  21.250  2.8078e-02
11.250  21.500  2.0723e-02
11.250  21.750  1.5761e-02
11.250  22.000  1.2387e-02
11.250  22.250  1.0424e-02
11.250  22.500  9.2915e-03
11.250  22.750  8.6227e-03
11.250  23.000  8.3130e-03
11.250  23.250  8.1500e-03
11.250  23.500  8.0582e-03
11.250  23.750  8.0196e-03
11.250  24.000  8.0033e-03
11.500  17.000  7.7257e-02
11.500  17.250  7.6676e-02
11.500  17.500  7.5448e-02
11.500  17.750  7.3667e-02
11.500  18.000  7.1745e-02
11.500  18.250  7.0340e-02
11.500  18.500  6.9644e-02
11.500  18.750  6.9366e-02
11.500  19.000  6.8817e-02
11.500  19.250  6.6815e-02
11.500  19.500  6.2729e-02
11.500  19.750  5.6135e-02
11.500  20.000  4.6532e-02
11.500  20.250  4.0167e-02
11.500  20.500  4.5313e-02
11.500  20.750  4.4844e-02
11.500  21.000  4.3043e-02
11.500  21.250  4.0130e-02
11.500  21.500  2.8485e-02
11.500  21.750  2.0793e-02
11.500  22.000  1.5758e-02
11.500  22.250  1.2388e-02
11.500  22.500  1.0426e-02
11.500  22.750  9.2923e-03
11.500  23.000  8.6225e-03
11.500  23.250  8.3130e-03
11.500  23.500  8.1501e-03
11.500  23.750  8.0583e-03
11.500  24.000  8.0196e-03
11.750  17.000  7.7543e-02
11.750  17.250  7.6629e-02
11.750  17.500  7.4976e-02
11.750  17.750  7.2733e-02
11.750  18.000  7.0580e-02
11.750  18.250  6.8965e-02
11.750  18.500  6.8090e-02
11.750  18.750  6.7941e-02
11.750  19.000  6.8053e-02
11.750  19.250  6.7669e-02
11.750  19.500  6.5676e-02
11.750  19.750  6.1715e-02
11.750  20.000  5.5208e-02
11.750  20.250  4.5700e-02
11.750  20.500  4.4966e-02
11.750  20.750  4.8406e-02
11.750  21.000  4.8768e-02
11.750  21.250  4.7481e-02
11.750  21.500  4.1395e-02
11.750  21.750  2.8974e-02
11.750  22.000  2.0921e-02
11.750  22.250  1.5757e-02
11.750  22.500  1.2389e-02
11.750  22.750  1.0427e-02
11.750  23.000  9.2933e-03
11.750  23.250  8.6222e-03
11.750  23.500  8.3130e-03
11.750  23.750  8.1502e-03
11.750  24.000  8.0584e-03
12.000  17.000  7.7674e-02
12.000  17.250  7.6292e-02
12.000  17.500  7.4142e-02
12.000  17.750  7.1632e-02
12.000  18.000  6.9520e-02
12.000  18.250  6.7985e-02
12.000  18.500  6.7085e-02
12.000  18.750  6.6710e-02
12.000  19.000  6.6848e-02
12.000  19.250  6.7257e-02
12.000  19.500  6.6985e-02
12.000  19.750  6.5732e-02
12.000  20.000  6.3762e-02
12.000  20.250  6.1427e-02
12.000  20.500  5.9082e-02
12.000  20.750  5.7081e-02
12.000  21.000  5.5779e-02
12.000  21.250  5.5529e-02
12.000  21.500  5.3902e-02
12.000  21.750  4.2513e-02
12.000  22.000  2.9525e-02
12.000  22.250  2.1090e-02
12.000  22.500  1.5761e-02
12.000  22.750  1.2391e-02
12.000  23.000  1.0429e-02
12.000  23.250  9.2945e-03
12.000  23.500  8.6218e-03
12.000  23.750  8.3129e-03
12.000  24.000  8.1503e-03
12.250  17.000  7.7220e-02
12.250  17.250  7.5286e-02
12.250  17.500  7.2713e-02
12.250  17.750  7.0236e-02
12.250  18.000  6.8384e-02
12.250  18.250  6.7189e-02
12.250  18.500  6.6476e-02
12.250  18.750  6.5886e-02
12.250  19.000  6.5342e-02
12.250  19.250  6.4854e-02
12.250  19.500  6.4429e-02
12.250  19.750  6.4079e-02
12.250  20.000  6.3812e-02
12.250  20.250  6.3637e-02
12.250  20.500  6.3564e-02
12.250  20.750  6.3602e-02
12.250  21.000  6.3760e-02
12.250  21.250  6.4048e-02
12.250  21.500  6.4474e-02
12.250  21.750  6.1075e-02
12.250  22.000  4.3631e-02
12.250  22.250  2.9828e-02
12.250  22.500  2.1152e-02
12.250  22.750  1.5769e-02
12.250  23.000  1.2392e-02
12.250  23.250  1.0431e-02
12.250  23.500  9.2957e-03
12.250  23.750  8.6213e-03
12.250  24.000  8.3128e-03
12.500  17.000  7.5253e-02
12.500  17.250  7.2944e-02
12.500  17.500  7.0466e-02
12.500  17.750  6.8491e-02
12.500  18.000  6.7169e-02
12.500  18.250  6.6858e-02
12.500  18.500  6.7504e-02
12.500  18.750  6.8914e-02
12.500  19.000  7.0893e-02
12.500  19.250  7.3248e-02
12.500  19.500  7.5786e-02
12.500  19.750  7.8313e-02
12.500  20.000  8.0634e-02
12.500  20.250  8.2557e-02
12.500  20.500  8.3888e-02
12.500  20.750  8.4433e-02
12.500  21.000  8.3999e-02
12.500  21.250  8.2391e-02
12.500  21.500  7.9417e-02
12.500  21.750  7.4882e-02
12.500  22.000  6.5476e-02
12.500  22.250  4.4452e-02
12.500  22.500  3.0292e-02
12.500  22.750  2.1355e-02
12.500  23.000  1.5779e-02
12.500  23.250  1.2393e-02
12.500  23.500  1.0433e-02
12.500  23.750  9.2970e-03
12.500  24.000  8.6207e-03
12.750  17.000  5.6434e-02
12.750  17.250  6.8483e-02
12.750  17.500  6.7838e-02
12.750  17.750  6.6656e-02
12.750  18.000  6.5829e-02
12.750  18.250  6.5387e-02
12.750  18.500  6.5257e-02
12.750  18.750  6.5301e-02
12.750  19.000  6.5396e-02
12.750  19.250  6.5537e-02
12.750  19.500  6.5940e-02
12.750  19.750  6.6834e-02
12.750  20.000  6.7937e-02
12.750  20.250  6.8517e-02
12.750  20.500  6.7828e-02
12.750  20.750  6.6156e-02
12.750  21.000  6.3662e-02
12.750  21.250  5.9550e-02
12.750  21.500  7.1304e-02
12.750  21.750  8.4775e-02
12.750  22.000  8.5897e-02
12.750  22.250  6.8086e-02
12.750  22.500  4.5530e-02
12.750  22.750  3.0834e-02
12.750  23.000  2.1507e-02
12.750  23.250  1.5789e-02
12.750  23.500  1.2393e-02
12.750  23.750  1.0434e-02
12.750  24.000  9.2981e-03
13.000  17.000  2.9802e-02
13.000  17.250  4.9189e-02
13.000  17.500  6.1735e-02
13.000  17.750  6.4796e-02
13.000  18.000  6.4334e-02
13.000  18.250  6.4188e-02
13.000  18.500  6.4336e-02
13.000  18.750  6.4686e-02
13.000  19.000  6.5124e-02
13.000  19.250  6.5569e-02
13.000  19.500  6.5983e-02
13.000  19.750  6.6662e-02
13.000  20.000  6.7781e-02
13.000  20.250  6.9161e-02
13.000  20.500  7.0547e-02
13.000  20.750  7.0793e-02
13.000  21.000  7.0582e-02
13.000  21.250  7.1064e-02
13.000  21.500  7.0104e-02
13.000  21.750  8.7464e-02
13.000  22.000  9.8177e-02
13.000  22.250  9.4820e-02
13.000  22.500  7.0293e-02
13.000  22.750  4.6428e-02
13.000  23.000  3.1203e-02
13.000  23.250  2.1626e-02
13.000  23.500  1.5799e-02
13.000  23.750  1.2392e-02
13.000  24.000  1.0435e-02
13.250  17.000  1.9036e-02
13.250  17.250  3.1876e-02
13.250  17.500  5.5376e-02
13.250  17.750  6.2853e-02
13.250  18.000  6.2676e-02
13.250  18.250  6.2745e-02
13.250  18.500  6.3128e-02
13.250  18.750  6.3759e-02
13.250  19.000  6.4528e-02
13.250  19.250  6.5349e-02
13.250  19.500  6.6123e-02
13.250  19.750  6.6933e-02
13.250  20.000  6.7902e-02
13.250  20.250  6.9182e-02
13.250  20.500  7.0972e-02
13.250  20.750  7.2986e-02
13.250  21.000  7.4925e-02
13.250  21.250  7.6887e-02
13.250  21.500  7.7851e-02
13.250  21.750  7.9436e-02
13.250  22.000  9.8129e-02
13.250  22.250  1.0944e-01
13.250  22.500  1.0066e-01
13.250  22.750  7.2466e-02
13.250  23.000  4.7326e-02
13.250  23.250  3.1265e-02
13.250  23.500  2.1621e-02
13.250  23.750  1.5807e-02
13.250  24.000  1.2389e-02
13.500  17.000  1.2316e-02
13.500  17.250  2.0813e-02
13.500  17.500  3.8251e-02
13.500  17.750  5.5192e-02
13.500  18.000  6.0846e-02
13.500  18.250  6.1080e-02
13.500  18.500  6.1639e-02
13.500  18.750  6.2510e-02
13.500  19.000  6.3572e-02
13.500  19.250  6.4743e-02
13.500  19.500  6.5933e-02
13.500  19.750  6.7131e-02
13.500  20.000  6.8373e-02
13.500  20.250  6.9823e-02
13.500  20.500  7.1463e-02
13.500  20.750  7.3462e-02
13.500  21.000  7.5369e-02
13.500  21.250  7.8635e-02
13.500  21.500  7.9192e-02
13.500  21.750  8.0513e-02
13.500  22.000  8.5421e-02
13.500  22.250  1.0552e-01
13.500  22.500  1.1537e-01
13.500  22.750  1.0450e-01
13.500  23.000  7.4544e-02
13.500  23.250  4.8326e-02
13.500  23.500  3.1816e-02
13.500  23.750  2.1784e-02
13.500  24.000  1.5812e-02
13.750  17.000  8.2985e-03
13.750  17.250  1.3642e-02
13.750  17.500  2.5966e-02
13.750  17.750  4.1455e-02
13.750  18.000  5.7857e-02
13.750  18.250  5.9040e-02
13.750  18.500  5.9830e-02
13.750  18.750  6.0939e-02
13.750  19.000  6.2258e-02
13.750  19.250  6.3753e-02
13.750  19.500  6.5334e-02
13.750  19.750  6.6964e-02
13.750  20.000  6.8686e-02
13.750  20.250  7.0568e-02
13.750  20.500  7.2643e-02
13.750  20.750  7.4848e-02
13.750  21.000  7.7104e-02
13.750  21.250  7.9056e-02
13.750  21.500  8.1145e-02
13.750  21.750  8.3032e-02
13.750  22.000  8.5200e-02
13.750  22.250  9.6107e-02
13.750  22.500  1.1216e-01
13.750  22.750  1.2244e-01
13.750  23.000  1.0882e-01
13.750  23.250  7.6457e-02
13.750  23.500  4.9018e-02
13.750  23.750  3.2063e-02
13.750  24.000  2.1836e-02
14.000  17.000  5.7913e-03
14.000  17.250  9.2826e-03
14.000  17.500  1.7195e-02
14.000  17.750  2.9808e-02
14.000  18.000  4.5670e-02
14.000  18.250  5.6646e-02
14.000  18.500  5.7556e-02
14.000  18.750  5.8894e-02
14.000  19.000  6.0542e-02
14.000  19.250  6.2376e-02
14.000  19.500  6.4335e-02
14.000  19.750  6.6394e-02
14.000  20.000  6.8559e-02
14.000  20.250  7.0941e-02
14.000  20.500  7.3622e-02
14.000  20.750  7.6530e-02
14.000  21.000  7.9610e-02
14.000  21.250  8.2687e-02
14.000  21.500  8.4913e-02
14.000  21.750  8.7474e-02
14.000  22.000  9.0259e-02
14.000  22.250  9.7364e-02
14.000  22.500  1.1346e-01
14.000  22.750  1.2381e-01
14.000  23.000  1.2994e-01
14.000  23.250  1.1403e-01
14.000  23.500  7.8221e-02
14.000  23.750  4.9599e-02
14.000  24.000  3.2282e-02
