InwC 701.514A  relative to Inci 1215.00A scaled to 1215A.
Hden   Phi(H)  Eq_Width (A)
7.000  17.000  5.0483e-03
7.000  17.250  6.2801e-03
7.000  17.500  7.0207e-03
7.000  17.750  7.3642e-03
7.000  18.000  7.5385e-03
7.000  18.250  7.6576e-03
7.000  18.500  7.7226e-03
7.000  18.750  7.7393e-03
7.000  19.000  7.7467e-03
7.000  19.250  7.7500e-03
7.000  19.500  7.7506e-03
7.000  19.750  7.7509e-03
7.000  20.000  7.7509e-03
7.000  20.250  7.7510e-03
7.000  20.500  7.7510e-03
7.000  20.750  7.7510e-03
7.000  21.000  7.7510e-03
7.000  21.250  7.7510e-03
7.000  21.500  7.7512e-03
7.000  21.750  7.7510e-03
7.000  22.000  7.7510e-03
7.000  22.250  7.7510e-03
7.000  22.500  7.7510e-03
7.000  22.750  7.7513e-03
7.000  23.000  7.7513e-03
7.000  23.250  7.7510e-03
7.000  23.500  7.7510e-03
7.000  23.750  7.7510e-03
7.000  24.000  7.7510e-03
7.250  17.000  3.6777e-03
7.250  17.250  5.0578e-03
7.250  17.500  6.2887e-03
7.250  17.750  7.0255e-03
7.250  18.000  7.3657e-03
7.250  18.250  7.5390e-03
7.250  18.500  7.6577e-03
7.250  18.750  7.7226e-03
7.250  19.000  7.7393e-03
7.250  19.250  7.7467e-03
7.250  19.500  7.7500e-03
7.250  19.750  7.7506e-03
7.250  20.000  7.7509e-03
7.250  20.250  7.7509e-03
7.250  20.500  7.7509e-03
7.250  20.750  7.7510e-03
7.250  21.000  7.7510e-03
7.250  21.250  7.7510e-03
7.250  21.500  7.7510e-03
7.250  21.750  7.7526e-03
7.250  22.000  7.7510e-03
7.250  22.250  7.7510e-03
7.250  22.500  7.7510e-03
7.250  22.750  7.7518e-03
7.250  23.000  7.7518e-03
7.250  23.250  7.7510e-03
7.250  23.500  7.7510e-03
7.250  23.750  7.7510e-03
7.250  24.000  7.7510e-03
7.500  17.000  2.2184e-03
7.500  17.250  3.6840e-03
7.500  17.500  5.0658e-03
7.500  17.750  6.2974e-03
7.500  18.000  7.0313e-03
7.500  18.250  7.3677e-03
7.500  18.500  7.5397e-03
7.500  18.750  7.6579e-03
7.500  19.000  7.7227e-03
7.500  19.250  7.7393e-03
7.500  19.500  7.7467e-03
7.500  19.750  7.7500e-03
7.500  20.000  7.7506e-03
7.500  20.250  7.7509e-03
7.500  20.500  7.7509e-03
7.500  20.750  7.7509e-03
7.500  21.000  7.7509e-03
7.500  21.250  7.7509e-03
7.500  21.500  7.7510e-03
7.500  21.750  7.7510e-03
7.500  22.000  7.7510e-03
7.500  22.250  7.7510e-03
7.500  22.500  7.7510e-03
7.500  22.750  7.7510e-03
7.500  23.000  7.7514e-03
7.500  23.250  7.7518e-03
7.500  23.500  7.7510e-03
7.500  23.750  7.7520e-03
7.500  24.000  7.7510e-03
7.750  17.000  1.1684e-03
7.750  17.250  2.2249e-03
7.750  17.500  3.6880e-03
7.750  17.750  5.0724e-03
7.750  18.000  6.3063e-03
7.750  18.250  7.0381e-03
7.750  18.500  7.3704e-03
7.750  18.750  7.5407e-03
7.750  19.000  7.6582e-03
7.750  19.250  7.7228e-03
7.750  19.500  7.7394e-03
7.750  19.750  7.7467e-03
7.750  20.000  7.7500e-03
7.750  20.250  7.7506e-03
7.750  20.500  7.7509e-03
7.750  20.750  7.7509e-03
7.750  21.000  7.7509e-03
7.750  21.250  7.7509e-03
7.750  21.500  7.7509e-03
7.750  21.750  7.7509e-03
7.750  22.000  7.7509e-03
7.750  22.250  7.7510e-03
7.750  22.500  7.7510e-03
7.750  22.750  7.7512e-03
7.750  23.000  7.7513e-03
7.750  23.250  7.7510e-03
7.750  23.500  7.7518e-03
7.750  23.750  7.7518e-03
7.750  24.000  7.7510e-03
8.000  17.000  6.1564e-04
8.000  17.250  1.1656e-03
8.000  17.500  2.2196e-03
8.000  17.750  3.6891e-03
8.000  18.000  5.0779e-03
8.000  18.250  6.3154e-03
8.000  18.500  7.0458e-03
8.000  18.750  7.3737e-03
8.000  19.000  7.5419e-03
8.000  19.250  7.6586e-03
8.000  19.500  7.7229e-03
8.000  19.750  7.7394e-03
8.000  20.000  7.7467e-03
8.000  20.250  7.7500e-03
8.000  20.500  7.7506e-03
8.000  20.750  7.7508e-03
8.000  21.000  7.7509e-03
8.000  21.250  7.7509e-03
8.000  21.500  7.7509e-03
8.000  21.750  7.7509e-03
8.000  22.000  7.7509e-03
8.000  22.250  7.7509e-03
8.000  22.500  7.7509e-03
8.000  22.750  7.7512e-03
8.000  23.000  7.7509e-03
8.000  23.250  7.7514e-03
8.000  23.500  7.7510e-03
8.000  23.750  7.7510e-03
8.000  24.000  7.7510e-03
8.250  17.000  3.2584e-04
8.250  17.250  6.1580e-04
8.250  17.500  1.1659e-03
8.250  17.750  2.2184e-03
8.250  18.000  3.6889e-03
8.250  18.250  5.0821e-03
8.250  18.500  6.3249e-03
8.250  18.750  7.0546e-03
8.250  19.000  7.3777e-03
8.250  19.250  7.5435e-03
8.250  19.500  7.6591e-03
8.250  19.750  7.7230e-03
8.250  20.000  7.7394e-03
8.250  20.250  7.7467e-03
8.250  20.500  7.7500e-03
8.250  20.750  7.7506e-03
8.250  21.000  7.7508e-03
8.250  21.250  7.7509e-03
8.250  21.500  7.7509e-03
8.250  21.750  7.7509e-03
8.250  22.000  7.7509e-03
8.250  22.250  7.7509e-03
8.250  22.500  7.7509e-03
8.250  22.750  7.7511e-03
8.250  23.000  7.7509e-03
8.250  23.250  7.7530e-03
8.250  23.500  7.7509e-03
8.250  23.750  7.7509e-03
8.250  24.000  7.7515e-03
8.500  17.000  1.7300e-04
8.500  17.250  3.2551e-04
8.500  17.500  6.1514e-04
8.500  17.750  1.1643e-03
8.500  18.000  2.2153e-03
8.500  18.250  3.6856e-03
8.500  18.500  5.0853e-03
8.500  18.750  6.3350e-03
8.500  19.000  7.0644e-03
8.500  19.250  7.3821e-03
8.500  19.500  7.5453e-03
8.500  19.750  7.6598e-03
8.500  20.000  7.7231e-03
8.500  20.250  7.7395e-03
8.500  20.500  7.7467e-03
8.500  20.750  7.7500e-03
8.500  21.000  7.7506e-03
8.500  21.250  7.7508e-03
8.500  21.500  7.7509e-03
8.500  21.750  7.7509e-03
8.500  22.000  7.7509e-03
8.500  22.250  7.7509e-03
8.500  22.500  7.7509e-03
8.500  22.750  7.7509e-03
8.500  23.000  7.7509e-03
8.500  23.250  7.7511e-03
8.500  23.500  7.7509e-03
8.500  23.750  7.7509e-03
8.500  24.000  7.7509e-03
8.750  17.000  9.2675e-05
8.750  17.250  1.7276e-04
8.750  17.500  3.2519e-04
8.750  17.750  6.1465e-04
8.750  18.000  1.1635e-03
8.750  18.250  2.2097e-03
8.750  18.500  3.6798e-03
8.750  18.750  5.0870e-03
8.750  19.000  6.3456e-03
8.750  19.250  7.0747e-03
8.750  19.500  7.3870e-03
8.750  19.750  7.5473e-03
8.750  20.000  7.6605e-03
8.750  20.250  7.7233e-03
8.750  20.500  7.7396e-03
8.750  20.750  7.7467e-03
8.750  21.000  7.7500e-03
8.750  21.250  7.7506e-03
8.750  21.500  7.7508e-03
8.750  21.750  7.7509e-03
8.750  22.000  7.7509e-03
8.750  22.250  7.7509e-03
8.750  22.500  7.7509e-03
8.750  22.750  7.7509e-03
8.750  23.000  7.7517e-03
8.750  23.250  7.7509e-03
8.750  23.500  7.7511e-03
8.750  23.750  7.7509e-03
8.750  24.000  7.7509e-03
9.000  17.000  4.9877e-05
9.000  17.250  9.2675e-05
9.000  17.500  1.7267e-04
9.000  17.750  3.2519e-04
9.000  18.000  6.1539e-04
9.000  18.250  1.1638e-03
9.000  18.500  2.2056e-03
9.000  18.750  3.6747e-03
9.000  19.000  5.0877e-03
9.000  19.250  6.3556e-03
9.000  19.500  7.0855e-03
9.000  19.750  7.3921e-03
9.000  20.000  7.5495e-03
9.000  20.250  7.6613e-03
9.000  20.500  7.7235e-03
9.000  20.750  7.7396e-03
9.000  21.000  7.7468e-03
9.000  21.250  7.7500e-03
9.000  21.500  7.7506e-03
9.000  21.750  7.7508e-03
9.000  22.000  7.7509e-03
9.000  22.250  7.7509e-03
9.000  22.500  7.7509e-03
9.000  22.750  7.7509e-03
9.000  23.000  7.7509e-03
9.000  23.250  7.7509e-03
9.000  23.500  7.7509e-03
9.000  23.750  7.7509e-03
9.000  24.000  7.7510e-03
9.250  17.000  2.6749e-05
9.250  17.250  4.9959e-05
9.250  17.500  9.3004e-05
9.250  17.750  1.7366e-04
9.250  18.000  3.2765e-04
9.250  18.250  6.2016e-04
9.250  18.500  1.1711e-03
9.250  18.750  2.2081e-03
9.250  19.000  3.6713e-03
9.250  19.250  5.0873e-03
9.250  19.500  6.3641e-03
9.250  19.750  7.0960e-03
9.250  20.000  7.3973e-03
9.250  20.250  7.5518e-03
9.250  20.500  7.6622e-03
9.250  20.750  7.7238e-03
9.250  21.000  7.7398e-03
9.250  21.250  7.7468e-03
9.250  21.500  7.7495e-03
9.250  21.750  7.7501e-03
9.250  22.000  7.7501e-03
9.250  22.250  7.7504e-03
9.250  22.500  7.7505e-03
9.250  22.750  7.7506e-03
9.250  23.000  7.7507e-03
9.250  23.250  7.7508e-03
9.250  23.500  7.7508e-03
9.250  23.750  7.7508e-03
9.250  24.000  7.7509e-03
9.500  17.000  1.4074e-05
9.500  17.250  2.6914e-05
9.500  17.500  5.0617e-05
9.500  17.750  9.4486e-05
9.500  18.000  1.7654e-04
9.500  18.250  3.3309e-04
9.500  18.500  6.3128e-04
9.500  18.750  1.1947e-03
9.500  19.000  2.2262e-03
9.500  19.250  3.6750e-03
9.500  19.500  5.0874e-03
9.500  19.750  6.3704e-03
9.500  20.000  7.1056e-03
9.500  20.250  7.4023e-03
9.500  20.500  7.5540e-03
9.500  20.750  7.6613e-03
9.500  21.000  7.7233e-03
9.500  21.250  7.7392e-03
9.500  21.500  7.7463e-03
9.500  21.750  7.7492e-03
9.500  22.000  7.7499e-03
9.500  22.250  7.7500e-03
9.500  22.500  7.7501e-03
9.500  22.750  7.7501e-03
9.500  23.000  7.7501e-03
9.500  23.250  7.7502e-03
9.500  23.500  7.7502e-03
9.500  23.750  7.7502e-03
9.500  24.000  7.7502e-03
9.750  17.000  7.2428e-06
9.750  17.250  1.4239e-05
9.750  17.500  2.7490e-05
9.750  17.750  5.2099e-05
9.750  18.000  9.7366e-05
9.750  18.250  1.8173e-04
9.750  18.500  3.4379e-04
9.750  18.750  6.5588e-04
9.750  19.000  1.2423e-03
9.750  19.250  2.2765e-03
9.750  19.500  3.6967e-03
9.750  19.750  5.0923e-03
9.750  20.000  6.3761e-03
9.750  20.250  7.1120e-03
9.750  20.500  7.4057e-03
9.750  20.750  7.5551e-03
9.750  21.000  7.6627e-03
9.750  21.250  7.7236e-03
9.750  21.500  7.7393e-03
9.750  21.750  7.7463e-03
9.750  22.000  7.7492e-03
9.750  22.250  7.7499e-03
9.750  22.500  7.7500e-03
9.750  22.750  7.7501e-03
9.750  23.000  7.7501e-03
9.750  23.250  7.7501e-03
9.750  23.500  7.7501e-03
9.750  23.750  7.7501e-03
9.750  24.000  7.7501e-03
10.000  17.000  3.2922e-06
10.000  17.250  7.3251e-06
10.000  17.500  1.4733e-05
10.000  17.750  2.8807e-05
10.000  18.000  5.4486e-05
10.000  18.250  1.0173e-04
10.000  18.500  1.9128e-04
10.000  18.750  3.6683e-04
10.000  19.000  7.1169e-04
10.000  19.250  1.3514e-03
10.000  19.500  2.4011e-03
10.000  19.750  3.7557e-03
10.000  20.000  5.1098e-03
10.000  20.250  6.3819e-03
10.000  20.500  7.1211e-03
10.000  20.750  7.4114e-03
10.000  21.000  7.5582e-03
10.000  21.250  7.6646e-03
10.000  21.500  7.7240e-03
10.000  21.750  7.7395e-03
10.000  22.000  7.7464e-03
10.000  22.250  7.7493e-03
10.000  22.500  7.7499e-03
10.000  22.750  7.7500e-03
10.000  23.000  7.7501e-03
10.000  23.250  7.7502e-03
10.000  23.500  7.7502e-03
10.000  23.750  7.7502e-03
10.000  24.000  7.7502e-03
10.250  17.000  1.6461e-06
10.250  17.250  3.4568e-06
10.250  17.500  7.7366e-06
10.250  17.750  1.5638e-05
10.250  18.000  3.0617e-05
10.250  18.250  5.8354e-05
10.250  18.500  1.1070e-04
10.250  18.750  2.1383e-04
10.250  19.000  4.2107e-04
10.250  19.250  8.2930e-04
10.250  19.500  1.5408e-03
10.250  19.750  2.6180e-03
10.250  20.000  3.8620e-03
10.250  20.250  5.1488e-03
10.250  20.500  6.3926e-03
10.250  20.750  7.1301e-03
10.250  21.000  7.4165e-03
10.250  21.250  7.5609e-03
10.250  21.500  7.6662e-03
10.250  21.750  7.7245e-03
10.250  22.000  7.7397e-03
10.250  22.250  7.7465e-03
10.250  22.500  7.7495e-03
10.250  22.750  7.7499e-03
10.250  23.000  7.7501e-03
10.250  23.250  7.7501e-03
10.250  23.500  7.7501e-03
10.250  23.750  7.7502e-03
10.250  24.000  7.7502e-03
10.500  17.000  8.2305e-07
10.500  17.250  1.7284e-06
10.500  17.500  3.6214e-06
10.500  17.750  8.3128e-06
10.500  18.000  1.7119e-05
10.500  18.250  3.4074e-05
10.500  18.500  6.7078e-05
10.500  18.750  1.3193e-04
10.500  19.000  2.6148e-04
10.500  19.250  5.2132e-04
10.500  19.500  9.8420e-04
10.500  19.750  1.7935e-03
10.500  20.000  2.8948e-03
10.500  20.250  4.0473e-03
10.500  20.500  5.2301e-03
10.500  20.750  6.4143e-03
10.500  21.000  7.1383e-03
10.500  21.250  7.4213e-03
10.500  21.500  7.5635e-03
10.500  21.750  7.6676e-03
10.500  22.000  7.7253e-03
10.500  22.250  7.7399e-03
10.500  22.500  7.7466e-03
10.500  22.750  7.7495e-03
10.500  23.000  7.7500e-03
10.500  23.250  7.7500e-03
10.500  23.500  7.7501e-03
10.500  23.750  7.7502e-03
10.500  24.000  7.7502e-03
10.750  17.000  1.0000e-07
10.750  17.250  9.0535e-07
10.750  17.500  1.8930e-06
10.750  17.750  4.1975e-06
10.750  18.000  9.4650e-06
10.750  18.250  2.0494e-05
10.750  18.500  4.2469e-05
10.750  18.750  8.6173e-05
10.750  19.000  1.7169e-04
10.750  19.250  3.3951e-04
10.750  19.500  6.6856e-04
10.750  19.750  1.2120e-03
10.750  20.000  2.0953e-03
10.750  20.250  3.1801e-03
10.750  20.500  4.2823e-03
10.750  20.750  5.3821e-03
10.750  21.000  6.4536e-03
10.750  21.250  7.1481e-03
10.750  21.500  7.4265e-03
10.750  21.750  7.5665e-03
10.750  22.000  7.6691e-03
10.750  22.250  7.7259e-03
10.750  22.500  7.7404e-03
10.750  22.750  7.7467e-03
10.750  23.000  7.7495e-03
10.750  23.250  7.7501e-03
10.750  23.500  7.7501e-03
10.750  23.750  7.7501e-03
10.750  24.000  7.7502e-03
11.000  17.000  1.0000e-07
11.000  17.250  1.0000e-07
11.000  17.500  9.8765e-07
11.000  17.750  2.2222e-06
11.000  18.000  5.2675e-06
11.000  18.250  1.2346e-05
11.000  18.500  2.7572e-05
11.000  18.750  5.7942e-05
11.000  19.000  1.1621e-04
11.000  19.250  2.2741e-04
11.000  19.500  4.4099e-04
11.000  19.750  8.5638e-04
11.000  20.000  1.4793e-03
11.000  20.250  2.3477e-03
11.000  20.500  3.4816e-03
11.000  20.750  4.5866e-03
11.000  21.000  5.5361e-03
11.000  21.250  6.5260e-03
11.000  21.500  7.1623e-03
11.000  21.750  7.4329e-03
11.000  22.000  7.5702e-03
11.000  22.250  7.6710e-03
11.000  22.500  7.7266e-03
11.000  22.750  7.7408e-03
11.000  23.000  7.7470e-03
11.000  23.250  7.7496e-03
11.000  23.500  7.7501e-03
11.000  23.750  7.7502e-03
11.000  24.000  7.7502e-03
11.250  17.000  1.0000e-07
11.250  17.250  1.0000e-07
11.250  17.500  1.0000e-07
11.250  17.750  1.1523e-06
11.250  18.000  2.8807e-06
11.250  18.250  7.3251e-06
11.250  18.500  1.7366e-05
11.250  18.750  3.8189e-05
11.250  19.000  7.7695e-05
11.250  19.250  1.5193e-04
11.250  19.500  2.9095e-04
11.250  19.750  5.5531e-04
11.250  20.000  1.0614e-03
11.250  20.250  1.7680e-03
11.250  20.500  2.7127e-03
11.250  20.750  3.7723e-03
11.250  21.000  4.8158e-03
11.250  21.250  5.7402e-03
11.250  21.500  6.6119e-03
11.250  21.750  7.1839e-03
11.250  22.000  7.4419e-03
11.250  22.250  7.5751e-03
11.250  22.500  7.6736e-03
11.250  22.750  7.7275e-03
11.250  23.000  7.7412e-03
11.250  23.250  7.7473e-03
11.250  23.500  7.7497e-03
11.250  23.750  7.7502e-03
11.250  24.000  7.7503e-03
11.500  17.000  1.0000e-07
11.500  17.250  1.0000e-07
11.500  17.500  1.0000e-07
11.500  17.750  1.0000e-07
11.500  18.000  1.5638e-06
11.500  18.250  4.1975e-06
11.500  18.500  1.0370e-05
11.500  18.750  2.3621e-05
11.500  19.000  4.9794e-05
11.500  19.250  9.8107e-05
11.500  19.500  1.8765e-04
11.500  19.750  3.5580e-04
11.500  20.000  6.7284e-04
11.500  20.250  1.2533e-03
11.500  20.500  2.0426e-03
11.500  20.750  3.0198e-03
11.500  21.000  4.0533e-03
11.500  21.250  5.0629e-03
11.500  21.500  5.9217e-03
11.500  21.750  6.7135e-03
11.500  22.000  7.2148e-03
11.500  22.250  7.4543e-03
11.500  22.500  7.5821e-03
11.500  22.750  7.6770e-03
11.500  23.000  7.7286e-03
11.500  23.250  7.7418e-03
11.500  23.500  7.7477e-03
11.500  23.750  7.7498e-03
11.500  24.000  7.7503e-03
11.750  17.000  1.0000e-07
11.750  17.250  1.0000e-07
11.750  17.500  1.0000e-07
11.750  17.750  1.0000e-07
11.750  18.000  9.0535e-07
11.750  18.250  2.3045e-06
11.750  18.500  5.8436e-06
11.750  18.750  1.3745e-05
11.750  19.000  2.9794e-05
11.750  19.250  6.0576e-05
11.750  19.500  1.1671e-04
11.750  19.750  2.2066e-04
11.750  20.000  4.1564e-04
11.750  20.250  7.8527e-04
11.750  20.500  1.4186e-03
11.750  20.750  2.3010e-03
11.750  21.000  3.3214e-03
11.750  21.250  4.3473e-03
11.750  21.500  5.2607e-03
11.750  21.750  6.1185e-03
11.750  22.000  6.8113e-03
11.750  22.250  7.2519e-03
11.750  22.500  7.4712e-03
11.750  22.750  7.5926e-03
11.750  23.000  7.6818e-03
11.750  23.250  7.7303e-03
11.750  23.500  7.7426e-03
11.750  23.750  7.7480e-03
11.750  24.000  7.7500e-03
12.000  17.000  1.0000e-07
12.000  17.250  1.0000e-07
12.000  17.500  1.0000e-07
12.000  17.750  1.0000e-07
12.000  18.000  1.0000e-07
12.000  18.250  1.2346e-06
12.000  18.500  3.0453e-06
12.000  18.750  7.4074e-06
12.000  19.000  1.6626e-05
12.000  19.250  3.5062e-05
12.000  19.500  6.9630e-05
12.000  19.750  1.3226e-04
12.000  20.000  2.4905e-04
12.000  20.250  4.6930e-04
12.000  20.500  8.8626e-04
12.000  20.750  1.5947e-03
12.000  21.000  2.5584e-03
12.000  21.250  3.6163e-03
12.000  21.500  4.6337e-03
12.000  21.750  5.4951e-03
12.000  22.000  6.2861e-03
12.000  22.250  6.8974e-03
12.000  22.500  7.2886e-03
12.000  22.750  7.4914e-03
12.000  23.000  7.6046e-03
12.000  23.250  7.6881e-03
12.000  23.500  7.7323e-03
12.000  23.750  7.7434e-03
12.000  24.000  7.7483e-03
12.250  17.000  1.0000e-07
12.250  17.250  1.0000e-07
12.250  17.500  1.0000e-07
12.250  17.750  1.0000e-07
12.250  18.000  1.0000e-07
12.250  18.250  1.0000e-07
12.250  18.500  1.5638e-06
12.250  18.750  3.7037e-06
12.250  19.000  8.6420e-06
12.250  19.250  1.8930e-05
12.250  19.500  3.9095e-05
12.250  19.750  7.6790e-05
12.250  20.000  1.4510e-04
12.250  20.250  2.7342e-04
12.250  20.500  5.1712e-04
12.250  20.750  9.7860e-04
12.250  21.000  1.7670e-03
12.250  21.250  2.8036e-03
12.250  21.500  3.8895e-03
12.250  21.750  4.8983e-03
12.250  22.000  5.6873e-03
12.250  22.250  6.4199e-03
12.250  22.500  6.9700e-03
12.250  22.750  7.3228e-03
12.250  23.000  7.5121e-03
12.250  23.250  7.6181e-03
12.250  23.500  7.6955e-03
12.250  23.750  7.7347e-03
12.250  24.000  7.7444e-03
12.500  17.000  1.0000e-07
12.500  17.250  1.0000e-07
12.500  17.500  1.0000e-07
12.500  17.750  1.0000e-07
12.500  18.000  1.0000e-07
12.500  18.250  1.0000e-07
12.500  18.500  1.0000e-07
12.500  18.750  1.8107e-06
12.500  19.000  4.1975e-06
12.500  19.250  9.4650e-06
12.500  19.500  2.0412e-05
12.500  19.750  4.1975e-05
12.500  20.000  8.2140e-05
12.500  20.250  1.5556e-04
12.500  20.500  2.9481e-04
12.500  20.750  5.6214e-04
12.500  21.000  1.0735e-03
12.500  21.250  1.9382e-03
12.500  21.500  3.0332e-03
12.500  21.750  4.1315e-03
12.500  22.000  5.1130e-03
12.500  22.250  5.8527e-03
12.500  22.500  6.5363e-03
12.500  22.750  7.0447e-03
12.500  23.000  7.3523e-03
12.500  23.250  7.5296e-03
12.500  23.500  7.6309e-03
12.500  23.750  7.7026e-03
12.500  24.000  7.7370e-03
12.750  17.000  1.0000e-07
12.750  17.250  1.0000e-07
12.750  17.500  1.0000e-07
12.750  17.750  1.0000e-07
12.750  18.000  1.0000e-07
12.750  18.250  1.0000e-07
12.750  18.500  1.0000e-07
12.750  18.750  9.0535e-07
12.750  19.000  1.9753e-06
12.750  19.250  4.5267e-06
12.750  19.500  9.9588e-06
12.750  19.750  2.1317e-05
12.750  20.000  4.3786e-05
12.750  20.250  8.6255e-05
12.750  20.500  1.6486e-04
12.750  20.750  3.1621e-04
12.750  21.000  6.1226e-04
12.750  21.250  1.1751e-03
12.750  21.500  2.0925e-03
12.750  21.750  3.2444e-03
12.750  22.000  4.3376e-03
12.750  22.250  5.2765e-03
12.750  22.500  5.9946e-03
12.750  22.750  6.6399e-03
12.750  23.000  7.0954e-03
12.750  23.250  7.3772e-03
12.750  23.500  7.5444e-03
12.750  23.750  7.6420e-03
12.750  24.000  7.7089e-03
13.000  17.000  1.0000e-07
13.000  17.250  1.0000e-07
13.000  17.500  1.0000e-07
13.000  17.750  1.0000e-07
13.000  18.000  1.0000e-07
13.000  18.250  1.0000e-07
13.000  18.500  1.0000e-07
13.000  18.750  1.0000e-07
13.000  19.000  9.8765e-07
13.000  19.250  2.0576e-06
13.000  19.500  4.6091e-06
13.000  19.750  1.0041e-05
13.000  20.000  2.1646e-05
13.000  20.250  4.4856e-05
13.000  20.500  8.9959e-05
13.000  20.750  1.7424e-04
13.000  21.000  3.3802e-04
13.000  21.250  6.6362e-04
13.000  21.500  1.2653e-03
13.000  21.750  2.2635e-03
13.000  22.000  3.4162e-03
13.000  22.250  4.5139e-03
13.000  22.500  5.4214e-03
13.000  22.750  6.1115e-03
13.000  23.000  6.7068e-03
13.000  23.250  7.1347e-03
13.000  23.500  7.3971e-03
13.000  23.750  7.5563e-03
13.000  24.000  7.6509e-03
13.250  17.000  1.0000e-07
13.250  17.250  1.0000e-07
13.250  17.500  1.0000e-07
13.250  17.750  1.0000e-07
13.250  18.000  1.0000e-07
13.250  18.250  1.0000e-07
13.250  18.500  1.0000e-07
13.250  18.750  1.0000e-07
13.250  19.000  1.0000e-07
13.250  19.250  9.8765e-07
13.250  19.500  2.1399e-06
13.250  19.750  4.5267e-06
13.250  20.000  9.9588e-06
13.250  20.250  2.1564e-05
13.250  20.500  4.5432e-05
13.250  20.750  9.2346e-05
13.250  21.000  1.8305e-04
13.250  21.250  3.6000e-04
13.250  21.500  6.9802e-04
13.250  21.750  1.3312e-03
13.250  22.000  2.3881e-03
13.250  22.250  3.5774e-03
13.250  22.500  4.6628e-03
13.250  22.750  5.5467e-03
13.250  23.000  6.2062e-03
13.250  23.250  6.7479e-03
13.250  23.500  7.1559e-03
13.250  23.750  7.4145e-03
13.250  24.000  7.5660e-03
13.500  17.000  1.0000e-07
13.500  17.250  1.0000e-07
13.500  17.500  1.0000e-07
13.500  17.750  1.0000e-07
13.500  18.000  1.0000e-07
13.500  18.250  1.0000e-07
13.500  18.500  1.0000e-07
13.500  18.750  1.0000e-07
13.500  19.000  1.0000e-07
13.500  19.250  1.0000e-07
13.500  19.500  1.0700e-06
13.500  19.750  2.1399e-06
13.500  20.000  4.5267e-06
13.500  20.250  9.8765e-06
13.500  20.500  2.1564e-05
13.500  20.750  4.5597e-05
13.500  21.000  9.2346e-05
13.500  21.250  1.8650e-04
13.500  21.500  3.6272e-04
13.500  21.750  7.1037e-04
13.500  22.000  1.3759e-03
13.500  22.250  2.4895e-03
13.500  22.500  3.7221e-03
13.500  22.750  4.8174e-03
13.500  23.000  5.6558e-03
13.500  23.250  6.2849e-03
13.500  23.500  6.8079e-03
13.500  23.750  7.1896e-03
13.500  24.000  7.4286e-03
13.750  17.000  1.0000e-07
13.750  17.250  1.0000e-07
13.750  17.500  1.0000e-07
13.750  17.750  1.0000e-07
13.750  18.000  1.0000e-07
13.750  18.250  1.0000e-07
13.750  18.500  1.0000e-07
13.750  18.750  1.0000e-07
13.750  19.000  1.0000e-07
13.750  19.250  1.0000e-07
13.750  19.500  1.0000e-07
13.750  19.750  1.0700e-06
13.750  20.000  2.2222e-06
13.750  20.250  4.6914e-06
13.750  20.500  1.0123e-05
13.750  20.750  2.1893e-05
13.750  21.000  4.6091e-05
13.750  21.250  9.3004e-05
13.750  21.500  1.8444e-04
13.750  21.750  3.6568e-04
13.750  22.000  7.1918e-04
13.750  22.250  1.4295e-03
13.750  22.500  2.5975e-03
13.750  22.750  3.8856e-03
13.750  23.000  4.9802e-03
13.750  23.250  5.7543e-03
13.750  23.500  6.3527e-03
13.750  23.750  6.8533e-03
13.750  24.000  7.2170e-03
14.000  17.000  1.0000e-07
14.000  17.250  1.0000e-07
14.000  17.500  1.0000e-07
14.000  17.750  1.0000e-07
14.000  18.000  1.0000e-07
14.000  18.250  1.0000e-07
14.000  18.500  1.0000e-07
14.000  18.750  1.0000e-07
14.000  19.000  1.0000e-07
14.000  19.250  1.0000e-07
14.000  19.500  1.0000e-07
14.000  19.750  1.0000e-07
14.000  20.000  1.1523e-06
14.000  20.250  2.3045e-06
14.000  20.500  4.8560e-06
14.000  20.750  1.0535e-05
14.000  21.000  2.2634e-05
14.000  21.250  4.7572e-05
14.000  21.500  9.4979e-05
14.000  21.750  1.8724e-04
14.000  22.000  3.6831e-04
14.000  22.250  7.3844e-04
14.000  22.500  1.4906e-03
14.000  22.750  2.6865e-03
14.000  23.000  4.0354e-03
14.000  23.250  5.1369e-03
14.000  23.500  5.8549e-03
14.000  23.750  6.4216e-03
14.000  24.000  6.9052e-03
