InwC 7500.00A  relative to Inci 1215.00A scaled to 1215A.
Hden   Phi(H)  Eq_Width (A)
7.000  17.000  2.5006e-03
7.000  17.250  2.5016e-03
7.000  17.500  2.5027e-03
7.000  17.750  2.5038e-03
7.000  18.000  2.5048e-03
7.000  18.250  2.5057e-03
7.000  18.500  2.5063e-03
7.000  18.750  2.5067e-03
7.000  19.000  2.5069e-03
7.000  19.250  2.5072e-03
7.000  19.500  2.5072e-03
7.000  19.750  2.5072e-03
7.000  20.000  2.5073e-03
7.000  20.250  2.5073e-03
7.000  20.500  2.5073e-03
7.000  20.750  2.5073e-03
7.000  21.000  2.5073e-03
7.000  21.250  2.5073e-03
7.000  21.500  2.5074e-03
7.000  21.750  2.5073e-03
7.000  22.000  2.5073e-03
7.000  22.250  2.5073e-03
7.000  22.500  2.5073e-03
7.000  22.750  2.5074e-03
7.000  23.000  2.5074e-03
7.000  23.250  2.5073e-03
7.000  23.500  2.5073e-03
7.000  23.750  2.5073e-03
7.000  24.000  2.5073e-03
7.250  17.000  2.4964e-03
7.250  17.250  2.5006e-03
7.250  17.500  2.5016e-03
7.250  17.750  2.5027e-03
7.250  18.000  2.5038e-03
7.250  18.250  2.5048e-03
7.250  18.500  2.5057e-03
7.250  18.750  2.5063e-03
7.250  19.000  2.5067e-03
7.250  19.250  2.5069e-03
7.250  19.500  2.5072e-03
7.250  19.750  2.5072e-03
7.250  20.000  2.5072e-03
7.250  20.250  2.5073e-03
7.250  20.500  2.5073e-03
7.250  20.750  2.5073e-03
7.250  21.000  2.5073e-03
7.250  21.250  2.5073e-03
7.250  21.500  2.5073e-03
7.250  21.750  2.5078e-03
7.250  22.000  2.5073e-03
7.250  22.250  2.5073e-03
7.250  22.500  2.5073e-03
7.250  22.750  2.5076e-03
7.250  23.000  2.5076e-03
7.250  23.250  2.5073e-03
7.250  23.500  2.5073e-03
7.250  23.750  2.5073e-03
7.250  24.000  2.5073e-03
7.500  17.000  2.3988e-03
7.500  17.250  2.4966e-03
7.500  17.500  2.5006e-03
7.500  17.750  2.5016e-03
7.500  18.000  2.5027e-03
7.500  18.250  2.5038e-03
7.500  18.500  2.5048e-03
7.500  18.750  2.5057e-03
7.500  19.000  2.5063e-03
7.500  19.250  2.5067e-03
7.500  19.500  2.5069e-03
7.500  19.750  2.5072e-03
7.500  20.000  2.5072e-03
7.500  20.250  2.5072e-03
7.500  20.500  2.5073e-03
7.500  20.750  2.5073e-03
7.500  21.000  2.5073e-03
7.500  21.250  2.5073e-03
7.500  21.500  2.5073e-03
7.500  21.750  2.5073e-03
7.500  22.000  2.5073e-03
7.500  22.250  2.5073e-03
7.500  22.500  2.5073e-03
7.500  22.750  2.5073e-03
7.500  23.000  2.5075e-03
7.500  23.250  2.5076e-03
7.500  23.500  2.5073e-03
7.500  23.750  2.5077e-03
7.500  24.000  2.5073e-03
7.750  17.000  2.2171e-03
7.750  17.250  2.3992e-03
7.750  17.500  2.4968e-03
7.750  17.750  2.5006e-03
7.750  18.000  2.5016e-03
7.750  18.250  2.5027e-03
7.750  18.500  2.5038e-03
7.750  18.750  2.5048e-03
7.750  19.000  2.5057e-03
7.750  19.250  2.5063e-03
7.750  19.500  2.5067e-03
7.750  19.750  2.5069e-03
7.750  20.000  2.5072e-03
7.750  20.250  2.5072e-03
7.750  20.500  2.5072e-03
7.750  20.750  2.5073e-03
7.750  21.000  2.5073e-03
7.750  21.250  2.5073e-03
7.750  21.500  2.5073e-03
7.750  21.750  2.5073e-03
7.750  22.000  2.5073e-03
7.750  22.250  2.5073e-03
7.750  22.500  2.5073e-03
7.750  22.750  2.5074e-03
7.750  23.000  2.5074e-03
7.750  23.250  2.5073e-03
7.750  23.500  2.5076e-03
7.750  23.750  2.5076e-03
7.750  24.000  2.5073e-03
8.000  17.000  1.5678e-03
8.000  17.250  2.2036e-03
8.000  17.500  2.3984e-03
8.000  17.750  2.4964e-03
8.000  18.000  2.5006e-03
8.000  18.250  2.5016e-03
8.000  18.500  2.5027e-03
8.000  18.750  2.5038e-03
8.000  19.000  2.5049e-03
8.000  19.250  2.5057e-03
8.000  19.500  2.5063e-03
8.000  19.750  2.5067e-03
8.000  20.000  2.5069e-03
8.000  20.250  2.5072e-03
8.000  20.500  2.5072e-03
8.000  20.750  2.5072e-03
8.000  21.000  2.5073e-03
8.000  21.250  2.5073e-03
8.000  21.500  2.5073e-03
8.000  21.750  2.5073e-03
8.000  22.000  2.5073e-03
8.000  22.250  2.5073e-03
8.000  22.500  2.5073e-03
8.000  22.750  2.5074e-03
8.000  23.000  2.5073e-03
8.000  23.250  2.5075e-03
8.000  23.500  2.5073e-03
8.000  23.750  2.5073e-03
8.000  24.000  2.5073e-03
8.250  17.000  1.0984e-03
8.250  17.250  1.5740e-03
8.250  17.500  2.2059e-03
8.250  17.750  2.3987e-03
8.250  18.000  2.4965e-03
8.250  18.250  2.5006e-03
8.250  18.500  2.5016e-03
8.250  18.750  2.5027e-03
8.250  19.000  2.5038e-03
8.250  19.250  2.5049e-03
8.250  19.500  2.5057e-03
8.250  19.750  2.5063e-03
8.250  20.000  2.5067e-03
8.250  20.250  2.5069e-03
8.250  20.500  2.5072e-03
8.250  20.750  2.5072e-03
8.250  21.000  2.5072e-03
8.250  21.250  2.5073e-03
8.250  21.500  2.5073e-03
8.250  21.750  2.5073e-03
8.250  22.000  2.5073e-03
8.250  22.250  2.5073e-03
8.250  22.500  2.5073e-03
8.250  22.750  2.5074e-03
8.250  23.000  2.5073e-03
8.250  23.250  2.5080e-03
8.250  23.500  2.5073e-03
8.250  23.750  2.5073e-03
8.250  24.000  2.5075e-03
8.500  17.000  7.6733e-04
8.500  17.250  1.1064e-03
8.500  17.500  1.5808e-03
8.500  17.750  2.2090e-03
8.500  18.000  2.3989e-03
8.500  18.250  2.4966e-03
8.500  18.500  2.5006e-03
8.500  18.750  2.5016e-03
8.500  19.000  2.5027e-03
8.500  19.250  2.5038e-03
8.500  19.500  2.5049e-03
8.500  19.750  2.5057e-03
8.500  20.000  2.5063e-03
8.500  20.250  2.5067e-03
8.500  20.500  2.5069e-03
8.500  20.750  2.5072e-03
8.500  21.000  2.5072e-03
8.500  21.250  2.5072e-03
8.500  21.500  2.5073e-03
8.500  21.750  2.5073e-03
8.500  22.000  2.5073e-03
8.500  22.250  2.5073e-03
8.500  22.500  2.5073e-03
8.500  22.750  2.5073e-03
8.500  23.000  2.5073e-03
8.500  23.250  2.5074e-03
8.500  23.500  2.5073e-03
8.500  23.750  2.5073e-03
8.500  24.000  2.5073e-03
8.750  17.000  5.3646e-04
8.750  17.250  7.7630e-04
8.750  17.500  1.1179e-03
8.750  17.750  1.5853e-03
8.750  18.000  2.2143e-03
8.750  18.250  2.3990e-03
8.750  18.500  2.4966e-03
8.750  18.750  2.5006e-03
8.750  19.000  2.5016e-03
8.750  19.250  2.5027e-03
8.750  19.500  2.5038e-03
8.750  19.750  2.5049e-03
8.750  20.000  2.5057e-03
8.750  20.250  2.5063e-03
8.750  20.500  2.5067e-03
8.750  20.750  2.5069e-03
8.750  21.000  2.5072e-03
8.750  21.250  2.5072e-03
8.750  21.500  2.5072e-03
8.750  21.750  2.5073e-03
8.750  22.000  2.5073e-03
8.750  22.250  2.5073e-03
8.750  22.500  2.5073e-03
8.750  22.750  2.5073e-03
8.750  23.000  2.5076e-03
8.750  23.250  2.5073e-03
8.750  23.500  2.5074e-03
8.750  23.750  2.5073e-03
8.750  24.000  2.5073e-03
9.000  17.000  3.7514e-04
9.000  17.250  5.4428e-04
9.000  17.500  7.8947e-04
9.000  17.750  1.1379e-03
9.000  18.000  1.6079e-03
9.000  18.250  2.2321e-03
9.000  18.500  2.3989e-03
9.000  18.750  2.4966e-03
9.000  19.000  2.5006e-03
9.000  19.250  2.5016e-03
9.000  19.500  2.5027e-03
9.000  19.750  2.5038e-03
9.000  20.000  2.5049e-03
9.000  20.250  2.5058e-03
9.000  20.500  2.5063e-03
9.000  20.750  2.5067e-03
9.000  21.000  2.5069e-03
9.000  21.250  2.5072e-03
9.000  21.500  2.5072e-03
9.000  21.750  2.5072e-03
9.000  22.000  2.5072e-03
9.000  22.250  2.5073e-03
9.000  22.500  2.5073e-03
9.000  22.750  2.5073e-03
9.000  23.000  2.5073e-03
9.000  23.250  2.5073e-03
9.000  23.500  2.5073e-03
9.000  23.750  2.5073e-03
9.000  24.000  2.5073e-03
9.250  17.000  2.6272e-04
9.250  17.250  3.8181e-04
9.250  17.500  5.5753e-04
9.250  17.750  8.1465e-04
9.250  18.000  1.1742e-03
9.250  18.250  1.6548e-03
9.250  18.500  2.2739e-03
9.250  18.750  2.3984e-03
9.250  19.000  2.4964e-03
9.250  19.250  2.5005e-03
9.250  19.500  2.5016e-03
9.250  19.750  2.5027e-03
9.250  20.000  2.5038e-03
9.250  20.250  2.5049e-03
9.250  20.500  2.5058e-03
9.250  20.750  2.5063e-03
9.250  21.000  2.5067e-03
9.250  21.250  2.5069e-03
9.250  21.500  2.5070e-03
9.250  21.750  2.5071e-03
9.250  22.000  2.5071e-03
9.250  22.250  2.5072e-03
9.250  22.500  2.5072e-03
9.250  22.750  2.5072e-03
9.250  23.000  2.5072e-03
9.250  23.250  2.5072e-03
9.250  23.500  2.5072e-03
9.250  23.750  2.5072e-03
9.250  24.000  2.5072e-03
9.500  17.000  1.8486e-04
9.500  17.250  2.6831e-04
9.500  17.500  3.9416e-04
9.500  17.750  5.8362e-04
9.500  18.000  8.5984e-04
9.500  18.250  1.2467e-03
9.500  18.500  1.7567e-03
9.500  18.750  2.3391e-03
9.500  19.000  2.3974e-03
9.500  19.250  2.4959e-03
9.500  19.500  2.5005e-03
9.500  19.750  2.5016e-03
9.500  20.000  2.5027e-03
9.500  20.250  2.5039e-03
9.500  20.500  2.5049e-03
9.500  20.750  2.5056e-03
9.500  21.000  2.5062e-03
9.500  21.250  2.5065e-03
9.500  21.500  2.5067e-03
9.500  21.750  2.5069e-03
9.500  22.000  2.5070e-03
9.500  22.250  2.5070e-03
9.500  22.500  2.5070e-03
9.500  22.750  2.5071e-03
9.500  23.000  2.5071e-03
9.500  23.250  2.5071e-03
9.500  23.500  2.5071e-03
9.500  23.750  2.5071e-03
9.500  24.000  2.5071e-03
9.750  17.000  1.3004e-04
9.750  17.250  1.8905e-04
9.750  17.500  2.7852e-04
9.750  17.750  4.1802e-04
9.750  18.000  6.3399e-04
9.750  18.250  9.4584e-04
9.750  18.500  1.3770e-03
9.750  18.750  1.9440e-03
9.750  19.000  2.3369e-03
9.750  19.250  2.3956e-03
9.750  19.500  2.4947e-03
9.750  19.750  2.5003e-03
9.750  20.000  2.5016e-03
9.750  20.250  2.5027e-03
9.750  20.500  2.5038e-03
9.750  20.750  2.5049e-03
9.750  21.000  2.5056e-03
9.750  21.250  2.5062e-03
9.750  21.500  2.5065e-03
9.750  21.750  2.5067e-03
9.750  22.000  2.5069e-03
9.750  22.250  2.5070e-03
9.750  22.500  2.5070e-03
9.750  22.750  2.5071e-03
9.750  23.000  2.5071e-03
9.750  23.250  2.5071e-03
9.750  23.500  2.5071e-03
9.750  23.750  2.5071e-03
9.750  24.000  2.5071e-03
10.000  17.000  9.1605e-05
10.000  17.250  1.3325e-04
10.000  17.500  1.9720e-04
10.000  17.750  3.0000e-04
10.000  18.000  4.6741e-04
10.000  18.250  7.1877e-04
10.000  18.500  1.0720e-03
10.000  18.750  1.5380e-03
10.000  19.000  2.0959e-03
10.000  19.250  2.3333e-03
10.000  19.500  2.3921e-03
10.000  19.750  2.4922e-03
10.000  20.000  2.4999e-03
10.000  20.250  2.5015e-03
10.000  20.500  2.5027e-03
10.000  20.750  2.5038e-03
10.000  21.000  2.5049e-03
10.000  21.250  2.5057e-03
10.000  21.500  2.5062e-03
10.000  21.750  2.5065e-03
10.000  22.000  2.5068e-03
10.000  22.250  2.5070e-03
10.000  22.500  2.5070e-03
10.000  22.750  2.5070e-03
10.000  23.000  2.5071e-03
10.000  23.250  2.5071e-03
10.000  23.500  2.5071e-03
10.000  23.750  2.5071e-03
10.000  24.000  2.5071e-03
10.250  17.000  6.4691e-05
10.250  17.250  9.4156e-05
10.250  17.500  1.4016e-04
10.250  17.750  2.1654e-04
10.250  18.000  3.4461e-04
10.250  18.250  5.3975e-04
10.250  18.500  8.2239e-04
10.250  18.750  1.2093e-03
10.250  19.000  1.7232e-03
10.250  19.250  2.2862e-03
10.250  19.500  2.3289e-03
10.250  19.750  2.3863e-03
10.250  20.000  2.4897e-03
10.250  20.250  2.4995e-03
10.250  20.500  2.5013e-03
10.250  20.750  2.5027e-03
10.250  21.000  2.5038e-03
10.250  21.250  2.5049e-03
10.250  21.500  2.5057e-03
10.250  21.750  2.5063e-03
10.250  22.000  2.5065e-03
10.250  22.250  2.5068e-03
10.250  22.500  2.5070e-03
10.250  22.750  2.5070e-03
10.250  23.000  2.5071e-03
10.250  23.250  2.5071e-03
10.250  23.500  2.5071e-03
10.250  23.750  2.5071e-03
10.250  24.000  2.5071e-03
10.500  17.000  4.5761e-05
10.500  17.250  6.6749e-05
10.500  17.500  1.0016e-04
10.500  17.750  1.5737e-04
10.500  18.000  2.5473e-04
10.500  18.250  4.0560e-04
10.500  18.500  6.2058e-04
10.500  18.750  9.3012e-04
10.500  19.000  1.3451e-03
10.500  19.250  1.8933e-03
10.500  19.500  2.2913e-03
10.500  19.750  2.3249e-03
10.500  20.000  2.3820e-03
10.500  20.250  2.4848e-03
10.500  20.500  2.4985e-03
10.500  20.750  2.5011e-03
10.500  21.000  2.5026e-03
10.500  21.250  2.5038e-03
10.500  21.500  2.5049e-03
10.500  21.750  2.5057e-03
10.500  22.000  2.5063e-03
10.500  22.250  2.5065e-03
10.500  22.500  2.5068e-03
10.500  22.750  2.5070e-03
10.500  23.000  2.5070e-03
10.500  23.250  2.5070e-03
10.500  23.500  2.5071e-03
10.500  23.750  2.5071e-03
10.500  24.000  2.5071e-03
10.750  17.000  3.2428e-05
10.750  17.250  4.7490e-05
10.750  17.500  7.2099e-05
10.750  17.750  1.1506e-04
10.750  18.000  1.8815e-04
10.750  18.250  3.0099e-04
10.750  18.500  4.6543e-04
10.750  18.750  6.9786e-04
10.750  19.000  1.0205e-03
10.750  19.250  1.4627e-03
10.750  19.500  2.0248e-03
10.750  19.750  2.2872e-03
10.750  20.000  2.3209e-03
10.750  20.250  2.3776e-03
10.750  20.500  2.4806e-03
10.750  20.750  2.4961e-03
10.750  21.000  2.5005e-03
10.750  21.250  2.5025e-03
10.750  21.500  2.5037e-03
10.750  21.750  2.5048e-03
10.750  22.000  2.5057e-03
10.750  22.250  2.5063e-03
10.750  22.500  2.5066e-03
10.750  22.750  2.5068e-03
10.750  23.000  2.5070e-03
10.750  23.250  2.5071e-03
10.750  23.500  2.5071e-03
10.750  23.750  2.5071e-03
10.750  24.000  2.5071e-03
11.000  17.000  2.3045e-05
11.000  17.250  3.3827e-05
11.000  17.500  5.1852e-05
11.000  17.750  8.4115e-05
11.000  18.000  1.3811e-04
11.000  18.250  2.2107e-04
11.000  18.500  3.4230e-04
11.000  18.750  5.1556e-04
11.000  19.000  7.6058e-04
11.000  19.250  1.1030e-03
11.000  19.500  1.5708e-03
11.000  19.750  2.1801e-03
11.000  20.000  2.2835e-03
11.000  20.250  2.3197e-03
11.000  20.500  2.3765e-03
11.000  20.750  2.4768e-03
11.000  21.000  2.4946e-03
11.000  21.250  2.4990e-03
11.000  21.500  2.5022e-03
11.000  21.750  2.5036e-03
11.000  22.000  2.5047e-03
11.000  22.250  2.5056e-03
11.000  22.500  2.5063e-03
11.000  22.750  2.5066e-03
11.000  23.000  2.5068e-03
11.000  23.250  2.5070e-03
11.000  23.500  2.5071e-03
11.000  23.750  2.5071e-03
11.000  24.000  2.5071e-03
11.250  17.000  1.6379e-05
11.250  17.250  2.4033e-05
11.250  17.500  3.7284e-05
11.250  17.750  6.1070e-05
11.250  18.000  1.0058e-04
11.250  18.250  1.6025e-04
11.250  18.500  2.4807e-04
11.250  18.750  3.7778e-04
11.250  19.000  5.5827e-04
11.250  19.250  8.1300e-04
11.250  19.500  1.1712e-03
11.250  19.750  1.6695e-03
11.250  20.000  2.2188e-03
11.250  20.250  2.2805e-03
11.250  20.500  2.3168e-03
11.250  20.750  2.3772e-03
11.250  21.000  2.4787e-03
11.250  21.250  2.4923e-03
11.250  21.500  2.4979e-03
11.250  21.750  2.5016e-03
11.250  22.000  2.5034e-03
11.250  22.250  2.5045e-03
11.250  22.500  2.5055e-03
11.250  22.750  2.5063e-03
11.250  23.000  2.5066e-03
11.250  23.250  2.5069e-03
11.250  23.500  2.5070e-03
11.250  23.750  2.5071e-03
11.250  24.000  2.5071e-03
11.500  17.000  1.1770e-05
11.500  17.250  1.7202e-05
11.500  17.500  2.6831e-05
11.500  17.750  4.3951e-05
11.500  18.000  7.2181e-05
11.500  18.250  1.1506e-04
11.500  18.500  1.7844e-04
11.500  18.750  2.7218e-04
11.500  19.000  4.0428e-04
11.500  19.250  5.9144e-04
11.500  19.500  8.5695e-04
11.500  19.750  1.2335e-03
11.500  20.000  1.7598e-03
11.500  20.250  2.2337e-03
11.500  20.500  2.2783e-03
11.500  20.750  2.3174e-03
11.500  21.000  2.3825e-03
11.500  21.250  2.4821e-03
11.500  21.500  2.4914e-03
11.500  21.750  2.4964e-03
11.500  22.000  2.5007e-03
11.500  22.250  2.5030e-03
11.500  22.500  2.5043e-03
11.500  22.750  2.5053e-03
11.500  23.000  2.5062e-03
11.500  23.250  2.5066e-03
11.500  23.500  2.5069e-03
11.500  23.750  2.5071e-03
11.500  24.000  2.5071e-03
11.750  17.000  8.6420e-06
11.750  17.250  1.2428e-05
11.750  17.500  1.9259e-05
11.750  17.750  3.1440e-05
11.750  18.000  5.1111e-05
11.750  18.250  8.1481e-05
11.750  18.500  1.2700e-04
11.750  18.750  1.9317e-04
11.750  19.000  2.9037e-04
11.750  19.250  4.2642e-04
11.750  19.500  6.2000e-04
11.750  19.750  8.9342e-04
11.750  20.000  1.2867e-03
11.750  20.250  1.8365e-03
11.750  20.500  2.2378e-03
11.750  20.750  2.2762e-03
11.750  21.000  2.3204e-03
11.750  21.250  2.3965e-03
11.750  21.500  2.4833e-03
11.750  21.750  2.4895e-03
11.750  22.000  2.4952e-03
11.750  22.250  2.4995e-03
11.750  22.500  2.5023e-03
11.750  22.750  2.5038e-03
11.750  23.000  2.5051e-03
11.750  23.250  2.5061e-03
11.750  23.500  2.5065e-03
11.750  23.750  2.5069e-03
11.750  24.000  2.5071e-03
12.000  17.000  6.4198e-06
12.000  17.250  9.1358e-06
12.000  17.500  1.3909e-05
12.000  17.750  2.2222e-05
12.000  18.000  3.5802e-05
12.000  18.250  5.7119e-05
12.000  18.500  8.9547e-05
12.000  18.750  1.3745e-04
12.000  19.000  2.0700e-04
12.000  19.250  3.0560e-04
12.000  19.500  4.4527e-04
12.000  19.750  6.4305e-04
12.000  20.000  9.2593e-04
12.000  20.250  1.3299e-03
12.000  20.500  1.8977e-03
12.000  20.750  2.2281e-03
12.000  21.000  2.2756e-03
12.000  21.250  2.3319e-03
12.000  21.500  2.4245e-03
12.000  21.750  2.4815e-03
12.000  22.000  2.4881e-03
12.000  22.250  2.4937e-03
12.000  22.500  2.4981e-03
12.000  22.750  2.5013e-03
12.000  23.000  2.5030e-03
12.000  23.250  2.5047e-03
12.000  23.500  2.5060e-03
12.000  23.750  2.5064e-03
12.000  24.000  2.5068e-03
12.250  17.000  4.8560e-06
12.250  17.250  6.7490e-06
12.250  17.500  1.0041e-05
12.250  17.750  1.5638e-05
12.250  18.000  2.4938e-05
12.250  18.250  3.9918e-05
12.250  18.500  6.2881e-05
12.250  18.750  9.7531e-05
12.250  19.000  1.4741e-04
12.250  19.250  2.1835e-04
12.250  19.500  3.1860e-04
12.250  19.750  4.6140e-04
12.250  20.000  6.6156e-04
12.250  20.250  9.4947e-04
12.250  20.500  1.3643e-03
12.250  20.750  1.9481e-03
12.250  21.000  2.2161e-03
12.250  21.250  2.2779e-03
12.250  21.500  2.3533e-03
12.250  21.750  2.4552e-03
12.250  22.000  2.4791e-03
12.250  22.250  2.4858e-03
12.250  22.500  2.4915e-03
12.250  22.750  2.4965e-03
12.250  23.000  2.5000e-03
12.250  23.250  2.5021e-03
12.250  23.500  2.5042e-03
12.250  23.750  2.5058e-03
12.250  24.000  2.5063e-03
12.500  17.000  3.7860e-06
12.500  17.250  5.0206e-06
12.500  17.500  7.1605e-06
12.500  17.750  1.0947e-05
12.500  18.000  1.7366e-05
12.500  18.250  2.7819e-05
12.500  18.500  4.4280e-05
12.500  18.750  6.8889e-05
12.500  19.000  1.0461e-04
12.500  19.250  1.5580e-04
12.500  19.500  2.2716e-04
12.500  19.750  3.2872e-04
12.500  20.000  4.7251e-04
12.500  20.250  6.7539e-04
12.500  20.500  9.6938e-04
12.500  20.750  1.3895e-03
12.500  21.000  1.9756e-03
12.500  21.250  2.2032e-03
12.500  21.500  2.2903e-03
12.500  21.750  2.3747e-03
12.500  22.000  2.4665e-03
12.500  22.250  2.4754e-03
12.500  22.500  2.4826e-03
12.500  22.750  2.4890e-03
12.500  23.000  2.4943e-03
12.500  23.250  2.4984e-03
12.500  23.500  2.5008e-03
12.500  23.750  2.5034e-03
12.500  24.000  2.5055e-03
12.750  17.000  2.3868e-06
12.750  17.250  3.7037e-06
12.750  17.500  5.1852e-06
12.750  17.750  7.8189e-06
12.750  18.000  1.2263e-05
12.750  18.250  1.9588e-05
12.750  18.500  3.1193e-05
12.750  18.750  4.8724e-05
12.750  19.000  7.4403e-05
12.750  19.250  1.1086e-04
12.750  19.500  1.6214e-04
12.750  19.750  2.3416e-04
12.750  20.000  3.3646e-04
12.750  20.250  4.8058e-04
12.750  20.500  6.8716e-04
12.750  20.750  9.8239e-04
12.750  21.000  1.4133e-03
12.750  21.250  2.0119e-03
12.750  21.500  2.1998e-03
12.750  21.750  2.2998e-03
12.750  22.000  2.3943e-03
12.750  22.250  2.4603e-03
12.750  22.500  2.4700e-03
12.750  22.750  2.4782e-03
12.750  23.000  2.4853e-03
12.750  23.250  2.4913e-03
12.750  23.500  2.4959e-03
12.750  23.750  2.4989e-03
12.750  24.000  2.5023e-03
13.000  17.000  1.2346e-06
13.000  17.250  2.3045e-06
13.000  17.500  3.7037e-06
13.000  17.750  5.6790e-06
13.000  18.000  8.8066e-06
13.000  18.250  1.3909e-05
13.000  18.500  2.1975e-05
13.000  18.750  3.4403e-05
13.000  19.000  5.2675e-05
13.000  19.250  7.8765e-05
13.000  19.500  1.1547e-04
13.000  19.750  1.6691e-04
13.000  20.000  2.3918e-04
13.000  20.250  3.4181e-04
13.000  20.500  4.8700e-04
13.000  20.750  6.9514e-04
13.000  21.000  9.9407e-04
13.000  21.250  1.4315e-03
13.000  21.500  2.0309e-03
13.000  21.750  2.1867e-03
13.000  22.000  2.3011e-03
13.000  22.250  2.4019e-03
13.000  22.500  2.4501e-03
13.000  22.750  2.4615e-03
13.000  23.000  2.4713e-03
13.000  23.250  2.4799e-03
13.000  23.500  2.4870e-03
13.000  23.750  2.4923e-03
13.000  24.000  2.4961e-03
13.250  17.000  1.0000e-07
13.250  17.250  1.3992e-06
13.250  17.500  2.7160e-06
13.250  17.750  4.2798e-06
13.250  18.000  6.4198e-06
13.250  18.250  9.9588e-06
13.250  18.500  1.5638e-05
13.250  18.750  2.4362e-05
13.250  19.000  3.7284e-05
13.250  19.250  5.5802e-05
13.250  19.500  8.2058e-05
13.250  19.750  1.1893e-04
13.250  20.000  1.7053e-04
13.250  20.250  2.4321e-04
13.250  20.500  3.4667e-04
13.250  20.750  4.9218e-04
13.250  21.000  7.0255e-04
13.250  21.250  1.0028e-03
13.250  21.500  1.4401e-03
13.250  21.750  1.9865e-03
13.250  22.000  2.1543e-03
13.250  22.250  2.2878e-03
13.250  22.500  2.3886e-03
13.250  22.750  2.4341e-03
13.250  23.000  2.4484e-03
13.250  23.250  2.4605e-03
13.250  23.500  2.4715e-03
13.250  23.750  2.4803e-03
13.250  24.000  2.4868e-03
13.500  17.000  1.0000e-07
13.500  17.250  1.0000e-07
13.500  17.500  1.6461e-06
13.500  17.750  2.9630e-06
13.500  18.000  4.6914e-06
13.500  18.250  7.1605e-06
13.500  18.500  1.1111e-05
13.500  18.750  1.7202e-05
13.500  19.000  2.6255e-05
13.500  19.250  3.9424e-05
13.500  19.500  5.8272e-05
13.500  19.750  8.4609e-05
13.500  20.000  1.2148e-04
13.500  20.250  1.7325e-04
13.500  20.500  2.4650e-04
13.500  20.750  3.4955e-04
13.500  21.000  4.9383e-04
13.500  21.250  7.0263e-04
13.500  21.500  1.0011e-03
13.500  21.750  1.4222e-03
13.500  22.000  1.9148e-03
13.500  22.250  2.1002e-03
13.500  22.500  2.2480e-03
13.500  22.750  2.3567e-03
13.500  23.000  2.4098e-03
13.500  23.250  2.4283e-03
13.500  23.500  2.4449e-03
13.500  23.750  2.4593e-03
13.500  24.000  2.4701e-03
13.750  17.000  1.0000e-07
13.750  17.250  1.0000e-07
13.750  17.500  9.8765e-07
13.750  17.750  1.8930e-06
13.750  18.000  3.4568e-06
13.750  18.250  5.1852e-06
13.750  18.500  7.9012e-06
13.750  18.750  1.2099e-05
13.750  19.000  1.8519e-05
13.750  19.250  2.7819e-05
13.750  19.500  4.1152e-05
13.750  19.750  6.0082e-05
13.750  20.000  8.6502e-05
13.750  20.250  1.2354e-04
13.750  20.500  1.7564e-04
13.750  20.750  2.4905e-04
13.750  21.000  3.5160e-04
13.750  21.250  4.9416e-04
13.750  21.500  7.0115e-04
13.750  21.750  9.9144e-04
13.750  22.000  1.3926e-03
13.750  22.250  1.8286e-03
13.750  22.500  2.0235e-03
13.750  22.750  2.1934e-03
13.750  23.000  2.3136e-03
13.750  23.250  2.3732e-03
13.750  23.500  2.3979e-03
13.750  23.750  2.4211e-03
13.750  24.000  2.4404e-03
14.000  17.000  1.0000e-07
14.000  17.250  1.0000e-07
14.000  17.500  1.0000e-07
14.000  17.750  1.2346e-06
14.000  18.000  2.3045e-06
14.000  18.250  3.7860e-06
14.000  18.500  5.6790e-06
14.000  18.750  8.5597e-06
14.000  19.000  1.2922e-05
14.000  19.250  1.9506e-05
14.000  19.500  2.8889e-05
14.000  19.750  4.2387e-05
14.000  20.000  6.1317e-05
14.000  20.250  8.7901e-05
14.000  20.500  1.2519e-04
14.000  20.750  1.7761e-04
14.000  21.000  2.5029e-04
14.000  21.250  3.5202e-04
14.000  21.500  4.9605e-04
14.000  21.750  6.9498e-04
14.000  22.000  9.7325e-04
14.000  22.250  1.3529e-03
14.000  22.500  1.7241e-03
14.000  22.750  1.9292e-03
14.000  23.000  2.1176e-03
14.000  23.250  2.2556e-03
14.000  23.500  2.3193e-03
14.000  23.750  2.3531e-03
14.000  24.000  2.3863e-03
