nFnu 1793.44A  relative to Inci 1215.00A scaled to 1215A.
Hden   Phi(H)  Eq_Width (A)
7.000  17.000  3.8375e-02
7.000  17.250  2.3856e-02
7.000  17.500  1.5942e-02
7.000  17.750  1.1876e-02
7.000  18.000  9.8981e-03
7.000  18.250  8.8181e-03
7.000  18.500  8.2249e-03
7.000  18.750  7.9692e-03
7.000  19.000  7.8376e-03
7.000  19.250  7.7649e-03
7.000  19.500  7.7347e-03
7.000  19.750  7.7222e-03
7.000  20.000  7.7169e-03
7.000  20.250  7.7144e-03
7.000  20.500  7.7131e-03
7.000  20.750  7.7124e-03
7.000  21.000  7.7121e-03
7.000  21.250  7.7119e-03
7.000  21.500  7.7119e-03
7.000  21.750  7.7117e-03
7.000  22.000  7.7117e-03
7.000  22.250  7.7117e-03
7.000  22.500  7.7117e-03
7.000  22.750  7.7119e-03
7.000  23.000  7.7119e-03
7.000  23.250  7.7116e-03
7.000  23.500  7.7116e-03
7.000  23.750  7.7116e-03
7.000  24.000  7.7116e-03
7.250  17.000  6.3983e-02
7.250  17.250  3.8270e-02
7.250  17.500  2.3801e-02
7.250  17.750  1.5912e-02
7.250  18.000  1.1863e-02
7.250  18.250  9.8922e-03
7.250  18.500  8.8155e-03
7.250  18.750  8.2240e-03
7.250  19.000  7.9689e-03
7.250  19.250  7.8375e-03
7.250  19.500  7.7648e-03
7.250  19.750  7.7347e-03
7.250  20.000  7.7222e-03
7.250  20.250  7.7169e-03
7.250  20.500  7.7143e-03
7.250  20.750  7.7131e-03
7.250  21.000  7.7124e-03
7.250  21.250  7.7121e-03
7.250  21.500  7.7119e-03
7.250  21.750  7.7133e-03
7.250  22.000  7.7117e-03
7.250  22.250  7.7117e-03
7.250  22.500  7.7117e-03
7.250  22.750  7.7124e-03
7.250  23.000  7.7124e-03
7.250  23.250  7.7116e-03
7.250  23.500  7.7116e-03
7.250  23.750  7.7116e-03
7.250  24.000  7.7116e-03
7.500  17.000  7.8500e-02
7.500  17.250  6.3876e-02
7.500  17.500  3.8204e-02
7.500  17.750  2.3763e-02
7.500  18.000  1.5887e-02
7.500  18.250  1.1853e-02
7.500  18.500  9.8880e-03
7.500  18.750  8.8137e-03
7.500  19.000  8.2234e-03
7.500  19.250  7.9686e-03
7.500  19.500  7.8374e-03
7.500  19.750  7.7648e-03
7.500  20.000  7.7347e-03
7.500  20.250  7.7222e-03
7.500  20.500  7.7169e-03
7.500  20.750  7.7143e-03
7.500  21.000  7.7131e-03
7.500  21.250  7.7124e-03
7.500  21.500  7.7121e-03
7.500  21.750  7.7119e-03
7.500  22.000  7.7118e-03
7.500  22.250  7.7117e-03
7.500  22.500  7.7117e-03
7.500  22.750  7.7117e-03
7.500  23.000  7.7120e-03
7.500  23.250  7.7124e-03
7.500  23.500  7.7116e-03
7.500  23.750  7.7126e-03
7.500  24.000  7.7116e-03
7.750  17.000  9.7548e-02
7.750  17.250  7.8176e-02
7.750  17.500  6.3813e-02
7.750  17.750  3.8165e-02
7.750  18.000  2.3738e-02
7.750  18.250  1.5866e-02
7.750  18.500  1.1844e-02
7.750  18.750  9.8847e-03
7.750  19.000  8.8126e-03
7.750  19.250  8.2230e-03
7.750  19.500  7.9686e-03
7.750  19.750  7.8374e-03
7.750  20.000  7.7648e-03
7.750  20.250  7.7347e-03
7.750  20.500  7.7222e-03
7.750  20.750  7.7169e-03
7.750  21.000  7.7143e-03
7.750  21.250  7.7130e-03
7.750  21.500  7.7123e-03
7.750  21.750  7.7120e-03
7.750  22.000  7.7119e-03
7.750  22.250  7.7118e-03
7.750  22.500  7.7117e-03
7.750  22.750  7.7119e-03
7.750  23.000  7.7119e-03
7.750  23.250  7.7117e-03
7.750  23.500  7.7124e-03
7.750  23.750  7.7124e-03
7.750  24.000  7.7116e-03
8.000  17.000  9.3391e-02
8.000  17.250  9.5655e-02
8.000  17.500  7.7559e-02
8.000  17.750  6.3700e-02
8.000  18.000  3.8142e-02
8.000  18.250  2.3720e-02
8.000  18.500  1.5847e-02
8.000  18.750  1.1836e-02
8.000  19.000  9.8819e-03
8.000  19.250  8.8119e-03
8.000  19.500  8.2227e-03
8.000  19.750  7.9685e-03
8.000  20.000  7.8374e-03
8.000  20.250  7.7648e-03
8.000  20.500  7.7347e-03
8.000  20.750  7.7222e-03
8.000  21.000  7.7169e-03
8.000  21.250  7.7143e-03
8.000  21.500  7.7130e-03
8.000  21.750  7.7123e-03
8.000  22.000  7.7120e-03
8.000  22.250  7.7119e-03
8.000  22.500  7.7117e-03
8.000  22.750  7.7119e-03
8.000  23.000  7.7116e-03
8.000  23.250  7.7121e-03
8.000  23.500  7.7116e-03
8.000  23.750  7.7116e-03
8.000  24.000  7.7116e-03
8.250  17.000  8.9991e-02
8.250  17.250  9.2850e-02
8.250  17.500  9.5198e-02
8.250  17.750  7.7402e-02
8.250  18.000  6.3695e-02
8.250  18.250  3.8132e-02
8.250  18.500  2.3706e-02
8.250  18.750  1.5829e-02
8.250  19.000  1.1828e-02
8.250  19.250  9.8793e-03
8.250  19.500  8.8111e-03
8.250  19.750  8.2226e-03
8.250  20.000  7.9684e-03
8.250  20.250  7.8374e-03
8.250  20.500  7.7648e-03
8.250  20.750  7.7347e-03
8.250  21.000  7.7222e-03
8.250  21.250  7.7169e-03
8.250  21.500  7.7143e-03
8.250  21.750  7.7130e-03
8.250  22.000  7.7123e-03
8.250  22.250  7.7120e-03
8.250  22.500  7.7118e-03
8.250  22.750  7.7119e-03
8.250  23.000  7.7116e-03
8.250  23.250  7.7137e-03
8.250  23.500  7.7116e-03
8.250  23.750  7.7116e-03
8.250  24.000  7.7122e-03
8.500  17.000  8.6638e-02
8.500  17.250  8.9657e-02
8.500  17.500  9.2561e-02
8.500  17.750  9.4958e-02
8.500  18.000  7.7351e-02
8.500  18.250  6.3702e-02
8.500  18.500  3.8128e-02
8.500  18.750  2.3695e-02
8.500  19.000  1.5809e-02
8.500  19.250  1.1819e-02
8.500  19.500  9.8767e-03
8.500  19.750  8.8105e-03
8.500  20.000  8.2224e-03
8.500  20.250  7.9684e-03
8.500  20.500  7.8374e-03
8.500  20.750  7.7648e-03
8.500  21.000  7.7347e-03
8.500  21.250  7.7222e-03
8.500  21.500  7.7169e-03
8.500  21.750  7.7143e-03
8.500  22.000  7.7130e-03
8.500  22.250  7.7123e-03
8.500  22.500  7.7120e-03
8.500  22.750  7.7118e-03
8.500  23.000  7.7117e-03
8.500  23.250  7.7119e-03
8.500  23.500  7.7116e-03
8.500  23.750  7.7116e-03
8.500  24.000  7.7116e-03
8.750  17.000  8.3276e-02
8.750  17.250  8.6566e-02
8.750  17.500  8.9665e-02
8.750  17.750  9.2479e-02
8.750  18.000  9.4935e-02
8.750  18.250  7.7349e-02
8.750  18.500  6.3713e-02
8.750  18.750  3.8130e-02
8.750  19.000  2.3685e-02
8.750  19.250  1.5789e-02
8.750  19.500  1.1810e-02
8.750  19.750  9.8742e-03
8.750  20.000  8.8100e-03
8.750  20.250  8.2222e-03
8.750  20.500  7.9683e-03
8.750  20.750  7.8374e-03
8.750  21.000  7.7648e-03
8.750  21.250  7.7347e-03
8.750  21.500  7.7222e-03
8.750  21.750  7.7169e-03
8.750  22.000  7.7143e-03
8.750  22.250  7.7130e-03
8.750  22.500  7.7123e-03
8.750  22.750  7.7120e-03
8.750  23.000  7.7126e-03
8.750  23.250  7.7117e-03
8.750  23.500  7.7119e-03
8.750  23.750  7.7116e-03
8.750  24.000  7.7116e-03
9.000  17.000  7.9624e-02
9.000  17.250  8.3458e-02
9.000  17.500  8.6903e-02
9.000  17.750  9.0132e-02
9.000  18.000  9.2998e-02
9.000  18.250  9.5389e-02
9.000  18.500  7.7342e-02
9.000  18.750  6.3721e-02
9.000  19.000  3.8138e-02
9.000  19.250  2.3677e-02
9.000  19.500  1.5768e-02
9.000  19.750  1.1801e-02
9.000  20.000  9.8719e-03
9.000  20.250  8.8095e-03
9.000  20.500  8.2221e-03
9.000  20.750  7.9683e-03
9.000  21.000  7.8374e-03
9.000  21.250  7.7648e-03
9.000  21.500  7.7347e-03
9.000  21.750  7.7222e-03
9.000  22.000  7.7168e-03
9.000  22.250  7.7142e-03
9.000  22.500  7.7130e-03
9.000  22.750  7.7123e-03
9.000  23.000  7.7120e-03
9.000  23.250  7.7118e-03
9.000  23.500  7.7117e-03
9.000  23.750  7.7116e-03
9.000  24.000  7.7117e-03
9.250  17.000  7.5345e-02
9.250  17.250  7.9997e-02
9.250  17.500  8.4184e-02
9.250  17.750  8.8022e-02
9.250  18.000  9.1503e-02
9.250  18.250  9.4705e-02
9.250  18.500  9.6703e-02
9.250  18.750  7.7288e-02
9.250  19.000  6.3714e-02
9.250  19.250  3.8149e-02
9.250  19.500  2.3674e-02
9.250  19.750  1.5750e-02
9.250  20.000  1.1792e-02
9.250  20.250  9.8697e-03
9.250  20.500  8.8090e-03
9.250  20.750  8.2220e-03
9.250  21.000  7.9683e-03
9.250  21.250  7.8374e-03
9.250  21.500  7.7643e-03
9.250  21.750  7.7342e-03
9.250  22.000  7.7216e-03
9.250  22.250  7.7163e-03
9.250  22.500  7.7139e-03
9.250  22.750  7.7127e-03
9.250  23.000  7.7121e-03
9.250  23.250  7.7119e-03
9.250  23.500  7.7116e-03
9.250  23.750  7.7115e-03
9.250  24.000  7.7115e-03
9.500  17.000  7.0128e-02
9.500  17.250  7.5852e-02
9.500  17.500  8.1140e-02
9.500  17.750  8.6090e-02
9.500  18.000  9.0542e-02
9.500  18.250  9.4939e-02
9.500  18.500  9.9194e-02
9.500  18.750  9.8780e-02
9.500  19.000  7.7167e-02
9.500  19.250  6.3676e-02
9.500  19.500  3.8165e-02
9.500  19.750  2.3677e-02
9.500  20.000  1.5736e-02
9.500  20.250  1.1784e-02
9.500  20.500  9.8680e-03
9.500  20.750  8.8084e-03
9.500  21.000  8.2214e-03
9.500  21.250  7.9678e-03
9.500  21.500  7.8367e-03
9.500  21.750  7.7640e-03
9.500  22.000  7.7340e-03
9.500  22.250  7.7215e-03
9.500  22.500  7.7160e-03
9.500  22.750  7.7135e-03
9.500  23.000  7.7123e-03
9.500  23.250  7.7116e-03
9.500  23.500  7.7113e-03
9.500  23.750  7.7110e-03
9.500  24.000  7.7109e-03
9.750  17.000  6.3476e-02
9.750  17.250  7.0562e-02
9.750  17.500  7.7283e-02
9.750  17.750  8.3809e-02
9.750  18.000  9.0105e-02
9.750  18.250  9.6096e-02
9.750  18.500  1.0199e-01
9.750  18.750  1.0754e-01
9.750  19.000  9.8091e-02
9.750  19.250  7.6938e-02
9.750  19.500  6.3579e-02
9.750  19.750  3.8181e-02
9.750  20.000  2.3684e-02
9.750  20.250  1.5728e-02
9.750  20.500  1.1779e-02
9.750  20.750  9.8667e-03
9.750  21.000  8.8081e-03
9.750  21.250  8.2213e-03
9.750  21.500  7.9678e-03
9.750  21.750  7.8368e-03
9.750  22.000  7.7640e-03
9.750  22.250  7.7340e-03
9.750  22.500  7.7215e-03
9.750  22.750  7.7161e-03
9.750  23.000  7.7135e-03
9.750  23.250  7.7123e-03
9.750  23.500  7.7116e-03
9.750  23.750  7.7112e-03
9.750  24.000  7.7110e-03
10.000  17.000  5.5021e-02
10.000  17.250  6.3748e-02
10.000  17.500  7.2181e-02
10.000  17.750  8.0728e-02
10.000  18.000  8.9417e-02
10.000  18.250  9.7684e-02
10.000  18.500  1.0496e-01
10.000  18.750  1.1165e-01
10.000  19.000  1.1570e-01
10.000  19.250  9.6899e-02
10.000  19.500  7.6543e-02
10.000  19.750  6.3376e-02
10.000  20.000  3.8196e-02
10.000  20.250  2.3696e-02
10.000  20.500  1.5724e-02
10.000  20.750  1.1774e-02
10.000  21.000  9.8662e-03
10.000  21.250  8.8080e-03
10.000  21.500  8.2212e-03
10.000  21.750  7.9679e-03
10.000  22.000  7.8369e-03
10.000  22.250  7.7641e-03
10.000  22.500  7.7340e-03
10.000  22.750  7.7215e-03
10.000  23.000  7.7160e-03
10.000  23.250  7.7136e-03
10.000  23.500  7.7123e-03
10.000  23.750  7.7116e-03
10.000  24.000  7.7113e-03
10.250  17.000  4.6514e-02
10.250  17.250  5.5239e-02
10.250  17.500  6.5657e-02
10.250  17.750  7.6462e-02
10.250  18.000  8.7717e-02
10.250  18.250  9.8306e-02
10.250  18.500  1.0732e-01
10.250  18.750  1.1521e-01
10.250  19.000  1.2264e-01
10.250  19.250  1.2513e-01
10.250  19.500  9.5890e-02
10.250  19.750  7.5924e-02
10.250  20.000  6.3047e-02
10.250  20.250  3.8200e-02
10.250  20.500  2.3708e-02
10.250  20.750  1.5724e-02
10.250  21.000  1.1772e-02
10.250  21.250  9.8664e-03
10.250  21.500  8.8079e-03
10.250  21.750  8.2212e-03
10.250  22.000  7.9679e-03
10.250  22.250  7.8370e-03
10.250  22.500  7.7642e-03
10.250  22.750  7.7340e-03
10.250  23.000  7.7215e-03
10.250  23.250  7.7161e-03
10.250  23.500  7.7135e-03
10.250  23.750  7.7123e-03
10.250  24.000  7.7116e-03
10.500  17.000  3.8875e-02
10.500  17.250  4.6819e-02
10.500  17.500  5.7591e-02
10.500  17.750  7.0859e-02
10.500  18.000  8.4290e-02
10.500  18.250  9.6768e-02
10.500  18.500  1.0748e-01
10.500  18.750  1.1647e-01
10.500  19.000  1.2443e-01
10.500  19.250  1.3261e-01
10.500  19.500  1.2788e-01
10.500  19.750  9.5700e-02
10.500  20.000  7.5607e-02
10.500  20.250  6.2609e-02
10.500  20.500  3.8189e-02
10.500  20.750  2.3718e-02
10.500  21.000  1.5729e-02
10.500  21.250  1.1772e-02
10.500  21.500  9.8673e-03
10.500  21.750  8.8080e-03
10.500  22.000  8.2212e-03
10.500  22.250  7.9680e-03
10.500  22.500  7.8370e-03
10.500  22.750  7.7643e-03
10.500  23.000  7.7341e-03
10.500  23.250  7.7215e-03
10.500  23.500  7.7161e-03
10.500  23.750  7.7136e-03
10.500  24.000  7.7123e-03
10.750  17.000  3.2891e-02
10.750  17.250  3.9399e-02
10.750  17.500  4.9705e-02
10.750  17.750  6.3646e-02
10.750  18.000  7.8537e-02
10.750  18.250  9.2220e-02
10.750  18.500  1.0407e-01
10.750  18.750  1.1441e-01
10.750  19.000  1.2340e-01
10.750  19.250  1.3163e-01
10.750  19.500  1.3969e-01
10.750  19.750  1.2685e-01
10.750  20.000  9.6030e-02
10.750  20.250  7.5762e-02
10.750  20.500  6.2204e-02
10.750  20.750  3.8155e-02
10.750  21.000  2.3721e-02
10.750  21.250  1.5737e-02
10.750  21.500  1.1773e-02
10.750  21.750  9.8690e-03
10.750  22.000  8.8083e-03
10.750  22.250  8.2212e-03
10.750  22.500  7.9681e-03
10.750  22.750  7.8370e-03
10.750  23.000  7.7643e-03
10.750  23.250  7.7342e-03
10.750  23.500  7.7216e-03
10.750  23.750  7.7160e-03
10.750  24.000  7.7136e-03
11.000  17.000  2.8533e-02
11.000  17.250  3.3713e-02
11.000  17.500  4.2541e-02
11.000  17.750  5.5367e-02
11.000  18.000  6.9980e-02
11.000  18.250  8.4074e-02
11.000  18.500  9.7080e-02
11.000  18.750  1.0882e-01
11.000  19.000  1.1913e-01
11.000  19.250  1.2820e-01
11.000  19.500  1.3655e-01
11.000  19.750  1.4448e-01
11.000  20.000  1.2774e-01
11.000  20.250  9.8726e-02
11.000  20.500  7.6351e-02
11.000  20.750  6.1971e-02
11.000  21.000  3.8055e-02
11.000  21.250  2.3711e-02
11.000  21.500  1.5748e-02
11.000  21.750  1.1777e-02
11.000  22.000  9.8714e-03
11.000  22.250  8.8088e-03
11.000  22.500  8.2211e-03
11.000  22.750  7.9683e-03
11.000  23.000  7.8372e-03
11.000  23.250  7.7644e-03
11.000  23.500  7.7342e-03
11.000  23.750  7.7216e-03
11.000  24.000  7.7161e-03
11.250  17.000  2.5425e-02
11.250  17.250  2.9690e-02
11.250  17.500  3.6642e-02
11.250  17.750  4.6858e-02
11.250  18.000  5.9642e-02
11.250  18.250  7.3303e-02
11.250  18.500  8.7080e-02
11.250  18.750  1.0023e-01
11.250  19.000  1.1184e-01
11.250  19.250  1.2197e-01
11.250  19.500  1.3069e-01
11.250  19.750  1.3868e-01
11.250  20.000  1.4547e-01
11.250  20.250  1.2817e-01
11.250  20.500  9.9269e-02
11.250  20.750  7.7638e-02
11.250  21.000  6.2143e-02
11.250  21.250  3.7889e-02
11.250  21.500  2.3670e-02
11.250  21.750  1.5760e-02
11.250  22.000  1.1783e-02
11.250  22.250  9.8745e-03
11.250  22.500  8.8095e-03
11.250  22.750  8.2209e-03
11.250  23.000  7.9683e-03
11.250  23.250  7.8374e-03
11.250  23.500  7.7644e-03
11.250  23.750  7.7343e-03
11.250  24.000  7.7217e-03
11.500  17.000  2.3277e-02
11.500  17.250  2.6803e-02
11.500  17.500  3.2098e-02
11.500  17.750  3.9529e-02
11.500  18.000  4.9417e-02
11.500  18.250  6.1611e-02
11.500  18.500  7.5268e-02
11.500  18.750  8.9355e-02
11.500  19.000  1.0253e-01
11.500  19.250  1.1366e-01
11.500  19.500  1.2309e-01
11.500  19.750  1.3176e-01
11.500  20.000  1.3997e-01
11.500  20.250  1.4397e-01
11.500  20.500  1.3078e-01
11.500  20.750  1.0229e-01
11.500  21.000  8.0108e-02
11.500  21.250  6.2436e-02
11.500  21.500  3.7631e-02
11.500  21.750  2.3592e-02
11.500  22.000  1.5768e-02
11.500  22.250  1.1790e-02
11.500  22.500  9.8781e-03
11.500  22.750  8.8105e-03
11.500  23.000  8.2207e-03
11.500  23.250  7.9683e-03
11.500  23.500  7.8375e-03
11.500  23.750  7.7644e-03
11.500  24.000  7.7343e-03
11.750  17.000  2.1794e-02
11.750  17.250  2.4531e-02
11.750  17.500  2.8525e-02
11.750  17.750  3.3923e-02
11.750  18.000  4.1156e-02
11.750  18.250  5.1037e-02
11.750  18.500  6.3512e-02
11.750  18.750  7.7618e-02
11.750  19.000  9.1859e-02
11.750  19.250  1.0455e-01
11.750  19.500  1.1503e-01
11.750  19.750  1.2425e-01
11.750  20.000  1.3324e-01
11.750  20.250  1.4233e-01
11.750  20.500  1.4734e-01
11.750  20.750  1.3389e-01
11.750  21.000  1.0640e-01
11.750  21.250  8.4879e-02
11.750  21.500  6.2095e-02
11.750  21.750  3.7300e-02
11.750  22.000  2.3453e-02
11.750  22.250  1.5767e-02
11.750  22.500  1.1798e-02
11.750  22.750  9.8824e-03
11.750  23.000  8.8118e-03
11.750  23.250  8.2204e-03
11.750  23.500  7.9682e-03
11.750  23.750  7.8375e-03
11.750  24.000  7.7646e-03
12.000  17.000  2.0586e-02
12.000  17.250  2.2546e-02
12.000  17.500  2.5444e-02
12.000  17.750  2.9610e-02
12.000  18.000  3.5316e-02
12.000  18.250  4.3118e-02
12.000  18.500  5.3712e-02
12.000  18.750  6.6655e-02
12.000  19.000  8.0900e-02
12.000  19.250  9.4992e-02
12.000  19.500  1.0719e-01
12.000  19.750  1.1726e-01
12.000  20.000  1.2688e-01
12.000  20.250  1.3648e-01
12.000  20.500  1.4635e-01
12.000  20.750  1.4925e-01
12.000  21.000  1.3834e-01
12.000  21.250  1.1534e-01
12.000  21.500  9.2623e-02
12.000  21.750  6.1564e-02
12.000  22.000  3.6905e-02
12.000  22.250  2.3266e-02
12.000  22.500  1.5751e-02
12.000  22.750  1.1807e-02
12.000  23.000  9.8869e-03
12.000  23.250  8.8133e-03
12.000  23.500  8.2201e-03
12.000  23.750  7.9681e-03
12.000  24.000  7.8376e-03
12.250  17.000  1.9399e-02
12.250  17.250  2.0576e-02
12.250  17.500  2.2553e-02
12.250  17.750  2.5966e-02
12.250  18.000  3.0981e-02
12.250  18.250  3.7955e-02
12.250  18.500  4.7149e-02
12.250  18.750  5.8394e-02
12.250  19.000  7.1326e-02
12.250  19.250  8.5607e-02
12.250  19.500  9.9449e-02
12.250  19.750  1.1149e-01
12.250  20.000  1.2160e-01
12.250  20.250  1.3186e-01
12.250  20.500  1.4266e-01
12.250  20.750  1.5417e-01
12.250  21.000  1.5645e-01
12.250  21.250  1.4896e-01
12.250  21.500  1.2756e-01
12.250  21.750  1.0117e-01
12.250  22.000  6.0941e-02
12.250  22.250  3.6616e-02
12.250  22.500  2.3158e-02
12.250  22.750  1.5715e-02
12.250  23.000  1.1815e-02
12.250  23.250  9.8914e-03
12.250  23.500  8.8150e-03
12.250  23.750  8.2195e-03
12.250  24.000  7.9681e-03
12.500  17.000  1.7774e-02
12.500  17.250  1.8349e-02
12.500  17.500  1.9787e-02
12.500  17.750  2.2623e-02
12.500  18.000  2.7473e-02
12.500  18.250  3.4271e-02
12.500  18.500  4.3031e-02
12.500  18.750  5.3440e-02
12.500  19.000  6.4987e-02
12.500  19.250  7.8035e-02
12.500  19.500  9.2105e-02
12.500  19.750  1.0601e-01
12.500  20.000  1.1799e-01
12.500  20.250  1.2870e-01
12.500  20.500  1.4024e-01
12.500  20.750  1.5383e-01
12.500  21.000  1.7058e-01
12.500  21.250  1.7332e-01
12.500  21.500  1.6434e-01
12.500  21.750  1.4151e-01
12.500  22.000  1.0436e-01
12.500  22.250  6.0393e-02
12.500  22.500  3.6201e-02
12.500  22.750  2.2894e-02
12.500  23.000  1.5660e-02
12.500  23.250  1.1821e-02
12.500  23.500  9.8957e-03
12.500  23.750  8.8166e-03
12.500  24.000  8.2188e-03
12.750  17.000  1.4307e-02
12.750  17.250  1.5607e-02
12.750  17.500  1.6894e-02
12.750  17.750  1.9713e-02
12.750  18.000  2.4443e-02
12.750  18.250  3.1150e-02
12.750  18.500  3.9822e-02
12.750  18.750  5.0310e-02
12.750  19.000  6.1724e-02
12.750  19.250  7.3764e-02
12.750  19.500  8.6913e-02
12.750  19.750  1.0101e-01
12.750  20.000  1.1487e-01
12.750  20.250  1.2779e-01
12.750  20.500  1.3992e-01
12.750  20.750  1.5438e-01
12.750  21.000  1.7496e-01
12.750  21.250  1.9759e-01
12.750  21.500  1.9527e-01
12.750  21.750  1.8671e-01
12.750  22.000  1.5560e-01
12.750  22.250  1.0323e-01
12.750  22.500  5.9656e-02
12.750  22.750  3.5693e-02
12.750  23.000  2.2652e-02
12.750  23.250  1.5591e-02
12.750  23.500  1.1824e-02
12.750  23.750  9.8993e-03
12.750  24.000  8.8180e-03
13.000  17.000  9.7319e-03
13.000  17.250  1.1917e-02
13.000  17.500  1.4119e-02
13.000  17.750  1.7127e-02
13.000  18.000  2.1703e-02
13.000  18.250  2.8284e-02
13.000  18.500  3.6902e-02
13.000  18.750  4.7414e-02
13.000  19.000  5.9188e-02
13.000  19.250  7.1646e-02
13.000  19.500  8.3876e-02
13.000  19.750  9.7637e-02
13.000  20.000  1.1201e-01
13.000  20.250  1.2666e-01
13.000  20.500  1.4225e-01
13.000  20.750  1.5717e-01
13.000  21.000  1.7618e-01
13.000  21.250  2.0526e-01
13.000  21.500  2.3035e-01
13.000  21.750  2.2646e-01
13.000  22.000  2.0753e-01
13.000  22.250  1.6498e-01
13.000  22.500  1.0205e-01
13.000  22.750  5.8956e-02
13.000  23.000  3.5283e-02
13.000  23.250  2.2418e-02
13.000  23.500  1.5506e-02
13.000  23.750  1.1821e-02
13.000  24.000  9.9015e-03
13.250  17.000  7.0743e-03
13.250  17.250  8.9317e-03
13.250  17.500  1.1835e-02
13.250  17.750  1.4897e-02
13.250  18.000  1.9259e-02
13.250  18.250  2.5613e-02
13.250  18.500  3.4057e-02
13.250  18.750  4.4493e-02
13.250  19.000  5.6512e-02
13.250  19.250  6.9336e-02
13.250  19.500  8.2149e-02
13.250  19.750  9.6100e-02
13.250  20.000  1.1053e-01
13.250  20.250  1.2554e-01
13.250  20.500  1.4231e-01
13.250  20.750  1.6054e-01
13.250  21.000  1.8121e-01
13.250  21.250  2.0708e-01
13.250  21.500  2.3283e-01
13.250  21.750  2.5927e-01
13.250  22.000  2.4554e-01
13.250  22.250  2.2233e-01
13.250  22.500  1.6684e-01
13.250  22.750  1.0076e-01
13.250  23.000  5.8195e-02
13.250  23.250  3.5062e-02
13.250  23.500  2.2306e-02
13.250  23.750  1.5416e-02
13.250  24.000  1.1811e-02
13.500  17.000  5.2587e-03
13.500  17.250  6.8241e-03
13.500  17.500  9.3992e-03
13.500  17.750  1.2785e-02
13.500  18.000  1.7129e-02
13.500  18.250  2.3156e-02
13.500  18.500  3.1336e-02
13.500  18.750  4.1600e-02
13.500  19.000  5.3667e-02
13.500  19.250  6.6875e-02
13.500  19.500  8.0503e-02
13.500  19.750  9.4605e-02
13.500  20.000  1.0960e-01
13.500  20.250  1.2627e-01
13.500  20.500  1.4297e-01
13.500  20.750  1.6089e-01
13.500  21.000  1.7920e-01
13.500  21.250  2.0549e-01
13.500  21.500  2.2396e-01
13.500  21.750  2.5383e-01
13.500  22.000  2.7915e-01
13.500  22.250  2.5732e-01
13.500  22.500  2.2130e-01
13.500  22.750  1.6345e-01
13.500  23.000  9.9359e-02
13.500  23.250  5.7310e-02
13.500  23.500  3.4445e-02
13.500  23.750  2.1965e-02
13.500  24.000  1.5330e-02
13.750  17.000  4.0451e-03
13.750  17.250  5.3072e-03
13.750  17.500  7.5319e-03
13.750  17.750  1.0711e-02
13.750  18.000  1.5266e-02
13.750  18.250  2.0980e-02
13.750  18.500  2.8797e-02
13.750  18.750  3.8792e-02
13.750  19.000  5.0820e-02
13.750  19.250  6.4434e-02
13.750  19.500  7.8871e-02
13.750  19.750  9.3753e-02
13.750  20.000  1.0948e-01
13.750  20.250  1.2665e-01
13.750  20.500  1.4512e-01
13.750  20.750  1.6395e-01
13.750  21.000  1.8293e-01
13.750  21.250  2.0205e-01
13.750  21.500  2.2212e-01
13.750  21.750  2.4904e-01
13.750  22.000  2.8163e-01
13.750  22.250  3.0736e-01
13.750  22.500  2.5996e-01
13.750  22.750  2.2147e-01
13.750  23.000  1.6114e-01
13.750  23.250  9.7889e-02
13.750  23.500  5.6563e-02
13.750  23.750  3.4004e-02
13.750  24.000  2.1722e-02
14.000  17.000  3.1983e-03
14.000  17.250  4.2491e-03
14.000  17.500  6.0446e-03
14.000  17.750  8.9532e-03
14.000  18.000  1.3256e-02
14.000  18.250  1.9059e-02
14.000  18.500  2.6512e-02
14.000  18.750  3.6185e-02
14.000  19.000  4.8073e-02
14.000  19.250  6.1946e-02
14.000  19.500  7.7284e-02
14.000  19.750  9.3365e-02
14.000  20.000  1.0995e-01
14.000  20.250  1.2768e-01
14.000  20.500  1.4719e-01
14.000  20.750  1.6771e-01
14.000  21.000  1.8884e-01
14.000  21.250  2.1050e-01
14.000  21.500  2.2808e-01
14.000  21.750  2.5301e-01
14.000  22.000  2.8455e-01
14.000  22.250  3.2806e-01
14.000  22.500  3.4283e-01
14.000  22.750  2.7266e-01
14.000  23.000  2.2118e-01
14.000  23.250  1.6110e-01
14.000  23.500  9.6349e-02
14.000  23.750  5.5807e-02
14.000  24.000  3.3515e-02
