InwT 1297.29A  relative to Inci 1215.00A scaled to 1215A.
Hden   Phi(H)  Eq_Width (A)
7.000  17.000  1.8090e-02
7.000  17.250  1.4444e-02
7.000  17.500  1.1910e-02
7.000  17.750  1.0219e-02
7.000  18.000  9.2214e-03
7.000  18.250  8.6472e-03
7.000  18.500  8.3086e-03
7.000  18.750  8.1516e-03
7.000  19.000  8.0698e-03
7.000  19.250  8.0241e-03
7.000  19.500  8.0049e-03
7.000  19.750  7.9968e-03
7.000  20.000  7.9933e-03
7.000  20.250  7.9917e-03
7.000  20.500  7.9909e-03
7.000  20.750  7.9904e-03
7.000  21.000  7.9901e-03
7.000  21.250  7.9900e-03
7.000  21.500  7.9901e-03
7.000  21.750  7.9900e-03
7.000  22.000  7.9899e-03
7.000  22.250  7.9899e-03
7.000  22.500  7.9899e-03
7.000  22.750  7.9901e-03
7.000  23.000  7.9901e-03
7.000  23.250  7.9899e-03
7.000  23.500  7.9899e-03
7.000  23.750  7.9899e-03
7.000  24.000  7.9899e-03
7.250  17.000  2.2957e-02
7.250  17.250  1.8014e-02
7.250  17.500  1.4404e-02
7.250  17.750  1.1890e-02
7.250  18.000  1.0208e-02
7.250  18.250  9.2157e-03
7.250  18.500  8.6444e-03
7.250  18.750  8.3077e-03
7.250  19.000  8.1513e-03
7.250  19.250  8.0696e-03
7.250  19.500  8.0241e-03
7.250  19.750  8.0049e-03
7.250  20.000  7.9968e-03
7.250  20.250  7.9933e-03
7.250  20.500  7.9916e-03
7.250  20.750  7.9908e-03
7.250  21.000  7.9904e-03
7.250  21.250  7.9901e-03
7.250  21.500  7.9900e-03
7.250  21.750  7.9915e-03
7.250  22.000  7.9900e-03
7.250  22.250  7.9899e-03
7.250  22.500  7.9899e-03
7.250  22.750  7.9907e-03
7.250  23.000  7.9907e-03
7.250  23.250  7.9899e-03
7.250  23.500  7.9899e-03
7.250  23.750  7.9899e-03
7.250  24.000  7.9899e-03
7.500  17.000  2.4002e-02
7.500  17.250  2.2897e-02
7.500  17.500  1.7971e-02
7.500  17.750  1.4382e-02
7.500  18.000  1.1878e-02
7.500  18.250  1.0201e-02
7.500  18.500  9.2120e-03
7.500  18.750  8.6426e-03
7.500  19.000  8.3071e-03
7.500  19.250  8.1510e-03
7.500  19.500  8.0696e-03
7.500  19.750  8.0240e-03
7.500  20.000  8.0049e-03
7.500  20.250  7.9968e-03
7.500  20.500  7.9933e-03
7.500  20.750  7.9916e-03
7.500  21.000  7.9908e-03
7.500  21.250  7.9904e-03
7.500  21.500  7.9901e-03
7.500  21.750  7.9900e-03
7.500  22.000  7.9900e-03
7.500  22.250  7.9900e-03
7.500  22.500  7.9899e-03
7.500  22.750  7.9899e-03
7.500  23.000  7.9903e-03
7.500  23.250  7.9907e-03
7.500  23.500  7.9899e-03
7.500  23.750  7.9909e-03
7.500  24.000  7.9899e-03
7.750  17.000  2.9207e-02
7.750  17.250  2.3527e-02
7.750  17.500  2.2868e-02
7.750  17.750  1.7946e-02
7.750  18.000  1.4371e-02
7.750  18.250  1.1873e-02
7.750  18.500  1.0197e-02
7.750  18.750  9.2096e-03
7.750  19.000  8.6416e-03
7.750  19.250  8.3067e-03
7.750  19.500  8.1509e-03
7.750  19.750  8.0695e-03
7.750  20.000  8.0240e-03
7.750  20.250  8.0049e-03
7.750  20.500  7.9968e-03
7.750  20.750  7.9933e-03
7.750  21.000  7.9916e-03
7.750  21.250  7.9908e-03
7.750  21.500  7.9904e-03
7.750  21.750  7.9901e-03
7.750  22.000  7.9900e-03
7.750  22.250  7.9900e-03
7.750  22.500  7.9899e-03
7.750  22.750  7.9901e-03
7.750  23.000  7.9901e-03
7.750  23.250  7.9900e-03
7.750  23.500  7.9907e-03
7.750  23.750  7.9907e-03
7.750  24.000  7.9899e-03
8.000  17.000  4.2901e-02
8.000  17.250  2.8279e-02
8.000  17.500  2.3091e-02
8.000  17.750  2.0515e-02
8.000  18.000  1.8243e-02
8.000  18.250  1.6258e-02
8.000  18.500  1.4540e-02
8.000  18.750  1.3070e-02
8.000  19.000  1.1829e-02
8.000  19.250  1.0799e-02
8.000  19.500  9.9608e-03
8.000  19.750  9.2952e-03
8.000  20.000  8.7835e-03
8.000  20.250  8.4069e-03
8.000  20.500  8.1464e-03
8.000  20.750  7.9832e-03
8.000  21.000  7.8984e-03
8.000  21.250  7.8731e-03
8.000  21.500  7.8886e-03
8.000  21.750  7.9257e-03
8.000  22.000  7.9659e-03
8.000  22.250  7.9900e-03
8.000  22.500  7.9899e-03
8.000  22.750  7.9900e-03
8.000  23.000  7.9899e-03
8.000  23.250  7.9904e-03
8.000  23.500  7.9899e-03
8.000  23.750  7.9899e-03
8.000  24.000  7.9899e-03
8.250  17.000  5.3187e-02
8.250  17.250  4.1807e-02
8.250  17.500  2.7495e-02
8.250  17.750  2.2807e-02
8.250  18.000  2.2823e-02
8.250  18.250  1.7919e-02
8.250  18.500  1.4365e-02
8.250  18.750  1.1871e-02
8.250  19.000  1.0192e-02
8.250  19.250  9.2069e-03
8.250  19.500  8.6403e-03
8.250  19.750  8.3063e-03
8.250  20.000  8.1508e-03
8.250  20.250  8.0695e-03
8.250  20.500  8.0240e-03
8.250  20.750  8.0049e-03
8.250  21.000  7.9968e-03
8.250  21.250  7.9933e-03
8.250  21.500  7.9916e-03
8.250  21.750  7.9908e-03
8.250  22.000  7.9903e-03
8.250  22.250  7.9900e-03
8.250  22.500  7.9900e-03
8.250  22.750  7.9900e-03
8.250  23.000  7.9899e-03
8.250  23.250  7.9919e-03
8.250  23.500  7.9898e-03
8.250  23.750  7.9898e-03
8.250  24.000  7.9904e-03
8.500  17.000  6.0468e-02
8.500  17.250  5.2184e-02
8.500  17.500  4.0986e-02
8.500  17.750  2.6945e-02
8.500  18.000  2.2641e-02
8.500  18.250  2.2808e-02
8.500  18.500  1.7910e-02
8.500  18.750  1.4366e-02
8.500  19.000  1.1872e-02
8.500  19.250  1.0191e-02
8.500  19.500  9.2061e-03
8.500  19.750  8.6400e-03
8.500  20.000  8.3062e-03
8.500  20.250  8.1507e-03
8.500  20.500  8.0695e-03
8.500  20.750  8.0240e-03
8.500  21.000  8.0049e-03
8.500  21.250  7.9968e-03
8.500  21.500  7.9933e-03
8.500  21.750  7.9916e-03
8.500  22.000  7.9908e-03
8.500  22.250  7.9903e-03
8.500  22.500  7.9900e-03
8.500  22.750  7.9900e-03
8.500  23.000  7.9899e-03
8.500  23.250  7.9900e-03
8.500  23.500  7.9898e-03
8.500  23.750  7.9898e-03
8.500  24.000  7.9898e-03
8.750  17.000  6.5553e-02
8.750  17.250  5.9666e-02
8.750  17.500  5.1385e-02
8.750  17.750  4.0463e-02
8.750  18.000  2.6514e-02
8.750  18.250  2.2544e-02
8.750  18.500  2.2787e-02
8.750  18.750  1.7901e-02
8.750  19.000  1.4368e-02
8.750  19.250  1.1874e-02
8.750  19.500  1.0190e-02
8.750  19.750  9.2053e-03
8.750  20.000  8.6398e-03
8.750  20.250  8.3061e-03
8.750  20.500  8.1507e-03
8.750  20.750  8.0695e-03
8.750  21.000  8.0240e-03
8.750  21.250  8.0049e-03
8.750  21.500  7.9968e-03
8.750  21.750  7.9933e-03
8.750  22.000  7.9916e-03
8.750  22.250  7.9908e-03
8.750  22.500  7.9903e-03
8.750  22.750  7.9900e-03
8.750  23.000  7.9908e-03
8.750  23.250  7.9899e-03
8.750  23.500  7.9900e-03
8.750  23.750  7.9898e-03
8.750  24.000  7.9898e-03
9.000  17.000  6.8989e-02
9.000  17.250  6.4930e-02
9.000  17.500  5.8939e-02
9.000  17.750  5.0522e-02
9.000  18.000  3.9573e-02
9.000  18.250  2.5900e-02
9.000  18.500  2.2474e-02
9.000  18.750  2.2760e-02
9.000  19.000  1.7889e-02
9.000  19.250  1.4370e-02
9.000  19.500  1.1877e-02
9.000  19.750  1.0189e-02
9.000  20.000  9.2048e-03
9.000  20.250  8.6395e-03
9.000  20.500  8.3060e-03
9.000  20.750  8.1507e-03
9.000  21.000  8.0695e-03
9.000  21.250  8.0240e-03
9.000  21.500  8.0049e-03
9.000  21.750  7.9967e-03
9.000  22.000  7.9932e-03
9.000  22.250  7.9915e-03
9.000  22.500  7.9907e-03
9.000  22.750  7.9903e-03
9.000  23.000  7.9900e-03
9.000  23.250  7.9900e-03
9.000  23.500  7.9899e-03
9.000  23.750  7.9899e-03
9.000  24.000  7.9899e-03
9.250  17.000  7.1165e-02
9.250  17.250  6.8501e-02
9.250  17.500  6.4295e-02
9.250  17.750  5.7997e-02
9.250  18.000  4.9285e-02
9.250  18.250  3.8174e-02
9.250  18.500  2.4783e-02
9.250  18.750  2.2411e-02
9.250  19.000  2.2724e-02
9.250  19.250  1.7875e-02
9.250  19.500  1.4370e-02
9.250  19.750  1.1879e-02
9.250  20.000  1.0188e-02
9.250  20.250  9.2043e-03
9.250  20.500  8.6393e-03
9.250  20.750  8.3059e-03
9.250  21.000  8.1507e-03
9.250  21.250  8.0695e-03
9.250  21.500  8.0236e-03
9.250  21.750  8.0043e-03
9.250  22.000  7.9961e-03
9.250  22.250  7.9927e-03
9.250  22.500  7.9912e-03
9.250  22.750  7.9904e-03
9.250  23.000  7.9900e-03
9.250  23.250  7.9899e-03
9.250  23.500  7.9898e-03
9.250  23.750  7.9897e-03
9.250  24.000  7.9897e-03
9.500  17.000  7.2364e-02
9.500  17.250  7.0732e-02
9.500  17.500  6.7950e-02
9.500  17.750  6.3413e-02
9.500  18.000  5.6566e-02
9.500  18.250  4.7168e-02
9.500  18.500  3.5568e-02
9.500  18.750  2.3040e-02
9.500  19.000  2.2346e-02
9.500  19.250  2.2678e-02
9.500  19.500  1.7858e-02
9.500  19.750  1.4368e-02
9.500  20.000  1.1881e-02
9.500  20.250  1.0187e-02
9.500  20.500  9.2039e-03
9.500  20.750  8.6388e-03
9.500  21.000  8.3053e-03
9.500  21.250  8.1502e-03
9.500  21.500  8.0689e-03
9.500  21.750  8.0233e-03
9.500  22.000  8.0040e-03
9.500  22.250  7.9960e-03
9.500  22.500  7.9924e-03
9.500  22.750  7.9908e-03
9.500  23.000  7.9900e-03
9.500  23.250  7.9895e-03
9.500  23.500  7.9893e-03
9.500  23.750  7.9892e-03
9.500  24.000  7.9891e-03
9.750  17.000  7.2829e-02
9.750  17.250  7.1929e-02
9.750  17.500  7.0242e-02
9.750  17.750  6.7141e-02
9.750  18.000  6.1868e-02
9.750  18.250  5.4117e-02
9.750  18.500  4.3743e-02
9.750  18.750  3.1060e-02
9.750  19.000  2.3764e-02
9.750  19.250  2.2270e-02
9.750  19.500  2.2621e-02
9.750  19.750  1.7838e-02
9.750  20.000  1.4363e-02
9.750  20.250  1.1882e-02
9.750  20.500  1.0187e-02
9.750  20.750  9.2035e-03
9.750  21.000  8.6388e-03
9.750  21.250  8.3053e-03
9.750  21.500  8.1502e-03
9.750  21.750  8.0690e-03
9.750  22.000  8.0233e-03
9.750  22.250  8.0041e-03
9.750  22.500  7.9960e-03
9.750  22.750  7.9925e-03
9.750  23.000  7.9908e-03
9.750  23.250  7.9900e-03
9.750  23.500  7.9895e-03
9.750  23.750  7.9893e-03
9.750  24.000  7.9891e-03
10.000  17.000  7.2793e-02
10.000  17.250  7.2322e-02
10.000  17.500  7.1380e-02
10.000  17.750  6.9437e-02
10.000  18.000  6.5625e-02
10.000  18.250  5.9476e-02
10.000  18.500  5.0716e-02
10.000  18.750  3.9733e-02
10.000  19.000  2.7666e-02
10.000  19.250  2.2486e-02
10.000  19.500  2.2168e-02
10.000  19.750  2.2549e-02
10.000  20.000  1.7818e-02
10.000  20.250  1.4357e-02
10.000  20.500  1.1882e-02
10.000  20.750  1.0186e-02
10.000  21.000  9.2035e-03
10.000  21.250  8.6388e-03
10.000  21.500  8.3053e-03
10.000  21.750  8.1502e-03
10.000  22.000  8.0690e-03
10.000  22.250  8.0234e-03
10.000  22.500  8.0040e-03
10.000  22.750  7.9960e-03
10.000  23.000  7.9924e-03
10.000  23.250  7.9908e-03
10.000  23.500  7.9900e-03
10.000  23.750  7.9895e-03
10.000  24.000  7.9893e-03
10.250  17.000  7.2626e-02
10.250  17.250  7.2217e-02
10.250  17.500  7.1714e-02
10.250  17.750  7.0544e-02
10.250  18.000  6.8001e-02
10.250  18.250  6.3493e-02
10.250  18.500  5.6519e-02
10.250  18.750  4.7060e-02
10.250  19.000  3.5255e-02
10.250  19.250  2.3229e-02
10.250  19.500  2.2308e-02
10.250  19.750  2.2045e-02
10.250  20.000  2.2485e-02
10.250  20.250  1.7806e-02
10.250  20.500  1.4349e-02
10.250  20.750  1.1882e-02
10.250  21.000  1.0186e-02
10.250  21.250  9.2035e-03
10.250  21.500  8.6388e-03
10.250  21.750  8.3053e-03
10.250  22.000  8.1503e-03
10.250  22.250  8.0691e-03
10.250  22.500  8.0235e-03
10.250  22.750  8.0040e-03
10.250  23.000  7.9960e-03
10.250  23.250  7.9925e-03
10.250  23.500  7.9908e-03
10.250  23.750  7.9900e-03
10.250  24.000  7.9895e-03
10.500  17.000  7.2483e-02
10.500  17.250  7.2019e-02
10.500  17.500  7.1567e-02
10.500  17.750  7.0865e-02
10.500  18.000  6.9176e-02
10.500  18.250  6.5928e-02
10.500  18.500  6.0841e-02
10.500  18.750  5.3273e-02
10.500  19.000  4.3408e-02
10.500  19.250  3.1116e-02
10.500  19.500  2.3653e-02
10.500  19.750  2.2423e-02
10.500  20.000  2.2091e-02
10.500  20.250  2.2441e-02
10.500  20.500  1.7805e-02
10.500  20.750  1.4342e-02
10.500  21.000  1.1881e-02
10.500  21.250  1.0186e-02
10.500  21.500  9.2038e-03
10.500  21.750  8.6389e-03
10.500  22.000  8.3054e-03
10.500  22.250  8.1503e-03
10.500  22.500  8.0691e-03
10.500  22.750  8.0235e-03
10.500  23.000  8.0042e-03
10.500  23.250  7.9960e-03
10.500  23.500  7.9925e-03
10.500  23.750  7.9909e-03
10.500  24.000  7.9900e-03
10.750  17.000  7.2412e-02
10.750  17.250  7.1906e-02
10.750  17.500  7.1384e-02
10.750  17.750  7.0724e-02
10.750  18.000  6.9441e-02
10.750  18.250  6.7146e-02
10.750  18.500  6.3499e-02
10.750  18.750  5.8132e-02
10.750  19.000  5.0522e-02
10.750  19.250  4.0263e-02
10.750  19.500  2.7990e-02
10.750  19.750  2.3707e-02
10.750  20.000  2.2791e-02
10.750  20.250  2.2388e-02
10.750  20.500  2.2515e-02
10.750  20.750  1.7824e-02
10.750  21.000  1.4337e-02
10.750  21.250  1.1880e-02
10.750  21.500  1.0186e-02
10.750  21.750  9.2042e-03
10.750  22.000  8.6390e-03
10.750  22.250  8.3054e-03
10.750  22.500  8.1505e-03
10.750  22.750  8.0691e-03
10.750  23.000  8.0235e-03
10.750  23.250  8.0043e-03
10.750  23.500  7.9960e-03
10.750  23.750  7.9924e-03
10.750  24.000  7.9908e-03
11.000  17.000  7.2411e-02
11.000  17.250  7.1923e-02
11.000  17.500  7.1304e-02
11.000  17.750  7.0406e-02
11.000  18.000  6.9134e-02
11.000  18.250  6.7365e-02
11.000  18.500  6.4952e-02
11.000  18.750  6.1371e-02
11.000  19.000  5.5936e-02
11.000  19.250  4.8055e-02
11.000  19.500  3.7393e-02
11.000  19.750  2.8714e-02
11.000  20.000  2.4346e-02
11.000  20.250  2.3911e-02
11.000  20.500  2.2960e-02
11.000  20.750  2.2753e-02
11.000  21.000  1.7902e-02
11.000  21.250  1.4340e-02
11.000  21.500  1.1878e-02
11.000  21.750  1.0187e-02
11.000  22.000  9.2048e-03
11.000  22.250  8.6392e-03
11.000  22.500  8.3054e-03
11.000  22.750  8.1506e-03
11.000  23.000  8.0693e-03
11.000  23.250  8.0236e-03
11.000  23.500  8.0044e-03
11.000  23.750  7.9961e-03
11.000  24.000  7.9925e-03
11.250  17.000  7.2465e-02
11.250  17.250  7.2025e-02
11.250  17.500  7.1242e-02
11.250  17.750  7.0063e-02
11.250  18.000  6.8595e-02
11.250  18.250  6.7067e-02
11.250  18.500  6.5439e-02
11.250  18.750  6.3137e-02
11.250  19.000  5.9619e-02
11.250  19.250  5.4127e-02
11.250  19.500  4.6025e-02
11.250  19.750  3.4737e-02
11.250  20.000  2.7616e-02
11.250  20.250  2.5055e-02
11.250  20.500  2.4633e-02
11.250  20.750  2.3908e-02
11.250  21.000  2.3327e-02
11.250  21.250  1.8037e-02
11.250  21.500  1.4358e-02
11.250  21.750  1.1875e-02
11.250  22.000  1.0187e-02
11.250  22.250  9.2054e-03
11.250  22.500  8.6394e-03
11.250  22.750  8.3053e-03
11.250  23.000  8.1507e-03
11.250  23.250  8.0695e-03
11.250  23.500  8.0236e-03
11.250  23.750  8.0044e-03
11.250  24.000  7.9962e-03
11.500  17.000  7.2573e-02
11.500  17.250  7.2081e-02
11.500  17.500  7.1109e-02
11.500  17.750  6.9677e-02
11.500  18.000  6.8042e-02
11.500  18.250  6.6592e-02
11.500  18.500  6.5325e-02
11.500  18.750  6.3915e-02
11.500  19.000  6.1853e-02
11.500  19.250  5.8299e-02
11.500  19.500  5.2627e-02
11.500  19.750  4.4237e-02
11.500  20.000  3.2487e-02
11.500  20.250  2.6987e-02
11.500  20.500  2.6351e-02
11.500  20.750  2.6170e-02
11.500  21.000  2.5366e-02
11.500  21.250  2.4057e-02
11.500  21.500  1.8239e-02
11.500  21.750  1.4393e-02
11.500  22.000  1.1874e-02
11.500  22.250  1.0188e-02
11.500  22.500  9.2063e-03
11.500  22.750  8.6398e-03
11.500  23.000  8.3053e-03
11.500  23.250  8.1507e-03
11.500  23.500  8.0695e-03
11.500  23.750  8.0237e-03
11.500  24.000  8.0044e-03
11.750  17.000  7.2678e-02
11.750  17.250  7.2001e-02
11.750  17.500  7.0795e-02
11.750  17.750  6.9137e-02
11.750  18.000  6.7508e-02
11.750  18.250  6.6149e-02
11.750  18.500  6.5067e-02
11.750  18.750  6.4120e-02
11.750  19.000  6.2899e-02
11.750  19.250  6.0885e-02
11.750  19.500  5.7248e-02
11.750  19.750  5.1512e-02
11.750  20.000  4.2912e-02
11.750  20.250  3.0871e-02
11.750  20.500  2.6838e-02
11.750  20.750  2.7902e-02
11.750  21.000  2.8141e-02
11.750  21.250  2.7607e-02
11.750  21.500  2.4690e-02
11.750  21.750  1.8483e-02
11.750  22.000  1.4456e-02
11.750  22.250  1.1873e-02
11.750  22.500  1.0188e-02
11.750  22.750  9.2072e-03
11.750  23.000  8.6402e-03
11.750  23.250  8.3051e-03
11.750  23.500  8.1507e-03
11.750  23.750  8.0696e-03
11.750  24.000  8.0239e-03
12.000  17.000  7.2628e-02
12.000  17.250  7.1667e-02
12.000  17.500  7.0150e-02
12.000  17.750  6.8369e-02
12.000  18.000  6.6879e-02
12.000  18.250  6.5737e-02
12.000  18.500  6.4851e-02
12.000  18.750  6.4063e-02
12.000  19.000  6.3259e-02
12.000  19.250  6.2197e-02
12.000  19.500  6.0200e-02
12.000  19.750  5.6559e-02
12.000  20.000  5.0796e-02
12.000  20.250  4.2155e-02
12.000  20.500  2.9946e-02
12.000  20.750  2.7126e-02
12.000  21.000  3.0034e-02
12.000  21.250  3.1543e-02
12.000  21.500  3.0857e-02
12.000  21.750  2.5246e-02
12.000  22.000  1.8757e-02
12.000  22.250  1.4540e-02
12.000  22.500  1.1874e-02
12.000  22.750  1.0189e-02
12.000  23.000  9.2080e-03
12.000  23.250  8.6408e-03
12.000  23.500  8.3049e-03
12.000  23.750  8.1506e-03
12.000  24.000  8.0696e-03
12.250  17.000  7.2064e-02
12.250  17.250  7.0758e-02
12.250  17.500  6.8980e-02
12.250  17.750  6.7297e-02
12.250  18.000  6.6090e-02
12.250  18.250  6.5259e-02
12.250  18.500  6.4633e-02
12.250  18.750  6.4011e-02
12.250  19.000  6.3382e-02
12.250  19.250  6.2733e-02
12.250  19.500  6.1784e-02
12.250  19.750  5.9829e-02
12.250  20.000  5.6283e-02
12.250  20.250  5.0601e-02
12.250  20.500  4.1950e-02
12.250  20.750  3.6500e-02
12.250  21.000  3.4734e-02
12.250  21.250  3.5099e-02
12.250  21.500  3.6045e-02
12.250  21.750  3.4488e-02
12.250  22.000  2.5803e-02
12.250  22.250  1.8906e-02
12.250  22.500  1.4570e-02
12.250  22.750  1.1878e-02
12.250  23.000  1.0189e-02
12.250  23.250  9.2089e-03
12.250  23.500  8.6414e-03
12.250  23.750  8.3046e-03
12.250  24.000  8.1505e-03
12.500  17.000  7.0225e-02
12.500  17.250  6.8712e-02
12.500  17.500  6.7102e-02
12.500  17.750  6.5915e-02
12.500  18.000  6.5130e-02
12.500  18.250  6.4626e-02
12.500  18.500  6.4259e-02
12.500  18.750  6.3917e-02
12.500  19.000  6.3506e-02
12.500  19.250  6.3026e-02
12.500  19.500  6.2524e-02
12.500  19.750  6.1699e-02
12.500  20.000  5.9846e-02
12.500  20.250  5.6424e-02
12.500  20.500  5.0860e-02
12.500  20.750  4.2571e-02
12.500  21.000  3.7681e-02
12.500  21.250  3.6900e-02
12.500  21.500  3.9008e-02
12.500  21.750  4.1281e-02
12.500  22.000  3.6707e-02
12.500  22.250  2.6210e-02
12.500  22.500  1.9136e-02
12.500  22.750  1.4670e-02
12.500  23.000  1.1883e-02
12.500  23.250  1.0189e-02
12.500  23.500  9.2096e-03
12.500  23.750  8.6420e-03
12.500  24.000  8.3043e-03
12.750  17.000  5.2327e-02
12.750  17.250  6.4871e-02
12.750  17.500  6.4975e-02
12.750  17.750  6.4398e-02
12.750  18.000  6.3970e-02
12.750  18.250  6.3732e-02
12.750  18.500  6.3644e-02
12.750  18.750  6.3602e-02
12.750  19.000  6.3500e-02
12.750  19.250  6.3280e-02
12.750  19.500  6.2981e-02
12.750  19.750  6.2613e-02
12.750  20.000  6.1891e-02
12.750  20.250  6.0244e-02
12.750  20.500  5.6996e-02
12.750  20.750  5.1906e-02
12.750  21.000  4.4448e-02
12.750  21.250  4.1536e-02
12.750  21.500  4.2988e-02
12.750  21.750  4.6179e-02
12.750  22.000  4.6817e-02
12.750  22.250  3.8008e-02
12.750  22.500  2.6746e-02
12.750  22.750  1.9406e-02
12.750  23.000  1.4745e-02
12.750  23.250  1.1887e-02
12.750  23.500  1.0189e-02
12.750  23.750  9.2101e-03
12.750  24.000  8.6425e-03
13.000  17.000  2.7075e-02
13.000  17.250  4.6469e-02
13.000  17.500  5.9328e-02
13.000  17.750  6.2762e-02
13.000  18.000  6.2584e-02
13.000  18.250  6.2573e-02
13.000  18.500  6.2727e-02
13.000  18.750  6.2971e-02
13.000  19.000  6.3210e-02
13.000  19.250  6.3355e-02
13.000  19.500  6.3321e-02
13.000  19.750  6.3187e-02
13.000  20.000  6.2944e-02
13.000  20.250  6.2353e-02
13.000  20.500  6.1071e-02
13.000  20.750  5.8205e-02
13.000  21.000  5.3659e-02
13.000  21.250  4.7407e-02
13.000  21.500  4.4954e-02
13.000  21.750  4.7564e-02
13.000  22.000  5.2892e-02
13.000  22.250  5.1299e-02
13.000  22.500  3.9108e-02
13.000  22.750  2.7194e-02
13.000  23.000  1.9589e-02
13.000  23.250  1.4803e-02
13.000  23.500  1.1891e-02
13.000  23.750  1.0188e-02
13.000  24.000  9.2103e-03
13.250  17.000  1.7016e-02
13.250  17.250  2.9795e-02
13.250  17.500  5.3253e-02
13.250  17.750  6.0948e-02
13.250  18.000  6.0964e-02
13.250  18.250  6.1116e-02
13.250  18.500  6.1479e-02
13.250  18.750  6.1993e-02
13.250  19.000  6.2552e-02
13.250  19.250  6.3068e-02
13.250  19.500  6.3436e-02
13.250  19.750  6.3640e-02
13.250  20.000  6.3671e-02
13.250  20.250  6.3502e-02
13.250  20.500  6.3086e-02
13.250  20.750  6.2057e-02
13.250  21.000  5.9912e-02
13.250  21.250  5.6268e-02
13.250  21.500  5.0294e-02
13.250  21.750  4.8865e-02
13.250  22.000  5.2902e-02
13.250  22.250  5.8527e-02
13.250  22.500  5.4224e-02
13.250  22.750  4.0191e-02
13.250  23.000  2.7640e-02
13.250  23.250  1.9619e-02
13.250  23.500  1.4801e-02
13.250  23.750  1.1895e-02
13.250  24.000  1.0186e-02
13.500  17.000  1.0734e-02
13.500  17.250  1.9132e-02
13.500  17.500  3.6437e-02
13.500  17.750  5.3378e-02
13.500  18.000  5.9106e-02
13.500  18.250  5.9386e-02
13.500  18.500  5.9908e-02
13.500  18.750  6.0660e-02
13.500  19.000  6.1511e-02
13.500  19.250  6.2371e-02
13.500  19.500  6.3137e-02
13.500  19.750  6.3762e-02
13.500  20.000  6.4211e-02
13.500  20.250  6.4492e-02
13.500  20.500  6.4484e-02
13.500  20.750  6.4129e-02
13.500  21.000  6.2963e-02
13.500  21.250  6.1341e-02
13.500  21.500  5.6986e-02
13.500  21.750  5.0895e-02
13.500  22.000  5.1147e-02
13.500  22.250  5.6571e-02
13.500  22.500  6.1486e-02
13.500  22.750  5.6134e-02
13.500  23.000  4.1225e-02
13.500  23.250  2.8137e-02
13.500  23.500  1.9892e-02
13.500  23.750  1.4881e-02
13.500  24.000  1.1897e-02
13.750  17.000  6.9658e-03
13.750  17.250  1.2209e-02
13.750  17.500  2.4345e-02
13.750  17.750  3.9718e-02
13.750  18.000  5.6046e-02
13.750  18.250  5.7240e-02
13.750  18.500  5.7984e-02
13.750  18.750  5.8973e-02
13.750  19.000  6.0085e-02
13.750  19.250  6.1268e-02
13.750  19.500  6.2412e-02
13.750  19.750  6.3453e-02
13.750  20.000  6.4374e-02
13.750  20.250  6.5157e-02
13.750  20.500  6.5743e-02
13.750  20.750  6.5983e-02
13.750  21.000  6.5675e-02
13.750  21.250  6.4391e-02
13.750  21.500  6.2144e-02
13.750  21.750  5.8056e-02
13.750  22.000  5.8074e-02
13.750  22.250  6.1353e-02
13.750  22.500  6.4721e-02
13.750  22.750  6.5004e-02
13.750  23.000  5.8278e-02
13.750  23.250  4.2173e-02
13.750  23.500  2.8479e-02
13.750  23.750  2.0014e-02
13.750  24.000  1.4906e-02
14.000  17.000  4.6021e-03
14.000  17.250  7.9862e-03
14.000  17.500  1.5699e-02
14.000  17.750  2.8115e-02
14.000  18.000  4.3808e-02
14.000  18.250  5.4700e-02
14.000  18.500  5.5563e-02
14.000  18.750  5.6792e-02
14.000  19.000  5.8241e-02
14.000  19.250  5.9763e-02
14.000  19.500  6.1274e-02
14.000  19.750  6.2718e-02
14.000  20.000  6.4065e-02
14.000  20.250  6.5338e-02
14.000  20.500  6.6518e-02
14.000  20.750  6.7490e-02
14.000  21.000  6.8109e-02
14.000  21.250  6.8079e-02
14.000  21.500  6.6844e-02
14.000  21.750  6.4424e-02
14.000  22.000  6.0354e-02
14.000  22.250  5.9194e-02
14.000  22.500  6.1319e-02
14.000  22.750  6.5607e-02
14.000  23.000  6.8722e-02
14.000  23.250  6.0871e-02
14.000  23.500  4.3041e-02
14.000  23.750  2.8762e-02
14.000  24.000  2.0120e-02
