InwC 2200.00A  relative to Inci 1215.00A scaled to 1215A.
Hden   Phi(H)  Eq_Width (A)
7.000  17.000  7.3260e-03
7.000  17.250  7.3292e-03
7.000  17.500  7.3323e-03
7.000  17.750  7.3355e-03
7.000  18.000  7.3385e-03
7.000  18.250  7.3412e-03
7.000  18.500  7.3430e-03
7.000  18.750  7.3440e-03
7.000  19.000  7.3449e-03
7.000  19.250  7.3454e-03
7.000  19.500  7.3457e-03
7.000  19.750  7.3458e-03
7.000  20.000  7.3458e-03
7.000  20.250  7.3459e-03
7.000  20.500  7.3459e-03
7.000  20.750  7.3459e-03
7.000  21.000  7.3459e-03
7.000  21.250  7.3460e-03
7.000  21.500  7.3461e-03
7.000  21.750  7.3459e-03
7.000  22.000  7.3460e-03
7.000  22.250  7.3459e-03
7.000  22.500  7.3460e-03
7.000  22.750  7.3462e-03
7.000  23.000  7.3462e-03
7.000  23.250  7.3460e-03
7.000  23.500  7.3459e-03
7.000  23.750  7.3459e-03
7.000  24.000  7.3460e-03
7.250  17.000  7.3135e-03
7.250  17.250  7.3260e-03
7.250  17.500  7.3292e-03
7.250  17.750  7.3323e-03
7.250  18.000  7.3355e-03
7.250  18.250  7.3385e-03
7.250  18.500  7.3412e-03
7.250  18.750  7.3430e-03
7.250  19.000  7.3440e-03
7.250  19.250  7.3449e-03
7.250  19.500  7.3454e-03
7.250  19.750  7.3457e-03
7.250  20.000  7.3458e-03
7.250  20.250  7.3458e-03
7.250  20.500  7.3459e-03
7.250  20.750  7.3459e-03
7.250  21.000  7.3459e-03
7.250  21.250  7.3460e-03
7.250  21.500  7.3460e-03
7.250  21.750  7.3474e-03
7.250  22.000  7.3459e-03
7.250  22.250  7.3460e-03
7.250  22.500  7.3460e-03
7.250  22.750  7.3467e-03
7.250  23.000  7.3467e-03
7.250  23.250  7.3460e-03
7.250  23.500  7.3460e-03
7.250  23.750  7.3460e-03
7.250  24.000  7.3460e-03
7.500  17.000  6.9889e-03
7.500  17.250  7.3141e-03
7.500  17.500  7.3260e-03
7.500  17.750  7.3292e-03
7.500  18.000  7.3323e-03
7.500  18.250  7.3355e-03
7.500  18.500  7.3386e-03
7.500  18.750  7.3412e-03
7.500  19.000  7.3430e-03
7.500  19.250  7.3440e-03
7.500  19.500  7.3449e-03
7.500  19.750  7.3454e-03
7.500  20.000  7.3457e-03
7.500  20.250  7.3458e-03
7.500  20.500  7.3458e-03
7.500  20.750  7.3458e-03
7.500  21.000  7.3459e-03
7.500  21.250  7.3459e-03
7.500  21.500  7.3459e-03
7.500  21.750  7.3459e-03
7.500  22.000  7.3460e-03
7.500  22.250  7.3460e-03
7.500  22.500  7.3459e-03
7.500  22.750  7.3460e-03
7.500  23.000  7.3463e-03
7.500  23.250  7.3467e-03
7.500  23.500  7.3459e-03
7.500  23.750  7.3468e-03
7.500  24.000  7.3460e-03
7.750  17.000  6.4329e-03
7.750  17.250  6.9905e-03
7.750  17.500  7.3145e-03
7.750  17.750  7.3260e-03
7.750  18.000  7.3292e-03
7.750  18.250  7.3323e-03
7.750  18.500  7.3355e-03
7.750  18.750  7.3386e-03
7.750  19.000  7.3412e-03
7.750  19.250  7.3430e-03
7.750  19.500  7.3440e-03
7.750  19.750  7.3449e-03
7.750  20.000  7.3455e-03
7.750  20.250  7.3457e-03
7.750  20.500  7.3458e-03
7.750  20.750  7.3458e-03
7.750  21.000  7.3458e-03
7.750  21.250  7.3459e-03
7.750  21.500  7.3459e-03
7.750  21.750  7.3459e-03
7.750  22.000  7.3459e-03
7.750  22.250  7.3459e-03
7.750  22.500  7.3459e-03
7.750  22.750  7.3462e-03
7.750  23.000  7.3462e-03
7.750  23.250  7.3460e-03
7.750  23.500  7.3467e-03
7.750  23.750  7.3467e-03
7.750  24.000  7.3459e-03
8.000  17.000  4.6537e-03
8.000  17.250  6.3956e-03
8.000  17.500  6.9874e-03
8.000  17.750  7.3133e-03
8.000  18.000  7.3260e-03
8.000  18.250  7.3292e-03
8.000  18.500  7.3323e-03
8.000  18.750  7.3355e-03
8.000  19.000  7.3386e-03
8.000  19.250  7.3412e-03
8.000  19.500  7.3430e-03
8.000  19.750  7.3440e-03
8.000  20.000  7.3449e-03
8.000  20.250  7.3455e-03
8.000  20.500  7.3457e-03
8.000  20.750  7.3458e-03
8.000  21.000  7.3458e-03
8.000  21.250  7.3458e-03
8.000  21.500  7.3458e-03
8.000  21.750  7.3459e-03
8.000  22.000  7.3459e-03
8.000  22.250  7.3459e-03
8.000  22.500  7.3459e-03
8.000  22.750  7.3461e-03
8.000  23.000  7.3459e-03
8.000  23.250  7.3464e-03
8.000  23.500  7.3459e-03
8.000  23.750  7.3459e-03
8.000  24.000  7.3459e-03
8.250  17.000  3.3795e-03
8.250  17.250  4.6680e-03
8.250  17.500  6.4008e-03
8.250  17.750  6.9884e-03
8.250  18.000  7.3135e-03
8.250  18.250  7.3259e-03
8.250  18.500  7.3292e-03
8.250  18.750  7.3324e-03
8.250  19.000  7.3356e-03
8.250  19.250  7.3386e-03
8.250  19.500  7.3412e-03
8.250  19.750  7.3430e-03
8.250  20.000  7.3440e-03
8.250  20.250  7.3449e-03
8.250  20.500  7.3454e-03
8.250  20.750  7.3457e-03
8.250  21.000  7.3458e-03
8.250  21.250  7.3458e-03
8.250  21.500  7.3458e-03
8.250  21.750  7.3458e-03
8.250  22.000  7.3458e-03
8.250  22.250  7.3459e-03
8.250  22.500  7.3459e-03
8.250  22.750  7.3461e-03
8.250  23.000  7.3459e-03
8.250  23.250  7.3478e-03
8.250  23.500  7.3459e-03
8.250  23.750  7.3459e-03
8.250  24.000  7.3464e-03
8.500  17.000  2.4830e-03
8.500  17.250  3.3974e-03
8.500  17.500  4.6821e-03
8.500  17.750  6.4067e-03
8.500  18.000  6.9890e-03
8.500  18.250  7.3136e-03
8.500  18.500  7.3258e-03
8.500  18.750  7.3292e-03
8.500  19.000  7.3324e-03
8.500  19.250  7.3356e-03
8.500  19.500  7.3386e-03
8.500  19.750  7.3412e-03
8.500  20.000  7.3430e-03
8.500  20.250  7.3440e-03
8.500  20.500  7.3449e-03
8.500  20.750  7.3454e-03
8.500  21.000  7.3457e-03
8.500  21.250  7.3458e-03
8.500  21.500  7.3458e-03
8.500  21.750  7.3458e-03
8.500  22.000  7.3458e-03
8.500  22.250  7.3458e-03
8.500  22.500  7.3458e-03
8.500  22.750  7.3459e-03
8.500  23.000  7.3459e-03
8.500  23.250  7.3461e-03
8.500  23.500  7.3458e-03
8.500  23.750  7.3459e-03
8.500  24.000  7.3459e-03
8.750  17.000  1.8570e-03
8.750  17.250  2.5022e-03
8.750  17.500  3.4215e-03
8.750  17.750  4.6879e-03
8.750  18.000  6.4176e-03
8.750  18.250  6.9887e-03
8.750  18.500  7.3133e-03
8.750  18.750  7.3257e-03
8.750  19.000  7.3292e-03
8.750  19.250  7.3324e-03
8.750  19.500  7.3356e-03
8.750  19.750  7.3387e-03
8.750  20.000  7.3412e-03
8.750  20.250  7.3430e-03
8.750  20.500  7.3440e-03
8.750  20.750  7.3449e-03
8.750  21.000  7.3454e-03
8.750  21.250  7.3457e-03
8.750  21.500  7.3458e-03
8.750  21.750  7.3458e-03
8.750  22.000  7.3458e-03
8.750  22.250  7.3458e-03
8.750  22.500  7.3458e-03
8.750  22.750  7.3458e-03
8.750  23.000  7.3466e-03
8.750  23.250  7.3459e-03
8.750  23.500  7.3461e-03
8.750  23.750  7.3459e-03
8.750  24.000  7.3459e-03
9.000  17.000  1.4184e-03
9.000  17.250  1.8723e-03
9.000  17.500  2.5291e-03
9.000  17.750  3.4640e-03
9.000  18.000  4.7370e-03
9.000  18.250  6.4598e-03
9.000  18.500  6.9874e-03
9.000  18.750  7.3124e-03
9.000  19.000  7.3253e-03
9.000  19.250  7.3291e-03
9.000  19.500  7.3325e-03
9.000  19.750  7.3356e-03
9.000  20.000  7.3387e-03
9.000  20.250  7.3412e-03
9.000  20.500  7.3430e-03
9.000  20.750  7.3440e-03
9.000  21.000  7.3449e-03
9.000  21.250  7.3455e-03
9.000  21.500  7.3457e-03
9.000  21.750  7.3458e-03
9.000  22.000  7.3458e-03
9.000  22.250  7.3458e-03
9.000  22.500  7.3458e-03
9.000  22.750  7.3458e-03
9.000  23.000  7.3458e-03
9.000  23.250  7.3459e-03
9.000  23.500  7.3458e-03
9.000  23.750  7.3458e-03
9.000  24.000  7.3459e-03
9.250  17.000  1.1123e-03
9.250  17.250  1.4304e-03
9.250  17.500  1.8985e-03
9.250  17.750  2.5831e-03
9.250  18.000  3.5444e-03
9.250  18.250  4.8480e-03
9.250  18.500  6.5648e-03
9.250  18.750  6.9843e-03
9.250  19.000  7.3107e-03
9.250  19.250  7.3249e-03
9.250  19.500  7.3290e-03
9.250  19.750  7.3325e-03
9.250  20.000  7.3356e-03
9.250  20.250  7.3387e-03
9.250  20.500  7.3412e-03
9.250  20.750  7.3430e-03
9.250  21.000  7.3440e-03
9.250  21.250  7.3449e-03
9.250  21.500  7.3451e-03
9.250  21.750  7.3452e-03
9.250  22.000  7.3452e-03
9.250  22.250  7.3453e-03
9.250  22.500  7.3455e-03
9.250  22.750  7.3455e-03
9.250  23.000  7.3457e-03
9.250  23.250  7.3458e-03
9.250  23.500  7.3458e-03
9.250  23.750  7.3457e-03
9.250  24.000  7.3458e-03
9.500  17.000  9.0025e-04
9.500  17.250  1.1216e-03
9.500  17.500  1.4540e-03
9.500  17.750  1.9542e-03
9.500  18.000  2.6845e-03
9.500  18.250  3.7176e-03
9.500  18.500  5.1062e-03
9.500  18.750  6.7336e-03
9.500  19.000  6.9788e-03
9.500  19.250  7.3076e-03
9.500  19.500  7.3240e-03
9.500  19.750  7.3288e-03
9.500  20.000  7.3324e-03
9.500  20.250  7.3357e-03
9.500  20.500  7.3387e-03
9.500  20.750  7.3409e-03
9.500  21.000  7.3426e-03
9.500  21.250  7.3435e-03
9.500  21.500  7.3443e-03
9.500  21.750  7.3448e-03
9.500  22.000  7.3449e-03
9.500  22.250  7.3451e-03
9.500  22.500  7.3451e-03
9.500  22.750  7.3451e-03
9.500  23.000  7.3451e-03
9.500  23.250  7.3452e-03
9.500  23.500  7.3452e-03
9.500  23.750  7.3452e-03
9.500  24.000  7.3452e-03
9.750  17.000  7.5078e-04
9.750  17.250  9.0593e-04
9.750  17.500  1.1401e-03
9.750  17.750  1.5046e-03
9.750  18.000  2.0695e-03
9.750  18.250  2.8911e-03
9.750  18.500  4.0436e-03
9.750  18.750  5.5965e-03
9.750  19.000  6.7298e-03
9.750  19.250  6.9702e-03
9.750  19.500  7.3022e-03
9.750  19.750  7.3226e-03
9.750  20.000  7.3284e-03
9.750  20.250  7.3323e-03
9.750  20.500  7.3356e-03
9.750  20.750  7.3386e-03
9.750  21.000  7.3410e-03
9.750  21.250  7.3426e-03
9.750  21.500  7.3435e-03
9.750  21.750  7.3444e-03
9.750  22.000  7.3448e-03
9.750  22.250  7.3450e-03
9.750  22.500  7.3451e-03
9.750  22.750  7.3451e-03
9.750  23.000  7.3451e-03
9.750  23.250  7.3451e-03
9.750  23.500  7.3451e-03
9.750  23.750  7.3451e-03
9.750  24.000  7.3451e-03
10.000  17.000  6.4617e-04
10.000  17.250  7.5432e-04
10.000  17.500  9.1984e-04
10.000  17.750  1.1853e-03
10.000  18.000  1.6188e-03
10.000  18.250  2.2719e-03
10.000  18.500  3.1998e-03
10.000  18.750  4.4560e-03
10.000  19.000  6.0011e-03
10.000  19.250  6.7245e-03
10.000  19.500  6.9596e-03
10.000  19.750  7.2937e-03
10.000  20.000  7.3203e-03
10.000  20.250  7.3277e-03
10.000  20.500  7.3323e-03
10.000  20.750  7.3356e-03
10.000  21.000  7.3387e-03
10.000  21.250  7.3412e-03
10.000  21.500  7.3426e-03
10.000  21.750  7.3435e-03
10.000  22.000  7.3444e-03
10.000  22.250  7.3449e-03
10.000  22.500  7.3449e-03
10.000  22.750  7.3451e-03
10.000  23.000  7.3451e-03
10.000  23.250  7.3452e-03
10.000  23.500  7.3452e-03
10.000  23.750  7.3452e-03
10.000  24.000  7.3452e-03
10.250  17.000  5.7317e-04
10.250  17.250  6.4856e-04
10.250  17.500  7.6593e-04
10.250  17.750  9.6107e-04
10.250  18.000  1.2883e-03
10.250  18.250  1.7885e-03
10.250  18.500  2.5179e-03
10.250  18.750  3.5376e-03
10.250  19.000  4.9440e-03
10.250  19.250  6.5242e-03
10.250  19.500  6.7207e-03
10.250  19.750  6.9489e-03
10.250  20.000  7.2818e-03
10.250  20.250  7.3170e-03
10.250  20.500  7.3267e-03
10.250  20.750  7.3320e-03
10.250  21.000  7.3356e-03
10.250  21.250  7.3387e-03
10.250  21.500  7.3412e-03
10.250  21.750  7.3427e-03
10.250  22.000  7.3435e-03
10.250  22.250  7.3444e-03
10.250  22.500  7.3449e-03
10.250  22.750  7.3450e-03
10.250  23.000  7.3451e-03
10.250  23.250  7.3451e-03
10.250  23.500  7.3451e-03
10.250  23.750  7.3452e-03
10.250  24.000  7.3452e-03
10.500  17.000  5.2198e-04
10.500  17.250  5.7473e-04
10.500  17.500  6.5852e-04
10.500  17.750  8.0272e-04
10.500  18.000  1.0484e-03
10.500  18.250  1.4303e-03
10.500  18.500  1.9807e-03
10.500  18.750  2.7889e-03
10.500  19.000  3.9040e-03
10.500  19.250  5.4194e-03
10.500  19.500  6.5610e-03
10.500  19.750  6.7201e-03
10.500  20.000  6.9400e-03
10.500  20.250  7.2683e-03
10.500  20.500  7.3128e-03
10.500  20.750  7.3250e-03
10.500  21.000  7.3317e-03
10.500  21.250  7.3356e-03
10.500  21.500  7.3387e-03
10.500  21.750  7.3412e-03
10.500  22.000  7.3430e-03
10.500  22.250  7.3436e-03
10.500  22.500  7.3444e-03
10.500  22.750  7.3450e-03
10.500  23.000  7.3451e-03
10.500  23.250  7.3451e-03
10.500  23.500  7.3452e-03
10.500  23.750  7.3452e-03
10.500  24.000  7.3452e-03
10.750  17.000  4.8584e-04
10.750  17.250  5.2280e-04
10.750  17.500  5.8321e-04
10.750  17.750  6.8979e-04
10.750  18.000  8.7333e-04
10.750  18.250  1.1595e-03
10.750  18.500  1.5821e-03
10.750  18.750  2.1863e-03
10.750  19.000  3.0365e-03
10.750  19.250  4.2263e-03
10.750  19.500  5.7727e-03
10.750  19.750  6.5644e-03
10.750  20.000  6.7207e-03
10.750  20.250  6.9337e-03
10.750  20.500  7.2565e-03
10.750  20.750  7.3086e-03
10.750  21.000  7.3228e-03
10.750  21.250  7.3310e-03
10.750  21.500  7.3354e-03
10.750  21.750  7.3386e-03
10.750  22.000  7.3412e-03
10.750  22.250  7.3430e-03
10.750  22.500  7.3438e-03
10.750  22.750  7.3445e-03
10.750  23.000  7.3450e-03
10.750  23.250  7.3452e-03
10.750  23.500  7.3451e-03
10.750  23.750  7.3451e-03
10.750  24.000  7.3452e-03
11.000  17.000  4.6016e-04
11.000  17.250  4.8576e-04
11.000  17.500  5.2881e-04
11.000  17.750  6.0798e-04
11.000  18.000  7.4387e-04
11.000  18.250  9.5613e-04
11.000  18.500  1.2693e-03
11.000  18.750  1.7180e-03
11.000  19.000  2.3556e-03
11.000  19.250  3.2567e-03
11.000  19.500  4.5144e-03
11.000  19.750  6.1748e-03
11.000  20.000  6.5635e-03
11.000  20.250  6.7190e-03
11.000  20.500  6.9323e-03
11.000  20.750  7.2521e-03
11.000  21.000  7.3035e-03
11.000  21.250  7.3203e-03
11.000  21.500  7.3302e-03
11.000  21.750  7.3351e-03
11.000  22.000  7.3385e-03
11.000  22.250  7.3412e-03
11.000  22.500  7.3430e-03
11.000  22.750  7.3439e-03
11.000  23.000  7.3446e-03
11.000  23.250  7.3451e-03
11.000  23.500  7.3453e-03
11.000  23.750  7.3453e-03
11.000  24.000  7.3452e-03
11.250  17.000  4.4181e-04
11.250  17.250  4.5909e-04
11.250  17.500  4.8971e-04
11.250  17.750  5.4765e-04
11.250  18.000  6.4782e-04
11.250  18.250  8.0198e-04
11.250  18.500  1.0297e-03
11.250  18.750  1.3658e-03
11.250  19.000  1.8319e-03
11.250  19.250  2.4924e-03
11.250  19.500  3.4310e-03
11.250  19.750  4.7607e-03
11.250  20.000  6.2625e-03
11.250  20.250  6.5627e-03
11.250  20.500  6.7276e-03
11.250  20.750  6.9384e-03
11.250  21.000  7.2570e-03
11.250  21.250  7.3003e-03
11.250  21.500  7.3178e-03
11.250  21.750  7.3290e-03
11.250  22.000  7.3347e-03
11.250  22.250  7.3383e-03
11.250  22.500  7.3411e-03
11.250  22.750  7.3430e-03
11.250  23.000  7.3440e-03
11.250  23.250  7.3448e-03
11.250  23.500  7.3451e-03
11.250  23.750  7.3453e-03
11.250  24.000  7.3453e-03
11.500  17.000  4.2881e-04
11.500  17.250  4.4008e-04
11.500  17.500  4.6156e-04
11.500  17.750  5.0354e-04
11.500  18.000  5.7580e-04
11.500  18.250  6.8741e-04
11.500  18.500  8.5251e-04
11.500  18.750  1.0956e-03
11.500  19.000  1.4363e-03
11.500  19.250  1.9174e-03
11.500  19.500  2.6011e-03
11.500  19.750  3.5797e-03
11.500  20.000  4.9748e-03
11.500  20.250  6.3022e-03
11.500  20.500  6.5635e-03
11.500  20.750  6.7313e-03
11.500  21.000  6.9571e-03
11.500  21.250  7.2682e-03
11.500  21.500  7.2965e-03
11.500  21.750  7.3154e-03
11.500  22.000  7.3277e-03
11.500  22.250  7.3341e-03
11.500  22.500  7.3379e-03
11.500  22.750  7.3409e-03
11.500  23.000  7.3430e-03
11.500  23.250  7.3440e-03
11.500  23.500  7.3449e-03
11.500  23.750  7.3452e-03
11.500  24.000  7.3453e-03
11.750  17.000  4.1951e-04
11.750  17.250  4.2667e-04
11.750  17.500  4.4165e-04
11.750  17.750  4.7144e-04
11.750  18.000  5.2230e-04
11.750  18.250  6.0206e-04
11.750  18.500  7.2115e-04
11.750  18.750  8.9325e-04
11.750  19.000  1.1445e-03
11.750  19.250  1.4935e-03
11.750  19.500  1.9881e-03
11.750  19.750  2.6876e-03
11.750  20.000  3.7025e-03
11.750  20.250  5.1528e-03
11.750  20.500  6.3345e-03
11.750  20.750  6.5710e-03
11.750  21.000  6.7501e-03
11.750  21.250  7.0049e-03
11.750  21.500  7.2704e-03
11.750  21.750  7.2936e-03
11.750  22.000  7.3127e-03
11.750  22.250  7.3263e-03
11.750  22.500  7.3333e-03
11.750  22.750  7.3375e-03
11.750  23.000  7.3407e-03
11.750  23.250  7.3429e-03
11.750  23.500  7.3439e-03
11.750  23.750  7.3449e-03
11.750  24.000  7.3453e-03
12.000  17.000  4.1317e-04
12.000  17.250  4.1745e-04
12.000  17.500  4.2757e-04
12.000  17.750  4.4823e-04
12.000  18.000  4.8362e-04
12.000  18.250  5.4000e-04
12.000  18.500  6.2519e-04
12.000  18.750  7.5029e-04
12.000  19.000  9.3070e-04
12.000  19.250  1.1844e-03
12.000  19.500  1.5414e-03
12.000  19.750  2.0444e-03
12.000  20.000  2.7649e-03
12.000  20.250  3.8038e-03
12.000  20.500  5.2988e-03
12.000  20.750  6.3188e-03
12.000  21.000  6.5850e-03
12.000  21.250  6.8000e-03
12.000  21.500  7.0899e-03
12.000  21.750  7.2685e-03
12.000  22.000  7.2937e-03
12.000  22.250  7.3123e-03
12.000  22.500  7.3250e-03
12.000  22.750  7.3327e-03
12.000  23.000  7.3371e-03
12.000  23.250  7.3404e-03
12.000  23.500  7.3428e-03
12.000  23.750  7.3439e-03
12.000  24.000  7.3449e-03
12.250  17.000  4.0922e-04
12.250  17.250  4.1152e-04
12.250  17.500  4.1811e-04
12.250  17.750  4.3193e-04
12.250  18.000  4.5646e-04
12.250  18.250  4.9605e-04
12.250  18.500  5.5671e-04
12.250  18.750  6.4757e-04
12.250  19.000  7.7770e-04
12.250  19.250  9.6107e-04
12.250  19.500  1.2186e-03
12.250  19.750  1.5829e-03
12.250  20.000  2.0918e-03
12.250  20.250  2.8258e-03
12.250  20.500  3.8955e-03
12.250  20.750  5.4362e-03
12.250  21.000  6.3133e-03
12.250  21.250  6.6178e-03
12.250  21.500  6.8700e-03
12.250  21.750  7.1886e-03
12.250  22.000  7.2664e-03
12.250  22.250  7.2912e-03
12.250  22.500  7.3106e-03
12.250  22.750  7.3239e-03
12.250  23.000  7.3319e-03
12.250  23.250  7.3366e-03
12.250  23.500  7.3402e-03
12.250  23.750  7.3427e-03
12.250  24.000  7.3439e-03
12.500  17.000  4.0716e-04
12.500  17.250  4.0823e-04
12.500  17.500  4.1218e-04
12.500  17.750  4.2115e-04
12.500  18.000  4.3778e-04
12.500  18.250  4.6535e-04
12.500  18.500  5.0881e-04
12.500  18.750  5.7366e-04
12.500  19.000  6.6724e-04
12.500  19.250  8.0049e-04
12.500  19.500  9.8502e-04
12.500  19.750  1.2460e-03
12.500  20.000  1.6137e-03
12.500  20.250  2.1323e-03
12.500  20.500  2.8882e-03
12.500  20.750  3.9851e-03
12.500  21.000  5.5596e-03
12.500  21.250  6.3379e-03
12.500  21.500  6.6691e-03
12.500  21.750  6.9532e-03
12.500  22.000  7.2343e-03
12.500  22.250  7.2646e-03
12.500  22.500  7.2892e-03
12.500  22.750  7.3085e-03
12.500  23.000  7.3226e-03
12.500  23.250  7.3311e-03
12.500  23.500  7.3360e-03
12.500  23.750  7.3398e-03
12.500  24.000  7.3426e-03
12.750  17.000  3.1300e-04
12.750  17.250  4.0230e-04
12.750  17.500  4.0897e-04
12.750  17.750  4.1457e-04
12.750  18.000  4.2551e-04
12.750  18.250  4.4461e-04
12.750  18.500  4.7506e-04
12.750  18.750  5.2132e-04
12.750  19.000  5.8881e-04
12.750  19.250  6.8436e-04
12.750  19.500  8.1778e-04
12.750  19.750  1.0044e-03
12.750  20.000  1.2682e-03
12.750  20.250  1.6398e-03
12.750  20.500  2.1746e-03
12.750  20.750  2.9479e-03
12.750  21.000  4.1011e-03
12.750  21.250  5.7535e-03
12.750  21.500  6.3684e-03
12.750  21.750  6.7408e-03
12.750  22.000  7.0393e-03
12.750  22.250  7.2356e-03
12.750  22.500  7.2636e-03
12.750  22.750  7.2872e-03
12.750  23.000  7.3070e-03
12.750  23.250  7.3212e-03
12.750  23.500  7.3301e-03
12.750  23.750  7.3354e-03
12.750  24.000  7.3395e-03
13.000  17.000  1.5671e-04
13.000  17.250  2.8947e-04
13.000  17.500  3.8181e-04
13.000  17.750  4.1078e-04
13.000  18.000  4.1778e-04
13.000  18.250  4.3053e-04
13.000  18.500  4.5160e-04
13.000  18.750  4.8420e-04
13.000  19.000  5.3226e-04
13.000  19.250  6.0074e-04
13.000  19.500  6.9679e-04
13.000  19.750  8.3095e-04
13.000  20.000  1.0191e-03
13.000  20.250  1.2859e-03
13.000  20.500  1.6653e-03
13.000  20.750  2.2160e-03
13.000  21.000  3.0228e-03
13.000  21.250  4.2409e-03
13.000  21.500  5.8844e-03
13.000  21.750  6.4318e-03
13.000  22.000  6.8007e-03
13.000  22.250  7.1015e-03
13.000  22.500  7.2353e-03
13.000  22.750  7.2622e-03
13.000  23.000  7.2858e-03
13.000  23.250  7.3053e-03
13.000  23.500  7.3198e-03
13.000  23.750  7.3288e-03
13.000  24.000  7.3344e-03
13.250  17.000  9.5391e-05
13.250  17.250  1.8165e-04
13.250  17.500  3.4996e-04
13.250  17.750  4.0872e-04
13.250  18.000  4.1300e-04
13.250  18.250  4.2123e-04
13.250  18.500  4.3547e-04
13.250  18.750  4.5802e-04
13.250  19.000  4.9185e-04
13.250  19.250  5.4058e-04
13.250  19.500  6.0947e-04
13.250  19.750  7.0601e-04
13.250  20.000  8.4107e-04
13.250  20.250  1.0315e-03
13.250  20.500  1.3041e-03
13.250  20.750  1.6925e-03
13.250  21.000  2.2671e-03
13.250  21.250  3.1151e-03
13.250  21.500  4.3281e-03
13.250  21.750  5.9401e-03
13.250  22.000  6.4588e-03
13.250  22.250  6.8386e-03
13.250  22.500  7.1193e-03
13.250  22.750  7.2330e-03
13.250  23.000  7.2600e-03
13.250  23.250  7.2834e-03
13.250  23.500  7.3033e-03
13.250  23.750  7.3178e-03
13.250  24.000  7.3271e-03
13.500  17.000  5.7366e-05
13.500  17.250  1.1292e-04
13.500  17.500  2.3531e-04
13.500  17.750  3.6387e-04
13.500  18.000  4.0996e-04
13.500  18.250  4.1523e-04
13.500  18.500  4.2453e-04
13.500  18.750  4.3967e-04
13.500  19.000  4.6321e-04
13.500  19.250  4.9753e-04
13.500  19.500  5.4683e-04
13.500  19.750  6.1597e-04
13.500  20.000  7.1243e-04
13.500  20.250  8.4848e-04
13.500  20.500  1.0424e-03
13.500  20.750  1.3188e-03
13.500  21.000  1.7154e-03
13.500  21.250  2.3114e-03
13.500  21.500  3.1481e-03
13.500  21.750  4.4253e-03
13.500  22.000  5.9558e-03
13.500  22.250  6.4563e-03
13.500  22.500  6.8226e-03
13.500  22.750  7.1040e-03
13.500  23.000  7.2279e-03
13.500  23.250  7.2556e-03
13.500  23.500  7.2801e-03
13.500  23.750  7.3004e-03
13.500  24.000  7.3150e-03
13.750  17.000  3.4733e-05
13.750  17.250  6.8642e-05
13.750  17.500  1.5251e-04
13.750  17.750  2.6872e-04
13.750  18.000  4.0181e-04
13.750  18.250  4.1128e-04
13.750  18.500  4.1712e-04
13.750  18.750  4.2708e-04
13.750  19.000  4.4305e-04
13.750  19.250  4.6700e-04
13.750  19.500  5.0165e-04
13.750  19.750  5.5078e-04
13.750  20.000  6.1984e-04
13.750  20.250  7.1695e-04
13.750  20.500  8.5457e-04
13.750  20.750  1.0514e-03
13.750  21.000  1.3334e-03
13.750  21.250  1.7416e-03
13.750  21.500  2.3233e-03
13.750  21.750  3.2204e-03
13.750  22.000  4.5385e-03
13.750  22.250  5.9684e-03
13.750  22.500  6.4190e-03
13.750  22.750  6.7999e-03
13.750  23.000  7.0894e-03
13.750  23.250  7.2179e-03
13.750  23.500  7.2475e-03
13.750  23.750  7.2742e-03
13.750  24.000  7.2956e-03
14.000  17.000  2.0741e-05
14.000  17.250  4.1893e-05
14.000  17.500  9.3498e-05
14.000  17.750  1.8535e-04
14.000  18.000  3.1506e-04
14.000  18.250  4.0897e-04
14.000  18.500  4.1251e-04
14.000  18.750  4.1868e-04
14.000  19.000  4.2905e-04
14.000  19.250  4.4527e-04
14.000  19.500  4.6922e-04
14.000  19.750  5.0395e-04
14.000  20.000  5.5292e-04
14.000  20.250  6.2165e-04
14.000  20.500  7.1951e-04
14.000  20.750  8.5893e-04
14.000  21.000  1.0575e-03
14.000  21.250  1.3477e-03
14.000  21.500  1.7495e-03
14.000  21.750  2.3672e-03
14.000  22.000  3.3087e-03
14.000  22.250  4.6955e-03
14.000  22.500  5.9652e-03
14.000  22.750  6.3842e-03
14.000  23.000  6.7666e-03
14.000  23.250  7.0824e-03
14.000  23.500  7.2010e-03
14.000  23.750  7.2342e-03
14.000  24.000  7.2645e-03
