InwT 1324.00A  relative to Inci 1215.00A scaled to 1215A.
Hden   Phi(H)  Eq_Width (A)
7.000  17.000  1.8034e-02
7.000  17.250  1.4421e-02
7.000  17.500  1.1899e-02
7.000  17.750  1.0202e-02
7.000  18.000  9.2056e-03
7.000  18.250  8.6326e-03
7.000  18.500  8.2965e-03
7.000  18.750  8.1414e-03
7.000  19.000  8.0607e-03
7.000  19.250  8.0156e-03
7.000  19.500  7.9966e-03
7.000  19.750  7.9887e-03
7.000  20.000  7.9853e-03
7.000  20.250  7.9837e-03
7.000  20.500  7.9829e-03
7.000  20.750  7.9825e-03
7.000  21.000  7.9822e-03
7.000  21.250  7.9821e-03
7.000  21.500  7.9822e-03
7.000  21.750  7.9820e-03
7.000  22.000  7.9820e-03
7.000  22.250  7.9820e-03
7.000  22.500  7.9820e-03
7.000  22.750  7.9821e-03
7.000  23.000  7.9821e-03
7.000  23.250  7.9819e-03
7.000  23.500  7.9819e-03
7.000  23.750  7.9819e-03
7.000  24.000  7.9819e-03
7.250  17.000  2.3032e-02
7.250  17.250  1.7963e-02
7.250  17.500  1.4383e-02
7.250  17.750  1.1879e-02
7.250  18.000  1.0191e-02
7.250  18.250  9.2001e-03
7.250  18.500  8.6300e-03
7.250  18.750  8.2956e-03
7.250  19.000  8.1411e-03
7.250  19.250  8.0605e-03
7.250  19.500  8.0156e-03
7.250  19.750  7.9966e-03
7.250  20.000  7.9887e-03
7.250  20.250  7.9853e-03
7.250  20.500  7.9836e-03
7.250  20.750  7.9829e-03
7.250  21.000  7.9825e-03
7.250  21.250  7.9822e-03
7.250  21.500  7.9821e-03
7.250  21.750  7.9836e-03
7.250  22.000  7.9820e-03
7.250  22.250  7.9820e-03
7.250  22.500  7.9820e-03
7.250  22.750  7.9827e-03
7.250  23.000  7.9827e-03
7.250  23.250  7.9819e-03
7.250  23.500  7.9819e-03
7.250  23.750  7.9819e-03
7.250  24.000  7.9819e-03
7.500  17.000  2.4310e-02
7.500  17.250  2.2979e-02
7.500  17.500  1.7923e-02
7.500  17.750  1.4363e-02
7.500  18.000  1.1869e-02
7.500  18.250  1.0185e-02
7.500  18.500  9.1965e-03
7.500  18.750  8.6283e-03
7.500  19.000  8.2950e-03
7.500  19.250  8.1408e-03
7.500  19.500  8.0605e-03
7.500  19.750  8.0156e-03
7.500  20.000  7.9966e-03
7.500  20.250  7.9887e-03
7.500  20.500  7.9853e-03
7.500  20.750  7.9836e-03
7.500  21.000  7.9828e-03
7.500  21.250  7.9824e-03
7.500  21.500  7.9822e-03
7.500  21.750  7.9821e-03
7.500  22.000  7.9821e-03
7.500  22.250  7.9820e-03
7.500  22.500  7.9820e-03
7.500  22.750  7.9820e-03
7.500  23.000  7.9823e-03
7.500  23.250  7.9827e-03
7.500  23.500  7.9819e-03
7.500  23.750  7.9829e-03
7.500  24.000  7.9819e-03
7.750  17.000  2.8463e-02
7.750  17.250  2.3865e-02
7.750  17.500  2.2954e-02
7.750  17.750  1.7900e-02
7.750  18.000  1.4352e-02
7.750  18.250  1.1863e-02
7.750  18.500  1.0180e-02
7.750  18.750  9.1942e-03
7.750  19.000  8.6273e-03
7.750  19.250  8.2946e-03
7.750  19.500  8.1407e-03
7.750  19.750  8.0604e-03
7.750  20.000  8.0156e-03
7.750  20.250  7.9966e-03
7.750  20.500  7.9887e-03
7.750  20.750  7.9853e-03
7.750  21.000  7.9836e-03
7.750  21.250  7.9828e-03
7.750  21.500  7.9824e-03
7.750  21.750  7.9821e-03
7.750  22.000  7.9821e-03
7.750  22.250  7.9820e-03
7.750  22.500  7.9820e-03
7.750  22.750  7.9821e-03
7.750  23.000  7.9822e-03
7.750  23.250  7.9820e-03
7.750  23.500  7.9827e-03
7.750  23.750  7.9827e-03
7.750  24.000  7.9819e-03
8.000  17.000  3.5289e-02
8.000  17.250  2.7443e-02
8.000  17.500  2.3450e-02
8.000  17.750  2.2924e-02
8.000  18.000  1.7885e-02
8.000  18.250  1.4347e-02
8.000  18.500  1.1861e-02
8.000  18.750  1.0178e-02
8.000  19.000  9.1927e-03
8.000  19.250  8.6266e-03
8.000  19.500  8.2943e-03
8.000  19.750  8.1406e-03
8.000  20.000  8.0604e-03
8.000  20.250  8.0156e-03
8.000  20.500  7.9966e-03
8.000  20.750  7.9887e-03
8.000  21.000  7.9853e-03
8.000  21.250  7.9836e-03
8.000  21.500  7.9828e-03
8.000  21.750  7.9824e-03
8.000  22.000  7.9821e-03
8.000  22.250  7.9820e-03
8.000  22.500  7.9820e-03
8.000  22.750  7.9821e-03
8.000  23.000  7.9819e-03
8.000  23.250  7.9824e-03
8.000  23.500  7.9819e-03
8.000  23.750  7.9819e-03
8.000  24.000  7.9819e-03
8.250  17.000  4.0426e-02
8.250  17.250  3.4329e-02
8.250  17.500  2.6728e-02
8.250  17.750  2.3185e-02
8.250  18.000  2.2914e-02
8.250  18.250  1.7875e-02
8.250  18.500  1.4347e-02
8.250  18.750  1.1861e-02
8.250  19.000  1.0176e-02
8.250  19.250  9.1915e-03
8.250  19.500  8.6262e-03
8.250  19.750  8.2942e-03
8.250  20.000  8.1406e-03
8.250  20.250  8.0604e-03
8.250  20.500  8.0156e-03
8.250  20.750  7.9966e-03
8.250  21.000  7.9887e-03
8.250  21.250  7.9853e-03
8.250  21.500  7.9836e-03
8.250  21.750  7.9828e-03
8.250  22.000  7.9824e-03
8.250  22.250  7.9821e-03
8.250  22.500  7.9820e-03
8.250  22.750  7.9821e-03
8.250  23.000  7.9819e-03
8.250  23.250  7.9840e-03
8.250  23.500  7.9819e-03
8.250  23.750  7.9819e-03
8.250  24.000  7.9825e-03
8.500  17.000  4.4005e-02
8.500  17.250  3.9590e-02
8.500  17.500  3.3642e-02
8.500  17.750  2.6243e-02
8.500  18.000  2.3032e-02
8.500  18.250  2.2900e-02
8.500  18.500  1.7866e-02
8.500  18.750  1.4348e-02
8.500  19.000  1.2152e-02
8.500  19.250  1.0548e-02
8.500  19.500  9.4409e-03
8.500  19.750  8.7346e-03
8.500  20.000  8.3331e-03
8.500  20.250  8.1404e-03
8.500  20.500  8.0603e-03
8.500  20.750  8.0156e-03
8.500  21.000  7.9966e-03
8.500  21.250  7.9887e-03
8.500  21.500  7.9853e-03
8.500  21.750  7.9836e-03
8.500  22.000  7.9828e-03
8.500  22.250  7.9824e-03
8.500  22.500  7.9821e-03
8.500  22.750  7.9820e-03
8.500  23.000  7.9819e-03
8.500  23.250  7.9821e-03
8.500  23.500  7.9819e-03
8.500  23.750  7.9819e-03
8.500  24.000  7.9819e-03
8.750  17.000  4.6458e-02
8.750  17.250  4.3366e-02
8.750  17.500  3.8984e-02
8.750  17.750  3.3208e-02
8.750  18.000  2.5899e-02
8.750  18.250  2.2943e-02
8.750  18.500  2.2880e-02
8.750  18.750  1.7856e-02
8.750  19.000  1.4350e-02
8.750  19.250  1.1864e-02
8.750  19.500  1.0099e-02
8.750  19.750  9.0260e-03
8.750  20.000  8.4639e-03
8.750  20.250  8.2296e-03
8.750  20.500  8.1405e-03
8.750  20.750  8.0603e-03
8.750  21.000  8.0156e-03
8.750  21.250  7.9966e-03
8.750  21.500  7.9887e-03
8.750  21.750  7.9853e-03
8.750  22.000  7.9836e-03
8.750  22.250  7.9828e-03
8.750  22.500  7.9824e-03
8.750  22.750  7.9821e-03
8.750  23.000  7.9828e-03
8.750  23.250  7.9819e-03
8.750  23.500  7.9821e-03
8.750  23.750  7.9819e-03
8.750  24.000  7.9818e-03
9.000  17.000  4.8035e-02
9.000  17.250  4.5990e-02
9.000  17.500  4.2863e-02
9.000  17.750  3.8421e-02
9.000  18.000  3.2644e-02
9.000  18.250  2.5511e-02
9.000  18.500  2.2879e-02
9.000  18.750  2.2853e-02
9.000  19.000  1.7845e-02
9.000  19.250  1.4352e-02
9.000  19.500  1.1866e-02
9.000  19.750  1.0172e-02
9.000  20.000  9.1892e-03
9.000  20.250  8.6253e-03
9.000  20.500  8.2939e-03
9.000  20.750  8.1405e-03
9.000  21.000  8.0603e-03
9.000  21.250  8.0156e-03
9.000  21.500  7.9966e-03
9.000  21.750  7.9887e-03
9.000  22.000  7.9852e-03
9.000  22.250  7.9836e-03
9.000  22.500  7.9828e-03
9.000  22.750  7.9824e-03
9.000  23.000  7.9821e-03
9.000  23.250  7.9820e-03
9.000  23.500  7.9819e-03
9.000  23.750  7.9819e-03
9.000  24.000  7.9820e-03
9.250  17.000  4.8898e-02
9.250  17.250  4.7688e-02
9.250  17.500  4.5592e-02
9.250  17.750  4.2311e-02
9.250  18.000  3.7710e-02
9.250  18.250  3.1868e-02
9.250  18.500  2.4899e-02
9.250  18.750  2.2820e-02
9.250  19.000  2.2818e-02
9.250  19.250  1.7830e-02
9.250  19.500  1.4353e-02
9.250  19.750  1.1868e-02
9.250  20.000  1.0171e-02
9.250  20.250  9.1887e-03
9.250  20.500  8.6251e-03
9.250  20.750  8.2938e-03
9.250  21.000  8.1405e-03
9.250  21.250  8.0603e-03
9.250  21.500  8.0151e-03
9.250  21.750  7.9961e-03
9.250  22.000  7.9881e-03
9.250  22.250  7.9847e-03
9.250  22.500  7.9832e-03
9.250  22.750  7.9825e-03
9.250  23.000  7.9821e-03
9.250  23.250  7.9820e-03
9.250  23.500  7.9818e-03
9.250  23.750  7.9817e-03
9.250  24.000  7.9818e-03
9.500  17.000  4.9160e-02
9.500  17.250  4.8595e-02
9.500  17.500  4.7371e-02
9.500  17.750  4.5123e-02
9.500  18.000  4.1543e-02
9.500  18.250  3.6578e-02
9.500  18.500  3.0529e-02
9.500  18.750  2.3930e-02
9.500  19.000  2.2760e-02
9.500  19.250  2.2773e-02
9.500  19.500  1.7812e-02
9.500  19.750  1.4350e-02
9.500  20.000  1.1869e-02
9.500  20.250  1.0170e-02
9.500  20.500  9.1882e-03
9.500  20.750  8.6246e-03
9.500  21.000  8.2933e-03
9.500  21.250  8.1400e-03
9.500  21.500  8.0598e-03
9.500  21.750  8.0147e-03
9.500  22.000  7.9959e-03
9.500  22.250  7.9879e-03
9.500  22.500  7.9844e-03
9.500  22.750  7.9828e-03
9.500  23.000  7.9820e-03
9.500  23.250  7.9816e-03
9.500  23.500  7.9814e-03
9.500  23.750  7.9812e-03
9.500  24.000  7.9812e-03
9.750  17.000  4.8932e-02
9.750  17.250  4.8832e-02
9.750  17.500  4.8310e-02
9.750  17.750  4.6960e-02
9.750  18.000  4.4334e-02
9.750  18.250  4.0289e-02
9.750  18.500  3.4841e-02
9.750  18.750  2.8282e-02
9.750  19.000  2.3670e-02
9.750  19.250  2.2687e-02
9.750  19.500  2.2718e-02
9.750  19.750  1.7792e-02
9.750  20.000  1.4346e-02
9.750  20.250  1.1870e-02
9.750  20.500  1.0169e-02
9.750  20.750  9.1879e-03
9.750  21.000  8.6245e-03
9.750  21.250  8.2933e-03
9.750  21.500  8.1400e-03
9.750  21.750  8.0598e-03
9.750  22.000  8.0148e-03
9.750  22.250  7.9959e-03
9.750  22.500  7.9879e-03
9.750  22.750  7.9844e-03
9.750  23.000  7.9828e-03
9.750  23.250  7.9820e-03
9.750  23.500  7.9816e-03
9.750  23.750  7.9813e-03
9.750  24.000  7.9812e-03
10.000  17.000  4.8358e-02
10.000  17.250  4.8507e-02
10.000  17.500  4.8461e-02
10.000  17.750  4.7891e-02
10.000  18.000  4.6215e-02
10.000  18.250  4.3167e-02
10.000  18.500  3.8592e-02
10.000  18.750  3.2851e-02
10.000  19.000  2.6689e-02
10.000  19.250  2.3356e-02
10.000  19.500  2.2587e-02
10.000  19.750  2.2647e-02
10.000  20.000  1.7771e-02
10.000  20.250  1.4339e-02
10.000  20.500  1.1871e-02
10.000  20.750  1.0169e-02
10.000  21.000  9.1878e-03
10.000  21.250  8.6246e-03
10.000  21.500  8.2933e-03
10.000  21.750  8.1400e-03
10.000  22.000  8.0599e-03
10.000  22.250  8.0149e-03
10.000  22.500  7.9959e-03
10.000  22.750  7.9879e-03
10.000  23.000  7.9844e-03
10.000  23.250  7.9829e-03
10.000  23.500  7.9821e-03
10.000  23.750  7.9816e-03
10.000  24.000  7.9814e-03
10.250  17.000  4.7787e-02
10.250  17.250  4.7844e-02
10.250  17.500  4.8057e-02
10.250  17.750  4.7994e-02
10.250  18.000  4.7190e-02
10.250  18.250  4.5192e-02
10.250  18.500  4.1684e-02
10.250  18.750  3.6754e-02
10.250  19.000  3.0652e-02
10.250  19.250  2.4505e-02
10.250  19.500  2.3168e-02
10.250  19.750  2.2463e-02
10.250  20.000  2.2585e-02
10.250  20.250  1.7758e-02
10.250  20.500  1.4331e-02
10.250  20.750  1.1870e-02
10.250  21.000  1.0169e-02
10.250  21.250  9.1879e-03
10.250  21.500  8.6246e-03
10.250  21.750  8.2933e-03
10.250  22.000  8.1401e-03
10.250  22.250  8.0599e-03
10.250  22.500  8.0150e-03
10.250  22.750  7.9959e-03
10.250  23.000  7.9880e-03
10.250  23.250  7.9844e-03
10.250  23.500  7.9828e-03
10.250  23.750  7.9820e-03
10.250  24.000  7.9816e-03
10.500  17.000  4.7347e-02
10.500  17.250  4.7231e-02
10.500  17.500  4.7344e-02
10.500  17.750  4.7564e-02
10.500  18.000  4.7305e-02
10.500  18.250  4.6106e-02
10.500  18.500  4.3750e-02
10.500  18.750  3.9886e-02
10.500  19.000  3.4781e-02
10.500  19.250  2.8561e-02
10.500  19.500  2.5048e-02
10.500  19.750  2.3290e-02
10.500  20.000  2.2516e-02
10.500  20.250  2.2543e-02
10.500  20.500  1.7758e-02
10.500  20.750  1.4323e-02
10.500  21.000  1.1870e-02
10.500  21.250  1.0169e-02
10.500  21.500  9.1881e-03
10.500  21.750  8.6247e-03
10.500  22.000  8.2934e-03
10.500  22.250  8.1402e-03
10.500  22.500  8.0599e-03
10.500  22.750  8.0151e-03
10.500  23.000  7.9960e-03
10.500  23.250  7.9879e-03
10.500  23.500  7.9844e-03
10.500  23.750  7.9829e-03
10.500  24.000  7.9821e-03
10.750  17.000  4.7074e-02
10.750  17.250  4.6825e-02
10.750  17.500  4.6750e-02
10.750  17.750  4.6854e-02
10.750  18.000  4.6737e-02
10.750  18.250  4.6050e-02
10.750  18.500  4.4540e-02
10.750  18.750  4.2018e-02
10.750  19.000  3.8241e-02
10.750  19.250  3.3080e-02
10.750  19.500  2.7036e-02
10.750  19.750  2.5095e-02
10.750  20.000  2.3676e-02
10.750  20.250  2.2830e-02
10.750  20.500  2.2623e-02
10.750  20.750  1.7779e-02
10.750  21.000  1.4319e-02
10.750  21.250  1.1868e-02
10.750  21.500  1.0169e-02
10.750  21.750  9.1886e-03
10.750  22.000  8.6248e-03
10.750  22.250  8.2934e-03
10.750  22.500  8.1403e-03
10.750  22.750  8.0600e-03
10.750  23.000  8.0151e-03
10.750  23.250  7.9960e-03
10.750  23.500  7.9880e-03
10.750  23.750  7.9844e-03
10.750  24.000  7.9829e-03
11.000  17.000  4.6952e-02
11.000  17.250  4.6659e-02
11.000  17.500  4.6397e-02
11.000  17.750  4.6105e-02
11.000  18.000  4.5747e-02
11.000  18.250  4.5215e-02
11.000  18.500  4.4418e-02
11.000  18.750  4.3021e-02
11.000  19.000  4.0581e-02
11.000  19.250  3.6786e-02
11.000  19.500  3.1538e-02
11.000  19.750  2.4983e-02
11.000  20.000  2.5759e-02
11.000  20.250  2.4857e-02
11.000  20.500  2.3425e-02
11.000  20.750  2.2870e-02
11.000  21.000  1.7860e-02
11.000  21.250  1.4321e-02
11.000  21.500  1.1867e-02
11.000  21.750  1.0169e-02
11.000  22.000  9.1892e-03
11.000  22.250  8.6249e-03
11.000  22.500  8.2933e-03
11.000  22.750  8.1404e-03
11.000  23.000  8.0602e-03
11.000  23.250  8.0151e-03
11.000  23.500  7.9961e-03
11.000  23.750  7.9881e-03
11.000  24.000  7.9845e-03
11.250  17.000  4.6957e-02
11.250  17.250  4.6671e-02
11.250  17.500  4.6172e-02
11.250  17.750  4.5458e-02
11.250  18.000  4.4679e-02
11.250  18.250  4.4061e-02
11.250  18.500  4.3648e-02
11.250  18.750  4.3031e-02
11.250  19.000  4.1790e-02
11.250  19.250  3.9418e-02
11.250  19.500  3.5601e-02
11.250  19.750  3.0128e-02
11.250  20.000  2.4863e-02
11.250  20.250  2.6484e-02
11.250  20.500  2.5595e-02
11.250  20.750  2.4401e-02
11.250  21.000  2.3454e-02
11.250  21.250  1.8001e-02
11.250  21.500  1.4340e-02
11.250  21.750  1.1865e-02
11.250  22.000  1.0170e-02
11.250  22.250  9.1900e-03
11.250  22.500  8.6253e-03
11.250  22.750  8.2933e-03
11.250  23.000  8.1405e-03
11.250  23.250  8.0603e-03
11.250  23.500  8.0151e-03
11.250  23.750  7.9962e-03
11.250  24.000  7.9881e-03
11.500  17.000  4.7080e-02
11.500  17.250  4.6717e-02
11.500  17.500  4.5968e-02
11.500  17.750  4.4896e-02
11.500  18.000  4.3760e-02
11.500  18.250  4.2957e-02
11.500  18.500  4.2579e-02
11.500  18.750  4.2426e-02
11.500  19.000  4.2083e-02
11.500  19.250  4.0886e-02
11.500  19.500  3.8478e-02
11.500  19.750  3.4622e-02
11.500  20.000  2.9049e-02
11.500  20.250  2.5319e-02
11.500  20.500  2.7830e-02
11.500  20.750  2.7187e-02
11.500  21.000  2.5892e-02
11.500  21.250  2.4191e-02
11.500  21.500  1.8210e-02
11.500  21.750  1.4375e-02
11.500  22.000  1.1863e-02
11.500  22.250  1.0171e-02
11.500  22.500  9.1909e-03
11.500  22.750  8.6256e-03
11.500  23.000  8.2932e-03
11.500  23.250  8.1405e-03
11.500  23.500  8.0604e-03
11.500  23.750  8.0152e-03
11.500  24.000  7.9962e-03
11.750  17.000  4.7262e-02
11.750  17.250  4.6687e-02
11.750  17.500  4.5671e-02
11.750  17.750  4.4311e-02
11.750  18.000  4.3033e-02
11.750  18.250  4.2109e-02
11.750  18.500  4.1641e-02
11.750  18.750  4.1592e-02
11.750  19.000  4.1666e-02
11.750  19.250  4.1415e-02
11.750  19.500  4.0215e-02
11.750  19.750  3.7866e-02
11.750  20.000  3.4041e-02
11.750  20.250  2.8505e-02
11.750  20.500  2.6654e-02
11.750  20.750  2.9432e-02
11.750  21.000  2.9211e-02
11.750  21.250  2.8171e-02
11.750  21.500  2.4821e-02
11.750  21.750  1.8460e-02
11.750  22.000  1.4439e-02
11.750  22.250  1.1862e-02
11.750  22.500  1.0172e-02
11.750  22.750  9.1919e-03
11.750  23.000  8.6261e-03
11.750  23.250  8.2930e-03
11.750  23.500  8.1405e-03
11.750  23.750  8.0605e-03
11.750  24.000  8.0154e-03
12.000  17.000  4.7352e-02
12.000  17.250  4.6479e-02
12.000  17.500  4.5151e-02
12.000  17.750  4.3625e-02
12.000  18.000  4.2373e-02
12.000  18.250  4.1496e-02
12.000  18.500  4.0640e-02
12.000  18.750  3.9729e-02
12.000  19.000  3.8785e-02
12.000  19.250  3.7834e-02
12.000  19.500  3.6896e-02
12.000  19.750  3.5997e-02
12.000  20.000  3.5160e-02
12.000  20.250  3.4407e-02
12.000  20.500  3.3763e-02
12.000  20.750  3.3250e-02
12.000  21.000  3.2892e-02
12.000  21.250  3.2712e-02
12.000  21.500  3.1467e-02
12.000  21.750  2.5374e-02
12.000  22.000  1.8738e-02
12.000  22.250  1.4523e-02
12.000  22.500  1.1863e-02
12.000  22.750  1.0172e-02
12.000  23.000  9.1928e-03
12.000  23.250  8.6267e-03
12.000  23.500  8.2928e-03
12.000  23.750  8.1404e-03
12.000  24.000  8.0605e-03
12.250  17.000  4.7074e-02
12.250  17.250  4.5853e-02
12.250  17.500  4.4262e-02
12.250  17.750  4.2762e-02
12.250  18.000  4.1676e-02
12.250  18.250  4.0998e-02
12.250  18.500  4.0615e-02
12.250  18.750  4.0293e-02
12.250  19.000  3.9978e-02
12.250  19.250  3.9670e-02
12.250  19.500  3.9370e-02
12.250  19.750  3.9078e-02
12.250  20.000  3.8796e-02
12.250  20.250  3.8523e-02
12.250  20.500  3.8262e-02
12.250  20.750  3.8011e-02
12.250  21.000  3.7773e-02
12.250  21.250  3.7547e-02
12.250  21.500  3.7335e-02
12.250  21.750  3.5141e-02
12.250  22.000  2.5926e-02
12.250  22.250  1.8888e-02
12.250  22.500  1.4552e-02
12.250  22.750  1.1866e-02
12.250  23.000  1.0173e-02
12.250  23.250  9.1938e-03
12.250  23.500  8.6272e-03
12.250  23.750  8.2926e-03
12.250  24.000  8.1403e-03
12.500  17.000  4.5844e-02
12.500  17.250  4.4392e-02
12.500  17.500  4.2872e-02
12.500  17.750  4.1698e-02
12.500  18.000  4.0933e-02
12.500  18.250  4.0493e-02
12.500  18.500  4.0569e-02
12.500  18.750  4.1126e-02
12.500  19.000  4.2046e-02
12.500  19.250  4.3213e-02
12.500  19.500  4.4509e-02
12.500  19.750  4.5818e-02
12.500  20.000  4.7022e-02
12.500  20.250  4.8005e-02
12.500  20.500  4.8649e-02
12.500  20.750  4.8838e-02
12.500  21.000  4.8455e-02
12.500  21.250  4.7382e-02
12.500  21.500  4.5503e-02
12.500  21.750  4.2701e-02
12.500  22.000  3.7350e-02
12.500  22.250  2.6328e-02
12.500  22.500  1.9119e-02
12.500  22.750  1.4652e-02
12.500  23.000  1.1870e-02
12.500  23.250  1.0173e-02
12.500  23.500  9.1947e-03
12.500  23.750  8.6278e-03
12.500  24.000  8.2922e-03
12.750  17.000  3.4225e-02
12.750  17.250  4.1646e-02
12.750  17.500  4.1280e-02
12.750  17.750  4.0587e-02
12.750  18.000  4.0114e-02
12.750  18.250  3.9878e-02
12.750  18.500  3.9834e-02
12.750  18.750  3.9903e-02
12.750  19.000  4.0008e-02
12.750  19.250  4.0145e-02
12.750  19.500  4.0435e-02
12.750  19.750  4.0988e-02
12.750  20.000  4.1612e-02
12.750  20.250  4.1879e-02
12.750  20.500  4.1361e-02
12.750  20.750  4.0204e-02
12.750  21.000  3.8480e-02
12.750  21.250  3.5753e-02
12.750  21.500  4.1747e-02
12.750  21.750  4.8393e-02
12.750  22.000  4.8366e-02
12.750  22.250  3.8607e-02
12.750  22.500  2.6854e-02
12.750  22.750  1.9388e-02
12.750  23.000  1.4726e-02
12.750  23.250  1.1873e-02
12.750  23.500  1.0173e-02
12.750  23.750  9.1952e-03
12.750  24.000  8.6283e-03
13.000  17.000  1.8056e-02
13.000  17.250  2.9863e-02
13.000  17.500  3.7567e-02
13.000  17.750  3.9466e-02
13.000  18.000  3.9204e-02
13.000  18.250  3.9138e-02
13.000  18.500  3.9257e-02
13.000  18.750  3.9505e-02
13.000  19.000  3.9813e-02
13.000  19.250  4.0131e-02
13.000  19.500  4.0431e-02
13.000  19.750  4.0884e-02
13.000  20.000  4.1565e-02
13.000  20.250  4.2343e-02
13.000  20.500  4.3058e-02
13.000  20.750  4.3045e-02
13.000  21.000  4.2669e-02
13.000  21.250  4.2531e-02
13.000  21.500  4.1433e-02
13.000  21.750  5.0320e-02
13.000  22.000  5.5375e-02
13.000  22.250  5.2915e-02
13.000  22.500  3.9666e-02
13.000  22.750  2.7290e-02
13.000  23.000  1.9568e-02
13.000  23.250  1.4781e-02
13.000  23.500  1.1875e-02
13.000  23.750  1.0172e-02
13.000  24.000  9.1954e-03
13.250  17.000  1.1604e-02
13.250  17.250  1.9380e-02
13.250  17.500  3.3709e-02
13.250  17.750  3.8299e-02
13.250  18.000  3.8195e-02
13.250  18.250  3.8250e-02
13.250  18.500  3.8505e-02
13.250  18.750  3.8919e-02
13.250  19.000  3.9424e-02
13.250  19.250  3.9965e-02
13.250  19.500  4.0480e-02
13.250  19.750  4.1019e-02
13.250  20.000  4.1641e-02
13.250  20.250  4.2414e-02
13.250  20.500  4.3428e-02
13.250  20.750  4.4492e-02
13.250  21.000  4.5413e-02
13.250  21.250  4.6217e-02
13.250  21.500  4.6268e-02
13.250  21.750  4.6491e-02
13.250  22.000  5.5929e-02
13.250  22.250  6.1191e-02
13.250  22.500  5.5809e-02
13.250  22.750  4.0703e-02
13.250  23.000  2.7721e-02
13.250  23.250  1.9593e-02
13.250  23.500  1.4776e-02
13.250  23.750  1.1877e-02
13.250  24.000  1.0170e-02
13.500  17.000  7.5929e-03
13.500  17.250  1.2728e-02
13.500  17.500  2.3300e-02
13.500  17.750  3.3623e-02
13.500  18.000  3.7082e-02
13.500  18.250  3.7228e-02
13.500  18.500  3.7582e-02
13.500  18.750  3.8137e-02
13.500  19.000  3.8817e-02
13.500  19.250  3.9568e-02
13.500  19.500  4.0332e-02
13.500  19.750  4.1100e-02
13.500  20.000  4.1892e-02
13.500  20.250  4.2798e-02
13.500  20.500  4.3780e-02
13.500  20.750  4.4912e-02
13.500  21.000  4.5911e-02
13.500  21.250  4.7572e-02
13.500  21.500  4.7549e-02
13.500  21.750  4.7773e-02
13.500  22.000  4.9723e-02
13.500  22.250  5.9769e-02
13.500  22.500  6.4101e-02
13.500  22.750  5.7615e-02
13.500  23.000  4.1686e-02
13.500  23.250  2.8198e-02
13.500  23.500  1.9862e-02
13.500  23.750  1.4853e-02
13.500  24.000  1.1877e-02
13.750  17.000  5.2019e-03
13.750  17.250  8.4342e-03
13.750  17.500  1.5891e-02
13.750  17.750  2.5272e-02
13.750  18.000  3.5257e-02
13.750  18.250  3.5974e-02
13.750  18.500  3.6464e-02
13.750  18.750  3.7159e-02
13.750  19.000  3.7993e-02
13.750  19.250  3.8939e-02
13.750  19.500  3.9939e-02
13.750  19.750  4.0966e-02
13.750  20.000  4.2044e-02
13.750  20.250  4.3210e-02
13.750  20.500  4.4474e-02
13.750  20.750  4.5779e-02
13.750  21.000  4.7051e-02
13.750  21.250  4.8066e-02
13.750  21.500  4.9036e-02
13.750  21.750  4.9749e-02
13.750  22.000  5.0396e-02
13.750  22.250  5.5456e-02
13.750  22.500  6.3093e-02
13.750  22.750  6.7572e-02
13.750  23.000  5.9655e-02
13.750  23.250  4.2579e-02
13.750  23.500  2.8522e-02
13.750  23.750  1.9978e-02
13.750  24.000  1.4874e-02
14.000  17.000  3.7108e-03
14.000  17.250  5.8321e-03
14.000  17.500  1.0627e-02
14.000  17.750  1.8245e-02
14.000  18.000  2.7843e-02
14.000  18.250  3.4508e-02
14.000  18.500  3.5061e-02
14.000  18.750  3.5890e-02
14.000  19.000  3.6923e-02
14.000  19.250  3.8076e-02
14.000  19.500  3.9305e-02
14.000  19.750  4.0593e-02
14.000  20.000  4.1937e-02
14.000  20.250  4.3401e-02
14.000  20.500  4.5027e-02
14.000  20.750  4.6761e-02
14.000  21.000  4.8554e-02
14.000  21.250  5.0279e-02
14.000  21.500  5.1416e-02
14.000  21.750  5.2639e-02
14.000  22.000  5.3824e-02
14.000  22.250  5.7085e-02
14.000  22.500  6.4648e-02
14.000  22.750  6.9049e-02
14.000  23.000  7.1207e-02
14.000  23.250  6.2154e-02
14.000  23.500  4.3387e-02
14.000  23.750  2.8788e-02
14.000  24.000  2.0077e-02
