InwC 1143.64A  relative to Inci 1215.00A scaled to 1215A.
Hden   Phi(H)  Eq_Width (A)
7.000  17.000  7.9923e-03
7.000  17.250  7.9955e-03
7.000  17.500  7.9988e-03
7.000  17.750  8.0021e-03
7.000  18.000  8.0055e-03
7.000  18.250  8.0084e-03
7.000  18.500  8.0104e-03
7.000  18.750  8.0114e-03
7.000  19.000  8.0123e-03
7.000  19.250  8.0130e-03
7.000  19.500  8.0133e-03
7.000  19.750  8.0134e-03
7.000  20.000  8.0135e-03
7.000  20.250  8.0135e-03
7.000  20.500  8.0136e-03
7.000  20.750  8.0136e-03
7.000  21.000  8.0136e-03
7.000  21.250  8.0136e-03
7.000  21.500  8.0137e-03
7.000  21.750  8.0136e-03
7.000  22.000  8.0136e-03
7.000  22.250  8.0136e-03
7.000  22.500  8.0136e-03
7.000  22.750  8.0138e-03
7.000  23.000  8.0138e-03
7.000  23.250  8.0136e-03
7.000  23.500  8.0136e-03
7.000  23.750  8.0136e-03
7.000  24.000  8.0136e-03
7.250  17.000  7.9793e-03
7.250  17.250  7.9923e-03
7.250  17.500  7.9956e-03
7.250  17.750  7.9988e-03
7.250  18.000  8.0021e-03
7.250  18.250  8.0055e-03
7.250  18.500  8.0084e-03
7.250  18.750  8.0104e-03
7.250  19.000  8.0114e-03
7.250  19.250  8.0123e-03
7.250  19.500  8.0130e-03
7.250  19.750  8.0133e-03
7.250  20.000  8.0134e-03
7.250  20.250  8.0134e-03
7.250  20.500  8.0135e-03
7.250  20.750  8.0135e-03
7.250  21.000  8.0136e-03
7.250  21.250  8.0136e-03
7.250  21.500  8.0136e-03
7.250  21.750  8.0151e-03
7.250  22.000  8.0136e-03
7.250  22.250  8.0136e-03
7.250  22.500  8.0136e-03
7.250  22.750  8.0143e-03
7.250  23.000  8.0144e-03
7.250  23.250  8.0136e-03
7.250  23.500  8.0136e-03
7.250  23.750  8.0136e-03
7.250  24.000  8.0136e-03
7.500  17.000  7.6514e-03
7.500  17.250  7.9800e-03
7.500  17.500  7.9923e-03
7.500  17.750  7.9956e-03
7.500  18.000  7.9988e-03
7.500  18.250  8.0021e-03
7.500  18.500  8.0055e-03
7.500  18.750  8.0084e-03
7.500  19.000  8.0104e-03
7.500  19.250  8.0114e-03
7.500  19.500  8.0123e-03
7.500  19.750  8.0130e-03
7.500  20.000  8.0133e-03
7.500  20.250  8.0134e-03
7.500  20.500  8.0134e-03
7.500  20.750  8.0135e-03
7.500  21.000  8.0135e-03
7.500  21.250  8.0135e-03
7.500  21.500  8.0136e-03
7.500  21.750  8.0136e-03
7.500  22.000  8.0136e-03
7.500  22.250  8.0136e-03
7.500  22.500  8.0136e-03
7.500  22.750  8.0136e-03
7.500  23.000  8.0140e-03
7.500  23.250  8.0143e-03
7.500  23.500  8.0136e-03
7.500  23.750  8.0146e-03
7.500  24.000  8.0136e-03
7.750  17.000  1.0600e-02
7.750  17.250  7.6529e-03
7.750  17.500  7.9805e-03
7.750  17.750  7.9923e-03
7.750  18.000  7.9956e-03
7.750  18.250  7.9988e-03
7.750  18.500  8.0022e-03
7.750  18.750  8.0055e-03
7.750  19.000  8.0084e-03
7.750  19.250  8.0104e-03
7.750  19.500  8.0114e-03
7.750  19.750  8.0123e-03
7.750  20.000  8.0130e-03
7.750  20.250  8.0133e-03
7.750  20.500  8.0134e-03
7.750  20.750  8.0134e-03
7.750  21.000  8.0135e-03
7.750  21.250  8.0135e-03
7.750  21.500  8.0135e-03
7.750  21.750  8.0135e-03
7.750  22.000  8.0135e-03
7.750  22.250  8.0135e-03
7.750  22.500  8.0136e-03
7.750  22.750  8.0137e-03
7.750  23.000  8.0138e-03
7.750  23.250  8.0136e-03
7.750  23.500  8.0143e-03
7.750  23.750  8.0143e-03
7.750  24.000  8.0136e-03
8.000  17.000  2.5815e-02
8.000  17.250  1.0898e-02
8.000  17.500  -2.0495e-03
8.000  17.750  -1.2756e-02
8.000  18.000  -2.1376e-02
8.000  18.250  -2.8063e-02
8.000  18.500  -3.2969e-02
8.000  18.750  -3.6250e-02
8.000  19.000  -3.8057e-02
8.000  19.250  -3.8546e-02
8.000  19.500  -3.7868e-02
8.000  19.750  -3.6179e-02
8.000  20.000  -3.3631e-02
8.000  20.250  -3.0378e-02
8.000  20.500  -2.6574e-02
8.000  20.750  -2.2371e-02
8.000  21.000  -1.7925e-02
8.000  21.250  -1.3388e-02
8.000  21.500  -8.9135e-03
8.000  21.750  -4.6556e-03
8.000  22.000  -7.6763e-04
8.000  22.250  2.5968e-03
8.000  22.500  5.2842e-03
8.000  22.750  7.1410e-03
8.000  23.000  8.0135e-03
8.000  23.250  8.0140e-03
8.000  23.500  8.0135e-03
8.000  23.750  8.0135e-03
8.000  24.000  8.0135e-03
8.250  17.000  3.7398e-02
8.250  17.250  2.5635e-02
8.250  17.500  1.0840e-02
8.250  17.750  7.6514e-03
8.250  18.000  7.9797e-03
8.250  18.250  7.9923e-03
8.250  18.500  7.9956e-03
8.250  18.750  7.9988e-03
8.250  19.000  8.0022e-03
8.250  19.250  8.0056e-03
8.250  19.500  8.0084e-03
8.250  19.750  8.0104e-03
8.250  20.000  8.0114e-03
8.250  20.250  8.0123e-03
8.250  20.500  8.0130e-03
8.250  20.750  8.0133e-03
8.250  21.000  8.0134e-03
8.250  21.250  8.0134e-03
8.250  21.500  8.0135e-03
8.250  21.750  8.0135e-03
8.250  22.000  8.0135e-03
8.250  22.250  8.0135e-03
8.250  22.500  8.0135e-03
8.250  22.750  8.0137e-03
8.250  23.000  8.0135e-03
8.250  23.250  8.0156e-03
8.250  23.500  8.0135e-03
8.250  23.750  8.0135e-03
8.250  24.000  8.0141e-03
8.500  17.000  4.5761e-02
8.500  17.250  3.7122e-02
8.500  17.500  2.5420e-02
8.500  17.750  1.6492e-02
8.500  18.000  1.1264e-02
8.500  18.250  8.7568e-03
8.500  18.500  7.9923e-03
8.500  18.750  7.9956e-03
8.500  19.000  7.9989e-03
8.500  19.250  7.9773e-03
8.500  19.500  7.9636e-03
8.500  19.750  7.9567e-03
8.500  20.000  7.9555e-03
8.500  20.250  7.9587e-03
8.500  20.500  7.9654e-03
8.500  20.750  7.9743e-03
8.500  21.000  7.9844e-03
8.500  21.250  7.9944e-03
8.500  21.500  8.0034e-03
8.500  21.750  8.0101e-03
8.500  22.000  8.0135e-03
8.500  22.250  8.0135e-03
8.500  22.500  8.0135e-03
8.500  22.750  8.0135e-03
8.500  23.000  8.0135e-03
8.500  23.250  8.0137e-03
8.500  23.500  8.0135e-03
8.500  23.750  8.0135e-03
8.500  24.000  8.0135e-03
8.750  17.000  5.1699e-02
8.750  17.250  4.5479e-02
8.750  17.500  3.6764e-02
8.750  17.750  2.5277e-02
8.750  18.000  1.6102e-02
8.750  18.250  1.0410e-02
8.750  18.500  7.9801e-03
8.750  18.750  7.9923e-03
8.750  19.000  7.9956e-03
8.750  19.250  7.8955e-03
8.750  19.500  7.8250e-03
8.750  19.750  7.7806e-03
8.750  20.000  7.7588e-03
8.750  20.250  7.7561e-03
8.750  20.500  7.7690e-03
8.750  20.750  7.7940e-03
8.750  21.000  7.8276e-03
8.750  21.250  7.8662e-03
8.750  21.500  7.9065e-03
8.750  21.750  7.9448e-03
8.750  22.000  7.9778e-03
8.750  22.250  8.0018e-03
8.750  22.500  8.0135e-03
8.750  22.750  8.0135e-03
8.750  23.000  8.0142e-03
8.750  23.250  8.0135e-03
8.750  23.500  8.0137e-03
8.750  23.750  8.0135e-03
8.750  24.000  8.0135e-03
9.000  17.000  5.5855e-02
9.000  17.250  5.1418e-02
9.000  17.500  4.5040e-02
9.000  17.750  3.6152e-02
9.000  18.000  2.4601e-02
9.000  18.250  1.0163e-02
9.000  18.500  7.6530e-03
9.000  18.750  7.9798e-03
9.000  19.000  7.9922e-03
9.000  19.250  7.9956e-03
9.000  19.500  7.9989e-03
9.000  19.750  8.0024e-03
9.000  20.000  8.0057e-03
9.000  20.250  8.0084e-03
9.000  20.500  8.0104e-03
9.000  20.750  8.0114e-03
9.000  21.000  8.0123e-03
9.000  21.250  8.0130e-03
9.000  21.500  8.0133e-03
9.000  21.750  8.0133e-03
9.000  22.000  8.0134e-03
9.000  22.250  8.0134e-03
9.000  22.500  8.0134e-03
9.000  22.750  8.0135e-03
9.000  23.000  8.0135e-03
9.000  23.250  8.0135e-03
9.000  23.500  8.0135e-03
9.000  23.750  8.0135e-03
9.000  24.000  8.0136e-03
9.250  17.000  5.8739e-02
9.250  17.250  5.5595e-02
9.250  17.500  5.0943e-02
9.250  17.750  4.4224e-02
9.250  18.000  3.5033e-02
9.250  18.250  2.3288e-02
9.250  18.500  1.4617e-02
9.250  18.750  9.8157e-03
9.250  19.000  7.9791e-03
9.250  19.250  7.9921e-03
9.250  19.500  8.2575e-03
9.250  19.750  8.4255e-03
9.250  20.000  8.5109e-03
9.250  20.250  8.5288e-03
9.250  20.500  8.4939e-03
9.250  20.750  8.4213e-03
9.250  21.000  8.3257e-03
9.250  21.250  8.2222e-03
9.250  21.500  8.1256e-03
9.250  21.750  8.0508e-03
9.250  22.000  8.0127e-03
9.250  22.250  8.0129e-03
9.250  22.500  8.0131e-03
9.250  22.750  8.0131e-03
9.250  23.000  8.0133e-03
9.250  23.250  8.0133e-03
9.250  23.500  8.0133e-03
9.250  23.750  8.0133e-03
9.250  24.000  8.0133e-03
9.500  17.000  6.0713e-02
9.500  17.250  5.8490e-02
9.500  17.500  5.5123e-02
9.500  17.750  5.0079e-02
9.500  18.000  4.2807e-02
9.500  18.250  3.2922e-02
9.500  18.500  2.0617e-02
9.500  18.750  1.1795e-02
9.500  19.000  7.1420e-03
9.500  19.250  5.5472e-03
9.500  19.500  5.8993e-03
9.500  19.750  7.0869e-03
9.500  20.000  7.9990e-03
9.500  20.250  8.0025e-03
9.500  20.500  8.0057e-03
9.500  20.750  8.0080e-03
9.500  21.000  8.0100e-03
9.500  21.250  8.0109e-03
9.500  21.500  8.0118e-03
9.500  21.750  8.0123e-03
9.500  22.000  8.0124e-03
9.500  22.250  8.0126e-03
9.500  22.500  8.0126e-03
9.500  22.750  8.0127e-03
9.500  23.000  8.0127e-03
9.500  23.250  8.0127e-03
9.500  23.500  8.0127e-03
9.500  23.750  8.0127e-03
9.500  24.000  8.0127e-03
9.750  17.000  6.2050e-02
9.750  17.250  6.0492e-02
9.750  17.500  5.8071e-02
9.750  17.750  5.4287e-02
9.750  18.000  4.8463e-02
9.750  18.250  4.0245e-02
9.750  18.500  2.9330e-02
9.750  18.750  2.0410e-02
9.750  19.000  1.4344e-02
9.750  19.250  1.0603e-02
9.750  19.500  8.6620e-03
9.750  19.750  7.9916e-03
9.750  20.000  7.9954e-03
9.750  20.250  7.9990e-03
9.750  20.500  8.0024e-03
9.750  20.750  8.0056e-03
9.750  21.000  8.0081e-03
9.750  21.250  8.0100e-03
9.750  21.500  8.0109e-03
9.750  21.750  8.0119e-03
9.750  22.000  8.0123e-03
9.750  22.250  8.0125e-03
9.750  22.500  8.0126e-03
9.750  22.750  8.0127e-03
9.750  23.000  8.0127e-03
9.750  23.250  8.0127e-03
9.750  23.500  8.0127e-03
9.750  23.750  8.0127e-03
9.750  24.000  8.0127e-03
10.000  17.000  6.2938e-02
10.000  17.250  6.1849e-02
10.000  17.500  6.0102e-02
10.000  17.750  5.7258e-02
10.000  18.000  5.2648e-02
10.000  18.250  4.5857e-02
10.000  18.500  3.6622e-02
10.000  18.750  2.5082e-02
10.000  19.000  1.6409e-02
10.000  19.250  1.1265e-02
10.000  19.500  8.7517e-03
10.000  19.750  7.9697e-03
10.000  20.000  7.9911e-03
10.000  20.250  7.9953e-03
10.000  20.500  7.9759e-03
10.000  20.750  7.9720e-03
10.000  21.000  7.9786e-03
10.000  21.250  7.9906e-03
10.000  21.500  8.0030e-03
10.000  21.750  8.0109e-03
10.000  22.000  8.0119e-03
10.000  22.250  8.0123e-03
10.000  22.500  8.0125e-03
10.000  22.750  8.0126e-03
10.000  23.000  8.0127e-03
10.000  23.250  8.0127e-03
10.000  23.500  8.0127e-03
10.000  23.750  8.0127e-03
10.000  24.000  8.0127e-03
10.250  17.000  6.3494e-02
10.250  17.250  6.2749e-02
10.250  17.500  6.1478e-02
10.250  17.750  5.9310e-02
10.250  18.000  5.5698e-02
10.250  18.250  5.0308e-02
10.250  18.500  4.2730e-02
10.250  18.750  3.2780e-02
10.250  19.000  2.0315e-02
10.250  19.250  1.1401e-02
10.250  19.500  6.7646e-03
10.250  19.750  5.2559e-03
10.250  20.000  5.7249e-03
10.250  20.250  7.0213e-03
10.250  20.500  7.9951e-03
10.250  20.750  7.9990e-03
10.250  21.000  8.0025e-03
10.250  21.250  8.0058e-03
10.250  21.500  8.0084e-03
10.250  21.750  8.0100e-03
10.250  22.000  8.0109e-03
10.250  22.250  8.0119e-03
10.250  22.500  8.0124e-03
10.250  22.750  8.0125e-03
10.250  23.000  8.0126e-03
10.250  23.250  8.0127e-03
10.250  23.500  8.0127e-03
10.250  23.750  8.0127e-03
10.250  24.000  8.0127e-03
10.500  17.000  6.3802e-02
10.500  17.250  6.3303e-02
10.500  17.500  6.2375e-02
10.500  17.750  6.0699e-02
10.500  18.000  5.7863e-02
10.500  18.250  5.3581e-02
10.500  18.500  4.7700e-02
10.500  18.750  3.9575e-02
10.500  19.000  2.9149e-02
10.500  19.250  2.0558e-02
10.500  19.500  1.4568e-02
10.500  19.750  1.0754e-02
10.500  20.000  8.6910e-03
10.500  20.250  7.9536e-03
10.500  20.500  7.9895e-03
10.500  20.750  7.9947e-03
10.500  21.000  7.9989e-03
10.500  21.250  8.0026e-03
10.500  21.500  8.0058e-03
10.500  21.750  8.0085e-03
10.500  22.000  8.0103e-03
10.500  22.250  8.0110e-03
10.500  22.500  8.0119e-03
10.500  22.750  8.0125e-03
10.500  23.000  8.0126e-03
10.500  23.250  8.0126e-03
10.500  23.500  8.0127e-03
10.500  23.750  8.0127e-03
10.500  24.000  8.0127e-03
10.750  17.000  6.3910e-02
10.750  17.250  6.3597e-02
10.750  17.500  6.2909e-02
10.750  17.750  6.1585e-02
10.750  18.000  5.9367e-02
10.750  18.250  5.6102e-02
10.750  18.500  5.1567e-02
10.750  18.750  4.5410e-02
10.750  19.000  3.7067e-02
10.750  19.250  2.6009e-02
10.750  19.500  1.7195e-02
10.750  19.750  1.1555e-02
10.750  20.000  8.5464e-03
10.750  20.250  7.6271e-03
10.750  20.500  7.9465e-03
10.750  20.750  7.9886e-03
10.750  21.000  7.9942e-03
10.750  21.250  7.9988e-03
10.750  21.500  8.0026e-03
10.750  21.750  8.0058e-03
10.750  22.000  8.0085e-03
10.750  22.250  8.0104e-03
10.750  22.500  8.0113e-03
10.750  22.750  8.0119e-03
10.750  23.000  8.0126e-03
10.750  23.250  8.0127e-03
10.750  23.500  8.0127e-03
10.750  23.750  8.0127e-03
10.750  24.000  8.0127e-03
11.000  17.000  6.3846e-02
11.000  17.250  6.3677e-02
11.000  17.500  6.3149e-02
11.000  17.750  6.2083e-02
11.000  18.000  6.0364e-02
11.000  18.250  5.7920e-02
11.000  18.500  5.4598e-02
11.000  18.750  4.9993e-02
11.000  19.000  4.3584e-02
11.000  19.250  3.4779e-02
11.000  19.500  2.3113e-02
11.000  19.750  1.4298e-02
11.000  20.000  9.3170e-03
11.000  20.250  7.4476e-03
11.000  20.500  7.6280e-03
11.000  20.750  7.9448e-03
11.000  21.000  8.1104e-03
11.000  21.250  8.1858e-03
11.000  21.500  8.1938e-03
11.000  21.750  8.1573e-03
11.000  22.000  8.0993e-03
11.000  22.250  8.0427e-03
11.000  22.500  8.0104e-03
11.000  22.750  8.0114e-03
11.000  23.000  8.0121e-03
11.000  23.250  8.0126e-03
11.000  23.500  8.0128e-03
11.000  23.750  8.0128e-03
11.000  24.000  8.0128e-03
11.250  17.000  6.3600e-02
11.250  17.250  6.3556e-02
11.250  17.500  6.3135e-02
11.250  17.750  6.2255e-02
11.250  18.000  6.0916e-02
11.250  18.250  5.9148e-02
11.250  18.500  5.6757e-02
11.250  18.750  5.3343e-02
11.250  19.000  4.8623e-02
11.250  19.250  4.2023e-02
11.250  19.500  3.2848e-02
11.250  19.750  2.0365e-02
11.250  20.000  1.1319e-02
11.250  20.250  6.6318e-03
11.250  20.500  5.1298e-03
11.250  20.750  5.6380e-03
11.250  21.000  6.9818e-03
11.250  21.250  7.9867e-03
11.250  21.500  7.9933e-03
11.250  21.750  7.9984e-03
11.250  22.000  8.0024e-03
11.250  22.250  8.0058e-03
11.250  22.500  8.0084e-03
11.250  22.750  8.0104e-03
11.250  23.000  8.0114e-03
11.250  23.250  8.0123e-03
11.250  23.500  8.0126e-03
11.250  23.750  8.0128e-03
11.250  24.000  8.0128e-03
11.500  17.000  6.3138e-02
11.500  17.250  6.3207e-02
11.500  17.500  6.2868e-02
11.500  17.750  6.2116e-02
11.500  18.000  6.1074e-02
11.500  18.250  5.9800e-02
11.500  18.500  5.8111e-02
11.500  18.750  5.5707e-02
11.500  19.000  5.2324e-02
11.500  19.250  4.7501e-02
11.500  19.500  4.0648e-02
11.500  19.750  3.1004e-02
11.500  20.000  1.7791e-02
11.500  20.250  7.2106e-03
11.500  20.500  7.3440e-03
11.500  20.750  7.4574e-03
11.500  21.000  7.6560e-03
11.500  21.250  7.9691e-03
11.500  21.500  7.9858e-03
11.500  21.750  7.9927e-03
11.500  22.000  7.9981e-03
11.500  22.250  8.0023e-03
11.500  22.500  8.0057e-03
11.500  22.750  8.0084e-03
11.500  23.000  8.0104e-03
11.500  23.250  8.0114e-03
11.500  23.500  8.0123e-03
11.500  23.750  8.0127e-03
11.500  24.000  8.0128e-03
11.750  17.000  6.2403e-02
11.750  17.250  6.2576e-02
11.750  17.500  6.2310e-02
11.750  17.750  6.1647e-02
11.750  18.000  6.0854e-02
11.750  18.250  5.9950e-02
11.750  18.500  5.8799e-02
11.750  18.750  5.7187e-02
11.750  19.000  5.4799e-02
11.750  19.250  5.1399e-02
11.750  19.500  4.6475e-02
11.750  19.750  3.9440e-02
11.750  20.000  2.9346e-02
11.750  20.250  1.5483e-02
11.750  20.500  7.2474e-03
11.750  20.750  7.3490e-03
11.750  21.000  7.4738e-03
11.750  21.250  7.7064e-03
11.750  21.500  7.9726e-03
11.750  21.750  7.9847e-03
11.750  22.000  7.9920e-03
11.750  22.250  7.9979e-03
11.750  22.500  8.0021e-03
11.750  22.750  8.0056e-03
11.750  23.000  8.0083e-03
11.750  23.250  8.0104e-03
11.750  23.500  8.0114e-03
11.750  23.750  8.0123e-03
11.750  24.000  8.0129e-03
12.000  17.000  6.1361e-02
12.000  17.250  6.1589e-02
12.000  17.500  6.1370e-02
12.000  17.750  6.0822e-02
12.000  18.000  6.0255e-02
12.000  18.250  5.9666e-02
12.000  18.500  5.8926e-02
12.000  18.750  5.7863e-02
12.000  19.000  5.6282e-02
12.000  19.250  5.3975e-02
12.000  19.500  5.0572e-02
12.000  19.750  4.5589e-02
12.000  20.000  3.8330e-02
12.000  20.250  2.7903e-02
12.000  20.500  1.3506e-02
12.000  20.750  7.2440e-03
12.000  21.000  7.3603e-03
12.000  21.250  7.5193e-03
12.000  21.500  7.7962e-03
12.000  21.750  7.9723e-03
12.000  22.000  7.9840e-03
12.000  22.250  7.9917e-03
12.000  22.500  7.9975e-03
12.000  22.750  8.0020e-03
12.000  23.000  8.0055e-03
12.000  23.250  8.0083e-03
12.000  23.500  8.0104e-03
12.000  23.750  8.0114e-03
12.000  24.000  8.0123e-03
12.250  17.000  6.0000e-02
12.250  17.250  6.0144e-02
12.250  17.500  5.9961e-02
12.250  17.750  5.9623e-02
12.250  18.000  5.9320e-02
12.250  18.250  5.8995e-02
12.250  18.500  5.8590e-02
12.250  18.750  5.7951e-02
12.250  19.000  5.6981e-02
12.250  19.250  5.5502e-02
12.250  19.500  5.3263e-02
12.250  19.750  4.9843e-02
12.250  20.000  4.4821e-02
12.250  20.250  3.7383e-02
12.250  20.500  2.6573e-02
12.250  20.750  1.1580e-02
12.250  21.000  7.2469e-03
12.250  21.250  7.3877e-03
12.250  21.500  7.5871e-03
12.250  21.750  7.9032e-03
12.250  22.000  7.9711e-03
12.250  22.250  7.9821e-03
12.250  22.500  7.9907e-03
12.250  22.750  7.9971e-03
12.250  23.000  8.0018e-03
12.250  23.250  8.0053e-03
12.250  23.500  8.0082e-03
12.250  23.750  8.0104e-03
12.250  24.000  8.0114e-03
12.500  17.000  5.8354e-02
12.500  17.250  5.8252e-02
12.500  17.500  5.8129e-02
12.500  17.750  5.8089e-02
12.500  18.000  5.8052e-02
12.500  18.250  5.7980e-02
12.500  18.500  5.7835e-02
12.500  18.750  5.7575e-02
12.500  19.000  5.7095e-02
12.500  19.250  5.6242e-02
12.500  19.500  5.4864e-02
12.500  19.750  5.2657e-02
12.500  20.000  4.9243e-02
12.500  20.250  4.4137e-02
12.500  20.500  3.6465e-02
12.500  20.750  2.5361e-02
12.500  21.000  1.0221e-02
12.500  21.250  7.2648e-03
12.500  21.500  7.4314e-03
12.500  21.750  7.6703e-03
12.500  22.000  7.9528e-03
12.500  22.250  7.9696e-03
12.500  22.500  7.9807e-03
12.500  22.750  7.9898e-03
12.500  23.000  7.9965e-03
12.500  23.250  8.0016e-03
12.500  23.500  8.0052e-03
12.500  23.750  8.0081e-03
12.500  24.000  8.0103e-03
12.750  17.000  4.4210e-02
12.750  17.250  5.5621e-02
12.750  17.500  5.6305e-02
12.750  17.750  5.6372e-02
12.750  18.000  5.6460e-02
12.750  18.250  5.6575e-02
12.750  18.500  5.6695e-02
12.750  18.750  5.6754e-02
12.750  19.000  5.6684e-02
12.750  19.250  5.6360e-02
12.750  19.500  5.5634e-02
12.750  19.750  5.4306e-02
12.750  20.000  5.2117e-02
12.750  20.250  4.8687e-02
12.750  20.500  4.3440e-02
12.750  20.750  3.5597e-02
12.750  21.000  2.3936e-02
12.750  21.250  8.2528e-03
12.750  21.500  7.2895e-03
12.750  21.750  7.4934e-03
12.750  22.000  7.7593e-03
12.750  22.250  7.9535e-03
12.750  22.500  7.9682e-03
12.750  22.750  7.9797e-03
12.750  23.000  7.9890e-03
12.750  23.250  7.9960e-03
12.750  23.500  8.0012e-03
12.750  23.750  8.0049e-03
12.750  24.000  8.0080e-03
13.000  17.000  2.2803e-02
13.000  17.250  4.0229e-02
13.000  17.500  5.1542e-02
13.000  17.750  5.4575e-02
13.000  18.000  5.4590e-02
13.000  18.250  5.4794e-02
13.000  18.500  5.5129e-02
13.000  18.750  5.5490e-02
13.000  19.000  5.5789e-02
13.000  19.250  5.5918e-02
13.000  19.500  5.5731e-02
13.000  19.750  5.5084e-02
13.000  20.000  5.3797e-02
13.000  20.250  5.1611e-02
13.000  20.500  4.8116e-02
13.000  20.750  4.2722e-02
13.000  21.000  3.4540e-02
13.000  21.250  2.2359e-02
13.000  21.500  7.1289e-03
13.000  21.750  7.3310e-03
13.000  22.000  7.5479e-03
13.000  22.250  7.8263e-03
13.000  22.500  7.9530e-03
13.000  22.750  7.9672e-03
13.000  23.000  7.9788e-03
13.000  23.250  7.9881e-03
13.000  23.500  7.9954e-03
13.000  23.750  8.0007e-03
13.000  24.000  8.0046e-03
13.250  17.000  1.4174e-02
13.250  17.250  2.5837e-02
13.250  17.500  4.6502e-02
13.250  17.750  5.2792e-02
13.250  18.000  5.2550e-02
13.250  18.250  5.2649e-02
13.250  18.500  5.3100e-02
13.250  18.750  5.3744e-02
13.250  19.000  5.4394e-02
13.250  19.250  5.4937e-02
13.250  19.500  5.5228e-02
13.250  19.750  5.5150e-02
13.250  20.000  5.4557e-02
13.250  20.250  5.3274e-02
13.250  20.500  5.1041e-02
13.250  20.750  4.7439e-02
13.250  21.000  4.1801e-02
13.250  21.250  3.3273e-02
13.250  21.500  2.1251e-02
13.250  21.750  7.0792e-03
13.250  22.000  7.3477e-03
13.250  22.250  7.5879e-03
13.250  22.500  7.8473e-03
13.250  22.750  7.9522e-03
13.250  23.000  7.9662e-03
13.250  23.250  7.9775e-03
13.250  23.500  7.9872e-03
13.250  23.750  7.9947e-03
13.250  24.000  8.0000e-03
13.500  17.000  8.6942e-03
13.500  17.250  1.6436e-02
13.500  17.500  3.1954e-02
13.500  17.750  4.6059e-02
13.500  18.000  5.0396e-02
13.500  18.250  5.0293e-02
13.500  18.500  5.0661e-02
13.500  18.750  5.1485e-02
13.500  19.000  5.2467e-02
13.500  19.250  5.3406e-02
13.500  19.500  5.4136e-02
13.500  19.750  5.4556e-02
13.500  20.000  5.4549e-02
13.500  20.250  5.3989e-02
13.500  20.500  5.2681e-02
13.500  20.750  5.0382e-02
13.500  21.000  4.6654e-02
13.500  21.250  4.0752e-02
13.500  21.500  3.2308e-02
13.500  21.750  1.9803e-02
13.500  22.000  7.0945e-03
13.500  22.250  7.3461e-03
13.500  22.500  7.5779e-03
13.500  22.750  7.8353e-03
13.500  23.000  7.9506e-03
13.500  23.250  7.9646e-03
13.500  23.500  7.9766e-03
13.500  23.750  7.9865e-03
13.500  24.000  7.9939e-03
13.750  17.000  5.3625e-03
13.750  17.250  1.0211e-02
13.750  17.500  2.1233e-02
13.750  17.750  3.4000e-02
13.750  18.000  4.6127e-02
13.750  18.250  4.7086e-02
13.750  18.500  4.7761e-02
13.750  18.750  4.8757e-02
13.750  19.000  4.9965e-02
13.750  19.250  5.1287e-02
13.750  19.500  5.2464e-02
13.750  19.750  5.3356e-02
13.750  20.000  5.3871e-02
13.750  20.250  5.3906e-02
13.750  20.500  5.3339e-02
13.750  20.750  5.1973e-02
13.750  21.000  4.9539e-02
13.750  21.250  4.5573e-02
13.750  21.500  3.9693e-02
13.750  21.750  3.0506e-02
13.750  22.000  1.7798e-02
13.750  22.250  7.1077e-03
13.750  22.500  7.3212e-03
13.750  22.750  7.5663e-03
13.750  23.000  7.8291e-03
13.750  23.250  7.9479e-03
13.750  23.500  7.9626e-03
13.750  23.750  7.9752e-03
13.750  24.000  7.9852e-03
14.000  17.000  3.2482e-03
14.000  17.250  6.3545e-03
14.000  17.500  1.3389e-02
14.000  17.750  2.3854e-02
14.000  18.000  3.4965e-02
14.000  18.250  4.2472e-02
14.000  18.500  4.3633e-02
14.000  18.750  4.5114e-02
14.000  19.000  4.6820e-02
14.000  19.250  4.8546e-02
14.000  19.500  5.0167e-02
14.000  19.750  5.1540e-02
14.000  20.000  5.2557e-02
14.000  20.250  5.3145e-02
14.000  20.500  5.3188e-02
14.000  20.750  5.2567e-02
14.000  21.000  5.1096e-02
14.000  21.250  4.8418e-02
14.000  21.500  4.4340e-02
14.000  21.750  3.7692e-02
14.000  22.000  2.7725e-02
14.000  22.250  1.4886e-02
14.000  22.500  7.1125e-03
14.000  22.750  7.3057e-03
14.000  23.000  7.5523e-03
14.000  23.250  7.8390e-03
14.000  23.500  7.9436e-03
14.000  23.750  7.9589e-03
14.000  24.000  7.9728e-03
