InwC 5100.00A  relative to Inci 1215.00A scaled to 1215A.
Hden   Phi(H)  Eq_Width (A)
7.000  17.000  4.2734e-03
7.000  17.250  4.2752e-03
7.000  17.500  4.2770e-03
7.000  17.750  4.2788e-03
7.000  18.000  4.2807e-03
7.000  18.250  4.2822e-03
7.000  18.500  4.2833e-03
7.000  18.750  4.2838e-03
7.000  19.000  4.2844e-03
7.000  19.250  4.2847e-03
7.000  19.500  4.2849e-03
7.000  19.750  4.2849e-03
7.000  20.000  4.2849e-03
7.000  20.250  4.2849e-03
7.000  20.500  4.2850e-03
7.000  20.750  4.2850e-03
7.000  21.000  4.2850e-03
7.000  21.250  4.2850e-03
7.000  21.500  4.2851e-03
7.000  21.750  4.2850e-03
7.000  22.000  4.2850e-03
7.000  22.250  4.2850e-03
7.000  22.500  4.2850e-03
7.000  22.750  4.2851e-03
7.000  23.000  4.2851e-03
7.000  23.250  4.2850e-03
7.000  23.500  4.2850e-03
7.000  23.750  4.2850e-03
7.000  24.000  4.2850e-03
7.250  17.000  4.2663e-03
7.250  17.250  4.2734e-03
7.250  17.500  4.2752e-03
7.250  17.750  4.2770e-03
7.250  18.000  4.2788e-03
7.250  18.250  4.2807e-03
7.250  18.500  4.2822e-03
7.250  18.750  4.2833e-03
7.250  19.000  4.2838e-03
7.250  19.250  4.2844e-03
7.250  19.500  4.2847e-03
7.250  19.750  4.2849e-03
7.250  20.000  4.2849e-03
7.250  20.250  4.2849e-03
7.250  20.500  4.2849e-03
7.250  20.750  4.2849e-03
7.250  21.000  4.2850e-03
7.250  21.250  4.2850e-03
7.250  21.500  4.2850e-03
7.250  21.750  4.2858e-03
7.250  22.000  4.2850e-03
7.250  22.250  4.2850e-03
7.250  22.500  4.2850e-03
7.250  22.750  4.2854e-03
7.250  23.000  4.2854e-03
7.250  23.250  4.2850e-03
7.250  23.500  4.2850e-03
7.250  23.750  4.2850e-03
7.250  24.000  4.2850e-03
7.500  17.000  4.0994e-03
7.500  17.250  4.2667e-03
7.500  17.500  4.2734e-03
7.500  17.750  4.2752e-03
7.500  18.000  4.2770e-03
7.500  18.250  4.2788e-03
7.500  18.500  4.2807e-03
7.500  18.750  4.2822e-03
7.500  19.000  4.2833e-03
7.500  19.250  4.2838e-03
7.500  19.500  4.2844e-03
7.500  19.750  4.2847e-03
7.500  20.000  4.2849e-03
7.500  20.250  4.2849e-03
7.500  20.500  4.2849e-03
7.500  20.750  4.2849e-03
7.500  21.000  4.2849e-03
7.500  21.250  4.2849e-03
7.500  21.500  4.2850e-03
7.500  21.750  4.2850e-03
7.500  22.000  4.2850e-03
7.500  22.250  4.2850e-03
7.500  22.500  4.2850e-03
7.500  22.750  4.2850e-03
7.500  23.000  4.2852e-03
7.500  23.250  4.2854e-03
7.500  23.500  4.2850e-03
7.500  23.750  4.2855e-03
7.500  24.000  4.2850e-03
7.750  17.000  3.7892e-03
7.750  17.250  4.1002e-03
7.750  17.500  4.2669e-03
7.750  17.750  4.2734e-03
7.750  18.000  4.2752e-03
7.750  18.250  4.2770e-03
7.750  18.500  4.2789e-03
7.750  18.750  4.2807e-03
7.750  19.000  4.2822e-03
7.750  19.250  4.2833e-03
7.750  19.500  4.2838e-03
7.750  19.750  4.2844e-03
7.750  20.000  4.2847e-03
7.750  20.250  4.2849e-03
7.750  20.500  4.2849e-03
7.750  20.750  4.2849e-03
7.750  21.000  4.2849e-03
7.750  21.250  4.2849e-03
7.750  21.500  4.2849e-03
7.750  21.750  4.2849e-03
7.750  22.000  4.2849e-03
7.750  22.250  4.2849e-03
7.750  22.500  4.2850e-03
7.750  22.750  4.2851e-03
7.750  23.000  4.2851e-03
7.750  23.250  4.2850e-03
7.750  23.500  4.2854e-03
7.750  23.750  4.2854e-03
7.750  24.000  4.2850e-03
8.000  17.000  2.6807e-03
8.000  17.250  3.7663e-03
8.000  17.500  4.0987e-03
8.000  17.750  4.2663e-03
8.000  18.000  4.2734e-03
8.000  18.250  4.2753e-03
8.000  18.500  4.2771e-03
8.000  18.750  4.2789e-03
8.000  19.000  4.2807e-03
8.000  19.250  4.2822e-03
8.000  19.500  4.2833e-03
8.000  19.750  4.2838e-03
8.000  20.000  4.2844e-03
8.000  20.250  4.2847e-03
8.000  20.500  4.2849e-03
8.000  20.750  4.2849e-03
8.000  21.000  4.2849e-03
8.000  21.250  4.2849e-03
8.000  21.500  4.2849e-03
8.000  21.750  4.2849e-03
8.000  22.000  4.2849e-03
8.000  22.250  4.2849e-03
8.000  22.500  4.2849e-03
8.000  22.750  4.2851e-03
8.000  23.000  4.2849e-03
8.000  23.250  4.2853e-03
8.000  23.500  4.2849e-03
8.000  23.750  4.2849e-03
8.000  24.000  4.2849e-03
8.250  17.000  1.8792e-03
8.250  17.250  2.6913e-03
8.250  17.500  3.7702e-03
8.250  17.750  4.0993e-03
8.250  18.000  4.2665e-03
8.250  18.250  4.2734e-03
8.250  18.500  4.2753e-03
8.250  18.750  4.2771e-03
8.250  19.000  4.2789e-03
8.250  19.250  4.2807e-03
8.250  19.500  4.2822e-03
8.250  19.750  4.2833e-03
8.250  20.000  4.2838e-03
8.250  20.250  4.2844e-03
8.250  20.500  4.2847e-03
8.250  20.750  4.2849e-03
8.250  21.000  4.2849e-03
8.250  21.250  4.2849e-03
8.250  21.500  4.2849e-03
8.250  21.750  4.2849e-03
8.250  22.000  4.2849e-03
8.250  22.250  4.2849e-03
8.250  22.500  4.2849e-03
8.250  22.750  4.2850e-03
8.250  23.000  4.2849e-03
8.250  23.250  4.2861e-03
8.250  23.500  4.2849e-03
8.250  23.750  4.2849e-03
8.250  24.000  4.2853e-03
8.500  17.000  1.3142e-03
8.500  17.250  1.8931e-03
8.500  17.500  2.7030e-03
8.500  17.750  3.7755e-03
8.500  18.000  4.0998e-03
8.500  18.250  4.2667e-03
8.500  18.500  4.2734e-03
8.500  18.750  4.2753e-03
8.500  19.000  4.2771e-03
8.500  19.250  4.2789e-03
8.500  19.500  4.2807e-03
8.500  19.750  4.2822e-03
8.500  20.000  4.2833e-03
8.500  20.250  4.2838e-03
8.500  20.500  4.2844e-03
8.500  20.750  4.2847e-03
8.500  21.000  4.2849e-03
8.500  21.250  4.2849e-03
8.500  21.500  4.2849e-03
8.500  21.750  4.2849e-03
8.500  22.000  4.2849e-03
8.500  22.250  4.2849e-03
8.500  22.500  4.2849e-03
8.500  22.750  4.2849e-03
8.500  23.000  4.2849e-03
8.500  23.250  4.2850e-03
8.500  23.500  4.2849e-03
8.500  23.750  4.2849e-03
8.500  24.000  4.2849e-03
8.750  17.000  9.2008e-04
8.750  17.250  1.3295e-03
8.750  17.500  1.9128e-03
8.750  17.750  2.7109e-03
8.750  18.000  3.7848e-03
8.750  18.250  4.1000e-03
8.750  18.500  4.2667e-03
8.750  18.750  4.2734e-03
8.750  19.000  4.2753e-03
8.750  19.250  4.2771e-03
8.750  19.500  4.2789e-03
8.750  19.750  4.2807e-03
8.750  20.000  4.2822e-03
8.750  20.250  4.2833e-03
8.750  20.500  4.2838e-03
8.750  20.750  4.2844e-03
8.750  21.000  4.2847e-03
8.750  21.250  4.2849e-03
8.750  21.500  4.2849e-03
8.750  21.750  4.2849e-03
8.750  22.000  4.2849e-03
8.750  22.250  4.2849e-03
8.750  22.500  4.2849e-03
8.750  22.750  4.2849e-03
8.750  23.000  4.2853e-03
8.750  23.250  4.2849e-03
8.750  23.500  4.2850e-03
8.750  23.750  4.2849e-03
8.750  24.000  4.2849e-03
9.000  17.000  6.4469e-04
9.000  17.250  9.3350e-04
9.000  17.500  1.3523e-03
9.000  17.750  1.9473e-03
9.000  18.000  2.7500e-03
9.000  18.250  3.8157e-03
9.000  18.500  4.0999e-03
9.000  18.750  4.2667e-03
9.000  19.000  4.2734e-03
9.000  19.250  4.2753e-03
9.000  19.500  4.2771e-03
9.000  19.750  4.2790e-03
9.000  20.000  4.2807e-03
9.000  20.250  4.2822e-03
9.000  20.500  4.2833e-03
9.000  20.750  4.2838e-03
9.000  21.000  4.2844e-03
9.000  21.250  4.2847e-03
9.000  21.500  4.2849e-03
9.000  21.750  4.2849e-03
9.000  22.000  4.2849e-03
9.000  22.250  4.2849e-03
9.000  22.500  4.2849e-03
9.000  22.750  4.2849e-03
9.000  23.000  4.2849e-03
9.000  23.250  4.2849e-03
9.000  23.500  4.2849e-03
9.000  23.750  4.2849e-03
9.000  24.000  4.2850e-03
9.250  17.000  4.5276e-04
9.250  17.250  6.5605e-04
9.250  17.500  9.5630e-04
9.250  17.750  1.3958e-03
9.250  18.000  2.0105e-03
9.250  18.250  2.8317e-03
9.250  18.500  3.8885e-03
9.250  18.750  4.0994e-03
9.250  19.000  4.2664e-03
9.250  19.250  4.2734e-03
9.250  19.500  4.2753e-03
9.250  19.750  4.2772e-03
9.250  20.000  4.2790e-03
9.250  20.250  4.2807e-03
9.250  20.500  4.2822e-03
9.250  20.750  4.2833e-03
9.250  21.000  4.2838e-03
9.250  21.250  4.2844e-03
9.250  21.500  4.2844e-03
9.250  21.750  4.2845e-03
9.250  22.000  4.2845e-03
9.250  22.250  4.2846e-03
9.250  22.500  4.2847e-03
9.250  22.750  4.2848e-03
9.250  23.000  4.2848e-03
9.250  23.250  4.2849e-03
9.250  23.500  4.2849e-03
9.250  23.750  4.2849e-03
9.250  24.000  4.2849e-03
9.500  17.000  3.1984e-04
9.500  17.250  4.6239e-04
9.500  17.500  6.7737e-04
9.500  17.750  1.0016e-03
9.500  18.000  1.4744e-03
9.500  18.250  2.1367e-03
9.500  18.500  3.0082e-03
9.500  18.750  4.0027e-03
9.500  19.000  4.0983e-03
9.500  19.250  4.2657e-03
9.500  19.500  4.2733e-03
9.500  19.750  4.2753e-03
9.500  20.000  4.2772e-03
9.500  20.250  4.2790e-03
9.500  20.500  4.2807e-03
9.500  20.750  4.2821e-03
9.500  21.000  4.2830e-03
9.500  21.250  4.2835e-03
9.500  21.500  4.2840e-03
9.500  21.750  4.2843e-03
9.500  22.000  4.2844e-03
9.500  22.250  4.2844e-03
9.500  22.500  4.2844e-03
9.500  22.750  4.2845e-03
9.500  23.000  4.2845e-03
9.500  23.250  4.2845e-03
9.500  23.500  4.2845e-03
9.500  23.750  4.2845e-03
9.500  24.000  4.2845e-03
9.750  17.000  2.2626e-04
9.750  17.250  3.2708e-04
9.750  17.500  4.8008e-04
9.750  17.750  7.1885e-04
9.750  18.000  1.0890e-03
9.750  18.250  1.6239e-03
9.750  18.500  2.3626e-03
9.750  18.750  3.3321e-03
9.750  19.000  4.0015e-03
9.750  19.250  4.0961e-03
9.750  19.500  4.2642e-03
9.750  19.750  4.2733e-03
9.750  20.000  4.2752e-03
9.750  20.250  4.2772e-03
9.750  20.500  4.2790e-03
9.750  20.750  4.2807e-03
9.750  21.000  4.2821e-03
9.750  21.250  4.2830e-03
9.750  21.500  4.2835e-03
9.750  21.750  4.2840e-03
9.750  22.000  4.2843e-03
9.750  22.250  4.2844e-03
9.750  22.500  4.2844e-03
9.750  22.750  4.2845e-03
9.750  23.000  4.2845e-03
9.750  23.250  4.2845e-03
9.750  23.500  4.2845e-03
9.750  23.750  4.2845e-03
9.750  24.000  4.2845e-03
10.000  17.000  1.6058e-04
10.000  17.250  2.3169e-04
10.000  17.500  3.4115e-04
10.000  17.750  5.1728e-04
10.000  18.000  8.0453e-04
10.000  18.250  1.2364e-03
10.000  18.500  1.8431e-03
10.000  18.750  2.6423e-03
10.000  19.000  3.5975e-03
10.000  19.250  3.9988e-03
10.000  19.500  4.0926e-03
10.000  19.750  4.2613e-03
10.000  20.000  4.2729e-03
10.000  20.250  4.2752e-03
10.000  20.500  4.2772e-03
10.000  20.750  4.2790e-03
10.000  21.000  4.2807e-03
10.000  21.250  4.2821e-03
10.000  21.500  4.2830e-03
10.000  21.750  4.2836e-03
10.000  22.000  4.2841e-03
10.000  22.250  4.2844e-03
10.000  22.500  4.2844e-03
10.000  22.750  4.2844e-03
10.000  23.000  4.2845e-03
10.000  23.250  4.2845e-03
10.000  23.500  4.2845e-03
10.000  23.750  4.2845e-03
10.000  24.000  4.2845e-03
10.250  17.000  1.1465e-04
10.250  17.250  1.6494e-04
10.250  17.500  2.4370e-04
10.250  17.750  3.7473e-04
10.250  18.000  5.9465e-04
10.250  18.250  9.3029e-04
10.250  18.500  1.4168e-03
10.250  18.750  2.0826e-03
10.250  19.000  2.9646e-03
10.250  19.250  3.9315e-03
10.250  19.500  3.9951e-03
10.250  19.750  4.0872e-03
10.250  20.000  4.2578e-03
10.250  20.250  4.2727e-03
10.250  20.500  4.2751e-03
10.250  20.750  4.2771e-03
10.250  21.000  4.2790e-03
10.250  21.250  4.2808e-03
10.250  21.500  4.2822e-03
10.250  21.750  4.2831e-03
10.250  22.000  4.2836e-03
10.250  22.250  4.2841e-03
10.250  22.500  4.2844e-03
10.250  22.750  4.2844e-03
10.250  23.000  4.2845e-03
10.250  23.250  4.2845e-03
10.250  23.500  4.2845e-03
10.250  23.750  4.2845e-03
10.250  24.000  4.2845e-03
10.500  17.000  8.2305e-05
10.500  17.250  1.1819e-04
10.500  17.500  1.7539e-04
10.500  17.750  2.7358e-04
10.500  18.000  4.4082e-04
10.500  18.250  7.0041e-04
10.500  18.500  1.0711e-03
10.500  18.750  1.6047e-03
10.500  19.000  2.3194e-03
10.500  19.250  3.2618e-03
10.500  19.500  3.9412e-03
10.500  19.750  3.9916e-03
10.500  20.000  4.0828e-03
10.500  20.250  4.2521e-03
10.500  20.500  4.2720e-03
10.500  20.750  4.2749e-03
10.500  21.000  4.2771e-03
10.500  21.250  4.2790e-03
10.500  21.500  4.2808e-03
10.500  21.750  4.2822e-03
10.500  22.000  4.2832e-03
10.500  22.250  4.2836e-03
10.500  22.500  4.2841e-03
10.500  22.750  4.2844e-03
10.500  23.000  4.2844e-03
10.500  23.250  4.2844e-03
10.500  23.500  4.2845e-03
10.500  23.750  4.2845e-03
10.500  24.000  4.2845e-03
10.750  17.000  5.9588e-05
10.750  17.250  8.5267e-05
10.750  17.500  1.2741e-04
10.750  17.750  2.0115e-04
10.750  18.000  3.2683e-04
10.750  18.250  5.2099e-04
10.750  18.500  8.0461e-04
10.750  18.750  1.2057e-03
10.750  19.000  1.7627e-03
10.750  19.250  2.5258e-03
10.750  19.500  3.4938e-03
10.750  19.750  3.9382e-03
10.750  20.000  3.9882e-03
10.750  20.250  4.0789e-03
10.750  20.500  4.2476e-03
10.750  20.750  4.2705e-03
10.750  21.000  4.2745e-03
10.750  21.250  4.2770e-03
10.750  21.500  4.2790e-03
10.750  21.750  4.2807e-03
10.750  22.000  4.2822e-03
10.750  22.250  4.2833e-03
10.750  22.500  4.2837e-03
10.750  22.750  4.2841e-03
10.750  23.000  4.2844e-03
10.750  23.250  4.2845e-03
10.750  23.500  4.2845e-03
10.750  23.750  4.2845e-03
10.750  24.000  4.2845e-03
11.000  17.000  4.3457e-05
11.000  17.250  6.1893e-05
11.000  17.500  9.2840e-05
11.000  17.750  1.4815e-04
11.000  18.000  2.4099e-04
11.000  18.250  3.8387e-04
11.000  18.500  5.9284e-04
11.000  18.750  8.9185e-04
11.000  19.000  1.3154e-03
11.000  19.250  1.9078e-03
11.000  19.500  2.7167e-03
11.000  19.750  3.7695e-03
11.000  20.000  3.9354e-03
11.000  20.250  3.9872e-03
11.000  20.500  4.0784e-03
11.000  20.750  4.2449e-03
11.000  21.000  4.2695e-03
11.000  21.250  4.2736e-03
11.000  21.500  4.2769e-03
11.000  21.750  4.2789e-03
11.000  22.000  4.2807e-03
11.000  22.250  4.2821e-03
11.000  22.500  4.2833e-03
11.000  22.750  4.2838e-03
11.000  23.000  4.2842e-03
11.000  23.250  4.2844e-03
11.000  23.500  4.2845e-03
11.000  23.750  4.2845e-03
11.000  24.000  4.2845e-03
11.250  17.000  3.2099e-05
11.250  17.250  4.5267e-05
11.250  17.500  6.7901e-05
11.250  17.750  1.0864e-04
11.250  18.000  1.7663e-04
11.250  18.250  2.7934e-04
11.250  18.500  4.3070e-04
11.250  18.750  6.5457e-04
11.250  19.000  9.6667e-04
11.250  19.250  1.4077e-03
11.250  19.500  2.0288e-03
11.250  19.750  2.8937e-03
11.250  20.000  3.8431e-03
11.250  20.250  3.9334e-03
11.250  20.500  3.9858e-03
11.250  20.750  4.0813e-03
11.250  21.000  4.2497e-03
11.250  21.250  4.2680e-03
11.250  21.500  4.2728e-03
11.250  21.750  4.2765e-03
11.250  22.000  4.2788e-03
11.250  22.250  4.2806e-03
11.250  22.500  4.2821e-03
11.250  22.750  4.2832e-03
11.250  23.000  4.2838e-03
11.250  23.250  4.2843e-03
11.250  23.500  4.2844e-03
11.250  23.750  4.2846e-03
11.250  24.000  4.2846e-03
11.500  17.000  2.4198e-05
11.500  17.250  3.3498e-05
11.500  17.500  4.9959e-05
11.500  17.750  7.9424e-05
11.500  18.000  1.2798e-04
11.500  18.250  2.0165e-04
11.500  18.500  3.1086e-04
11.500  18.750  4.7251e-04
11.500  19.000  7.0099e-04
11.500  19.250  1.0252e-03
11.500  19.500  1.4862e-03
11.500  19.750  2.1413e-03
11.500  20.000  3.0584e-03
11.500  20.250  3.8756e-03
11.500  20.500  3.9323e-03
11.500  20.750  3.9881e-03
11.500  21.000  4.0917e-03
11.500  21.250  4.2573e-03
11.500  21.500  4.2673e-03
11.500  21.750  4.2719e-03
11.500  22.000  4.2759e-03
11.500  22.250  4.2785e-03
11.500  22.500  4.2804e-03
11.500  22.750  4.2820e-03
11.500  23.000  4.2832e-03
11.500  23.250  4.2838e-03
11.500  23.500  4.2843e-03
11.500  23.750  4.2845e-03
11.500  24.000  4.2846e-03
11.750  17.000  1.8765e-05
11.750  17.250  2.5350e-05
11.750  17.500  3.7119e-05
11.750  17.750  5.7942e-05
11.750  18.000  9.1687e-05
11.750  18.250  1.4395e-04
11.750  18.500  2.2230e-04
11.750  18.750  3.3646e-04
11.750  19.000  5.0444e-04
11.750  19.250  7.4000e-04
11.750  19.500  1.0762e-03
11.750  19.750  1.5526e-03
11.750  20.000  2.2404e-03
11.750  20.250  3.2035e-03
11.750  20.500  3.8896e-03
11.750  20.750  3.9319e-03
11.750  21.000  3.9954e-03
11.750  21.250  4.1175e-03
11.750  21.500  4.2593e-03
11.750  21.750  4.2660e-03
11.750  22.000  4.2710e-03
11.750  22.250  4.2751e-03
11.750  22.500  4.2780e-03
11.750  22.750  4.2801e-03
11.750  23.000  4.2818e-03
11.750  23.250  4.2831e-03
11.750  23.500  4.2837e-03
11.750  23.750  4.2843e-03
11.750  24.000  4.2846e-03
12.000  17.000  1.5062e-05
12.000  17.250  1.9671e-05
12.000  17.500  2.7901e-05
12.000  17.750  4.2140e-05
12.000  18.000  6.5432e-05
12.000  18.250  1.0206e-04
12.000  18.500  1.5786e-04
12.000  18.750  2.4049e-04
12.000  19.000  3.6058e-04
12.000  19.250  5.3128e-04
12.000  19.500  7.7374e-04
12.000  19.750  1.1184e-03
12.000  20.000  1.6139e-03
12.000  20.250  2.3249e-03
12.000  20.500  3.3264e-03
12.000  20.750  3.8838e-03
12.000  21.000  3.9351e-03
12.000  21.250  4.0170e-03
12.000  21.500  4.1649e-03
12.000  21.750  4.2581e-03
12.000  22.000  4.2647e-03
12.000  22.250  4.2698e-03
12.000  22.500  4.2741e-03
12.000  22.750  4.2774e-03
12.000  23.000  4.2796e-03
12.000  23.250  4.2816e-03
12.000  23.500  4.2830e-03
12.000  23.750  4.2837e-03
12.000  24.000  4.2843e-03
12.250  17.000  1.2428e-05
12.250  17.250  1.5638e-05
12.250  17.500  2.1235e-05
12.250  17.750  3.0782e-05
12.250  18.000  4.6749e-05
12.250  18.250  7.2510e-05
12.250  18.500  1.1202e-04
12.250  18.750  1.7169e-04
12.250  19.000  2.5786e-04
12.250  19.250  3.8058e-04
12.250  19.500  5.5449e-04
12.250  19.750  8.0329e-04
12.250  20.000  1.1541e-03
12.250  20.250  1.6621e-03
12.250  20.500  2.3991e-03
12.250  20.750  3.4393e-03
12.250  21.000  3.8778e-03
12.250  21.250  3.9448e-03
12.250  21.500  4.0518e-03
12.250  21.750  4.2197e-03
12.250  22.000  4.2560e-03
12.250  22.250  4.2626e-03
12.250  22.500  4.2681e-03
12.250  22.750  4.2728e-03
12.250  23.000  4.2765e-03
12.250  23.250  4.2789e-03
12.250  23.500  4.2812e-03
12.250  23.750  4.2829e-03
12.250  24.000  4.2836e-03
12.500  17.000  1.0453e-05
12.500  17.250  1.2675e-05
12.500  17.500  1.6379e-05
12.500  17.750  2.2798e-05
12.500  18.000  3.3827e-05
12.500  18.250  5.1770e-05
12.500  18.500  8.0082e-05
12.500  18.750  1.2247e-04
12.500  19.000  1.8420e-04
12.500  19.250  2.7267e-04
12.500  19.500  3.9646e-04
12.500  19.750  5.7333e-04
12.500  20.000  8.2519e-04
12.500  20.250  1.1835e-03
12.500  20.500  1.7079e-03
12.500  20.750  2.4639e-03
12.500  21.000  3.5208e-03
12.500  21.250  3.8735e-03
12.500  21.500  3.9641e-03
12.500  21.750  4.0919e-03
12.500  22.000  4.2429e-03
12.500  22.250  4.2526e-03
12.500  22.500  4.2598e-03
12.500  22.750  4.2658e-03
12.500  23.000  4.2710e-03
12.500  23.250  4.2751e-03
12.500  23.500  4.2779e-03
12.500  23.750  4.2806e-03
12.500  24.000  4.2827e-03
12.750  17.000  7.2428e-06
12.750  17.250  1.0288e-05
12.750  17.500  1.2922e-05
12.750  17.750  1.7366e-05
12.750  18.000  2.5021e-05
12.750  18.250  3.7613e-05
12.750  18.500  5.7531e-05
12.750  18.750  8.7737e-05
12.750  19.000  1.3202e-04
12.750  19.250  1.9523e-04
12.750  19.500  2.8403e-04
12.750  19.750  4.0947e-04
12.750  20.000  5.8856e-04
12.750  20.250  8.4321e-04
12.750  20.500  1.2124e-03
12.750  20.750  1.7469e-03
12.750  21.000  2.5360e-03
12.750  21.250  3.6342e-03
12.750  21.500  3.8727e-03
12.750  21.750  3.9877e-03
12.750  22.000  4.1324e-03
12.750  22.250  4.2379e-03
12.750  22.500  4.2477e-03
12.750  22.750  4.2558e-03
12.750  23.000  4.2627e-03
12.750  23.250  4.2685e-03
12.750  23.500  4.2732e-03
12.750  23.750  4.2764e-03
12.750  24.000  4.2797e-03
13.000  17.000  3.6214e-06
13.000  17.250  6.8313e-06
13.000  17.500  1.0206e-05
13.000  17.750  1.3745e-05
13.000  18.000  1.9012e-05
13.000  18.250  2.7819e-05
13.000  18.500  4.1728e-05
13.000  18.750  6.3128e-05
13.000  19.000  9.4650e-05
13.000  19.250  1.3975e-04
13.000  19.500  2.0337e-04
13.000  19.750  2.9284e-04
13.000  20.000  4.1942e-04
13.000  20.250  6.0066e-04
13.000  20.500  8.6041e-04
13.000  20.750  1.2386e-03
13.000  21.000  1.7914e-03
13.000  21.250  2.6114e-03
13.000  21.500  3.6927e-03
13.000  21.750  3.8706e-03
13.000  22.000  4.0025e-03
13.000  22.250  4.1569e-03
13.000  22.500  4.2292e-03
13.000  22.750  4.2404e-03
13.000  23.000  4.2499e-03
13.000  23.250  4.2581e-03
13.000  23.500  4.2649e-03
13.000  23.750  4.2701e-03
13.000  24.000  4.2741e-03
13.250  17.000  2.1399e-06
13.250  17.250  4.1152e-06
13.250  17.500  8.1481e-06
13.250  17.750  1.1276e-05
13.250  18.000  1.4979e-05
13.250  18.250  2.0988e-05
13.250  18.500  3.0782e-05
13.250  18.750  4.5761e-05
13.250  19.000  6.8066e-05
13.250  19.250  1.0016e-04
13.250  19.500  1.4568e-04
13.250  19.750  2.0979e-04
13.250  20.000  3.0008e-04
13.250  20.250  4.2848e-04
13.250  20.500  6.1358e-04
13.250  20.750  8.7860e-04
13.250  21.000  1.2700e-03
13.250  21.250  1.8415e-03
13.250  21.500  2.6497e-03
13.250  21.750  3.6673e-03
13.250  22.000  3.8455e-03
13.250  22.250  4.0016e-03
13.250  22.500  4.1513e-03
13.250  22.750  4.2154e-03
13.250  23.000  4.2291e-03
13.250  23.250  4.2407e-03
13.250  23.500  4.2509e-03
13.250  23.750  4.2593e-03
13.250  24.000  4.2655e-03
13.500  17.000  1.2346e-06
13.500  17.250  2.4691e-06
13.500  17.500  5.1852e-06
13.500  17.750  8.7243e-06
13.500  18.000  1.2016e-05
13.500  18.250  1.6296e-05
13.500  18.500  2.3045e-05
13.500  18.750  3.3498e-05
13.500  19.000  4.9218e-05
13.500  19.250  7.1934e-05
13.500  19.500  1.0453e-04
13.500  19.750  1.5045e-04
13.500  20.000  2.1498e-04
13.500  20.250  3.0642e-04
13.500  20.500  4.3753e-04
13.500  20.750  6.2543e-04
13.500  21.000  8.9514e-04
13.500  21.250  1.2970e-03
13.500  21.500  1.8577e-03
13.500  21.750  2.6798e-03
13.500  22.000  3.6073e-03
13.500  22.250  3.7976e-03
13.500  22.500  3.9647e-03
13.500  22.750  4.1205e-03
13.500  23.000  4.1942e-03
13.500  23.250  4.2119e-03
13.500  23.500  4.2274e-03
13.500  23.750  4.2407e-03
13.500  24.000  4.2508e-03
13.750  17.000  1.0000e-07
13.750  17.250  1.4815e-06
13.750  17.500  3.2099e-06
13.750  17.750  5.9259e-06
13.750  18.000  9.7942e-06
13.750  18.250  1.2840e-05
13.750  18.500  1.7531e-05
13.750  18.750  2.4774e-05
13.750  19.000  3.5802e-05
13.750  19.250  5.1852e-05
13.750  19.500  7.4979e-05
13.750  19.750  1.0782e-04
13.750  20.000  1.5416e-04
13.750  20.250  2.1975e-04
13.750  20.500  3.1309e-04
13.750  20.750  4.4716e-04
13.750  21.000  6.3959e-04
13.750  21.250  9.1671e-04
13.750  21.500  1.3104e-03
13.750  21.750  1.8962e-03
13.750  22.000  2.7107e-03
13.750  22.250  3.5296e-03
13.750  22.500  3.7232e-03
13.750  22.750  3.9141e-03
13.750  23.000  4.0814e-03
13.750  23.250  4.1622e-03
13.750  23.500  4.1856e-03
13.750  23.750  4.2070e-03
13.750  24.000  4.2247e-03
14.000  17.000  1.0000e-07
14.000  17.250  9.0535e-07
14.000  17.500  1.9753e-06
14.000  17.750  3.8683e-06
14.000  18.000  7.0782e-06
14.000  18.250  1.0535e-05
14.000  18.500  1.3663e-05
14.000  18.750  1.8601e-05
14.000  19.000  2.6173e-05
14.000  19.250  3.7531e-05
14.000  19.500  5.3827e-05
14.000  19.750  7.7284e-05
14.000  20.000  1.1053e-04
14.000  20.250  1.5745e-04
14.000  20.500  2.2444e-04
14.000  20.750  3.2058e-04
14.000  21.000  4.5761e-04
14.000  21.250  6.5737e-04
14.000  21.500  9.3457e-04
14.000  21.750  1.3483e-03
14.000  22.000  1.9486e-03
14.000  22.250  2.7533e-03
14.000  22.500  3.4277e-03
14.000  22.750  3.6327e-03
14.000  23.000  3.8433e-03
14.000  23.250  4.0330e-03
14.000  23.500  4.1146e-03
14.000  23.750  4.1463e-03
14.000  24.000  4.1770e-03
