InwC 2052.68A  relative to Inci 1215.00A scaled to 1215A.
Hden   Phi(H)  Eq_Width (A)
7.000  17.000  7.4680e-03
7.000  17.250  7.4712e-03
7.000  17.500  7.4743e-03
7.000  17.750  7.4775e-03
7.000  18.000  7.4807e-03
7.000  18.250  7.4835e-03
7.000  18.500  7.4853e-03
7.000  18.750  7.4863e-03
7.000  19.000  7.4872e-03
7.000  19.250  7.4878e-03
7.000  19.500  7.4880e-03
7.000  19.750  7.4881e-03
7.000  20.000  7.4882e-03
7.000  20.250  7.4882e-03
7.000  20.500  7.4882e-03
7.000  20.750  7.4883e-03
7.000  21.000  7.4883e-03
7.000  21.250  7.4883e-03
7.000  21.500  7.4885e-03
7.000  21.750  7.4883e-03
7.000  22.000  7.4883e-03
7.000  22.250  7.4883e-03
7.000  22.500  7.4883e-03
7.000  22.750  7.4885e-03
7.000  23.000  7.4885e-03
7.000  23.250  7.4883e-03
7.000  23.500  7.4883e-03
7.000  23.750  7.4883e-03
7.000  24.000  7.4883e-03
7.250  17.000  7.4551e-03
7.250  17.250  7.4680e-03
7.250  17.500  7.4712e-03
7.250  17.750  7.4744e-03
7.250  18.000  7.4775e-03
7.250  18.250  7.4807e-03
7.250  18.500  7.4835e-03
7.250  18.750  7.4853e-03
7.250  19.000  7.4863e-03
7.250  19.250  7.4872e-03
7.250  19.500  7.4878e-03
7.250  19.750  7.4880e-03
7.250  20.000  7.4881e-03
7.250  20.250  7.4881e-03
7.250  20.500  7.4882e-03
7.250  20.750  7.4882e-03
7.250  21.000  7.4883e-03
7.250  21.250  7.4883e-03
7.250  21.500  7.4883e-03
7.250  21.750  7.4898e-03
7.250  22.000  7.4883e-03
7.250  22.250  7.4883e-03
7.250  22.500  7.4883e-03
7.250  22.750  7.4891e-03
7.250  23.000  7.4891e-03
7.250  23.250  7.4883e-03
7.250  23.500  7.4883e-03
7.250  23.750  7.4883e-03
7.250  24.000  7.4883e-03
7.500  17.000  7.1271e-03
7.500  17.250  7.4558e-03
7.500  17.500  7.4680e-03
7.500  17.750  7.4712e-03
7.500  18.000  7.4744e-03
7.500  18.250  7.4776e-03
7.500  18.500  7.4807e-03
7.500  18.750  7.4835e-03
7.500  19.000  7.4853e-03
7.500  19.250  7.4863e-03
7.500  19.500  7.4872e-03
7.500  19.750  7.4878e-03
7.500  20.000  7.4880e-03
7.500  20.250  7.4881e-03
7.500  20.500  7.4881e-03
7.500  20.750  7.4882e-03
7.500  21.000  7.4882e-03
7.500  21.250  7.4882e-03
7.500  21.500  7.4882e-03
7.500  21.750  7.4883e-03
7.500  22.000  7.4883e-03
7.500  22.250  7.4883e-03
7.500  22.500  7.4883e-03
7.500  22.750  7.4883e-03
7.500  23.000  7.4886e-03
7.500  23.250  7.4891e-03
7.500  23.500  7.4883e-03
7.500  23.750  7.4892e-03
7.500  24.000  7.4883e-03
7.750  17.000  6.5734e-03
7.750  17.250  7.1287e-03
7.750  17.500  7.4562e-03
7.750  17.750  7.4680e-03
7.750  18.000  7.4713e-03
7.750  18.250  7.4744e-03
7.750  18.500  7.4776e-03
7.750  18.750  7.4807e-03
7.750  19.000  7.4835e-03
7.750  19.250  7.4853e-03
7.750  19.500  7.4863e-03
7.750  19.750  7.4872e-03
7.750  20.000  7.4877e-03
7.750  20.250  7.4880e-03
7.750  20.500  7.4881e-03
7.750  20.750  7.4881e-03
7.750  21.000  7.4881e-03
7.750  21.250  7.4882e-03
7.750  21.500  7.4882e-03
7.750  21.750  7.4882e-03
7.750  22.000  7.4882e-03
7.750  22.250  7.4882e-03
7.750  22.500  7.4882e-03
7.750  22.750  7.4885e-03
7.750  23.000  7.4885e-03
7.750  23.250  7.4883e-03
7.750  23.500  7.4891e-03
7.750  23.750  7.4891e-03
7.750  24.000  7.4883e-03
8.000  17.000  4.8073e-03
8.000  17.250  6.5365e-03
8.000  17.500  7.1256e-03
8.000  17.750  7.4550e-03
8.000  18.000  7.4679e-03
8.000  18.250  7.4713e-03
8.000  18.500  7.4744e-03
8.000  18.750  7.4776e-03
8.000  19.000  7.4807e-03
8.000  19.250  7.4835e-03
8.000  19.500  7.4853e-03
8.000  19.750  7.4863e-03
8.000  20.000  7.4872e-03
8.000  20.250  7.4877e-03
8.000  20.500  7.4880e-03
8.000  20.750  7.4881e-03
8.000  21.000  7.4881e-03
8.000  21.250  7.4881e-03
8.000  21.500  7.4882e-03
8.000  21.750  7.4882e-03
8.000  22.000  7.4882e-03
8.000  22.250  7.4882e-03
8.000  22.500  7.4882e-03
8.000  22.750  7.4884e-03
8.000  23.000  7.4882e-03
8.000  23.250  7.4887e-03
8.000  23.500  7.4882e-03
8.000  23.750  7.4882e-03
8.000  24.000  7.4882e-03
8.250  17.000  3.5448e-03
8.250  17.250  4.8217e-03
8.250  17.500  6.5419e-03
8.250  17.750  7.1267e-03
8.250  18.000  7.4553e-03
8.250  18.250  7.4679e-03
8.250  18.500  7.4713e-03
8.250  18.750  7.4745e-03
8.250  19.000  7.4777e-03
8.250  19.250  7.4807e-03
8.250  19.500  7.4835e-03
8.250  19.750  7.4853e-03
8.250  20.000  7.4863e-03
8.250  20.250  7.4872e-03
8.250  20.500  7.4877e-03
8.250  20.750  7.4880e-03
8.250  21.000  7.4881e-03
8.250  21.250  7.4881e-03
8.250  21.500  7.4881e-03
8.250  21.750  7.4882e-03
8.250  22.000  7.4881e-03
8.250  22.250  7.4882e-03
8.250  22.500  7.4882e-03
8.250  22.750  7.4884e-03
8.250  23.000  7.4882e-03
8.250  23.250  7.4902e-03
8.250  23.500  7.4882e-03
8.250  23.750  7.4882e-03
8.250  24.000  7.4888e-03
8.500  17.000  2.6574e-03
8.500  17.250  3.5626e-03
8.500  17.500  4.8362e-03
8.500  17.750  6.5481e-03
8.500  18.000  7.1273e-03
8.500  18.250  7.4554e-03
8.500  18.500  7.4678e-03
8.500  18.750  7.4712e-03
8.500  19.000  7.4745e-03
8.500  19.250  7.4777e-03
8.500  19.500  7.4808e-03
8.500  19.750  7.4835e-03
8.500  20.000  7.4853e-03
8.500  20.250  7.4863e-03
8.500  20.500  7.4872e-03
8.500  20.750  7.4877e-03
8.500  21.000  7.4880e-03
8.500  21.250  7.4881e-03
8.500  21.500  7.4881e-03
8.500  21.750  7.4881e-03
8.500  22.000  7.4882e-03
8.500  22.250  7.4881e-03
8.500  22.500  7.4882e-03
8.500  22.750  7.4882e-03
8.500  23.000  7.4882e-03
8.500  23.250  7.4884e-03
8.500  23.500  7.4882e-03
8.500  23.750  7.4882e-03
8.500  24.000  7.4882e-03
8.750  17.000  2.0385e-03
8.750  17.250  2.6768e-03
8.750  17.500  3.5871e-03
8.750  17.750  4.8427e-03
8.750  18.000  6.5597e-03
8.750  18.250  7.1273e-03
8.750  18.500  7.4551e-03
8.750  18.750  7.4677e-03
8.750  19.000  7.4712e-03
8.750  19.250  7.4745e-03
8.750  19.500  7.4777e-03
8.750  19.750  7.4808e-03
8.750  20.000  7.4835e-03
8.750  20.250  7.4853e-03
8.750  20.500  7.4863e-03
8.750  20.750  7.4872e-03
8.750  21.000  7.4877e-03
8.750  21.250  7.4880e-03
8.750  21.500  7.4881e-03
8.750  21.750  7.4881e-03
8.750  22.000  7.4881e-03
8.750  22.250  7.4881e-03
8.750  22.500  7.4882e-03
8.750  22.750  7.4882e-03
8.750  23.000  7.4890e-03
8.750  23.250  7.4882e-03
8.750  23.500  7.4884e-03
8.750  23.750  7.4882e-03
8.750  24.000  7.4882e-03
9.000  17.000  1.6051e-03
9.000  17.250  2.0537e-03
9.000  17.500  2.7040e-03
9.000  17.750  3.6303e-03
9.000  18.000  4.8928e-03
9.000  18.250  6.6026e-03
9.000  18.500  7.1263e-03
9.000  18.750  7.4544e-03
9.000  19.000  7.4674e-03
9.000  19.250  7.4711e-03
9.000  19.500  7.4746e-03
9.000  19.750  7.4778e-03
9.000  20.000  7.4808e-03
9.000  20.250  7.4835e-03
9.000  20.500  7.4853e-03
9.000  20.750  7.4863e-03
9.000  21.000  7.4872e-03
9.000  21.250  7.4877e-03
9.000  21.500  7.4880e-03
9.000  21.750  7.4881e-03
9.000  22.000  7.4881e-03
9.000  22.250  7.4881e-03
9.000  22.500  7.4881e-03
9.000  22.750  7.4881e-03
9.000  23.000  7.4882e-03
9.000  23.250  7.4882e-03
9.000  23.500  7.4882e-03
9.000  23.750  7.4882e-03
9.000  24.000  7.4882e-03
9.250  17.000  1.3026e-03
9.250  17.250  1.6169e-03
9.250  17.500  2.0800e-03
9.250  17.750  2.7582e-03
9.250  18.000  3.7114e-03
9.250  18.250  5.0047e-03
9.250  18.500  6.7087e-03
9.250  18.750  7.1237e-03
9.250  19.000  7.4529e-03
9.250  19.250  7.4670e-03
9.250  19.500  7.4710e-03
9.250  19.750  7.4746e-03
9.250  20.000  7.4778e-03
9.250  20.250  7.4809e-03
9.250  20.500  7.4835e-03
9.250  20.750  7.4853e-03
9.250  21.000  7.4863e-03
9.250  21.250  7.4872e-03
9.250  21.500  7.4873e-03
9.250  21.750  7.4875e-03
9.250  22.000  7.4875e-03
9.250  22.250  7.4877e-03
9.250  22.500  7.4878e-03
9.250  22.750  7.4878e-03
9.250  23.000  7.4880e-03
9.250  23.250  7.4881e-03
9.250  23.500  7.4881e-03
9.250  23.750  7.4880e-03
9.250  24.000  7.4881e-03
9.500  17.000  1.0929e-03
9.500  17.250  1.3114e-03
9.500  17.500  1.6402e-03
9.500  17.750  2.1357e-03
9.500  18.000  2.8600e-03
9.500  18.250  3.8853e-03
9.500  18.500  5.2633e-03
9.500  18.750  6.8787e-03
9.500  19.000  7.1189e-03
9.500  19.250  7.4501e-03
9.500  19.500  7.4663e-03
9.500  19.750  7.4709e-03
9.500  20.000  7.4745e-03
9.500  20.250  7.4778e-03
9.500  20.500  7.4809e-03
9.500  20.750  7.4830e-03
9.500  21.000  7.4849e-03
9.500  21.250  7.4858e-03
9.500  21.500  7.4866e-03
9.500  21.750  7.4871e-03
9.500  22.000  7.4872e-03
9.500  22.250  7.4874e-03
9.500  22.500  7.4874e-03
9.500  22.750  7.4874e-03
9.500  23.000  7.4874e-03
9.500  23.250  7.4874e-03
9.500  23.500  7.4875e-03
9.500  23.750  7.4875e-03
9.500  24.000  7.4875e-03
9.750  17.000  9.4510e-04
9.750  17.250  1.0981e-03
9.750  17.500  1.3295e-03
9.750  17.750  1.6904e-03
9.750  18.000  2.2507e-03
9.750  18.250  3.0666e-03
9.750  18.500  4.2112e-03
9.750  18.750  5.7530e-03
9.750  19.000  6.8759e-03
9.750  19.250  7.1115e-03
9.750  19.500  7.4452e-03
9.750  19.750  7.4650e-03
9.750  20.000  7.4705e-03
9.750  20.250  7.4745e-03
9.750  20.500  7.4778e-03
9.750  20.750  7.4808e-03
9.750  21.000  7.4832e-03
9.750  21.250  7.4849e-03
9.750  21.500  7.4858e-03
9.750  21.750  7.4867e-03
9.750  22.000  7.4871e-03
9.750  22.250  7.4873e-03
9.750  22.500  7.4874e-03
9.750  22.750  7.4874e-03
9.750  23.000  7.4874e-03
9.750  23.250  7.4874e-03
9.750  23.500  7.4874e-03
9.750  23.750  7.4874e-03
9.750  24.000  7.4874e-03
10.000  17.000  8.4165e-04
10.000  17.250  9.4807e-04
10.000  17.500  1.1113e-03
10.000  17.750  1.3737e-03
10.000  18.000  1.8036e-03
10.000  18.250  2.4525e-03
10.000  18.500  3.3751e-03
10.000  18.750  4.6235e-03
10.000  19.000  6.1584e-03
10.000  19.250  6.8718e-03
10.000  19.500  7.1019e-03
10.000  19.750  7.4372e-03
10.000  20.000  7.4631e-03
10.000  20.250  7.4700e-03
10.000  20.500  7.4744e-03
10.000  20.750  7.4778e-03
10.000  21.000  7.4809e-03
10.000  21.250  7.4834e-03
10.000  21.500  7.4849e-03
10.000  21.750  7.4858e-03
10.000  22.000  7.4867e-03
10.000  22.250  7.4872e-03
10.000  22.500  7.4872e-03
10.000  22.750  7.4874e-03
10.000  23.000  7.4874e-03
10.000  23.250  7.4875e-03
10.000  23.500  7.4875e-03
10.000  23.750  7.4875e-03
10.000  24.000  7.4875e-03
10.250  17.000  7.6938e-04
10.250  17.250  8.4329e-04
10.250  17.500  9.5877e-04
10.250  17.750  1.1513e-03
10.250  18.000  1.4753e-03
10.250  18.250  1.9722e-03
10.250  18.500  2.6984e-03
10.250  18.750  3.7138e-03
10.250  19.000  5.1113e-03
10.250  19.250  6.6819e-03
10.250  19.500  6.8690e-03
10.250  19.750  7.0923e-03
10.250  20.000  7.4262e-03
10.250  20.250  7.4603e-03
10.250  20.500  7.4691e-03
10.250  20.750  7.4742e-03
10.250  21.000  7.4778e-03
10.250  21.250  7.4809e-03
10.250  21.500  7.4835e-03
10.250  21.750  7.4850e-03
10.250  22.000  7.4858e-03
10.250  22.250  7.4867e-03
10.250  22.500  7.4872e-03
10.250  22.750  7.4872e-03
10.250  23.000  7.4874e-03
10.250  23.250  7.4874e-03
10.250  23.500  7.4874e-03
10.250  23.750  7.4875e-03
10.250  24.000  7.4875e-03
10.500  17.000  7.1877e-04
10.500  17.250  7.7029e-04
10.500  17.500  8.5226e-04
10.500  17.750  9.9391e-04
10.500  18.000  1.2366e-03
10.500  18.250  1.6156e-03
10.500  18.500  2.1635e-03
10.500  18.750  2.9691e-03
10.500  19.000  4.0790e-03
10.500  19.250  5.5849e-03
10.500  19.500  6.7170e-03
10.500  19.750  6.8688e-03
10.500  20.000  7.0841e-03
10.500  20.250  7.4134e-03
10.500  20.500  7.4566e-03
10.500  20.750  7.4677e-03
10.500  21.000  7.4738e-03
10.500  21.250  7.4777e-03
10.500  21.500  7.4809e-03
10.500  21.750  7.4835e-03
10.500  22.000  7.4852e-03
10.500  22.250  7.4859e-03
10.500  22.500  7.4867e-03
10.500  22.750  7.4873e-03
10.500  23.000  7.4874e-03
10.500  23.250  7.4873e-03
10.500  23.500  7.4874e-03
10.500  23.750  7.4875e-03
10.500  24.000  7.4875e-03
10.750  17.000  6.8305e-04
10.750  17.250  7.1877e-04
10.750  17.500  7.7745e-04
10.750  17.750  8.8165e-04
10.750  18.000  1.0624e-03
10.750  18.250  1.3459e-03
10.750  18.500  1.7663e-03
10.750  18.750  2.3683e-03
10.750  19.000  3.2154e-03
10.750  19.250  4.4002e-03
10.750  19.500  5.9397e-03
10.750  19.750  6.7209e-03
10.750  20.000  6.8696e-03
10.750  20.250  7.0782e-03
10.750  20.500  7.4022e-03
10.750  20.750  7.4530e-03
10.750  21.000  7.4658e-03
10.750  21.250  7.4733e-03
10.750  21.500  7.4776e-03
10.750  21.750  7.4808e-03
10.750  22.000  7.4835e-03
10.750  22.250  7.4853e-03
10.750  22.500  7.4861e-03
10.750  22.750  7.4867e-03
10.750  23.000  7.4873e-03
10.750  23.250  7.4875e-03
10.750  23.500  7.4874e-03
10.750  23.750  7.4874e-03
10.750  24.000  7.4875e-03
11.000  17.000  6.5761e-04
11.000  17.250  6.8206e-04
11.000  17.500  7.2346e-04
11.000  17.750  8.0033e-04
11.000  18.000  9.3366e-04
11.000  18.250  1.1435e-03
11.000  18.500  1.4547e-03
11.000  18.750  1.9014e-03
11.000  19.000  2.5370e-03
11.000  19.250  3.4354e-03
11.000  19.500  4.6890e-03
11.000  19.750  6.3447e-03
11.000  20.000  6.7207e-03
11.000  20.250  6.8684e-03
11.000  20.500  7.0764e-03
11.000  20.750  7.3974e-03
11.000  21.000  7.4485e-03
11.000  21.250  7.4636e-03
11.000  21.500  7.4726e-03
11.000  21.750  7.4774e-03
11.000  22.000  7.4807e-03
11.000  22.250  7.4834e-03
11.000  22.500  7.4853e-03
11.000  22.750  7.4862e-03
11.000  23.000  7.4869e-03
11.000  23.250  7.4873e-03
11.000  23.500  7.4875e-03
11.000  23.750  7.4876e-03
11.000  24.000  7.4875e-03
11.250  17.000  6.3926e-04
11.250  17.250  6.5539e-04
11.250  17.500  6.8453e-04
11.250  17.750  7.4049e-04
11.250  18.000  8.3852e-04
11.250  18.250  9.9070e-04
11.250  18.500  1.2165e-03
11.250  18.750  1.5506e-03
11.250  19.000  2.0149e-03
11.250  19.250  2.6737e-03
11.250  19.500  3.6105e-03
11.250  19.750  4.9383e-03
11.250  20.000  6.4374e-03
11.250  20.250  6.7201e-03
11.250  20.500  6.8751e-03
11.250  20.750  7.0803e-03
11.250  21.000  7.4008e-03
11.250  21.250  7.4454e-03
11.250  21.500  7.4614e-03
11.250  21.750  7.4716e-03
11.250  22.000  7.4770e-03
11.250  22.250  7.4805e-03
11.250  22.500  7.4833e-03
11.250  22.750  7.4853e-03
11.250  23.000  7.4862e-03
11.250  23.250  7.4871e-03
11.250  23.500  7.4874e-03
11.250  23.750  7.4876e-03
11.250  24.000  7.4877e-03
11.500  17.000  6.2609e-04
11.500  17.250  6.3638e-04
11.500  17.500  6.5654e-04
11.500  17.750  6.9679e-04
11.500  18.000  7.6741e-04
11.500  18.250  8.7745e-04
11.500  18.500  1.0408e-03
11.500  18.750  1.2820e-03
11.500  19.000  1.6207e-03
11.500  19.250  2.1002e-03
11.500  19.500  2.7827e-03
11.500  19.750  3.7612e-03
11.500  20.000  5.1570e-03
11.500  20.250  6.4798e-03
11.500  20.500  6.7200e-03
11.500  20.750  6.8760e-03
11.500  21.000  7.0938e-03
11.500  21.250  7.4093e-03
11.500  21.500  7.4412e-03
11.500  21.750  7.4591e-03
11.500  22.000  7.4705e-03
11.500  22.250  7.4765e-03
11.500  22.500  7.4802e-03
11.500  22.750  7.4831e-03
11.500  23.000  7.4852e-03
11.500  23.250  7.4862e-03
11.500  23.500  7.4871e-03
11.500  23.750  7.4874e-03
11.500  24.000  7.4876e-03
11.750  17.000  6.1663e-04
11.750  17.250  6.2280e-04
11.750  17.500  6.3654e-04
11.750  17.750  6.6502e-04
11.750  18.000  7.1473e-04
11.750  18.250  7.9333e-04
11.750  18.500  9.1086e-04
11.750  18.750  1.0812e-03
11.750  19.000  1.3305e-03
11.750  19.250  1.6776e-03
11.750  19.500  2.1709e-03
11.750  19.750  2.8701e-03
11.750  20.000  3.8868e-03
11.750  20.250  5.3406e-03
11.750  20.500  6.5123e-03
11.750  20.750  6.7240e-03
11.750  21.000  6.8874e-03
11.750  21.250  7.1325e-03
11.750  21.500  7.4067e-03
11.750  21.750  7.4366e-03
11.750  22.000  7.4562e-03
11.750  22.250  7.4692e-03
11.750  22.500  7.4758e-03
11.750  22.750  7.4799e-03
11.750  23.000  7.4830e-03
11.750  23.250  7.4852e-03
11.750  23.500  7.4862e-03
11.750  23.750  7.4872e-03
11.750  24.000  7.4877e-03
12.000  17.000  6.1021e-04
12.000  17.250  6.1350e-04
12.000  17.500  6.2255e-04
12.000  17.750  6.4222e-04
12.000  18.000  6.7679e-04
12.000  18.250  7.3235e-04
12.000  18.500  8.1621e-04
12.000  18.750  9.3975e-04
12.000  19.000  1.1184e-03
12.000  19.250  1.3701e-03
12.000  19.500  1.7253e-03
12.000  19.750  2.2274e-03
12.000  20.000  2.9488e-03
12.000  20.250  3.9911e-03
12.000  20.500  5.4923e-03
12.000  20.750  6.4959e-03
12.000  21.000  6.7305e-03
12.000  21.250  6.9252e-03
12.000  21.500  7.2077e-03
12.000  21.750  7.4004e-03
12.000  22.000  7.4332e-03
12.000  22.250  7.4544e-03
12.000  22.500  7.4678e-03
12.000  22.750  7.4752e-03
12.000  23.000  7.4795e-03
12.000  23.250  7.4828e-03
12.000  23.500  7.4851e-03
12.000  23.750  7.4862e-03
12.000  24.000  7.4872e-03
12.250  17.000  6.0617e-04
12.250  17.250  6.0749e-04
12.250  17.500  6.1309e-04
12.250  17.750  6.2626e-04
12.250  18.000  6.5029e-04
12.250  18.250  6.8922e-04
12.250  18.500  7.4881e-04
12.250  18.750  8.3835e-04
12.250  19.000  9.6675e-04
12.250  19.250  1.1483e-03
12.250  19.500  1.4040e-03
12.250  19.750  1.7668e-03
12.250  20.000  2.2751e-03
12.250  20.250  3.0109e-03
12.250  20.500  4.0856e-03
12.250  20.750  5.6345e-03
12.250  21.000  6.4863e-03
12.250  21.250  6.7515e-03
12.250  21.500  6.9810e-03
12.250  21.750  7.2998e-03
12.250  22.000  7.3928e-03
12.250  22.250  7.4249e-03
12.250  22.500  7.4499e-03
12.250  22.750  7.4660e-03
12.250  23.000  7.4745e-03
12.250  23.250  7.4791e-03
12.250  23.500  7.4825e-03
12.250  23.750  7.4850e-03
12.250  24.000  7.4861e-03
12.500  17.000  6.0412e-04
12.500  17.250  6.0420e-04
12.500  17.500  6.0741e-04
12.500  17.750  6.1588e-04
12.500  18.000  6.3210e-04
12.500  18.250  6.5918e-04
12.500  18.500  7.0181e-04
12.500  18.750  7.6551e-04
12.500  19.000  8.5761e-04
12.500  19.250  9.8930e-04
12.500  19.500  1.1719e-03
12.500  19.750  1.4312e-03
12.500  20.000  1.7976e-03
12.500  20.250  2.3160e-03
12.500  20.500  3.0743e-03
12.500  20.750  4.1771e-03
12.500  21.000  5.7584e-03
12.500  21.250  6.5017e-03
12.500  21.500  6.7885e-03
12.500  21.750  7.0502e-03
12.500  22.000  7.3394e-03
12.500  22.250  7.3854e-03
12.500  22.500  7.4183e-03
12.500  22.750  7.4456e-03
12.500  23.000  7.4636e-03
12.500  23.250  7.4734e-03
12.500  23.500  7.4784e-03
12.500  23.750  7.4822e-03
12.500  24.000  7.4849e-03
12.750  17.000  4.6428e-04
12.750  17.250  5.9621e-04
12.750  17.500  6.0469e-04
12.750  17.750  6.0988e-04
12.750  18.000  6.2033e-04
12.750  18.250  6.3885e-04
12.750  18.500  6.6864e-04
12.750  18.750  7.1407e-04
12.750  19.000  7.8033e-04
12.750  19.250  8.7449e-04
12.750  19.500  1.0063e-03
12.750  19.750  1.1911e-03
12.750  20.000  1.4533e-03
12.750  20.250  1.8238e-03
12.750  20.500  2.3588e-03
12.750  20.750  3.1348e-03
12.750  21.000  4.2942e-03
12.750  21.250  5.9523e-03
12.750  21.500  6.5223e-03
12.750  21.750  6.8444e-03
12.750  22.000  7.1244e-03
12.750  22.250  7.3370e-03
12.750  22.500  7.3790e-03
12.750  22.750  7.4136e-03
12.750  23.000  7.4418e-03
12.750  23.250  7.4608e-03
12.750  23.500  7.4719e-03
12.750  23.750  7.4775e-03
12.750  24.000  7.4818e-03
13.000  17.000  2.3243e-04
13.000  17.250  4.2922e-04
13.000  17.500  5.6551e-04
13.000  17.750  6.0650e-04
13.000  18.000  6.1300e-04
13.000  18.250  6.2519e-04
13.000  18.500  6.4568e-04
13.000  18.750  6.7753e-04
13.000  19.000  7.2469e-04
13.000  19.250  7.9193e-04
13.000  19.500  8.8658e-04
13.000  19.750  1.0192e-03
13.000  20.000  1.2055e-03
13.000  20.250  1.4708e-03
13.000  20.500  1.8493e-03
13.000  20.750  2.4006e-03
13.000  21.000  3.2100e-03
13.000  21.250  4.4330e-03
13.000  21.500  6.0815e-03
13.000  21.750  6.5677e-03
13.000  22.000  6.8914e-03
13.000  22.250  7.1804e-03
13.000  22.500  7.3330e-03
13.000  22.750  7.3748e-03
13.000  23.000  7.4100e-03
13.000  23.250  7.4379e-03
13.000  23.500  7.4584e-03
13.000  23.750  7.4699e-03
13.000  24.000  7.4763e-03
13.250  17.000  1.4156e-04
13.250  17.250  2.6947e-04
13.250  17.500  5.1877e-04
13.250  17.750  6.0469e-04
13.250  18.000  6.0864e-04
13.250  18.250  6.1630e-04
13.250  18.500  6.2996e-04
13.250  18.750  6.5185e-04
13.250  19.000  6.8494e-04
13.250  19.250  7.3267e-04
13.250  19.500  8.0041e-04
13.250  19.750  8.9556e-04
13.250  20.000  1.0290e-03
13.250  20.250  1.2178e-03
13.250  20.500  1.4890e-03
13.250  20.750  1.8765e-03
13.250  21.000  2.4523e-03
13.250  21.250  3.3038e-03
13.250  21.500  4.5220e-03
13.250  21.750  6.1355e-03
13.250  22.000  6.5914e-03
13.250  22.250  6.9231e-03
13.250  22.500  7.1963e-03
13.250  22.750  7.3295e-03
13.250  23.000  7.3708e-03
13.250  23.250  7.4053e-03
13.250  23.500  7.4349e-03
13.250  23.750  7.4557e-03
13.250  24.000  7.4676e-03
13.500  17.000  8.5185e-05
13.500  17.250  1.6765e-04
13.500  17.500  3.4897e-04
13.500  17.750  5.3918e-04
13.500  18.000  6.0593e-04
13.500  18.250  6.1070e-04
13.500  18.500  6.1934e-04
13.500  18.750  6.3391e-04
13.500  19.000  6.5679e-04
13.500  19.250  6.9029e-04
13.500  19.500  7.3860e-04
13.500  19.750  8.0650e-04
13.500  20.000  9.0165e-04
13.500  20.250  1.0360e-03
13.500  20.500  1.2282e-03
13.500  20.750  1.5035e-03
13.500  21.000  1.8999e-03
13.500  21.250  2.4981e-03
13.500  21.500  3.3401e-03
13.500  21.750  4.6248e-03
13.500  22.000  6.1560e-03
13.500  22.250  6.5881e-03
13.500  22.500  6.9122e-03
13.500  22.750  7.1845e-03
13.500  23.000  7.3244e-03
13.500  23.250  7.3652e-03
13.500  23.500  7.4021e-03
13.500  23.750  7.4321e-03
13.500  24.000  7.4527e-03
13.750  17.000  5.1605e-05
13.750  17.250  1.0189e-04
13.750  17.500  2.2634e-04
13.750  17.750  3.9852e-04
13.750  18.000  5.9506e-04
13.750  18.250  6.0708e-04
13.750  18.500  6.1235e-04
13.750  18.750  6.2173e-04
13.750  19.000  6.3704e-04
13.750  19.250  6.6025e-04
13.750  19.500  6.9407e-04
13.750  19.750  7.4222e-04
13.750  20.000  8.0996e-04
13.750  20.250  9.0560e-04
13.750  20.500  1.0416e-03
13.750  20.750  1.2369e-03
13.750  21.000  1.5180e-03
13.750  21.250  1.9270e-03
13.750  21.500  2.5125e-03
13.750  21.750  3.4187e-03
13.750  22.000  4.7482e-03
13.750  22.250  6.1722e-03
13.750  22.500  6.5660e-03
13.750  22.750  6.8957e-03
13.750  23.000  7.1747e-03
13.750  23.250  7.3162e-03
13.750  23.500  7.3588e-03
13.750  23.750  7.3979e-03
13.750  24.000  7.4280e-03
14.000  17.000  3.0782e-05
14.000  17.250  6.2140e-05
14.000  17.500  1.3877e-04
14.000  17.750  2.7498e-04
14.000  18.000  4.6700e-04
14.000  18.250  6.0502e-04
14.000  18.500  6.0815e-04
14.000  18.750  6.1366e-04
14.000  19.000  6.2337e-04
14.000  19.250  6.3901e-04
14.000  19.500  6.6222e-04
14.000  19.750  6.9605e-04
14.000  20.000  7.4379e-04
14.000  20.250  8.1111e-04
14.000  20.500  9.0733e-04
14.000  20.750  1.0451e-03
14.000  21.000  1.2422e-03
14.000  21.250  1.5323e-03
14.000  21.500  1.9365e-03
14.000  21.750  2.5615e-03
14.000  22.000  3.5178e-03
14.000  22.250  4.9179e-03
14.000  22.500  6.1735e-03
14.000  22.750  6.5353e-03
14.000  23.000  6.8676e-03
14.000  23.250  7.1726e-03
14.000  23.500  7.3028e-03
14.000  23.750  7.3479e-03
14.000  24.000  7.3908e-03
