InwT 511.948A  relative to Inci 1215.00A scaled to 1215A.
Hden   Phi(H)  Eq_Width (A)
7.000  17.000  2.1995e-02
7.000  17.250  2.1458e-02
7.000  17.500  1.8212e-02
7.000  17.750  1.3800e-02
7.000  18.000  1.0829e-02
7.000  18.250  9.0608e-03
7.000  18.500  8.0791e-03
7.000  18.750  7.7121e-03
7.000  19.000  7.5334e-03
7.000  19.250  7.4385e-03
7.000  19.500  7.3987e-03
7.000  19.750  7.3788e-03
7.000  20.000  7.3690e-03
7.000  20.250  7.3660e-03
7.000  20.500  7.3666e-03
7.000  20.750  7.3676e-03
7.000  21.000  7.3670e-03
7.000  21.250  7.3667e-03
7.000  21.500  7.3667e-03
7.000  21.750  7.3665e-03
7.000  22.000  7.3664e-03
7.000  22.250  7.3663e-03
7.000  22.500  7.3663e-03
7.000  22.750  7.3666e-03
7.000  23.000  7.3666e-03
7.000  23.250  7.3663e-03
7.000  23.500  7.3663e-03
7.000  23.750  7.3663e-03
7.000  24.000  7.3663e-03
7.250  17.000  2.0021e-02
7.250  17.250  2.1524e-02
7.250  17.500  2.1207e-02
7.250  17.750  1.8076e-02
7.250  18.000  1.3721e-02
7.250  18.250  1.0788e-02
7.250  18.500  9.0411e-03
7.250  18.750  8.0723e-03
7.250  19.000  7.7095e-03
7.250  19.250  7.5326e-03
7.250  19.500  7.4384e-03
7.250  19.750  7.3986e-03
7.250  20.000  7.3815e-03
7.250  20.250  7.3736e-03
7.250  20.500  7.3703e-03
7.250  20.750  7.3685e-03
7.250  21.000  7.3676e-03
7.250  21.250  7.3670e-03
7.250  21.500  7.3667e-03
7.250  21.750  7.3680e-03
7.250  22.000  7.3664e-03
7.250  22.250  7.3664e-03
7.250  22.500  7.3664e-03
7.250  22.750  7.3671e-03
7.250  23.000  7.3671e-03
7.250  23.250  7.3663e-03
7.250  23.500  7.3663e-03
7.250  23.750  7.3663e-03
7.250  24.000  7.3663e-03
7.500  17.000  1.4430e-02
7.500  17.250  1.9577e-02
7.500  17.500  2.1255e-02
7.500  17.750  2.1074e-02
7.500  18.000  1.8004e-02
7.500  18.250  1.3672e-02
7.500  18.500  1.0761e-02
7.500  18.750  9.0284e-03
7.500  19.000  8.0677e-03
7.500  19.250  7.7078e-03
7.500  19.500  7.5320e-03
7.500  19.750  7.4382e-03
7.500  20.000  7.3986e-03
7.500  20.250  7.3780e-03
7.500  20.500  7.3668e-03
7.500  20.750  7.3627e-03
7.500  21.000  7.3630e-03
7.500  21.250  7.3653e-03
7.500  21.500  7.3670e-03
7.500  21.750  7.3667e-03
7.500  22.000  7.3666e-03
7.500  22.250  7.3665e-03
7.500  22.500  7.3664e-03
7.500  22.750  7.3664e-03
7.500  23.000  7.3667e-03
7.500  23.250  7.3671e-03
7.500  23.500  7.3663e-03
7.500  23.750  7.3672e-03
7.500  24.000  7.3663e-03
7.750  17.000  9.6448e-03
7.750  17.250  1.4233e-02
7.750  17.500  1.9328e-02
7.750  17.750  2.1100e-02
7.750  18.000  2.1012e-02
7.750  18.250  1.7973e-02
7.750  18.500  1.3640e-02
7.750  18.750  1.0745e-02
7.750  19.000  9.0206e-03
7.750  19.250  8.0649e-03
7.750  19.500  7.7067e-03
7.750  19.750  7.5316e-03
7.750  20.000  7.4381e-03
7.750  20.250  7.3985e-03
7.750  20.500  7.3786e-03
7.750  20.750  7.3688e-03
7.750  21.000  7.3659e-03
7.750  21.250  7.3665e-03
7.750  21.500  7.3675e-03
7.750  21.750  7.3669e-03
7.750  22.000  7.3667e-03
7.750  22.250  7.3665e-03
7.750  22.500  7.3664e-03
7.750  22.750  7.3666e-03
7.750  23.000  7.3666e-03
7.750  23.250  7.3664e-03
7.750  23.500  7.3671e-03
7.750  23.750  7.3671e-03
7.750  24.000  7.3663e-03
8.000  17.000  6.4565e-03
8.000  17.250  9.5104e-03
8.000  17.500  1.4076e-02
8.000  17.750  1.9186e-02
8.000  18.000  2.1009e-02
8.000  18.250  2.0993e-02
8.000  18.500  1.7968e-02
8.000  18.750  1.3621e-02
8.000  19.000  1.0734e-02
8.000  19.250  9.0158e-03
8.000  19.500  8.0632e-03
8.000  19.750  7.7062e-03
8.000  20.000  7.5314e-03
8.000  20.250  7.4380e-03
8.000  20.500  7.3985e-03
8.000  20.750  7.3815e-03
8.000  21.000  7.3739e-03
8.000  21.250  7.3703e-03
8.000  21.500  7.3684e-03
8.000  21.750  7.3675e-03
8.000  22.000  7.3669e-03
8.000  22.250  7.3667e-03
8.000  22.500  7.3665e-03
8.000  22.750  7.3666e-03
8.000  23.000  7.3663e-03
8.000  23.250  7.3668e-03
8.000  23.500  7.3663e-03
8.000  23.750  7.3663e-03
8.000  24.000  7.3663e-03
8.250  17.000  4.4584e-03
8.250  17.250  6.4119e-03
8.250  17.500  9.4618e-03
8.250  17.750  1.4006e-02
8.250  18.000  1.9082e-02
8.250  18.250  2.0947e-02
8.250  18.500  2.1000e-02
8.250  18.750  1.7979e-02
8.250  19.000  1.3608e-02
8.250  19.250  1.0726e-02
8.250  19.500  9.0125e-03
8.250  19.750  8.0621e-03
8.250  20.000  7.7058e-03
8.250  20.250  7.5313e-03
8.250  20.500  7.4380e-03
8.250  20.750  7.3985e-03
8.250  21.000  7.3815e-03
8.250  21.250  7.3739e-03
8.250  21.500  7.3703e-03
8.250  21.750  7.3684e-03
8.250  22.000  7.3674e-03
8.250  22.250  7.3669e-03
8.250  22.500  7.3667e-03
8.250  22.750  7.3667e-03
8.250  23.000  7.3664e-03
8.250  23.250  7.3682e-03
8.250  23.500  7.3663e-03
8.250  23.750  7.3663e-03
8.250  24.000  7.3668e-03
8.500  17.000  3.1858e-03
8.500  17.250  4.4322e-03
8.500  17.500  6.3828e-03
8.500  17.750  9.4189e-03
8.500  18.000  1.3946e-02
8.500  18.250  1.8987e-02
8.500  18.500  2.0900e-02
8.500  18.750  2.1024e-02
8.500  19.000  1.8002e-02
8.500  19.250  1.3598e-02
8.500  19.500  1.0720e-02
8.500  19.750  9.0104e-03
8.500  20.000  8.0615e-03
8.500  20.250  7.7056e-03
8.500  20.500  7.5312e-03
8.500  20.750  7.4380e-03
8.500  21.000  7.3985e-03
8.500  21.250  7.3815e-03
8.500  21.500  7.3739e-03
8.500  21.750  7.3703e-03
8.500  22.000  7.3684e-03
8.500  22.250  7.3674e-03
8.500  22.500  7.3669e-03
8.500  22.750  7.3667e-03
8.500  23.000  7.3665e-03
8.500  23.250  7.3666e-03
8.500  23.500  7.3663e-03
8.500  23.750  7.3663e-03
8.500  24.000  7.3663e-03
8.750  17.000  2.3578e-03
8.750  17.250  3.1781e-03
8.750  17.500  4.4220e-03
8.750  17.750  6.3631e-03
8.750  18.000  9.3894e-03
8.750  18.250  1.3880e-02
8.750  18.500  1.8890e-02
8.750  18.750  2.0851e-02
8.750  19.000  2.1056e-02
8.750  19.250  1.8030e-02
8.750  19.500  1.3590e-02
8.750  19.750  1.0715e-02
8.750  20.000  9.0089e-03
8.750  20.250  8.0611e-03
8.750  20.500  7.7054e-03
8.750  20.750  7.5312e-03
8.750  21.000  7.4380e-03
8.750  21.250  7.3985e-03
8.750  21.500  7.3815e-03
8.750  21.750  7.3739e-03
8.750  22.000  7.3703e-03
8.750  22.250  7.3684e-03
8.750  22.500  7.3675e-03
8.750  22.750  7.3669e-03
8.750  23.000  7.3674e-03
8.750  23.250  7.3665e-03
8.750  23.500  7.3666e-03
8.750  23.750  7.3663e-03
8.750  24.000  7.3663e-03
9.000  17.000  1.7733e-03
9.000  17.250  2.3753e-03
9.000  17.500  3.1908e-03
9.000  17.750  4.4237e-03
9.000  18.000  6.3567e-03
9.000  18.250  9.3651e-03
9.000  18.500  1.3816e-02
9.000  18.750  1.8790e-02
9.000  19.000  2.0793e-02
9.000  19.250  2.1086e-02
9.000  19.500  1.8060e-02
9.000  19.750  1.3583e-02
9.000  20.000  1.0712e-02
9.000  20.250  9.0077e-03
9.000  20.500  8.0607e-03
9.000  20.750  7.7054e-03
9.000  21.000  7.5311e-03
9.000  21.250  7.4380e-03
9.000  21.500  7.3985e-03
9.000  21.750  7.3815e-03
9.000  22.000  7.3738e-03
9.000  22.250  7.3702e-03
9.000  22.500  7.3684e-03
9.000  22.750  7.3674e-03
9.000  23.000  7.3669e-03
9.000  23.250  7.3667e-03
9.000  23.500  7.3665e-03
9.000  23.750  7.3664e-03
9.000  24.000  7.3664e-03
9.250  17.000  1.3201e-03
9.250  17.250  1.8108e-03
9.250  17.500  2.4187e-03
9.250  17.750  3.2314e-03
9.250  18.000  4.4582e-03
9.250  18.250  6.3838e-03
9.250  18.500  9.3823e-03
9.250  18.750  1.3766e-02
9.250  19.000  1.8689e-02
9.250  19.250  2.0721e-02
9.250  19.500  2.1100e-02
9.250  19.750  1.8088e-02
9.250  20.000  1.3577e-02
9.250  20.250  1.0709e-02
9.250  20.500  9.0067e-03
9.250  20.750  8.0605e-03
9.250  21.000  7.7054e-03
9.250  21.250  7.5311e-03
9.250  21.500  7.4376e-03
9.250  21.750  7.3980e-03
9.250  22.000  7.3808e-03
9.250  22.250  7.3734e-03
9.250  22.500  7.3699e-03
9.250  22.750  7.3681e-03
9.250  23.000  7.3672e-03
9.250  23.250  7.3667e-03
9.250  23.500  7.3665e-03
9.250  23.750  7.3663e-03
9.250  24.000  7.3663e-03
9.500  17.000  9.4436e-04
9.500  17.250  1.3661e-03
9.500  17.500  1.8788e-03
9.500  17.750  2.5001e-03
9.500  18.000  3.3124e-03
9.500  18.250  4.5349e-03
9.500  18.500  6.4711e-03
9.500  18.750  9.5022e-03
9.500  19.000  1.3759e-02
9.500  19.250  1.8603e-02
9.500  19.500  2.0636e-02
9.500  19.750  2.1093e-02
9.500  20.000  1.8111e-02
9.500  20.250  1.3572e-02
9.500  20.500  1.0706e-02
9.500  20.750  9.0057e-03
9.500  21.000  8.0598e-03
9.500  21.250  7.7049e-03
9.500  21.500  7.5305e-03
9.500  21.750  7.4373e-03
9.500  22.000  7.3978e-03
9.500  22.250  7.3807e-03
9.500  22.500  7.3731e-03
9.500  22.750  7.3695e-03
9.500  23.000  7.3677e-03
9.500  23.250  7.3667e-03
9.500  23.500  7.3663e-03
9.500  23.750  7.3659e-03
9.500  24.000  7.3658e-03
9.750  17.000  6.2881e-04
9.750  17.250  9.8099e-04
9.750  17.500  1.4384e-03
9.750  17.750  1.9858e-03
9.750  18.000  2.6226e-03
9.750  18.250  3.4421e-03
9.750  18.500  4.6885e-03
9.750  18.750  6.6945e-03
9.750  19.000  9.7550e-03
9.750  19.250  1.3839e-02
9.750  19.500  1.8564e-02
9.750  19.750  2.0549e-02
9.750  20.000  2.1068e-02
9.750  20.250  1.8125e-02
9.750  20.500  1.3568e-02
9.750  20.750  1.0705e-02
9.750  21.000  9.0053e-03
9.750  21.250  8.0596e-03
9.750  21.500  7.7049e-03
9.750  21.750  7.5306e-03
9.750  22.000  7.4373e-03
9.750  22.250  7.3979e-03
9.750  22.500  7.3807e-03
9.750  22.750  7.3732e-03
9.750  23.000  7.3695e-03
9.750  23.250  7.3677e-03
9.750  23.500  7.3667e-03
9.750  23.750  7.3662e-03
9.750  24.000  7.3659e-03
10.000  17.000  3.7218e-04
10.000  17.250  6.4979e-04
10.000  17.500  1.0397e-03
10.000  17.750  1.5426e-03
10.000  18.000  2.1271e-03
10.000  18.250  2.7917e-03
10.000  18.500  3.6506e-03
10.000  18.750  4.9821e-03
10.000  19.000  7.1402e-03
10.000  19.250  1.0256e-02
10.000  19.500  1.4101e-02
10.000  19.750  1.8625e-02
10.000  20.000  2.0485e-02
10.000  20.250  2.1027e-02
10.000  20.500  1.8138e-02
10.000  20.750  1.3567e-02
10.000  21.000  1.0705e-02
10.000  21.250  9.0056e-03
10.000  21.500  8.0595e-03
10.000  21.750  7.7050e-03
10.000  22.000  7.5307e-03
10.000  22.250  7.4374e-03
10.000  22.500  7.3978e-03
10.000  22.750  7.3807e-03
10.000  23.000  7.3732e-03
10.000  23.250  7.3695e-03
10.000  23.500  7.3677e-03
10.000  23.750  7.3667e-03
10.000  24.000  7.3662e-03
10.250  17.000  2.2123e-04
10.250  17.250  3.8420e-04
10.250  17.500  6.9037e-04
10.250  17.750  1.1227e-03
10.250  18.000  1.6768e-03
10.250  18.250  2.3168e-03
10.250  18.500  3.0471e-03
10.250  18.750  4.0157e-03
10.250  19.000  5.5226e-03
10.250  19.250  7.9055e-03
10.250  19.500  1.0980e-02
10.250  19.750  1.4583e-02
10.250  20.000  1.8867e-02
10.250  20.250  2.0492e-02
10.250  20.500  2.0987e-02
10.250  20.750  1.8146e-02
10.250  21.000  1.3568e-02
10.250  21.250  1.0707e-02
10.250  21.500  9.0058e-03
10.250  21.750  8.0595e-03
10.250  22.000  7.7051e-03
10.250  22.250  7.5308e-03
10.250  22.500  7.4374e-03
10.250  22.750  7.3979e-03
10.250  23.000  7.3808e-03
10.250  23.250  7.3732e-03
10.250  23.500  7.3695e-03
10.250  23.750  7.3677e-03
10.250  24.000  7.3667e-03
10.500  17.000  1.3506e-04
10.500  17.250  2.2823e-04
10.500  17.500  4.1185e-04
10.500  17.750  7.5490e-04
10.500  18.000  1.2426e-03
10.500  18.250  1.8720e-03
10.500  18.500  2.6012e-03
10.500  18.750  3.4460e-03
10.500  19.000  4.5756e-03
10.500  19.250  6.3317e-03
10.500  19.500  8.8361e-03
10.500  19.750  1.1930e-02
10.500  20.000  1.5349e-02
10.500  20.250  1.9373e-02
10.500  20.500  2.0629e-02
10.500  20.750  2.0969e-02
10.500  21.000  1.8149e-02
10.500  21.250  1.3571e-02
10.500  21.500  1.0710e-02
10.500  21.750  9.0067e-03
10.500  22.000  8.0597e-03
10.500  22.250  7.7052e-03
10.500  22.500  7.5309e-03
10.500  22.750  7.4375e-03
10.500  23.000  7.3979e-03
10.500  23.250  7.3807e-03
10.500  23.500  7.3732e-03
10.500  23.750  7.3695e-03
10.500  24.000  7.3677e-03
10.750  17.000  8.6914e-05
10.750  17.250  1.3967e-04
10.750  17.500  2.4872e-04
10.750  17.750  4.7259e-04
10.750  18.000  8.6658e-04
10.750  18.250  1.4413e-03
10.750  18.500  2.1647e-03
10.750  18.750  2.9960e-03
10.750  19.000  3.9777e-03
10.750  19.250  5.3202e-03
10.750  19.500  7.3970e-03
10.750  19.750  1.0100e-02
10.750  20.000  1.3197e-02
10.750  20.250  1.6464e-02
10.750  20.500  2.0268e-02
10.750  20.750  2.0982e-02
10.750  21.000  2.0999e-02
10.750  21.250  1.8150e-02
10.750  21.500  1.3577e-02
10.750  21.750  1.0715e-02
10.750  22.000  9.0081e-03
10.750  22.250  8.0598e-03
10.750  22.500  7.7055e-03
10.750  22.750  7.5309e-03
10.750  23.000  7.4376e-03
10.750  23.250  7.3980e-03
10.750  23.500  7.3808e-03
10.750  23.750  7.3732e-03
10.750  24.000  7.3695e-03
11.000  17.000  5.9424e-05
11.000  17.250  8.9794e-05
11.000  17.500  1.5358e-04
11.000  17.750  2.9638e-04
11.000  18.000  5.7860e-04
11.000  18.250  1.0407e-03
11.000  18.500  1.7014e-03
11.000  18.750  2.5207e-03
11.000  19.000  3.4581e-03
11.000  19.250  4.6152e-03
11.000  19.500  6.2523e-03
11.000  19.750  8.7654e-03
11.000  20.000  1.1693e-02
11.000  20.250  1.4938e-02
11.000  20.500  1.8085e-02
11.000  20.750  2.1683e-02
11.000  21.000  2.1638e-02
11.000  21.250  2.1120e-02
11.000  21.500  1.8153e-02
11.000  21.750  1.3586e-02
11.000  22.000  1.0721e-02
11.000  22.250  9.0102e-03
11.000  22.500  8.0598e-03
11.000  22.750  7.7058e-03
11.000  23.000  7.5312e-03
11.000  23.250  7.4376e-03
11.000  23.500  7.3981e-03
11.000  23.750  7.3809e-03
11.000  24.000  7.3733e-03
11.250  17.000  4.2716e-05
11.250  17.250  6.0576e-05
11.250  17.500  9.8354e-05
11.250  17.750  1.8626e-04
11.250  18.000  3.7687e-04
11.250  18.250  7.1284e-04
11.250  18.500  1.2380e-03
11.250  18.750  1.9848e-03
11.250  19.000  2.8973e-03
11.250  19.250  3.9706e-03
11.250  19.500  5.3737e-03
11.250  19.750  7.4111e-03
11.250  20.000  1.0384e-02
11.250  20.250  1.3652e-02
11.250  20.500  1.7115e-02
11.250  20.750  2.0362e-02
11.250  21.000  2.3737e-02
11.250  21.250  2.2699e-02
11.250  21.500  2.1377e-02
11.250  21.750  1.8162e-02
11.250  22.000  1.3600e-02
11.250  22.250  1.0730e-02
11.250  22.500  9.0132e-03
11.250  22.750  8.0598e-03
11.250  23.000  7.7059e-03
11.250  23.250  7.5314e-03
11.250  23.500  7.4377e-03
11.250  23.750  7.3981e-03
11.250  24.000  7.3810e-03
11.500  17.000  3.2346e-05
11.500  17.250  4.3045e-05
11.500  17.500  6.5432e-05
11.500  17.750  1.1687e-04
11.500  18.000  2.3580e-04
11.500  18.250  4.6535e-04
11.500  18.500  8.4387e-04
11.500  18.750  1.4333e-03
11.500  19.000  2.2720e-03
11.500  19.250  3.2925e-03
11.500  19.500  4.5508e-03
11.500  19.750  6.2991e-03
11.500  20.000  8.8502e-03
11.500  20.250  1.2320e-02
11.500  20.500  1.6085e-02
11.500  20.750  2.0010e-02
11.500  21.000  2.3461e-02
11.500  21.250  2.6375e-02
11.500  21.500  2.4150e-02
11.500  21.750  2.1786e-02
11.500  22.000  1.8185e-02
11.500  22.250  1.3618e-02
11.500  22.500  1.0741e-02
11.500  22.750  9.0175e-03
11.500  23.000  8.0600e-03
11.500  23.250  7.7062e-03
11.500  23.500  7.5317e-03
11.500  23.750  7.4378e-03
11.500  24.000  7.3982e-03
11.750  17.000  2.5597e-05
11.750  17.250  3.2099e-05
11.750  17.500  4.5432e-05
11.750  17.750  7.4568e-05
11.750  18.000  1.4181e-04
11.750  18.250  2.8551e-04
11.750  18.500  5.4667e-04
11.750  18.750  9.6683e-04
11.750  19.000  1.6264e-03
11.750  19.250  2.5684e-03
11.750  19.500  3.7240e-03
11.750  19.750  5.2423e-03
11.750  20.000  7.4385e-03
11.750  20.250  1.0640e-02
11.750  20.500  1.4604e-02
11.750  20.750  1.9015e-02
11.750  21.000  2.3617e-02
11.750  21.250  2.7550e-02
11.750  21.500  2.9310e-02
11.750  21.750  2.5953e-02
11.750  22.000  2.2408e-02
11.750  22.250  1.8225e-02
11.750  22.500  1.3642e-02
11.750  22.750  1.0756e-02
11.750  23.000  9.0233e-03
11.750  23.250  8.0602e-03
11.750  23.500  7.7064e-03
11.750  23.750  7.5319e-03
11.750  24.000  7.4380e-03
12.000  17.000  2.0905e-05
12.000  17.250  2.4938e-05
12.000  17.500  3.2922e-05
12.000  17.750  4.9465e-05
12.000  18.000  8.5679e-05
12.000  18.250  1.6576e-04
12.000  18.500  3.3012e-04
12.000  18.750  6.2165e-04
12.000  19.000  1.0854e-03
12.000  19.250  1.8243e-03
12.000  19.500  2.8830e-03
12.000  19.750  4.2202e-03
12.000  20.000  6.0985e-03
12.000  20.250  8.8666e-03
12.000  20.500  1.2800e-02
12.000  20.750  1.7423e-02
12.000  21.000  2.2697e-02
12.000  21.250  2.8465e-02
12.000  21.500  3.2855e-02
12.000  21.750  3.2465e-02
12.000  22.000  2.7987e-02
12.000  22.250  2.3173e-02
12.000  22.500  1.8281e-02
12.000  22.750  1.3668e-02
12.000  23.000  1.0772e-02
12.000  23.250  9.0307e-03
12.000  23.500  8.0605e-03
12.000  23.750  7.7067e-03
12.000  24.000  7.5320e-03
12.250  17.000  1.7613e-05
12.250  17.250  2.0165e-05
12.250  17.500  2.4856e-05
12.250  17.750  3.4403e-05
12.250  18.000  5.4074e-05
12.250  18.250  9.6543e-05
12.250  18.500  1.8823e-04
12.250  18.750  3.7391e-04
12.250  19.000  6.9325e-04
12.250  19.250  1.2053e-03
12.250  19.500  2.0354e-03
12.250  19.750  3.2421e-03
12.250  20.000  4.8377e-03
12.250  20.250  7.1982e-03
12.250  20.500  1.0680e-02
12.250  20.750  1.5462e-02
12.250  21.000  2.1045e-02
12.250  21.250  2.7583e-02
12.250  21.500  3.4585e-02
12.250  21.750  3.9058e-02
12.250  22.000  3.5802e-02
12.250  22.250  2.9364e-02
12.250  22.500  2.3547e-02
12.250  22.750  1.8351e-02
12.250  23.000  1.3693e-02
12.250  23.250  1.0789e-02
12.250  23.500  9.0389e-03
12.250  23.750  8.0607e-03
12.250  24.000  7.7070e-03
12.500  17.000  1.4815e-05
12.500  17.250  1.6708e-05
12.500  17.500  1.9753e-05
12.500  17.750  2.5103e-05
12.500  18.000  3.6214e-05
12.500  18.250  5.8848e-05
12.500  18.500  1.0757e-04
12.500  18.750  2.1160e-04
12.500  19.000  4.1671e-04
12.500  19.250  7.6329e-04
12.500  19.500  1.3261e-03
12.500  19.750  2.2747e-03
12.500  20.000  3.6690e-03
12.500  20.250  5.6220e-03
12.500  20.500  8.6190e-03
12.500  20.750  1.3010e-02
12.500  21.000  1.8956e-02
12.500  21.250  2.5897e-02
12.500  21.500  3.3849e-02
12.500  21.750  4.1963e-02
12.500  22.000  4.4858e-02
12.500  22.250  3.8663e-02
12.500  22.500  3.1207e-02
12.500  22.750  2.4445e-02
12.500  23.000  1.8428e-02
12.500  23.250  1.3714e-02
12.500  23.500  1.0805e-02
12.500  23.750  9.0472e-03
12.500  24.000  8.0605e-03
12.750  17.000  1.2510e-05
12.750  17.250  1.3827e-05
12.750  17.500  1.5802e-05
12.750  17.750  1.9342e-05
12.750  18.000  2.5844e-05
12.750  18.250  3.8354e-05
12.750  18.500  6.4280e-05
12.750  18.750  1.1984e-04
12.750  19.000  2.3638e-04
12.750  19.250  4.5720e-04
12.750  19.500  8.2609e-04
12.750  19.750  1.4509e-03
12.750  20.000  2.5298e-03
12.750  20.250  4.1965e-03
12.750  20.500  6.6258e-03
12.750  20.750  1.0466e-02
12.750  21.000  1.6102e-02
12.750  21.250  2.3516e-02
12.750  21.500  3.1818e-02
12.750  21.750  4.1971e-02
12.750  22.000  5.0449e-02
12.750  22.250  5.1001e-02
12.750  22.500  4.2217e-02
12.750  22.750  3.3319e-02
12.750  23.000  2.5130e-02
12.750  23.250  1.8499e-02
12.750  23.500  1.3730e-02
12.750  23.750  1.0820e-02
12.750  24.000  9.0546e-03
13.000  17.000  1.0617e-05
13.000  17.250  1.1523e-05
13.000  17.500  1.2840e-05
13.000  17.750  1.5144e-05
13.000  18.000  1.9259e-05
13.000  18.250  2.6831e-05
13.000  18.500  4.1564e-05
13.000  18.750  7.1523e-05
13.000  19.000  1.3325e-04
13.000  19.250  2.5770e-04
13.000  19.500  4.8486e-04
13.000  19.750  8.7432e-04
13.000  20.000  1.5608e-03
13.000  20.250  2.7817e-03
13.000  20.500  4.8216e-03
13.000  20.750  7.8431e-03
13.000  21.000  1.2610e-02
13.000  21.250  1.9757e-02
13.000  21.500  2.8671e-02
13.000  21.750  3.9674e-02
13.000  22.000  5.0628e-02
13.000  22.250  5.9245e-02
13.000  22.500  5.6974e-02
13.000  22.750  4.5417e-02
13.000  23.000  3.4851e-02
13.000  23.250  2.5675e-02
13.000  23.500  1.8561e-02
13.000  23.750  1.3738e-02
13.000  24.000  1.0831e-02
13.250  17.000  8.9712e-06
13.250  17.250  9.6296e-06
13.250  17.500  1.0617e-05
13.250  17.750  1.2181e-05
13.250  18.000  1.4897e-05
13.250  18.250  1.9753e-05
13.250  18.500  2.8971e-05
13.250  18.750  4.6584e-05
13.250  19.000  8.0905e-05
13.250  19.250  1.4831e-04
13.250  19.500  2.7646e-04
13.250  19.750  5.1218e-04
13.250  20.000  9.2288e-04
13.250  20.250  1.6510e-03
13.250  20.500  3.0178e-03
13.250  20.750  5.3512e-03
13.250  21.000  9.0949e-03
13.250  21.250  1.4877e-02
13.250  21.500  2.3098e-02
13.250  21.750  3.3554e-02
13.250  22.000  4.7076e-02
13.250  22.250  6.0121e-02
13.250  22.500  6.8548e-02
13.250  22.750  6.3153e-02
13.250  23.000  4.8650e-02
13.250  23.250  3.5392e-02
13.250  23.500  2.5730e-02
13.250  23.750  1.8608e-02
13.250  24.000  1.3737e-02
13.500  17.000  7.6543e-06
13.500  17.250  8.0658e-06
13.500  17.500  8.8066e-06
13.500  17.750  9.9588e-06
13.500  18.000  1.1852e-05
13.500  18.250  1.5309e-05
13.500  18.500  2.1564e-05
13.500  18.750  3.3086e-05
13.500  19.000  5.4568e-05
13.500  19.250  9.4403e-05
13.500  19.500  1.6905e-04
13.500  19.750  3.0905e-04
13.500  20.000  5.6140e-04
13.500  20.250  1.0066e-03
13.500  20.500  1.7941e-03
13.500  20.750  3.2415e-03
13.500  21.000  5.7016e-03
13.500  21.250  1.0008e-02
13.500  21.500  1.6244e-02
13.500  21.750  2.5684e-02
13.500  22.000  3.8510e-02
13.500  22.250  5.4304e-02
13.500  22.500  7.0714e-02
13.500  22.750  7.9051e-02
13.500  23.000  6.9458e-02
13.500  23.250  5.2161e-02
13.500  23.500  3.7456e-02
13.500  23.750  2.6429e-02
13.500  24.000  1.8624e-02
13.750  17.000  6.5021e-06
13.750  17.250  6.8313e-06
13.750  17.500  7.4074e-06
13.750  17.750  8.2305e-06
13.750  18.000  9.7119e-06
13.750  18.250  1.2181e-05
13.750  18.500  1.6790e-05
13.750  18.750  2.5103e-05
13.750  19.000  4.0329e-05
13.750  19.250  6.7737e-05
13.750  19.500  1.1671e-04
13.750  19.750  2.0626e-04
13.750  20.000  3.7136e-04
13.750  20.250  6.6798e-04
13.750  20.500  1.1791e-03
13.750  20.750  2.0567e-03
13.750  21.000  3.6154e-03
13.750  21.250  6.3221e-03
13.750  21.500  1.0925e-02
13.750  21.750  1.8297e-02
13.750  22.000  2.8879e-02
13.750  22.250  4.4703e-02
13.750  22.500  6.4800e-02
13.750  22.750  8.3255e-02
13.750  23.000  9.0277e-02
13.750  23.250  7.5643e-02
13.750  23.500  5.4862e-02
13.750  23.750  3.8556e-02
13.750  24.000  2.6708e-02
14.000  17.000  5.5967e-06
14.000  17.250  5.8436e-06
14.000  17.500  6.1728e-06
14.000  17.750  6.9136e-06
14.000  18.000  8.0658e-06
14.000  18.250  1.0041e-05
14.000  18.500  1.3580e-05
14.000  18.750  2.0000e-05
14.000  19.000  3.1770e-05
14.000  19.250  5.2840e-05
14.000  19.500  9.0123e-05
14.000  19.750  1.5539e-04
14.000  20.000  2.7218e-04
14.000  20.250  4.8354e-04
14.000  20.500  8.5844e-04
14.000  20.750  1.4905e-03
14.000  21.000  2.5462e-03
14.000  21.250  4.3820e-03
14.000  21.500  7.4860e-03
14.000  21.750  1.2811e-02
14.000  22.000  2.1084e-02
14.000  22.250  3.3688e-02
14.000  22.500  5.2903e-02
14.000  22.750  7.5446e-02
14.000  23.000  9.6825e-02
14.000  23.250  1.0161e-01
14.000  23.500  8.1713e-02
14.000  23.750  5.7288e-02
14.000  24.000  3.9584e-02
