nFnu 1064.34A  relative to Inci 1215.00A scaled to 1215A.
Hden   Phi(H)  Eq_Width (A)
7.000  17.000  2.1514e-02
7.000  17.250  1.8215e-02
7.000  17.500  1.5211e-02
7.000  17.750  1.2514e-02
7.000  18.000  1.0606e-02
7.000  18.250  9.4554e-03
7.000  18.500  8.7369e-03
7.000  18.750  8.3820e-03
7.000  19.000  8.1942e-03
7.000  19.250  8.0884e-03
7.000  19.500  8.0433e-03
7.000  19.750  8.0242e-03
7.000  20.000  8.0159e-03
7.000  20.250  8.0119e-03
7.000  20.500  8.0100e-03
7.000  20.750  8.0089e-03
7.000  21.000  8.0084e-03
7.000  21.250  8.0081e-03
7.000  21.500  8.0081e-03
7.000  21.750  8.0077e-03
7.000  22.000  8.0077e-03
7.000  22.250  8.0077e-03
7.000  22.500  8.0077e-03
7.000  22.750  8.0079e-03
7.000  23.000  8.0079e-03
7.000  23.250  8.0077e-03
7.000  23.500  8.0077e-03
7.000  23.750  8.0077e-03
7.000  24.000  8.0077e-03
7.250  17.000  2.4780e-02
7.250  17.250  2.1271e-02
7.250  17.500  1.8096e-02
7.250  17.750  1.5155e-02
7.250  18.000  1.2482e-02
7.250  18.250  1.0588e-02
7.250  18.500  9.4468e-03
7.250  18.750  8.7338e-03
7.250  19.000  8.3808e-03
7.250  19.250  8.1938e-03
7.250  19.500  8.0883e-03
7.250  19.750  8.0433e-03
7.250  20.000  8.0242e-03
7.250  20.250  8.0158e-03
7.250  20.500  8.0119e-03
7.250  20.750  8.0100e-03
7.250  21.000  8.0089e-03
7.250  21.250  8.0084e-03
7.250  21.500  8.0081e-03
7.250  21.750  8.0095e-03
7.250  22.000  8.0077e-03
7.250  22.250  8.0077e-03
7.250  22.500  8.0077e-03
7.250  22.750  8.0085e-03
7.250  23.000  8.0085e-03
7.250  23.250  8.0077e-03
7.250  23.500  8.0077e-03
7.250  23.750  8.0077e-03
7.250  24.000  8.0077e-03
7.500  17.000  2.6915e-02
7.500  17.250  2.4532e-02
7.500  17.500  2.1132e-02
7.500  17.750  1.8031e-02
7.500  18.000  1.5127e-02
7.500  18.250  1.2464e-02
7.500  18.500  1.0577e-02
7.500  18.750  9.4415e-03
7.500  19.000  8.7319e-03
7.500  19.250  8.3802e-03
7.500  19.500  8.1936e-03
7.500  19.750  8.0883e-03
7.500  20.000  8.0432e-03
7.500  20.250  8.0242e-03
7.500  20.500  8.0158e-03
7.500  20.750  8.0119e-03
7.500  21.000  8.0099e-03
7.500  21.250  8.0089e-03
7.500  21.500  8.0083e-03
7.500  21.750  8.0081e-03
7.500  22.000  8.0079e-03
7.500  22.250  8.0077e-03
7.500  22.500  8.0077e-03
7.500  22.750  8.0077e-03
7.500  23.000  8.0081e-03
7.500  23.250  8.0085e-03
7.500  23.500  8.0077e-03
7.500  23.750  8.0086e-03
7.500  24.000  8.0077e-03
7.750  17.000  2.9602e-02
7.750  17.250  2.5285e-02
7.750  17.500  2.4394e-02
7.750  17.750  2.1050e-02
7.750  18.000  1.7999e-02
7.750  18.250  1.5119e-02
7.750  18.500  1.2455e-02
7.750  18.750  1.0571e-02
7.750  19.000  9.4382e-03
7.750  19.250  8.7307e-03
7.750  19.500  8.3797e-03
7.750  19.750  8.1934e-03
7.750  20.000  8.0882e-03
7.750  20.250  8.0432e-03
7.750  20.500  8.0242e-03
7.750  20.750  8.0158e-03
7.750  21.000  8.0119e-03
7.750  21.250  8.0099e-03
7.750  21.500  8.0088e-03
7.750  21.750  8.0083e-03
7.750  22.000  8.0080e-03
7.750  22.250  8.0078e-03
7.750  22.500  8.0077e-03
7.750  22.750  8.0079e-03
7.750  23.000  8.0079e-03
7.750  23.250  8.0077e-03
7.750  23.500  8.0085e-03
7.750  23.750  8.0085e-03
7.750  24.000  8.0077e-03
8.000  17.000  2.3508e-02
8.000  17.250  2.6024e-02
8.000  17.500  2.4026e-02
8.000  17.750  2.4306e-02
8.000  18.000  2.1000e-02
8.000  18.250  1.7986e-02
8.000  18.500  1.5123e-02
8.000  18.750  1.2703e-02
8.000  19.000  1.0870e-02
8.000  19.250  9.5451e-03
8.000  19.500  8.6516e-03
8.000  19.750  8.1120e-03
8.000  20.000  7.8491e-03
8.000  20.250  7.7854e-03
8.000  20.500  7.8435e-03
8.000  20.750  7.9461e-03
8.000  21.000  8.0158e-03
8.000  21.250  8.0119e-03
8.000  21.500  8.0099e-03
8.000  21.750  8.0088e-03
8.000  22.000  8.0083e-03
8.000  22.250  8.0080e-03
8.000  22.500  8.0078e-03
8.000  22.750  8.0079e-03
8.000  23.000  8.0077e-03
8.000  23.250  8.0081e-03
8.000  23.500  8.0077e-03
8.000  23.750  8.0077e-03
8.000  24.000  8.0077e-03
8.250  17.000  1.8540e-02
8.250  17.250  2.0810e-02
8.250  17.500  2.3684e-02
8.250  17.750  2.3056e-02
8.250  18.000  2.4250e-02
8.250  18.250  2.0966e-02
8.250  18.500  1.7986e-02
8.250  18.750  1.5135e-02
8.250  19.000  1.2451e-02
8.250  19.250  1.0565e-02
8.250  19.500  9.4349e-03
8.250  19.750  8.7295e-03
8.250  20.000  8.3793e-03
8.250  20.250  8.1933e-03
8.250  20.500  8.0882e-03
8.250  20.750  8.0432e-03
8.250  21.000  8.0242e-03
8.250  21.250  8.0158e-03
8.250  21.500  8.0119e-03
8.250  21.750  8.0099e-03
8.250  22.000  8.0088e-03
8.250  22.250  8.0082e-03
8.250  22.500  8.0080e-03
8.250  22.750  8.0080e-03
8.250  23.000  8.0077e-03
8.250  23.250  8.0097e-03
8.250  23.500  8.0076e-03
8.250  23.750  8.0076e-03
8.250  24.000  8.0081e-03
8.500  17.000  1.5134e-02
8.500  17.250  1.6499e-02
8.500  17.500  1.9032e-02
8.500  17.750  2.2162e-02
8.500  18.000  2.2479e-02
8.500  18.250  2.4199e-02
8.500  18.500  2.0938e-02
8.500  18.750  1.7992e-02
8.500  19.000  1.5153e-02
8.500  19.250  1.2454e-02
8.500  19.500  1.0564e-02
8.500  19.750  9.4341e-03
8.500  20.000  8.7291e-03
8.500  20.250  8.3791e-03
8.500  20.500  8.1933e-03
8.500  20.750  8.0882e-03
8.500  21.000  8.0432e-03
8.500  21.250  8.0242e-03
8.500  21.500  8.0158e-03
8.500  21.750  8.0119e-03
8.500  22.000  8.0099e-03
8.500  22.250  8.0088e-03
8.500  22.500  8.0082e-03
8.500  22.750  8.0080e-03
8.500  23.000  8.0077e-03
8.500  23.250  8.0079e-03
8.500  23.500  8.0077e-03
8.500  23.750  8.0076e-03
8.500  24.000  8.0076e-03
8.750  17.000  1.3030e-02
8.750  17.250  1.3678e-02
8.750  17.500  1.5246e-02
8.750  17.750  1.7963e-02
8.750  18.000  2.1226e-02
8.750  18.250  2.2137e-02
8.750  18.500  2.4143e-02
8.750  18.750  2.0910e-02
8.750  19.000  1.8003e-02
8.750  19.250  1.5174e-02
8.750  19.500  1.2457e-02
8.750  19.750  1.0564e-02
8.750  20.000  9.4335e-03
8.750  20.250  8.7289e-03
8.750  20.500  8.3791e-03
8.750  20.750  8.1933e-03
8.750  21.000  8.0881e-03
8.750  21.250  8.0432e-03
8.750  21.500  8.0242e-03
8.750  21.750  8.0158e-03
8.750  22.000  8.0119e-03
8.750  22.250  8.0099e-03
8.750  22.500  8.0088e-03
8.750  22.750  8.0082e-03
8.750  23.000  8.0087e-03
8.750  23.250  8.0078e-03
8.750  23.500  8.0079e-03
8.750  23.750  8.0077e-03
8.750  24.000  8.0076e-03
9.000  17.000  1.1832e-02
9.000  17.250  1.2013e-02
9.000  17.500  1.2830e-02
9.000  17.750  1.4526e-02
9.000  18.000  1.7356e-02
9.000  18.250  2.0703e-02
9.000  18.500  2.1908e-02
9.000  18.750  2.4081e-02
9.000  19.000  2.0878e-02
9.000  19.250  1.8012e-02
9.000  19.500  1.5197e-02
9.000  19.750  1.2462e-02
9.000  20.000  1.0563e-02
9.000  20.250  9.4331e-03
9.000  20.500  8.7286e-03
9.000  20.750  8.3790e-03
9.000  21.000  8.1933e-03
9.000  21.250  8.0881e-03
9.000  21.500  8.0432e-03
9.000  21.750  8.0241e-03
9.000  22.000  8.0157e-03
9.000  22.250  8.0119e-03
9.000  22.500  8.0099e-03
9.000  22.750  8.0088e-03
9.000  23.000  8.0082e-03
9.000  23.250  8.0080e-03
9.000  23.500  8.0077e-03
9.000  23.750  8.0077e-03
9.000  24.000  8.0077e-03
9.250  17.000  1.1265e-02
9.250  17.250  1.1115e-02
9.250  17.500  1.1466e-02
9.250  17.750  1.2423e-02
9.250  18.000  1.4258e-02
9.250  18.250  1.7189e-02
9.250  18.500  2.0434e-02
9.250  18.750  2.1744e-02
9.250  19.000  2.4009e-02
9.250  19.250  2.0838e-02
9.250  19.500  1.8014e-02
9.250  19.750  1.5217e-02
9.250  20.000  1.2466e-02
9.250  20.250  1.0563e-02
9.250  20.500  9.4328e-03
9.250  20.750  8.7286e-03
9.250  21.000  8.3790e-03
9.250  21.250  8.1933e-03
9.250  21.500  8.0877e-03
9.250  21.750  8.0427e-03
9.250  22.000  8.0235e-03
9.250  22.250  8.0152e-03
9.250  22.500  8.0115e-03
9.250  22.750  8.0095e-03
9.250  23.000  8.0086e-03
9.250  23.250  8.0081e-03
9.250  23.500  8.0077e-03
9.250  23.750  8.0076e-03
9.250  24.000  8.0076e-03
9.500  17.000  1.1167e-02
9.500  17.250  1.0735e-02
9.500  17.500  1.0786e-02
9.500  17.750  1.1315e-02
9.500  18.000  1.2417e-02
9.500  18.250  1.4404e-02
9.500  18.500  1.7467e-02
9.500  18.750  2.0253e-02
9.500  19.000  2.1620e-02
9.500  19.250  2.3930e-02
9.500  19.500  2.0790e-02
9.500  19.750  1.8006e-02
9.500  20.000  1.5233e-02
9.500  20.250  1.2470e-02
9.500  20.500  1.0564e-02
9.500  20.750  9.4322e-03
9.500  21.000  8.7279e-03
9.500  21.250  8.3784e-03
9.500  21.500  8.1926e-03
9.500  21.750  8.0874e-03
9.500  22.000  8.0425e-03
9.500  22.250  8.0234e-03
9.500  22.500  8.0150e-03
9.500  22.750  8.0110e-03
9.500  23.000  8.0091e-03
9.500  23.250  8.0081e-03
9.500  23.500  8.0075e-03
9.500  23.750  8.0072e-03
9.500  24.000  8.0070e-03
9.750  17.000  1.1505e-02
9.750  17.250  1.0742e-02
9.750  17.500  1.0529e-02
9.750  17.750  1.0797e-02
9.750  18.000  1.1542e-02
9.750  18.250  1.2885e-02
9.750  18.500  1.5061e-02
9.750  18.750  1.8028e-02
9.750  19.000  2.0051e-02
9.750  19.250  2.1514e-02
9.750  19.500  2.3847e-02
9.750  19.750  2.0736e-02
9.750  20.000  1.7989e-02
9.750  20.250  1.5241e-02
9.750  20.500  1.2473e-02
9.750  20.750  1.0563e-02
9.750  21.000  9.4321e-03
9.750  21.250  8.7278e-03
9.750  21.500  8.3785e-03
9.750  21.750  8.1927e-03
9.750  22.000  8.0874e-03
9.750  22.250  8.0425e-03
9.750  22.500  8.0234e-03
9.750  22.750  8.0151e-03
9.750  23.000  8.0110e-03
9.750  23.250  8.0091e-03
9.750  23.500  8.0080e-03
9.750  23.750  8.0075e-03
9.750  24.000  8.0072e-03
10.000  17.000  1.2307e-02
10.000  17.250  1.1121e-02
10.000  17.500  1.0585e-02
10.000  17.750  1.0659e-02
10.000  18.000  1.1273e-02
10.000  18.250  1.2276e-02
10.000  18.500  1.3783e-02
10.000  18.750  1.5970e-02
10.000  19.000  1.8375e-02
10.000  19.250  1.9823e-02
10.000  19.500  2.1410e-02
10.000  19.750  2.3763e-02
10.000  20.000  2.0684e-02
10.000  20.250  1.7963e-02
10.000  20.500  1.5246e-02
10.000  20.750  1.2475e-02
10.000  21.000  1.0564e-02
10.000  21.250  9.4321e-03
10.000  21.500  8.7277e-03
10.000  21.750  8.3785e-03
10.000  22.000  8.1928e-03
10.000  22.250  8.0875e-03
10.000  22.500  8.0425e-03
10.000  22.750  8.0234e-03
10.000  23.000  8.0151e-03
10.000  23.250  8.0111e-03
10.000  23.500  8.0091e-03
10.000  23.750  8.0081e-03
10.000  24.000  8.0075e-03
10.250  17.000  1.3696e-02
10.250  17.250  1.1978e-02
10.250  17.500  1.1040e-02
10.250  17.750  1.0879e-02
10.250  18.000  1.1390e-02
10.250  18.250  1.2222e-02
10.250  18.500  1.3350e-02
10.250  18.750  1.4889e-02
10.250  19.000  1.6871e-02
10.250  19.250  1.8530e-02
10.250  19.500  1.9732e-02
10.250  19.750  2.1326e-02
10.250  20.000  2.3729e-02
10.250  20.250  2.0653e-02
10.250  20.500  1.7934e-02
10.250  20.750  1.5245e-02
10.250  21.000  1.2476e-02
10.250  21.250  1.0564e-02
10.250  21.500  9.4321e-03
10.250  21.750  8.7277e-03
10.250  22.000  8.3785e-03
10.250  22.250  8.1928e-03
10.250  22.500  8.0877e-03
10.250  22.750  8.0425e-03
10.250  23.000  8.0234e-03
10.250  23.250  8.0151e-03
10.250  23.500  8.0110e-03
10.250  23.750  8.0091e-03
10.250  24.000  8.0081e-03
10.500  17.000  1.5677e-02
10.500  17.250  1.3443e-02
10.500  17.500  1.2032e-02
10.500  17.750  1.1066e-02
10.500  18.000  1.0430e-02
10.500  18.250  1.0159e-02
10.500  18.500  1.0289e-02
10.500  18.750  1.0855e-02
10.500  19.000  1.1892e-02
10.500  19.250  1.3435e-02
10.500  19.500  1.5520e-02
10.500  19.750  1.8182e-02
10.500  20.000  2.1456e-02
10.500  20.250  2.3762e-02
10.500  20.500  2.0656e-02
10.500  20.750  1.7909e-02
10.500  21.000  1.5239e-02
10.500  21.250  1.2477e-02
10.500  21.500  1.0564e-02
10.500  21.750  9.4322e-03
10.500  22.000  8.7277e-03
10.500  22.250  8.3786e-03
10.500  22.500  8.1928e-03
10.500  22.750  8.0877e-03
10.500  23.000  8.0426e-03
10.500  23.250  8.0234e-03
10.500  23.500  8.0151e-03
10.500  23.750  8.0111e-03
10.500  24.000  8.0091e-03
10.750  17.000  1.8241e-02
10.750  17.250  1.5533e-02
10.750  17.500  1.3726e-02
10.750  17.750  1.2405e-02
10.750  18.000  1.1431e-02
10.750  18.250  1.0825e-02
10.750  18.500  1.0611e-02
10.750  18.750  1.0809e-02
10.750  19.000  1.1443e-02
10.750  19.250  1.2535e-02
10.750  19.500  1.4105e-02
10.750  19.750  1.6178e-02
10.750  20.000  1.8774e-02
10.750  20.250  2.1916e-02
10.750  20.500  2.4022e-02
10.750  20.750  2.0717e-02
10.750  21.000  1.7896e-02
10.750  21.250  1.5229e-02
10.750  21.500  1.2476e-02
10.750  21.750  1.0564e-02
10.750  22.000  9.4323e-03
10.750  22.250  8.7277e-03
10.750  22.500  8.3788e-03
10.750  22.750  8.1929e-03
10.750  23.000  8.0877e-03
10.750  23.250  8.0426e-03
10.750  23.500  8.0235e-03
10.750  23.750  8.0150e-03
10.750  24.000  8.0111e-03
11.000  17.000  2.1396e-02
11.000  17.250  1.8235e-02
11.000  17.500  1.6121e-02
11.000  17.750  1.4538e-02
11.000  18.000  1.3303e-02
11.000  18.250  1.2430e-02
11.000  18.500  1.1929e-02
11.000  18.750  1.1813e-02
11.000  19.000  1.2094e-02
11.000  19.250  1.2784e-02
11.000  19.500  1.3894e-02
11.000  19.750  1.5437e-02
11.000  20.000  1.7424e-02
11.000  20.250  1.9867e-02
11.000  20.500  2.2779e-02
11.000  20.750  2.4577e-02
11.000  21.000  2.0944e-02
11.000  21.250  1.7909e-02
11.000  21.500  1.5215e-02
11.000  21.750  1.2474e-02
11.000  22.000  1.0564e-02
11.000  22.250  9.4325e-03
11.000  22.500  8.7276e-03
11.000  22.750  8.3789e-03
11.000  23.000  8.1931e-03
11.000  23.250  8.0877e-03
11.000  23.500  8.0427e-03
11.000  23.750  8.0235e-03
11.000  24.000  8.0151e-03
11.250  17.000  2.5196e-02
11.250  17.250  2.1539e-02
11.250  17.500  1.9170e-02
11.250  17.750  1.7955e-02
11.250  18.000  1.7163e-02
11.250  18.250  1.6234e-02
11.250  18.500  1.5436e-02
11.250  18.750  1.5085e-02
11.250  19.000  1.4908e-02
11.250  19.250  1.5269e-02
11.250  19.500  1.6191e-02
11.250  19.750  1.7548e-02
11.250  20.000  1.9214e-02
11.250  20.250  2.1065e-02
11.250  20.500  2.2776e-02
11.250  20.750  2.4187e-02
11.250  21.000  2.5716e-02
11.250  21.250  2.1341e-02
11.250  21.500  1.7983e-02
11.250  21.750  1.5200e-02
11.250  22.000  1.2471e-02
11.250  22.250  1.0563e-02
11.250  22.500  9.4328e-03
11.250  22.750  8.7274e-03
11.250  23.000  8.3790e-03
11.250  23.250  8.1933e-03
11.250  23.500  8.0877e-03
11.250  23.750  8.0428e-03
11.250  24.000  8.0236e-03
11.500  17.000  2.9723e-02
11.500  17.250  2.5513e-02
11.500  17.500  2.2858e-02
11.500  17.750  2.1433e-02
11.500  18.000  2.0235e-02
11.500  18.250  1.8743e-02
11.500  18.500  1.7264e-02
11.500  18.750  1.6239e-02
11.500  19.000  1.5547e-02
11.500  19.250  1.5230e-02
11.500  19.500  1.5500e-02
11.500  19.750  1.6534e-02
11.500  20.000  1.8285e-02
11.500  20.250  1.9553e-02
11.500  20.500  2.2637e-02
11.500  20.750  2.4745e-02
11.500  21.000  2.6312e-02
11.500  21.250  2.7191e-02
11.500  21.500  2.1953e-02
11.500  21.750  1.8126e-02
11.500  22.000  1.5188e-02
11.500  22.250  1.2467e-02
11.500  22.500  1.0563e-02
11.500  22.750  9.4333e-03
11.500  23.000  8.7272e-03
11.500  23.250  8.3790e-03
11.500  23.500  8.1934e-03
11.500  23.750  8.0878e-03
11.500  24.000  8.0428e-03
11.750  17.000  3.4836e-02
11.750  17.250  3.0129e-02
11.750  17.500  2.7142e-02
11.750  17.750  2.5403e-02
11.750  18.000  2.3749e-02
11.750  18.250  2.1901e-02
11.750  18.500  1.9888e-02
11.750  18.750  1.8015e-02
11.750  19.000  1.6752e-02
11.750  19.250  1.5877e-02
11.750  19.500  1.5550e-02
11.750  19.750  1.6144e-02
11.750  20.000  1.7572e-02
11.750  20.250  1.9620e-02
11.750  20.500  2.2075e-02
11.750  20.750  2.4722e-02
11.750  21.000  2.7347e-02
11.750  21.250  2.9459e-02
11.750  21.500  2.8712e-02
11.750  21.750  2.2722e-02
11.750  22.000  1.8388e-02
11.750  22.250  1.5187e-02
11.750  22.500  1.2463e-02
11.750  22.750  1.0563e-02
11.750  23.000  9.4337e-03
11.750  23.250  8.7269e-03
11.750  23.500  8.3789e-03
11.750  23.750  8.1935e-03
11.750  24.000  8.0881e-03
12.000  17.000  4.0062e-02
12.000  17.250  3.5055e-02
12.000  17.500  3.1770e-02
12.000  17.750  2.9642e-02
12.000  18.000  2.7657e-02
12.000  18.250  2.5536e-02
12.000  18.500  2.3170e-02
12.000  18.750  2.0761e-02
12.000  19.000  1.8681e-02
12.000  19.250  1.7068e-02
12.000  19.500  1.6143e-02
12.000  19.750  1.5849e-02
12.000  20.000  1.6615e-02
12.000  20.250  1.8400e-02
12.000  20.500  2.0996e-02
12.000  20.750  2.4192e-02
12.000  21.000  2.7781e-02
12.000  21.250  3.1554e-02
12.000  21.500  3.3934e-02
12.000  21.750  3.0200e-02
12.000  22.000  2.3627e-02
12.000  22.250  1.8744e-02
12.000  22.500  1.5205e-02
12.000  22.750  1.2457e-02
12.000  23.000  1.0562e-02
12.000  23.250  9.4345e-03
12.000  23.500  8.7266e-03
12.000  23.750  8.3788e-03
12.000  24.000  8.1936e-03
12.250  17.000  4.3920e-02
12.250  17.250  3.9483e-02
12.250  17.500  3.6148e-02
12.250  17.750  3.3808e-02
12.250  18.000  3.1742e-02
12.250  18.250  2.9502e-02
12.250  18.500  2.6881e-02
12.250  18.750  2.4186e-02
12.250  19.000  2.1435e-02
12.250  19.250  1.9020e-02
12.250  19.500  1.7297e-02
12.250  19.750  1.6363e-02
12.250  20.000  1.6187e-02
12.250  20.250  1.7148e-02
12.250  20.500  1.9276e-02
12.250  20.750  2.2479e-02
12.250  21.000  2.6664e-02
12.250  21.250  3.1738e-02
12.250  21.500  3.7176e-02
12.250  21.750  3.9130e-02
12.250  22.000  3.1783e-02
12.250  22.250  2.4202e-02
12.250  22.500  1.8913e-02
12.250  22.750  1.5243e-02
12.250  23.000  1.2452e-02
12.250  23.250  1.0561e-02
12.250  23.500  9.4351e-03
12.250  23.750  8.7261e-03
12.250  24.000  8.3788e-03
12.500  17.000  4.3065e-02
12.500  17.250  4.2066e-02
12.500  17.500  3.9604e-02
12.500  17.750  3.7557e-02
12.500  18.000  3.5642e-02
12.500  18.250  3.3422e-02
12.500  18.500  3.0865e-02
12.500  18.750  2.7916e-02
12.500  19.000  2.4729e-02
12.500  19.250  2.1745e-02
12.500  19.500  1.9141e-02
12.500  19.750  1.7437e-02
12.500  20.000  1.6554e-02
12.500  20.250  1.7841e-02
12.500  20.500  2.1138e-02
12.500  20.750  2.5765e-02
12.500  21.000  3.1040e-02
12.500  21.250  3.6283e-02
12.500  21.500  4.0814e-02
12.500  21.750  4.3952e-02
12.500  22.000  4.3039e-02
12.500  22.250  3.3070e-02
12.500  22.500  2.5055e-02
12.500  22.750  1.9378e-02
12.500  23.000  1.5301e-02
12.500  23.250  1.2448e-02
12.500  23.500  1.0560e-02
12.500  23.750  9.4358e-03
12.500  24.000  8.7254e-03
12.750  17.000  3.8951e-02
12.750  17.250  4.0992e-02
12.750  17.500  4.1670e-02
12.750  17.750  4.0327e-02
12.750  18.000  3.8742e-02
12.750  18.250  3.6907e-02
12.750  18.500  3.4553e-02
12.750  18.750  3.1727e-02
12.750  19.000  2.8465e-02
12.750  19.250  2.5004e-02
12.750  19.500  2.1751e-02
12.750  19.750  1.9111e-02
12.750  20.000  1.7445e-02
12.750  20.250  1.6771e-02
12.750  20.500  1.8025e-02
12.750  20.750  2.1194e-02
12.750  21.000  2.5934e-02
12.750  21.250  3.1904e-02
12.750  21.500  3.8762e-02
12.750  21.750  4.6167e-02
12.750  22.000  5.1488e-02
12.750  22.250  4.6334e-02
12.750  22.500  3.4775e-02
12.750  22.750  2.6082e-02
12.750  23.000  1.9771e-02
12.750  23.250  1.5369e-02
12.750  23.500  1.2446e-02
12.750  23.750  1.0560e-02
12.750  24.000  9.4364e-03
13.000  17.000  3.9790e-02
13.000  17.250  3.6172e-02
13.000  17.500  3.7672e-02
13.000  17.750  3.9549e-02
13.000  18.000  3.9538e-02
13.000  18.250  3.8692e-02
13.000  18.500  3.7197e-02
13.000  18.750  3.4907e-02
13.000  19.000  3.1966e-02
13.000  19.250  2.8517e-02
13.000  19.500  2.4928e-02
13.000  19.750  2.1626e-02
13.000  20.000  1.9024e-02
13.000  20.250  1.7434e-02
13.000  20.500  1.8150e-02
13.000  20.750  2.1144e-02
13.000  21.000  2.5958e-02
13.000  21.250  3.2135e-02
13.000  21.500  3.9219e-02
13.000  21.750  4.6754e-02
13.000  22.000  5.4283e-02
13.000  22.250  5.8374e-02
13.000  22.500  4.9396e-02
13.000  22.750  3.6313e-02
13.000  23.000  2.6866e-02
13.000  23.250  2.0118e-02
13.000  23.500  1.5448e-02
13.000  23.750  1.2446e-02
13.000  24.000  1.0559e-02
13.250  17.000  3.8084e-02
13.250  17.250  3.3746e-02
13.250  17.500  2.7849e-02
13.250  17.750  2.6894e-02
13.250  18.000  3.3981e-02
13.250  18.250  3.6361e-02
13.250  18.500  3.7026e-02
13.250  18.750  3.6386e-02
13.250  19.000  3.4478e-02
13.250  19.250  3.4349e-02
13.250  19.500  3.6421e-02
13.250  19.750  4.0231e-02
13.250  20.000  4.5315e-02
13.250  20.250  5.1209e-02
13.250  20.500  5.7450e-02
13.250  20.750  6.3574e-02
13.250  21.000  6.9116e-02
13.250  21.250  7.3615e-02
13.250  21.500  7.6604e-02
13.250  21.750  7.7622e-02
13.250  22.000  7.6204e-02
13.250  22.250  7.1887e-02
13.250  22.500  6.4207e-02
13.250  22.750  5.2565e-02
13.250  23.000  3.7921e-02
13.250  23.250  2.7174e-02
13.250  23.500  2.0217e-02
13.250  23.750  1.5533e-02
13.250  24.000  1.2450e-02
13.500  17.000  3.6456e-02
13.500  17.250  3.2237e-02
13.500  17.500  2.8838e-02
13.500  17.750  2.6625e-02
13.500  18.000  2.5850e-02
13.500  18.250  2.6768e-02
13.500  18.500  2.9629e-02
13.500  18.750  3.3398e-02
13.500  19.000  3.4388e-02
13.500  19.250  3.6323e-02
13.500  19.500  4.0117e-02
13.500  19.750  4.5354e-02
13.500  20.000  5.1620e-02
13.500  20.250  5.8498e-02
13.500  20.500  6.5573e-02
13.500  20.750  7.2430e-02
13.500  21.000  7.8654e-02
13.500  21.250  8.3828e-02
13.500  21.500  8.7539e-02
13.500  21.750  8.9369e-02
13.500  22.000  8.8904e-02
13.500  22.250  8.5728e-02
13.500  22.500  7.9426e-02
13.500  22.750  6.9583e-02
13.500  23.000  5.5804e-02
13.500  23.250  3.9745e-02
13.500  23.500  2.8333e-02
13.500  23.750  2.0704e-02
13.500  24.000  1.5609e-02
13.750  17.000  3.4396e-02
13.750  17.250  3.1838e-02
13.750  17.500  3.0993e-02
13.750  17.750  3.2020e-02
13.750  18.000  3.4685e-02
13.750  18.250  3.8758e-02
13.750  18.500  4.4006e-02
13.750  18.750  5.0199e-02
13.750  19.000  5.7103e-02
13.750  19.250  6.4489e-02
13.750  19.500  7.2124e-02
13.750  19.750  7.9776e-02
13.750  20.000  8.7213e-02
13.750  20.250  9.4205e-02
13.750  20.500  1.0052e-01
13.750  20.750  1.0592e-01
13.750  21.000  1.1019e-01
13.750  21.250  1.1308e-01
13.750  21.500  1.1436e-01
13.750  21.750  1.1381e-01
13.750  22.000  1.1120e-01
13.750  22.250  1.0628e-01
13.750  22.500  9.8831e-02
13.750  22.750  8.8620e-02
13.750  23.000  7.5414e-02
13.750  23.250  5.8996e-02
13.750  23.500  4.1177e-02
13.750  23.750  2.9023e-02
13.750  24.000  2.0974e-02
14.000  17.000  3.1402e-02
14.000  17.250  3.1174e-02
14.000  17.500  1.9429e-02
14.000  17.750  1.5441e-02
14.000  18.000  1.4321e-02
14.000  18.250  1.3308e-02
14.000  18.500  1.2488e-02
14.000  18.750  1.1946e-02
14.000  19.000  1.1767e-02
14.000  19.250  1.2038e-02
14.000  19.500  1.2844e-02
14.000  19.750  1.4269e-02
14.000  20.000  1.6400e-02
14.000  20.250  1.9322e-02
14.000  20.500  2.3121e-02
14.000  20.750  2.7836e-02
14.000  21.000  3.3325e-02
14.000  21.250  3.9400e-02
14.000  21.500  4.5872e-02
14.000  21.750  5.2555e-02
14.000  22.000  5.9258e-02
14.000  22.250  6.5796e-02
14.000  22.500  7.1978e-02
14.000  22.750  7.7619e-02
14.000  23.000  8.2528e-02
14.000  23.250  8.1796e-02
14.000  23.500  6.2141e-02
14.000  23.750  4.2509e-02
14.000  24.000  2.9719e-02
