nFnu 1410.00A  relative to Inci 1215.00A scaled to 1215A.
Hden   Phi(H)  Eq_Width (A)
7.000  17.000  3.0188e-02
7.000  17.250  2.1591e-02
7.000  17.500  1.5929e-02
7.000  17.750  1.2360e-02
7.000  18.000  1.0356e-02
7.000  18.250  9.2158e-03
7.000  18.500  8.5572e-03
7.000  18.750  8.2581e-03
7.000  19.000  8.1025e-03
7.000  19.250  8.0157e-03
7.000  19.500  7.9794e-03
7.000  19.750  7.9642e-03
7.000  20.000  7.9576e-03
7.000  20.250  7.9546e-03
7.000  20.500  7.9530e-03
7.000  20.750  7.9522e-03
7.000  21.000  7.9517e-03
7.000  21.250  7.9514e-03
7.000  21.500  7.9515e-03
7.000  21.750  7.9513e-03
7.000  22.000  7.9512e-03
7.000  22.250  7.9512e-03
7.000  22.500  7.9512e-03
7.000  22.750  7.9514e-03
7.000  23.000  7.9514e-03
7.000  23.250  7.9512e-03
7.000  23.500  7.9512e-03
7.000  23.750  7.9512e-03
7.000  24.000  7.9512e-03
7.250  17.000  4.2794e-02
7.250  17.250  3.0062e-02
7.250  17.500  2.1523e-02
7.250  17.750  1.5893e-02
7.250  18.000  1.2341e-02
7.250  18.250  1.0346e-02
7.250  18.500  9.2113e-03
7.250  18.750  8.5556e-03
7.250  19.000  8.2575e-03
7.250  19.250  8.1023e-03
7.250  19.500  8.0157e-03
7.250  19.750  7.9794e-03
7.250  20.000  7.9642e-03
7.250  20.250  7.9576e-03
7.250  20.500  7.9545e-03
7.250  20.750  7.9529e-03
7.250  21.000  7.9522e-03
7.250  21.250  7.9517e-03
7.250  21.500  7.9514e-03
7.250  21.750  7.9529e-03
7.250  22.000  7.9513e-03
7.250  22.250  7.9512e-03
7.250  22.500  7.9512e-03
7.250  22.750  7.9519e-03
7.250  23.000  7.9519e-03
7.250  23.250  7.9512e-03
7.250  23.500  7.9512e-03
7.250  23.750  7.9512e-03
7.250  24.000  7.9512e-03
7.500  17.000  4.6802e-02
7.500  17.250  4.2705e-02
7.500  17.500  2.9990e-02
7.500  17.750  2.1485e-02
7.500  18.000  1.5871e-02
7.500  18.250  1.2329e-02
7.500  18.500  1.0340e-02
7.500  18.750  9.2083e-03
7.500  19.000  8.5546e-03
7.500  19.250  8.2571e-03
7.500  19.500  8.1021e-03
7.500  19.750  8.0156e-03
7.500  20.000  7.9794e-03
7.500  20.250  7.9642e-03
7.500  20.500  7.9576e-03
7.500  20.750  7.9545e-03
7.500  21.000  7.9529e-03
7.500  21.250  7.9521e-03
7.500  21.500  7.9517e-03
7.500  21.750  7.9514e-03
7.500  22.000  7.9514e-03
7.500  22.250  7.9513e-03
7.500  22.500  7.9512e-03
7.500  22.750  7.9512e-03
7.500  23.000  7.9516e-03
7.500  23.250  7.9519e-03
7.500  23.500  7.9512e-03
7.500  23.750  7.9521e-03
7.500  24.000  7.9512e-03
7.750  17.000  5.3679e-02
7.750  17.250  4.6069e-02
7.750  17.500  4.2663e-02
7.750  17.750  2.9948e-02
7.750  18.000  2.1464e-02
7.750  18.250  1.5858e-02
7.750  18.500  1.2320e-02
7.750  18.750  1.0335e-02
7.750  19.000  9.2065e-03
7.750  19.250  8.5539e-03
7.750  19.500  8.2569e-03
7.750  19.750  8.1021e-03
7.750  20.000  8.0156e-03
7.750  20.250  7.9794e-03
7.750  20.500  7.9642e-03
7.750  20.750  7.9576e-03
7.750  21.000  7.9545e-03
7.750  21.250  7.9529e-03
7.750  21.500  7.9521e-03
7.750  21.750  7.9517e-03
7.750  22.000  7.9514e-03
7.750  22.250  7.9513e-03
7.750  22.500  7.9513e-03
7.750  22.750  7.9514e-03
7.750  23.000  7.9514e-03
7.750  23.250  7.9512e-03
7.750  23.500  7.9519e-03
7.750  23.750  7.9519e-03
7.750  24.000  7.9512e-03
8.000  17.000  5.1753e-02
8.000  17.250  5.1550e-02
8.000  17.500  4.5320e-02
8.000  17.750  4.2602e-02
8.000  18.000  2.9922e-02
8.000  18.250  2.1454e-02
8.000  18.500  1.5851e-02
8.000  18.750  1.2314e-02
8.000  19.000  1.0332e-02
8.000  19.250  9.2053e-03
8.000  19.500  8.5535e-03
8.000  19.750  8.2567e-03
8.000  20.000  8.1021e-03
8.000  20.250  8.0156e-03
8.000  20.500  7.9794e-03
8.000  20.750  7.9642e-03
8.000  21.000  7.9576e-03
8.000  21.250  7.9545e-03
8.000  21.500  7.9529e-03
8.000  21.750  7.9521e-03
8.000  22.000  7.9516e-03
8.000  22.250  7.9514e-03
8.000  22.500  7.9513e-03
8.000  22.750  7.9514e-03
8.000  23.000  7.9512e-03
8.000  23.250  7.9517e-03
8.000  23.500  7.9511e-03
8.000  23.750  7.9511e-03
8.000  24.000  7.9511e-03
8.250  17.000  5.0102e-02
8.250  17.250  5.0307e-02
8.250  17.500  5.0406e-02
8.250  17.750  4.4885e-02
8.250  18.000  4.2588e-02
8.250  18.250  2.9904e-02
8.250  18.500  2.1450e-02
8.250  18.750  1.5847e-02
8.250  19.000  1.2309e-02
8.250  19.250  1.0330e-02
8.250  19.500  9.2044e-03
8.250  19.750  8.5532e-03
8.250  20.000  8.2566e-03
8.250  20.250  8.1020e-03
8.250  20.500  8.0156e-03
8.250  20.750  7.9794e-03
8.250  21.000  7.9642e-03
8.250  21.250  7.9575e-03
8.250  21.500  7.9545e-03
8.250  21.750  7.9529e-03
8.250  22.000  7.9521e-03
8.250  22.250  7.9516e-03
8.250  22.500  7.9514e-03
8.250  22.750  7.9514e-03
8.250  23.000  7.9512e-03
8.250  23.250  7.9533e-03
8.250  23.500  7.9511e-03
8.250  23.750  7.9511e-03
8.250  24.000  7.9517e-03
8.500  17.000  4.8541e-02
8.500  17.250  4.8960e-02
8.500  17.500  4.9353e-02
8.500  17.750  4.9670e-02
8.500  18.000  4.4641e-02
8.500  18.250  4.2566e-02
8.500  18.500  2.9889e-02
8.500  18.750  2.1450e-02
8.500  19.000  1.5844e-02
8.500  19.250  1.2305e-02
8.500  19.500  1.0328e-02
8.500  19.750  9.2037e-03
8.500  20.000  8.5529e-03
8.500  20.250  8.2566e-03
8.500  20.500  8.1020e-03
8.500  20.750  8.0156e-03
8.500  21.000  7.9794e-03
8.500  21.250  7.9642e-03
8.500  21.500  7.9575e-03
8.500  21.750  7.9545e-03
8.500  22.000  7.9529e-03
8.500  22.250  7.9521e-03
8.500  22.500  7.9516e-03
8.500  22.750  7.9514e-03
8.500  23.000  7.9513e-03
8.500  23.250  7.9514e-03
8.500  23.500  7.9511e-03
8.500  23.750  7.9511e-03
8.500  24.000  7.9511e-03
8.750  17.000  4.7149e-02
8.750  17.250  4.7763e-02
8.750  17.500  4.8294e-02
8.750  17.750  4.8765e-02
8.750  18.000  4.9231e-02
8.750  18.250  4.4504e-02
8.750  18.500  4.2533e-02
8.750  18.750  2.9873e-02
8.750  19.000  2.1453e-02
8.750  19.250  1.5843e-02
8.750  19.500  1.2300e-02
8.750  19.750  1.0326e-02
8.750  20.000  9.2031e-03
8.750  20.250  8.5528e-03
8.750  20.500  8.2565e-03
8.750  20.750  8.1020e-03
8.750  21.000  8.0156e-03
8.750  21.250  7.9794e-03
8.750  21.500  7.9642e-03
8.750  21.750  7.9575e-03
8.750  22.000  7.9545e-03
8.750  22.250  7.9529e-03
8.750  22.500  7.9521e-03
8.750  22.750  7.9516e-03
8.750  23.000  7.9522e-03
8.750  23.250  7.9513e-03
8.750  23.500  7.9514e-03
8.750  23.750  7.9511e-03
8.750  24.000  7.9511e-03
9.000  17.000  4.5758e-02
9.000  17.250  4.6685e-02
9.000  17.500  4.7378e-02
9.000  17.750  4.7952e-02
9.000  18.000  4.8465e-02
9.000  18.250  4.9021e-02
9.000  18.500  4.4402e-02
9.000  18.750  4.2488e-02
9.000  19.000  2.9855e-02
9.000  19.250  2.1455e-02
9.000  19.500  1.5841e-02
9.000  19.750  1.2297e-02
9.000  20.000  1.0324e-02
9.000  20.250  9.2026e-03
9.000  20.500  8.5526e-03
9.000  20.750  8.2565e-03
9.000  21.000  8.1020e-03
9.000  21.250  8.0156e-03
9.000  21.500  7.9793e-03
9.000  21.750  7.9642e-03
9.000  22.000  7.9575e-03
9.000  22.250  7.9544e-03
9.000  22.500  7.9528e-03
9.000  22.750  7.9521e-03
9.000  23.000  7.9516e-03
9.000  23.250  7.9514e-03
9.000  23.500  7.9513e-03
9.000  23.750  7.9512e-03
9.000  24.000  7.9512e-03
9.250  17.000  4.4147e-02
9.250  17.250  4.5500e-02
9.250  17.500  4.6557e-02
9.250  17.750  4.7307e-02
9.250  18.000  4.7872e-02
9.250  18.250  4.8450e-02
9.250  18.500  4.9008e-02
9.250  18.750  4.4301e-02
9.250  19.000  4.2425e-02
9.250  19.250  2.9832e-02
9.250  19.500  2.1455e-02
9.250  19.750  1.5840e-02
9.250  20.000  1.2293e-02
9.250  20.250  1.0323e-02
9.250  20.500  9.2021e-03
9.250  20.750  8.5525e-03
9.250  21.000  8.2565e-03
9.250  21.250  8.1020e-03
9.250  21.500  8.0151e-03
9.250  21.750  7.9788e-03
9.250  22.000  7.9635e-03
9.250  22.250  7.9570e-03
9.250  22.500  7.9541e-03
9.250  22.750  7.9525e-03
9.250  23.000  7.9519e-03
9.250  23.250  7.9514e-03
9.250  23.500  7.9512e-03
9.250  23.750  7.9511e-03
9.250  24.000  7.9510e-03
9.500  17.000  4.2138e-02
9.500  17.250  4.3950e-02
9.500  17.500  4.5550e-02
9.500  17.750  4.6762e-02
9.500  18.000  4.7512e-02
9.500  18.250  4.8103e-02
9.500  18.500  4.8905e-02
9.500  18.750  4.8923e-02
9.500  19.000  4.4184e-02
9.500  19.250  4.2342e-02
9.500  19.500  2.9804e-02
9.500  19.750  2.1452e-02
9.500  20.000  1.5840e-02
9.500  20.250  1.2289e-02
9.500  20.500  1.0322e-02
9.500  20.750  9.2016e-03
9.500  21.000  8.5519e-03
9.500  21.250  8.2560e-03
9.500  21.500  8.1013e-03
9.500  21.750  8.0148e-03
9.500  22.000  7.9786e-03
9.500  22.250  7.9635e-03
9.500  22.500  7.9568e-03
9.500  22.750  7.9537e-03
9.500  23.000  7.9521e-03
9.500  23.250  7.9513e-03
9.500  23.500  7.9509e-03
9.500  23.750  7.9506e-03
9.500  24.000  7.9505e-03
9.750  17.000  3.9631e-02
9.750  17.250  4.1833e-02
9.750  17.500  4.4019e-02
9.750  17.750  4.5890e-02
9.750  18.000  4.7236e-02
9.750  18.250  4.8128e-02
9.750  18.500  4.8910e-02
9.750  18.750  4.9944e-02
9.750  19.000  4.8352e-02
9.750  19.250  4.4031e-02
9.750  19.500  4.2232e-02
9.750  19.750  2.9773e-02
9.750  20.000  2.1445e-02
9.750  20.250  1.5839e-02
9.750  20.500  1.2287e-02
9.750  20.750  1.0321e-02
9.750  21.000  9.2013e-03
9.750  21.250  8.5518e-03
9.750  21.500  8.2560e-03
9.750  21.750  8.1015e-03
9.750  22.000  8.0149e-03
9.750  22.250  7.9786e-03
9.750  22.500  7.9635e-03
9.750  22.750  7.9568e-03
9.750  23.000  7.9537e-03
9.750  23.250  7.9521e-03
9.750  23.500  7.9513e-03
9.750  23.750  7.9509e-03
9.750  24.000  7.9506e-03
10.000  17.000  3.6707e-02
10.000  17.250  3.9067e-02
10.000  17.500  4.1683e-02
10.000  17.750  4.4358e-02
10.000  18.000  4.6588e-02
10.000  18.250  4.8235e-02
10.000  18.500  4.9191e-02
10.000  18.750  5.0052e-02
10.000  19.000  5.1204e-02
10.000  19.250  4.7597e-02
10.000  19.500  4.3805e-02
10.000  19.750  4.2083e-02
10.000  20.000  2.9741e-02
10.000  20.250  2.1436e-02
10.000  20.500  1.5839e-02
10.000  20.750  1.2285e-02
10.000  21.000  1.0321e-02
10.000  21.250  9.2013e-03
10.000  21.500  8.5517e-03
10.000  21.750  8.2560e-03
10.000  22.000  8.1015e-03
10.000  22.250  8.0150e-03
10.000  22.500  7.9786e-03
10.000  22.750  7.9635e-03
10.000  23.000  7.9568e-03
10.000  23.250  7.9537e-03
10.000  23.500  7.9521e-03
10.000  23.750  7.9513e-03
10.000  24.000  7.9509e-03
10.250  17.000  3.4143e-02
10.250  17.250  3.5914e-02
10.250  17.500  3.8727e-02
10.250  17.750  4.1935e-02
10.250  18.000  4.5152e-02
10.250  18.250  4.7695e-02
10.250  18.500  4.9267e-02
10.250  18.750  5.0259e-02
10.250  19.000  5.1357e-02
10.250  19.250  5.2347e-02
10.250  19.500  4.7108e-02
10.250  19.750  4.3503e-02
10.250  20.000  4.1935e-02
10.250  20.250  2.9722e-02
10.250  20.500  2.1426e-02
10.250  20.750  1.5838e-02
10.250  21.000  1.2284e-02
10.250  21.250  1.0321e-02
10.250  21.500  9.2012e-03
10.250  21.750  8.5516e-03
10.250  22.000  8.2560e-03
10.250  22.250  8.1016e-03
10.250  22.500  8.0151e-03
10.250  22.750  7.9786e-03
10.250  23.000  7.9635e-03
10.250  23.250  7.9568e-03
10.250  23.500  7.9537e-03
10.250  23.750  7.9521e-03
10.250  24.000  7.9513e-03
10.500  17.000  3.2219e-02
10.500  17.250  3.3244e-02
10.500  17.500  3.5471e-02
10.500  17.750  3.8944e-02
10.500  18.000  4.2670e-02
10.500  18.250  4.5883e-02
10.500  18.500  4.8185e-02
10.500  18.750  4.9521e-02
10.500  19.000  5.0598e-02
10.500  19.250  5.2242e-02
10.500  19.500  5.3913e-02
10.500  19.750  4.7329e-02
10.500  20.000  4.3576e-02
10.500  20.250  4.1811e-02
10.500  20.500  2.9721e-02
10.500  20.750  2.1417e-02
10.500  21.000  1.5838e-02
10.500  21.250  1.2284e-02
10.500  21.500  1.0322e-02
10.500  21.750  9.2013e-03
10.500  22.000  8.5517e-03
10.500  22.250  8.2561e-03
10.500  22.500  8.1016e-03
10.500  22.750  8.0151e-03
10.500  23.000  7.9787e-03
10.500  23.250  7.9634e-03
10.500  23.500  7.9568e-03
10.500  23.750  7.9537e-03
10.500  24.000  7.9522e-03
10.750  17.000  3.1015e-02
10.750  17.250  3.1403e-02
10.750  17.500  3.2866e-02
10.750  17.750  3.5734e-02
10.750  18.000  3.9212e-02
10.750  18.250  4.2506e-02
10.750  18.500  4.5211e-02
10.750  18.750  4.7349e-02
10.750  19.000  4.9090e-02
10.750  19.250  5.0777e-02
10.750  19.500  5.3020e-02
10.750  19.750  5.3866e-02
10.750  20.000  4.8119e-02
10.750  20.250  4.4203e-02
10.750  20.500  4.1908e-02
10.750  20.750  2.9754e-02
10.750  21.000  2.1411e-02
10.750  21.250  1.5838e-02
10.750  21.500  1.2285e-02
10.750  21.750  1.0323e-02
10.750  22.000  9.2016e-03
10.750  22.250  8.5517e-03
10.750  22.500  8.2564e-03
10.750  22.750  8.1016e-03
10.750  23.000  8.0151e-03
10.750  23.250  7.9788e-03
10.750  23.500  7.9635e-03
10.750  23.750  7.9568e-03
10.750  24.000  7.9537e-03
11.000  17.000  3.0454e-02
11.000  17.250  3.0466e-02
11.000  17.500  3.1192e-02
11.000  17.750  3.2771e-02
11.000  18.000  3.5131e-02
11.000  18.250  3.7878e-02
11.000  18.500  4.0858e-02
11.000  18.750  4.3815e-02
11.000  19.000  4.6414e-02
11.000  19.250  4.8658e-02
11.000  19.500  5.0837e-02
11.000  19.750  5.3364e-02
11.000  20.000  5.5268e-02
11.000  20.250  5.0762e-02
11.000  20.500  4.5403e-02
11.000  20.750  4.2322e-02
11.000  21.000  2.9881e-02
11.000  21.250  2.1414e-02
11.000  21.500  1.5838e-02
11.000  21.750  1.2287e-02
11.000  22.000  1.0324e-02
11.000  22.250  9.2020e-03
11.000  22.500  8.5515e-03
11.000  22.750  8.2565e-03
11.000  23.000  8.1018e-03
11.000  23.250  8.0152e-03
11.000  23.500  7.9788e-03
11.000  23.750  7.9636e-03
11.000  24.000  7.9569e-03
11.250  17.000  3.0442e-02
11.250  17.250  3.0266e-02
11.250  17.500  3.0208e-02
11.250  17.750  3.0418e-02
11.250  18.000  3.1239e-02
11.250  18.250  3.2960e-02
11.250  18.500  3.5790e-02
11.250  18.750  3.9234e-02
11.250  19.000  4.2662e-02
11.250  19.250  4.5635e-02
11.250  19.500  4.8233e-02
11.250  19.750  5.0784e-02
11.250  20.000  5.3978e-02
11.250  20.250  5.6697e-02
11.250  20.500  5.2205e-02
11.250  20.750  4.7387e-02
11.250  21.000  4.3387e-02
11.250  21.250  3.0097e-02
11.250  21.500  2.1438e-02
11.250  21.750  1.5838e-02
11.250  22.000  1.2289e-02
11.250  22.250  1.0326e-02
11.250  22.500  9.2026e-03
11.250  22.750  8.5514e-03
11.250  23.000  8.2565e-03
11.250  23.250  8.1021e-03
11.250  23.500  8.0152e-03
11.250  23.750  7.9789e-03
11.250  24.000  7.9637e-03
11.500  17.000  3.0952e-02
11.500  17.250  3.0462e-02
11.500  17.500  2.9662e-02
11.500  17.750  2.8745e-02
11.500  18.000  2.8757e-02
11.500  18.250  2.9816e-02
11.500  18.500  3.1739e-02
11.500  18.750  3.4343e-02
11.500  19.000  3.7446e-02
11.500  19.250  4.0863e-02
11.500  19.500  4.4413e-02
11.500  19.750  4.7912e-02
11.500  20.000  5.1177e-02
11.500  20.250  5.4962e-02
11.500  20.500  5.9605e-02
11.500  20.750  5.5605e-02
11.500  21.000  5.0452e-02
11.500  21.250  4.4725e-02
11.500  21.500  3.0413e-02
11.500  21.750  2.1482e-02
11.500  22.000  1.5838e-02
11.500  22.250  1.2292e-02
11.500  22.500  1.0329e-02
11.500  22.750  9.2035e-03
11.500  23.000  8.5512e-03
11.500  23.250  8.2565e-03
11.500  23.500  8.1021e-03
11.500  23.750  8.0153e-03
11.500  24.000  7.9789e-03
11.750  17.000  3.1902e-02
11.750  17.250  3.0810e-02
11.750  17.500  2.9309e-02
11.750  17.750  2.7553e-02
11.750  18.000  2.6141e-02
11.750  18.250  2.5708e-02
11.750  18.500  2.6746e-02
11.750  18.750  2.9431e-02
11.750  19.000  3.3340e-02
11.750  19.250  3.7599e-02
11.750  19.500  4.1370e-02
11.750  19.750  4.4919e-02
11.750  20.000  4.8570e-02
11.750  20.250  5.2473e-02
11.750  20.500  5.7857e-02
11.750  20.750  6.3031e-02
11.750  21.000  5.9904e-02
11.750  21.250  5.5219e-02
11.750  21.500  4.5777e-02
11.750  21.750  3.0781e-02
11.750  22.000  2.1561e-02
11.750  22.250  1.5837e-02
11.750  22.500  1.2296e-02
11.750  22.750  1.0331e-02
11.750  23.000  9.2046e-03
11.750  23.250  8.5509e-03
11.750  23.500  8.2565e-03
11.750  23.750  8.1022e-03
11.750  24.000  8.0155e-03
12.000  17.000  3.3043e-02
12.000  17.250  3.1176e-02
12.000  17.500  2.8947e-02
12.000  17.750  2.6648e-02
12.000  18.000  2.4864e-02
12.000  18.250  2.3924e-02
12.000  18.500  2.4204e-02
12.000  18.750  2.5807e-02
12.000  19.000  2.8866e-02
12.000  19.250  3.3099e-02
12.000  19.500  3.7530e-02
12.000  19.750  4.1549e-02
12.000  20.000  4.5664e-02
12.000  20.250  5.0024e-02
12.000  20.500  5.4696e-02
12.000  20.750  6.1041e-02
12.000  21.000  6.7682e-02
12.000  21.250  6.7535e-02
12.000  21.500  6.2186e-02
12.000  21.750  4.6655e-02
12.000  22.000  3.1182e-02
12.000  22.250  2.1662e-02
12.000  22.500  1.5836e-02
12.000  22.750  1.2299e-02
12.000  23.000  1.0334e-02
12.000  23.250  9.2059e-03
12.000  23.500  8.5505e-03
12.000  23.750  8.2564e-03
12.000  24.000  8.1023e-03
12.250  17.000  3.4145e-02
12.250  17.250  3.1350e-02
12.250  17.500  2.8427e-02
12.250  17.750  2.5846e-02
12.250  18.000  2.3978e-02
12.250  18.250  2.3054e-02
12.250  18.500  2.3011e-02
12.250  18.750  2.4987e-02
12.250  19.000  2.8939e-02
12.250  19.250  3.4414e-02
12.250  19.500  4.0960e-02
12.250  19.750  4.8125e-02
12.250  20.000  5.5457e-02
12.250  20.250  6.2503e-02
12.250  20.500  6.8811e-02
12.250  20.750  7.3930e-02
12.250  21.000  7.7406e-02
12.250  21.250  7.8788e-02
12.250  21.500  7.7624e-02
12.250  21.750  6.9897e-02
12.250  22.000  4.7504e-02
12.250  22.250  3.1380e-02
12.250  22.500  2.1686e-02
12.250  22.750  1.5833e-02
12.250  23.000  1.2303e-02
12.250  23.250  1.0337e-02
12.250  23.500  9.2074e-03
12.250  23.750  8.5500e-03
12.250  24.000  8.2563e-03
12.500  17.000  3.4569e-02
12.500  17.250  3.0908e-02
12.500  17.500  2.7605e-02
12.500  17.750  2.5036e-02
12.500  18.000  2.3450e-02
12.500  18.250  2.2710e-02
12.500  18.500  2.2637e-02
12.500  18.750  2.5394e-02
12.500  19.000  3.1033e-02
12.500  19.250  3.8877e-02
12.500  19.500  4.8247e-02
12.500  19.750  5.8464e-02
12.500  20.000  6.8849e-02
12.500  20.250  7.8725e-02
12.500  20.500  8.7411e-02
12.500  20.750  9.4230e-02
12.500  21.000  9.8503e-02
12.500  21.250  9.9552e-02
12.500  21.500  9.6697e-02
12.500  21.750  8.9260e-02
12.500  22.000  7.4224e-02
12.500  22.250  4.8093e-02
12.500  22.500  3.1689e-02
12.500  22.750  2.1797e-02
12.500  23.000  1.5828e-02
12.500  23.250  1.2305e-02
12.500  23.500  1.0339e-02
12.500  23.750  9.2088e-03
12.500  24.000  8.5493e-03
12.750  17.000  2.8327e-02
12.750  17.250  2.9337e-02
12.750  17.500  2.6613e-02
12.750  17.750  2.4572e-02
12.750  18.000  2.4409e-02
12.750  18.250  2.5914e-02
12.750  18.500  2.8879e-02
12.750  18.750  3.3093e-02
12.750  19.000  3.8349e-02
12.750  19.250  4.4436e-02
12.750  19.500  5.1146e-02
12.750  19.750  5.8270e-02
12.750  20.000  6.5599e-02
12.750  20.250  7.2924e-02
12.750  20.500  8.0035e-02
12.750  20.750  8.6723e-02
12.750  21.000  9.2780e-02
12.750  21.250  9.7996e-02
12.750  21.500  1.0216e-01
12.750  21.750  1.0507e-01
12.750  22.000  1.0142e-01
12.750  22.250  7.6245e-02
12.750  22.500  4.8856e-02
12.750  22.750  3.2040e-02
12.750  23.000  2.1866e-02
12.750  23.250  1.5818e-02
12.750  23.500  1.2306e-02
12.750  23.750  1.0342e-02
12.750  24.000  9.2100e-03
13.000  17.000  1.8421e-02
13.000  17.250  2.3254e-02
13.000  17.500  2.5113e-02
13.000  17.750  2.4466e-02
13.000  18.000  2.5207e-02
13.000  18.250  2.8065e-02
13.000  18.500  3.2740e-02
13.000  18.750  3.8932e-02
13.000  19.000  4.6340e-02
13.000  19.250  5.4663e-02
13.000  19.500  6.3601e-02
13.000  19.750  7.2854e-02
13.000  20.000  8.2120e-02
13.000  20.250  9.1100e-02
13.000  20.500  9.9493e-02
13.000  20.750  1.0700e-01
13.000  21.000  1.1332e-01
13.000  21.250  1.1814e-01
13.000  21.500  1.2118e-01
13.000  21.750  1.2213e-01
13.000  22.000  1.2069e-01
13.000  22.250  1.1084e-01
13.000  22.500  7.7871e-02
13.000  22.750  4.9459e-02
13.000  23.000  3.2255e-02
13.000  23.250  2.1907e-02
13.000  23.500  1.5803e-02
13.000  23.750  1.2304e-02
13.000  24.000  1.0343e-02
13.250  17.000  1.4539e-02
13.250  17.250  1.8078e-02
13.250  17.500  2.4238e-02
13.250  17.750  2.4944e-02
13.250  18.000  2.6436e-02
13.250  18.250  3.0663e-02
13.250  18.500  3.7213e-02
13.250  18.750  4.5673e-02
13.250  19.000  5.5628e-02
13.250  19.250  6.6668e-02
13.250  19.500  7.8377e-02
13.250  19.750  9.0344e-02
13.250  20.000  1.0216e-01
13.250  20.250  1.1340e-01
13.250  20.500  1.2366e-01
13.250  20.750  1.3252e-01
13.250  21.000  1.3958e-01
13.250  21.250  1.4442e-01
13.250  21.500  1.4662e-01
13.250  21.750  1.4578e-01
13.250  22.000  1.4148e-01
13.250  22.250  1.3330e-01
13.250  22.500  1.1620e-01
13.250  22.750  7.9426e-02
13.250  23.000  5.0037e-02
13.250  23.250  3.2240e-02
13.250  23.500  2.1870e-02
13.250  23.750  1.5787e-02
13.250  24.000  1.2300e-02
13.500  17.000  1.2145e-02
13.500  17.250  1.4890e-02
13.500  17.500  2.0046e-02
13.500  17.750  2.4034e-02
13.500  18.000  2.4708e-02
13.500  18.250  2.4161e-02
13.500  18.500  2.4058e-02
13.500  18.750  2.4401e-02
13.500  19.000  2.5178e-02
13.500  19.250  2.6354e-02
13.500  19.500  2.7941e-02
13.500  19.750  3.0021e-02
13.500  20.000  3.2802e-02
13.500  20.250  3.6705e-02
13.500  20.500  4.1756e-02
13.500  20.750  4.8408e-02
13.500  21.000  5.6385e-02
13.500  21.250  6.8667e-02
13.500  21.500  7.9386e-02
13.500  21.750  9.5524e-02
13.500  22.000  1.1492e-01
13.500  22.250  1.3366e-01
13.500  22.500  1.3850e-01
13.500  22.750  1.1883e-01
13.500  23.000  8.0847e-02
13.500  23.250  5.0668e-02
13.500  23.500  3.2562e-02
13.500  23.750  2.1924e-02
13.500  24.000  1.5767e-02
13.750  17.000  1.0806e-02
13.750  17.250  1.2856e-02
13.750  17.500  1.7215e-02
13.750  17.750  2.1491e-02
13.750  18.000  2.5537e-02
13.750  18.250  2.5103e-02
13.750  18.500  2.4894e-02
13.750  18.750  2.5139e-02
13.750  19.000  2.5823e-02
13.750  19.250  2.6966e-02
13.750  19.500  2.8584e-02
13.750  19.750  3.0725e-02
13.750  20.000  3.3565e-02
13.750  20.250  3.7348e-02
13.750  20.500  4.2237e-02
13.750  20.750  4.8264e-02
13.750  21.000  5.5507e-02
13.750  21.250  6.3901e-02
13.750  21.500  7.4298e-02
13.750  21.750  8.8037e-02
13.750  22.000  1.0562e-01
13.750  22.250  1.2965e-01
13.750  22.500  1.4044e-01
13.750  22.750  1.4485e-01
13.750  23.000  1.2200e-01
13.750  23.250  8.2087e-02
13.750  23.500  5.1057e-02
13.750  23.750  3.2656e-02
13.750  24.000  2.1905e-02
14.000  17.000  9.9862e-03
14.000  17.250  1.1709e-02
14.000  17.500  1.5182e-02
14.000  17.750  1.9386e-02
14.000  18.000  2.3941e-02
14.000  18.250  2.6350e-02
14.000  18.500  2.5919e-02
14.000  18.750  2.5956e-02
14.000  19.000  2.6537e-02
14.000  19.250  2.7641e-02
14.000  19.500  2.9281e-02
14.000  19.750  3.1523e-02
14.000  20.000  3.4431e-02
14.000  20.250  3.8268e-02
14.000  20.500  4.3296e-02
14.000  20.750  4.9495e-02
14.000  21.000  5.6929e-02
14.000  21.250  6.5673e-02
14.000  21.500  7.4419e-02
14.000  21.750  8.6570e-02
14.000  22.000  1.0253e-01
14.000  22.250  1.2669e-01
14.000  22.500  1.5230e-01
14.000  22.750  1.5363e-01
14.000  23.000  1.5141e-01
14.000  23.250  1.2628e-01
14.000  23.500  8.3164e-02
14.000  23.750  5.1345e-02
14.000  24.000  3.2714e-02
