InwC 2430.05A  relative to Inci 1215.00A scaled to 1215A.
Hden   Phi(H)  Eq_Width (A)
7.000  17.000  7.0908e-03
7.000  17.250  7.0938e-03
7.000  17.500  7.0969e-03
7.000  17.750  7.0999e-03
7.000  18.000  7.1029e-03
7.000  18.250  7.1054e-03
7.000  18.500  7.1072e-03
7.000  18.750  7.1081e-03
7.000  19.000  7.1090e-03
7.000  19.250  7.1096e-03
7.000  19.500  7.1098e-03
7.000  19.750  7.1100e-03
7.000  20.000  7.1100e-03
7.000  20.250  7.1100e-03
7.000  20.500  7.1100e-03
7.000  20.750  7.1100e-03
7.000  21.000  7.1100e-03
7.000  21.250  7.1100e-03
7.000  21.500  7.1102e-03
7.000  21.750  7.1100e-03
7.000  22.000  7.1100e-03
7.000  22.250  7.1100e-03
7.000  22.500  7.1100e-03
7.000  22.750  7.1103e-03
7.000  23.000  7.1103e-03
7.000  23.250  7.1100e-03
7.000  23.500  7.1100e-03
7.000  23.750  7.1100e-03
7.000  24.000  7.1100e-03
7.250  17.000  7.0785e-03
7.250  17.250  7.0908e-03
7.250  17.500  7.0938e-03
7.250  17.750  7.0969e-03
7.250  18.000  7.0999e-03
7.250  18.250  7.1029e-03
7.250  18.500  7.1054e-03
7.250  18.750  7.1072e-03
7.250  19.000  7.1081e-03
7.250  19.250  7.1090e-03
7.250  19.500  7.1096e-03
7.250  19.750  7.1098e-03
7.250  20.000  7.1099e-03
7.250  20.250  7.1100e-03
7.250  20.500  7.1100e-03
7.250  20.750  7.1100e-03
7.250  21.000  7.1100e-03
7.250  21.250  7.1100e-03
7.250  21.500  7.1100e-03
7.250  21.750  7.1114e-03
7.250  22.000  7.1100e-03
7.250  22.250  7.1100e-03
7.250  22.500  7.1100e-03
7.250  22.750  7.1108e-03
7.250  23.000  7.1108e-03
7.250  23.250  7.1100e-03
7.250  23.500  7.1100e-03
7.250  23.750  7.1100e-03
7.250  24.000  7.1100e-03
7.500  17.000  6.7607e-03
7.500  17.250  7.0791e-03
7.500  17.500  7.0908e-03
7.500  17.750  7.0939e-03
7.500  18.000  7.0969e-03
7.500  18.250  7.0999e-03
7.500  18.500  7.1029e-03
7.500  18.750  7.1054e-03
7.500  19.000  7.1072e-03
7.500  19.250  7.1081e-03
7.500  19.500  7.1090e-03
7.500  19.750  7.1096e-03
7.500  20.000  7.1098e-03
7.500  20.250  7.1100e-03
7.500  20.500  7.1100e-03
7.500  20.750  7.1100e-03
7.500  21.000  7.1100e-03
7.500  21.250  7.1100e-03
7.500  21.500  7.1100e-03
7.500  21.750  7.1100e-03
7.500  22.000  7.1100e-03
7.500  22.250  7.1100e-03
7.500  22.500  7.1100e-03
7.500  22.750  7.1100e-03
7.500  23.000  7.1105e-03
7.500  23.250  7.1108e-03
7.500  23.500  7.1100e-03
7.500  23.750  7.1109e-03
7.500  24.000  7.1100e-03
7.750  17.000  6.2102e-03
7.750  17.250  6.7622e-03
7.750  17.500  7.0795e-03
7.750  17.750  7.0907e-03
7.750  18.000  7.0939e-03
7.750  18.250  7.0969e-03
7.750  18.500  7.0999e-03
7.750  18.750  7.1029e-03
7.750  19.000  7.1054e-03
7.750  19.250  7.1072e-03
7.750  19.500  7.1081e-03
7.750  19.750  7.1090e-03
7.750  20.000  7.1096e-03
7.750  20.250  7.1098e-03
7.750  20.500  7.1099e-03
7.750  20.750  7.1100e-03
7.750  21.000  7.1100e-03
7.750  21.250  7.1100e-03
7.750  21.500  7.1100e-03
7.750  21.750  7.1100e-03
7.750  22.000  7.1100e-03
7.750  22.250  7.1100e-03
7.750  22.500  7.1100e-03
7.750  22.750  7.1103e-03
7.750  23.000  7.1103e-03
7.750  23.250  7.1101e-03
7.750  23.500  7.1108e-03
7.750  23.750  7.1108e-03
7.750  24.000  7.1100e-03
8.000  17.000  4.4502e-03
8.000  17.250  6.1731e-03
8.000  17.500  6.7591e-03
8.000  17.750  7.0783e-03
8.000  18.000  7.0907e-03
8.000  18.250  7.0939e-03
8.000  18.500  7.0970e-03
8.000  18.750  7.0999e-03
8.000  19.000  7.1030e-03
8.000  19.250  7.1055e-03
8.000  19.500  7.1072e-03
8.000  19.750  7.1081e-03
8.000  20.000  7.1090e-03
8.000  20.250  7.1096e-03
8.000  20.500  7.1098e-03
8.000  20.750  7.1099e-03
8.000  21.000  7.1100e-03
8.000  21.250  7.1100e-03
8.000  21.500  7.1100e-03
8.000  21.750  7.1100e-03
8.000  22.000  7.1100e-03
8.000  22.250  7.1100e-03
8.000  22.500  7.1100e-03
8.000  22.750  7.1102e-03
8.000  23.000  7.1100e-03
8.000  23.250  7.1105e-03
8.000  23.500  7.1100e-03
8.000  23.750  7.1100e-03
8.000  24.000  7.1100e-03
8.250  17.000  3.1881e-03
8.250  17.250  4.4638e-03
8.250  17.500  6.1778e-03
8.250  17.750  6.7600e-03
8.250  18.000  7.0785e-03
8.250  18.250  7.0906e-03
8.250  18.500  7.0938e-03
8.250  18.750  7.0970e-03
8.250  19.000  7.1000e-03
8.250  19.250  7.1030e-03
8.250  19.500  7.1055e-03
8.250  19.750  7.1072e-03
8.250  20.000  7.1081e-03
8.250  20.250  7.1090e-03
8.250  20.500  7.1096e-03
8.250  20.750  7.1098e-03
8.250  21.000  7.1099e-03
8.250  21.250  7.1100e-03
8.250  21.500  7.1100e-03
8.250  21.750  7.1100e-03
8.250  22.000  7.1100e-03
8.250  22.250  7.1100e-03
8.250  22.500  7.1100e-03
8.250  22.750  7.1102e-03
8.250  23.000  7.1100e-03
8.250  23.250  7.1119e-03
8.250  23.500  7.1100e-03
8.250  23.750  7.1100e-03
8.250  24.000  7.1105e-03
8.500  17.000  2.2991e-03
8.500  17.250  3.2050e-03
8.500  17.500  4.4768e-03
8.500  17.750  6.1828e-03
8.500  18.000  6.7603e-03
8.500  18.250  7.0784e-03
8.500  18.500  7.0905e-03
8.500  18.750  7.0938e-03
8.500  19.000  7.0970e-03
8.500  19.250  7.1000e-03
8.500  19.500  7.1030e-03
8.500  19.750  7.1055e-03
8.500  20.000  7.1072e-03
8.500  20.250  7.1081e-03
8.500  20.500  7.1090e-03
8.500  20.750  7.1096e-03
8.500  21.000  7.1098e-03
8.500  21.250  7.1099e-03
8.500  21.500  7.1100e-03
8.500  21.750  7.1100e-03
8.500  22.000  7.1100e-03
8.500  22.250  7.1100e-03
8.500  22.500  7.1100e-03
8.500  22.750  7.1100e-03
8.500  23.000  7.1100e-03
8.500  23.250  7.1102e-03
8.500  23.500  7.1100e-03
8.500  23.750  7.1100e-03
8.500  24.000  7.1100e-03
8.750  17.000  1.6779e-03
8.750  17.250  2.3174e-03
8.750  17.500  3.2275e-03
8.750  17.750  4.4807e-03
8.750  18.000  6.1923e-03
8.750  18.250  6.7598e-03
8.750  18.500  7.0780e-03
8.750  18.750  7.0903e-03
8.750  19.000  7.0938e-03
8.750  19.250  7.0970e-03
8.750  19.500  7.1000e-03
8.750  19.750  7.1030e-03
8.750  20.000  7.1055e-03
8.750  20.250  7.1072e-03
8.750  20.500  7.1081e-03
8.750  20.750  7.1090e-03
8.750  21.000  7.1096e-03
8.750  21.250  7.1098e-03
8.750  21.500  7.1099e-03
8.750  21.750  7.1100e-03
8.750  22.000  7.1100e-03
8.750  22.250  7.1100e-03
8.750  22.500  7.1100e-03
8.750  22.750  7.1100e-03
8.750  23.000  7.1107e-03
8.750  23.250  7.1100e-03
8.750  23.500  7.1102e-03
8.750  23.750  7.1100e-03
8.750  24.000  7.1100e-03
9.000  17.000  1.2427e-03
9.000  17.250  1.6923e-03
9.000  17.500  2.3426e-03
9.000  17.750  3.2673e-03
9.000  18.000  4.5266e-03
9.000  18.250  6.2317e-03
9.000  18.500  6.7579e-03
9.000  18.750  7.0770e-03
9.000  19.000  7.0900e-03
9.000  19.250  7.0937e-03
9.000  19.500  7.0970e-03
9.000  19.750  7.1001e-03
9.000  20.000  7.1030e-03
9.000  20.250  7.1055e-03
9.000  20.500  7.1072e-03
9.000  20.750  7.1081e-03
9.000  21.000  7.1090e-03
9.000  21.250  7.1096e-03
9.000  21.500  7.1098e-03
9.000  21.750  7.1099e-03
9.000  22.000  7.1100e-03
9.000  22.250  7.1100e-03
9.000  22.500  7.1100e-03
9.000  22.750  7.1100e-03
9.000  23.000  7.1100e-03
9.000  23.250  7.1100e-03
9.000  23.500  7.1100e-03
9.000  23.750  7.1100e-03
9.000  24.000  7.1100e-03
9.250  17.000  9.3885e-04
9.250  17.250  1.2539e-03
9.250  17.500  1.7170e-03
9.250  17.750  2.3936e-03
9.250  18.000  3.3432e-03
9.250  18.250  4.6322e-03
9.250  18.500  6.3322e-03
9.250  18.750  6.7539e-03
9.250  19.000  7.0750e-03
9.250  19.250  7.0893e-03
9.250  19.500  7.0935e-03
9.250  19.750  7.0970e-03
9.250  20.000  7.1001e-03
9.250  20.250  7.1030e-03
9.250  20.500  7.1055e-03
9.250  20.750  7.1072e-03
9.250  21.000  7.1081e-03
9.250  21.250  7.1090e-03
9.250  21.500  7.1092e-03
9.250  21.750  7.1093e-03
9.250  22.000  7.1093e-03
9.250  22.250  7.1095e-03
9.250  22.500  7.1096e-03
9.250  22.750  7.1096e-03
9.250  23.000  7.1098e-03
9.250  23.250  7.1099e-03
9.250  23.500  7.1099e-03
9.250  23.750  7.1098e-03
9.250  24.000  7.1099e-03
9.500  17.000  7.2840e-04
9.500  17.250  9.4774e-04
9.500  17.500  1.2765e-03
9.500  17.750  1.7703e-03
9.500  18.000  2.4903e-03
9.500  18.250  3.5095e-03
9.500  18.500  4.8826e-03
9.500  18.750  6.4948e-03
9.500  19.000  6.7470e-03
9.500  19.250  7.0714e-03
9.500  19.500  7.0882e-03
9.500  19.750  7.0933e-03
9.500  20.000  7.0970e-03
9.500  20.250  7.1001e-03
9.500  20.500  7.1030e-03
9.500  20.750  7.1051e-03
9.500  21.000  7.1068e-03
9.500  21.250  7.1077e-03
9.500  21.500  7.1085e-03
9.500  21.750  7.1089e-03
9.500  22.000  7.1091e-03
9.500  22.250  7.1092e-03
9.500  22.500  7.1092e-03
9.500  22.750  7.1093e-03
9.500  23.000  7.1093e-03
9.500  23.250  7.1093e-03
9.500  23.500  7.1093e-03
9.500  23.750  7.1093e-03
9.500  24.000  7.1093e-03
9.750  17.000  5.8025e-04
9.750  17.250  7.3399e-04
9.750  17.500  9.6560e-04
9.750  17.750  1.3252e-03
9.750  18.000  1.8814e-03
9.750  18.250  2.6900e-03
9.750  18.500  3.8260e-03
9.750  18.750  5.3615e-03
9.750  19.000  6.4892e-03
9.750  19.250  6.7366e-03
9.750  19.500  7.0653e-03
9.750  19.750  7.0864e-03
9.750  20.000  7.0928e-03
9.750  20.250  7.0969e-03
9.750  20.500  7.1001e-03
9.750  20.750  7.1030e-03
9.750  21.000  7.1052e-03
9.750  21.250  7.1068e-03
9.750  21.500  7.1077e-03
9.750  21.750  7.1086e-03
9.750  22.000  7.1089e-03
9.750  22.250  7.1091e-03
9.750  22.500  7.1092e-03
9.750  22.750  7.1093e-03
9.750  23.000  7.1093e-03
9.750  23.250  7.1092e-03
9.750  23.500  7.1093e-03
9.750  23.750  7.1093e-03
9.750  24.000  7.1093e-03
10.000  17.000  4.7663e-04
10.000  17.250  5.8395e-04
10.000  17.500  7.4782e-04
10.000  17.750  1.0096e-03
10.000  18.000  1.4362e-03
10.000  18.250  2.0774e-03
10.000  18.500  2.9886e-03
10.000  18.750  4.2273e-03
10.000  19.000  5.7549e-03
10.000  19.250  6.4820e-03
10.000  19.500  6.7241e-03
10.000  19.750  7.0556e-03
10.000  20.000  7.0837e-03
10.000  20.250  7.0920e-03
10.000  20.500  7.0967e-03
10.000  20.750  7.1001e-03
10.000  21.000  7.1030e-03
10.000  21.250  7.1053e-03
10.000  21.500  7.1069e-03
10.000  21.750  7.1077e-03
10.000  22.000  7.1086e-03
10.000  22.250  7.1090e-03
10.000  22.500  7.1091e-03
10.000  22.750  7.1092e-03
10.000  23.000  7.1093e-03
10.000  23.250  7.1093e-03
10.000  23.500  7.1093e-03
10.000  23.750  7.1093e-03
10.000  24.000  7.1093e-03
10.250  17.000  4.0428e-04
10.250  17.250  4.7934e-04
10.250  17.500  5.9572e-04
10.250  17.750  7.8856e-04
10.250  18.000  1.1105e-03
10.250  18.250  1.6008e-03
10.250  18.500  2.3147e-03
10.250  18.750  3.3150e-03
10.250  19.000  4.7033e-03
10.250  19.250  6.2652e-03
10.250  19.500  6.4763e-03
10.250  19.750  6.7117e-03
10.250  20.000  7.0424e-03
10.250  20.250  7.0796e-03
10.250  20.500  7.0907e-03
10.250  20.750  7.0964e-03
10.250  21.000  7.1000e-03
10.250  21.250  7.1030e-03
10.250  21.500  7.1054e-03
10.250  21.750  7.1070e-03
10.250  22.000  7.1077e-03
10.250  22.250  7.1086e-03
10.250  22.500  7.1091e-03
10.250  22.750  7.1091e-03
10.250  23.000  7.1092e-03
10.250  23.250  7.1093e-03
10.250  23.500  7.1093e-03
10.250  23.750  7.1093e-03
10.250  24.000  7.1093e-03
10.500  17.000  3.5350e-04
10.500  17.250  4.0634e-04
10.500  17.500  4.8979e-04
10.500  17.750  6.3267e-04
10.500  18.000  8.7465e-04
10.500  18.250  1.2488e-03
10.500  18.500  1.7869e-03
10.500  18.750  2.5778e-03
10.500  19.000  3.6740e-03
10.500  19.250  5.1700e-03
10.500  19.500  6.3040e-03
10.500  19.750  6.4746e-03
10.500  20.000  6.7012e-03
10.500  20.250  7.0274e-03
10.500  20.500  7.0742e-03
10.500  20.750  7.0886e-03
10.500  21.000  7.0960e-03
10.500  21.250  7.0999e-03
10.500  21.500  7.1030e-03
10.500  21.750  7.1054e-03
10.500  22.000  7.1072e-03
10.500  22.250  7.1078e-03
10.500  22.500  7.1086e-03
10.500  22.750  7.1091e-03
10.500  23.000  7.1092e-03
10.500  23.250  7.1092e-03
10.500  23.500  7.1093e-03
10.500  23.750  7.1093e-03
10.500  24.000  7.1093e-03
10.750  17.000  3.1778e-04
10.750  17.250  3.5498e-04
10.750  17.500  4.1547e-04
10.750  17.750  5.2156e-04
10.750  18.000  7.0288e-04
10.750  18.250  9.8379e-04
10.750  18.500  1.3974e-03
10.750  18.750  1.9881e-03
10.750  19.000  2.8207e-03
10.750  19.250  3.9895e-03
10.750  19.500  5.5120e-03
10.750  19.750  6.3065e-03
10.750  20.000  6.4740e-03
10.750  20.250  6.6934e-03
10.750  20.500  7.0142e-03
10.750  20.750  7.0691e-03
10.750  21.000  7.0858e-03
10.750  21.250  7.0952e-03
10.750  21.500  7.0997e-03
10.750  21.750  7.1029e-03
10.750  22.000  7.1054e-03
10.750  22.250  7.1072e-03
10.750  22.500  7.1080e-03
10.750  22.750  7.1086e-03
10.750  23.000  7.1092e-03
10.750  23.250  7.1093e-03
10.750  23.500  7.1093e-03
10.750  23.750  7.1092e-03
10.750  24.000  7.1093e-03
11.000  17.000  2.9243e-04
11.000  17.250  3.1844e-04
11.000  17.500  3.6198e-04
11.000  17.750  4.4115e-04
11.000  18.000  5.7580e-04
11.000  18.250  7.8469e-04
11.000  18.500  1.0918e-03
11.000  18.750  1.5306e-03
11.000  19.000  2.1538e-03
11.000  19.250  3.0354e-03
11.000  19.500  4.2690e-03
11.000  19.750  5.8988e-03
11.000  20.000  6.3038e-03
11.000  20.250  6.4707e-03
11.000  20.500  6.6908e-03
11.000  20.750  7.0089e-03
11.000  21.000  7.0626e-03
11.000  21.250  7.0827e-03
11.000  21.500  7.0941e-03
11.000  21.750  7.0993e-03
11.000  22.000  7.1027e-03
11.000  22.250  7.1053e-03
11.000  22.500  7.1072e-03
11.000  22.750  7.1081e-03
11.000  23.000  7.1088e-03
11.000  23.250  7.1092e-03
11.000  23.500  7.1094e-03
11.000  23.750  7.1094e-03
11.000  24.000  7.1093e-03
11.250  17.000  2.7440e-04
11.250  17.250  2.9218e-04
11.250  17.500  3.2346e-04
11.250  17.750  3.8173e-04
11.250  18.000  4.8132e-04
11.250  18.250  6.3342e-04
11.250  18.500  8.5712e-04
11.250  18.750  1.1862e-03
11.250  19.000  1.6419e-03
11.250  19.250  2.2868e-03
11.250  19.500  3.2034e-03
11.250  19.750  4.5035e-03
11.250  20.000  5.9756e-03
11.250  20.250  6.3016e-03
11.250  20.500  6.4798e-03
11.250  20.750  6.6959e-03
11.250  21.000  7.0120e-03
11.250  21.250  7.0588e-03
11.250  21.500  7.0796e-03
11.250  21.750  7.0926e-03
11.250  22.000  7.0988e-03
11.250  22.250  7.1025e-03
11.250  22.500  7.1052e-03
11.250  22.750  7.1072e-03
11.250  23.000  7.1081e-03
11.250  23.250  7.1089e-03
11.250  23.500  7.1092e-03
11.250  23.750  7.1094e-03
11.250  24.000  7.1095e-03
11.500  17.000  2.6165e-04
11.500  17.250  2.7358e-04
11.500  17.500  2.9588e-04
11.500  17.750  3.3819e-04
11.500  18.000  4.1021e-04
11.500  18.250  5.2049e-04
11.500  18.500  6.8313e-04
11.500  18.750  9.2165e-04
11.500  19.000  1.2551e-03
11.500  19.250  1.7249e-03
11.500  19.500  2.3911e-03
11.500  19.750  3.3439e-03
11.500  20.000  4.7033e-03
11.500  20.250  6.0095e-03
11.500  20.500  6.3011e-03
11.500  20.750  6.4820e-03
11.500  21.000  6.7133e-03
11.500  21.250  7.0218e-03
11.500  21.500  7.0540e-03
11.500  21.750  7.0765e-03
11.500  22.000  7.0909e-03
11.500  22.250  7.0980e-03
11.500  22.500  7.1021e-03
11.500  22.750  7.1050e-03
11.500  23.000  7.1072e-03
11.500  23.250  7.1081e-03
11.500  23.500  7.1090e-03
11.500  23.750  7.1093e-03
11.500  24.000  7.1094e-03
11.750  17.000  2.5267e-04
11.750  17.250  2.6058e-04
11.750  17.500  2.7621e-04
11.750  17.750  3.0634e-04
11.750  18.000  3.5704e-04
11.750  18.250  4.3605e-04
11.750  18.500  5.5366e-04
11.750  18.750  7.2313e-04
11.750  19.000  9.6963e-04
11.750  19.250  1.3109e-03
11.750  19.500  1.7929e-03
11.750  19.750  2.4729e-03
11.750  20.000  3.4578e-03
11.750  20.250  4.8660e-03
11.750  20.500  6.0390e-03
11.750  20.750  6.3083e-03
11.750  21.000  6.5005e-03
11.750  21.250  6.7588e-03
11.750  21.500  7.0231e-03
11.750  21.750  7.0504e-03
11.750  22.000  7.0733e-03
11.750  22.250  7.0893e-03
11.750  22.500  7.0971e-03
11.750  22.750  7.1016e-03
11.750  23.000  7.1048e-03
11.750  23.250  7.1071e-03
11.750  23.500  7.1081e-03
11.750  23.750  7.1090e-03
11.750  24.000  7.1095e-03
12.000  17.000  2.4650e-04
12.000  17.250  2.5152e-04
12.000  17.500  2.6230e-04
12.000  17.750  2.8321e-04
12.000  18.000  3.1844e-04
12.000  18.250  3.7440e-04
12.000  18.500  4.5877e-04
12.000  18.750  5.8239e-04
12.000  19.000  7.5992e-04
12.000  19.250  1.0087e-03
12.000  19.500  1.3573e-03
12.000  19.750  1.8466e-03
12.000  20.000  2.5453e-03
12.000  20.250  3.5503e-03
12.000  20.500  4.9971e-03
12.000  20.750  6.0196e-03
12.000  21.000  6.3220e-03
12.000  21.250  6.5500e-03
12.000  21.500  6.8409e-03
12.000  21.750  7.0204e-03
12.000  22.000  7.0505e-03
12.000  22.250  7.0727e-03
12.000  22.500  7.0877e-03
12.000  22.750  7.0963e-03
12.000  23.000  7.1011e-03
12.000  23.250  7.1045e-03
12.000  23.500  7.1070e-03
12.000  23.750  7.1080e-03
12.000  24.000  7.1090e-03
12.250  17.000  2.4255e-04
12.250  17.250  2.4560e-04
12.250  17.500  2.5267e-04
12.250  17.750  2.6675e-04
12.250  18.000  2.9119e-04
12.250  18.250  3.3062e-04
12.250  18.500  3.9086e-04
12.250  18.750  4.8082e-04
12.250  19.000  6.0930e-04
12.250  19.250  7.8971e-04
12.250  19.500  1.0420e-03
12.250  19.750  1.3973e-03
12.250  20.000  1.8915e-03
12.250  20.250  2.6018e-03
12.250  20.500  3.6336e-03
12.250  20.750  5.1195e-03
12.250  21.000  6.0112e-03
12.250  21.250  6.3547e-03
12.250  21.500  6.6188e-03
12.250  21.750  6.9360e-03
12.250  22.000  7.0176e-03
12.250  22.250  7.0473e-03
12.250  22.500  7.0706e-03
12.250  22.750  7.0862e-03
12.250  23.000  7.0954e-03
12.250  23.250  7.1004e-03
12.250  23.500  7.1041e-03
12.250  23.750  7.1068e-03
12.250  24.000  7.1080e-03
12.500  17.000  2.4016e-04
12.500  17.250  2.4189e-04
12.500  17.500  2.4634e-04
12.500  17.750  2.5564e-04
12.500  18.000  2.7235e-04
12.500  18.250  2.9992e-04
12.500  18.500  3.4321e-04
12.500  18.750  4.0757e-04
12.500  19.000  5.0033e-04
12.500  19.250  6.3185e-04
12.500  19.500  8.1317e-04
12.500  19.750  1.0686e-03
12.500  20.000  1.4268e-03
12.500  20.250  1.9297e-03
12.500  20.500  2.6595e-03
12.500  20.750  3.7154e-03
12.500  21.000  5.2318e-03
12.500  21.250  6.0363e-03
12.500  21.500  6.4067e-03
12.500  21.750  6.7002e-03
12.500  22.000  6.9796e-03
12.500  22.250  7.0153e-03
12.500  22.500  7.0448e-03
12.500  22.750  7.0679e-03
12.500  23.000  7.0847e-03
12.500  23.250  7.0944e-03
12.500  23.500  7.0998e-03
12.500  23.750  7.1038e-03
12.500  24.000  7.1067e-03
12.750  17.000  1.8428e-04
12.750  17.250  2.3720e-04
12.750  17.500  2.4255e-04
12.750  17.750  2.4856e-04
12.750  18.000  2.5984e-04
12.750  18.250  2.7901e-04
12.750  18.500  3.0947e-04
12.750  18.750  3.5564e-04
12.750  19.000  4.2263e-04
12.750  19.250  5.1728e-04
12.750  19.500  6.4881e-04
12.750  19.750  8.3218e-04
12.750  20.000  1.0901e-03
12.750  20.250  1.4518e-03
12.750  20.500  1.9695e-03
12.750  20.750  2.7149e-03
12.750  21.000  3.8231e-03
12.750  21.250  5.4122e-03
12.750  21.500  6.0672e-03
12.750  21.750  6.4793e-03
12.750  22.000  6.7839e-03
12.750  22.250  6.9809e-03
12.750  22.500  7.0141e-03
12.750  22.750  7.0424e-03
12.750  23.000  7.0661e-03
12.750  23.250  7.0830e-03
12.750  23.500  7.0932e-03
12.750  23.750  7.0988e-03
12.750  24.000  7.1033e-03
13.000  17.000  9.2346e-05
13.000  17.250  1.7053e-04
13.000  17.500  2.2551e-04
13.000  17.750  2.4428e-04
13.000  18.000  2.5169e-04
13.000  18.250  2.6469e-04
13.000  18.500  2.8593e-04
13.000  18.750  3.1860e-04
13.000  19.000  3.6650e-04
13.000  19.250  4.3449e-04
13.000  19.500  5.2955e-04
13.000  19.750  6.6181e-04
13.000  20.000  8.4642e-04
13.000  20.250  1.1071e-03
13.000  20.500  1.4758e-03
13.000  20.750  2.0081e-03
13.000  21.000  2.7846e-03
13.000  21.250  3.9542e-03
13.000  21.500  5.5342e-03
13.000  21.750  6.1341e-03
13.000  22.000  6.5393e-03
13.000  22.250  6.8437e-03
13.000  22.500  6.9803e-03
13.000  22.750  7.0125e-03
13.000  23.000  7.0407e-03
13.000  23.250  7.0641e-03
13.000  23.500  7.0812e-03
13.000  23.750  7.0916e-03
13.000  24.000  7.0977e-03
13.250  17.000  5.6214e-05
13.250  17.250  1.0708e-04
13.250  17.500  2.0609e-04
13.250  17.750  2.4165e-04
13.250  18.000  2.4642e-04
13.250  18.250  2.5514e-04
13.250  18.500  2.6963e-04
13.250  18.750  2.9243e-04
13.250  19.000  3.2626e-04
13.250  19.250  3.7481e-04
13.250  19.500  4.4321e-04
13.250  19.750  5.3877e-04
13.250  20.000  6.7177e-04
13.250  20.250  8.5852e-04
13.250  20.500  1.1244e-03
13.250  20.750  1.5012e-03
13.250  21.000  2.0554e-03
13.250  21.250  2.8701e-03
13.250  21.500  4.0337e-03
13.250  21.750  5.5887e-03
13.250  22.000  6.1630e-03
13.250  22.250  6.5757e-03
13.250  22.500  6.8606e-03
13.250  22.750  6.9779e-03
13.250  23.000  7.0099e-03
13.250  23.250  7.0378e-03
13.250  23.500  7.0616e-03
13.250  23.750  7.0788e-03
13.250  24.000  7.0895e-03
13.500  17.000  3.3827e-05
13.500  17.250  6.6502e-05
13.500  17.500  1.3852e-04
13.500  17.750  2.1449e-04
13.500  18.000  2.4296e-04
13.500  18.250  2.4872e-04
13.500  18.500  2.5844e-04
13.500  18.750  2.7391e-04
13.500  19.000  2.9761e-04
13.500  19.250  3.3193e-04
13.500  19.500  3.8115e-04
13.500  19.750  4.4971e-04
13.500  20.000  5.4519e-04
13.500  20.250  6.7909e-04
13.500  20.500  8.6881e-04
13.500  20.750  1.1379e-03
13.500  21.000  1.5216e-03
13.500  21.250  2.0947e-03
13.500  21.500  2.8964e-03
13.500  21.750  4.1202e-03
13.500  22.000  5.6023e-03
13.500  22.250  6.1596e-03
13.500  22.500  6.5586e-03
13.500  22.750  6.8448e-03
13.500  23.000  6.9719e-03
13.500  23.250  7.0047e-03
13.500  23.500  7.0338e-03
13.500  23.750  7.0582e-03
13.500  24.000  7.0754e-03
13.750  17.000  2.0494e-05
13.750  17.250  4.0412e-05
13.750  17.500  8.9794e-05
13.750  17.750  1.5819e-04
13.750  18.000  2.3704e-04
13.750  18.250  2.4436e-04
13.750  18.500  2.5070e-04
13.750  18.750  2.6107e-04
13.750  19.000  2.7737e-04
13.750  19.250  3.0156e-04
13.750  19.500  3.3621e-04
13.750  19.750  3.8527e-04
13.750  20.000  4.5383e-04
13.750  20.250  5.4979e-04
13.750  20.500  6.8502e-04
13.750  20.750  8.7728e-04
13.750  21.000  1.1508e-03
13.750  21.250  1.5436e-03
13.750  21.500  2.1006e-03
13.750  21.750  2.9560e-03
13.750  22.000  4.2177e-03
13.750  22.250  5.6130e-03
13.750  22.500  6.1201e-03
13.750  22.750  6.5337e-03
13.750  23.000  6.8286e-03
13.750  23.250  6.9602e-03
13.750  23.500  6.9953e-03
13.750  23.750  7.0270e-03
13.750  24.000  7.0526e-03
14.000  17.000  1.2181e-05
14.000  17.250  2.4609e-05
14.000  17.500  5.4979e-05
14.000  17.750  1.0905e-04
14.000  18.000  1.8551e-04
14.000  18.250  2.4156e-04
14.000  18.500  2.4560e-04
14.000  18.750  2.5235e-04
14.000  19.000  2.6313e-04
14.000  19.250  2.7975e-04
14.000  19.500  3.0395e-04
14.000  19.750  3.3885e-04
14.000  20.000  3.8765e-04
14.000  20.250  4.5597e-04
14.000  20.500  5.5259e-04
14.000  20.750  6.8930e-04
14.000  21.000  8.8247e-04
14.000  21.250  1.1621e-03
14.000  21.500  1.5464e-03
14.000  21.750  2.1323e-03
14.000  22.000  3.0228e-03
14.000  22.250  4.3501e-03
14.000  22.500  5.6070e-03
14.000  22.750  6.0808e-03
14.000  23.000  6.4960e-03
14.000  23.250  6.8177e-03
14.000  23.500  6.9406e-03
14.000  23.750  6.9798e-03
14.000  24.000  7.0158e-03
