InwT 1650.00A  relative to Inci 1215.00A scaled to 1215A.
Hden   Phi(H)  Eq_Width (A)
7.000  17.000  2.1809e-02
7.000  17.250  1.5534e-02
7.000  17.500  1.1916e-02
7.000  17.750  9.9437e-03
7.000  18.000  8.9435e-03
7.000  18.250  8.3914e-03
7.000  18.500  8.0836e-03
7.000  18.750  7.9490e-03
7.000  19.000  7.8797e-03
7.000  19.250  7.8413e-03
7.000  19.500  7.8253e-03
7.000  19.750  7.8188e-03
7.000  20.000  7.8159e-03
7.000  20.250  7.8146e-03
7.000  20.500  7.8139e-03
7.000  20.750  7.8136e-03
7.000  21.000  7.8133e-03
7.000  21.250  7.8133e-03
7.000  21.500  7.8133e-03
7.000  21.750  7.8132e-03
7.000  22.000  7.8132e-03
7.000  22.250  7.8132e-03
7.000  22.500  7.8132e-03
7.000  22.750  7.8133e-03
7.000  23.000  7.8133e-03
7.000  23.250  7.8131e-03
7.000  23.500  7.8132e-03
7.000  23.750  7.8131e-03
7.000  24.000  7.8131e-03
7.250  17.000  3.2279e-02
7.250  17.250  2.1756e-02
7.250  17.500  1.5505e-02
7.250  17.750  1.1900e-02
7.250  18.000  9.9363e-03
7.250  18.250  8.9401e-03
7.250  18.500  8.3898e-03
7.250  18.750  8.0830e-03
7.250  19.000  7.9487e-03
7.250  19.250  7.8796e-03
7.250  19.500  7.8413e-03
7.250  19.750  7.8253e-03
7.250  20.000  7.8188e-03
7.250  20.250  7.8159e-03
7.250  20.500  7.8146e-03
7.250  20.750  7.8139e-03
7.250  21.000  7.8136e-03
7.250  21.250  7.8133e-03
7.250  21.500  7.8133e-03
7.250  21.750  7.8147e-03
7.250  22.000  7.8132e-03
7.250  22.250  7.8132e-03
7.250  22.500  7.8132e-03
7.250  22.750  7.8139e-03
7.250  23.000  7.8139e-03
7.250  23.250  7.8132e-03
7.250  23.500  7.8131e-03
7.250  23.750  7.8131e-03
7.250  24.000  7.8132e-03
7.500  17.000  3.7075e-02
7.500  17.250  3.2236e-02
7.500  17.500  2.1724e-02
7.500  17.750  1.5487e-02
7.500  18.000  1.1888e-02
7.500  18.250  9.9309e-03
7.500  18.500  8.9377e-03
7.500  18.750  8.3887e-03
7.500  19.000  8.0827e-03
7.500  19.250  7.9486e-03
7.500  19.500  7.8795e-03
7.500  19.750  7.8413e-03
7.500  20.000  7.8253e-03
7.500  20.250  7.8188e-03
7.500  20.500  7.8159e-03
7.500  20.750  7.8145e-03
7.500  21.000  7.8138e-03
7.500  21.250  7.8135e-03
7.500  21.500  7.8133e-03
7.500  21.750  7.8133e-03
7.500  22.000  7.8132e-03
7.500  22.250  7.8132e-03
7.500  22.500  7.8132e-03
7.500  22.750  7.8132e-03
7.500  23.000  7.8135e-03
7.500  23.250  7.8139e-03
7.500  23.500  7.8131e-03
7.500  23.750  7.8141e-03
7.500  24.000  7.8131e-03
7.750  17.000  4.3529e-02
7.750  17.250  3.6868e-02
7.750  17.500  3.2214e-02
7.750  17.750  2.1705e-02
7.750  18.000  1.5476e-02
7.750  18.250  1.1879e-02
7.750  18.500  9.9265e-03
7.750  18.750  8.9359e-03
7.750  19.000  8.3881e-03
7.750  19.250  8.0825e-03
7.750  19.500  7.9486e-03
7.750  19.750  7.8795e-03
7.750  20.000  7.8412e-03
7.750  20.250  7.8253e-03
7.750  20.500  7.8188e-03
7.750  20.750  7.8159e-03
7.750  21.000  7.8145e-03
7.750  21.250  7.8138e-03
7.750  21.500  7.8135e-03
7.750  21.750  7.8133e-03
7.750  22.000  7.8133e-03
7.750  22.250  7.8132e-03
7.750  22.500  7.8132e-03
7.750  22.750  7.8133e-03
7.750  23.000  7.8134e-03
7.750  23.250  7.8132e-03
7.750  23.500  7.8139e-03
7.750  23.750  7.8139e-03
7.750  24.000  7.8131e-03
8.000  17.000  4.0534e-02
8.000  17.250  4.2577e-02
8.000  17.500  3.6553e-02
8.000  17.750  3.2169e-02
8.000  18.000  2.1694e-02
8.000  18.250  1.5468e-02
8.000  18.500  1.1871e-02
8.000  18.750  9.9226e-03
8.000  19.000  8.9345e-03
8.000  19.250  8.3876e-03
8.000  19.500  8.0823e-03
8.000  19.750  7.9485e-03
8.000  20.000  7.8795e-03
8.000  20.250  7.8412e-03
8.000  20.500  7.8253e-03
8.000  20.750  7.8188e-03
8.000  21.000  7.8159e-03
8.000  21.250  7.8145e-03
8.000  21.500  7.8138e-03
8.000  21.750  7.8135e-03
8.000  22.000  7.8133e-03
8.000  22.250  7.8132e-03
8.000  22.500  7.8132e-03
8.000  22.750  7.8133e-03
8.000  23.000  7.8131e-03
8.000  23.250  7.8136e-03
8.000  23.500  7.8131e-03
8.000  23.750  7.8131e-03
8.000  24.000  7.8131e-03
8.250  17.000  3.8166e-02
8.250  17.250  4.0150e-02
8.250  17.500  4.2265e-02
8.250  17.750  3.6440e-02
8.250  18.000  3.2166e-02
8.250  18.250  2.1687e-02
8.250  18.500  1.5463e-02
8.250  18.750  1.1864e-02
8.250  19.000  9.9190e-03
8.250  19.250  8.9332e-03
8.250  19.500  8.3872e-03
8.250  19.750  8.0821e-03
8.250  20.000  7.9485e-03
8.250  20.250  7.8795e-03
8.250  20.500  7.8412e-03
8.250  20.750  7.8253e-03
8.250  21.000  7.8188e-03
8.250  21.250  7.8159e-03
8.250  21.500  7.8145e-03
8.250  21.750  7.8138e-03
8.250  22.000  7.8135e-03
8.250  22.250  7.8133e-03
8.250  22.500  7.8132e-03
8.250  22.750  7.8133e-03
8.250  23.000  7.8131e-03
8.250  23.250  7.8151e-03
8.250  23.500  7.8131e-03
8.250  23.750  7.8131e-03
8.250  24.000  7.8137e-03
8.500  17.000  3.6093e-02
8.500  17.250  3.7893e-02
8.500  17.500  3.9922e-02
8.500  17.750  4.2085e-02
8.500  18.000  3.6390e-02
8.500  18.250  3.2165e-02
8.500  18.500  2.1684e-02
8.500  18.750  1.5459e-02
8.500  19.000  1.1857e-02
8.500  19.250  9.9153e-03
8.500  19.500  8.9320e-03
8.500  19.750  8.3869e-03
8.500  20.000  8.0821e-03
8.500  20.250  7.9484e-03
8.500  20.500  7.8795e-03
8.500  20.750  7.8412e-03
8.500  21.000  7.8253e-03
8.500  21.250  7.8188e-03
8.500  21.500  7.8159e-03
8.500  21.750  7.8145e-03
8.500  22.000  7.8138e-03
8.500  22.250  7.8135e-03
8.500  22.500  7.8133e-03
8.500  22.750  7.8132e-03
8.500  23.000  7.8131e-03
8.500  23.250  7.8133e-03
8.500  23.500  7.8131e-03
8.500  23.750  7.8131e-03
8.500  24.000  7.8131e-03
8.750  17.000  3.4243e-02
8.750  17.250  3.5960e-02
8.750  17.500  3.7807e-02
8.750  17.750  3.9814e-02
8.750  18.000  4.2023e-02
8.750  18.250  3.6369e-02
8.750  18.500  3.2161e-02
8.750  18.750  2.1681e-02
8.750  19.000  1.5456e-02
8.750  19.250  1.1850e-02
8.750  19.500  9.9114e-03
8.750  19.750  8.9309e-03
8.750  20.000  8.3866e-03
8.750  20.250  8.0820e-03
8.750  20.500  7.9484e-03
8.750  20.750  7.8795e-03
8.750  21.000  7.8412e-03
8.750  21.250  7.8253e-03
8.750  21.500  7.8188e-03
8.750  21.750  7.8159e-03
8.750  22.000  7.8145e-03
8.750  22.250  7.8138e-03
8.750  22.500  7.8135e-03
8.750  22.750  7.8133e-03
8.750  23.000  7.8140e-03
8.750  23.250  7.8131e-03
8.750  23.500  7.8133e-03
8.750  23.750  7.8131e-03
8.750  24.000  7.8131e-03
9.000  17.000  3.2437e-02
9.000  17.250  3.4240e-02
9.000  17.500  3.6022e-02
9.000  17.750  3.7926e-02
9.000  18.000  3.9962e-02
9.000  18.250  4.2162e-02
9.000  18.500  3.6351e-02
9.000  18.750  3.2153e-02
9.000  19.000  2.1680e-02
9.000  19.250  1.5454e-02
9.000  19.500  1.1843e-02
9.000  19.750  9.9076e-03
9.000  20.000  8.9298e-03
9.000  20.250  8.3863e-03
9.000  20.500  8.0820e-03
9.000  20.750  7.9484e-03
9.000  21.000  7.8795e-03
9.000  21.250  7.8412e-03
9.000  21.500  7.8253e-03
9.000  21.750  7.8187e-03
9.000  22.000  7.8158e-03
9.000  22.250  7.8145e-03
9.000  22.500  7.8138e-03
9.000  22.750  7.8135e-03
9.000  23.000  7.8133e-03
9.000  23.250  7.8132e-03
9.000  23.500  7.8131e-03
9.000  23.750  7.8131e-03
9.000  24.000  7.8132e-03
9.250  17.000  3.0479e-02
9.250  17.250  3.2524e-02
9.250  17.500  3.4461e-02
9.250  17.750  3.6385e-02
9.250  18.000  3.8380e-02
9.250  18.250  4.0548e-02
9.250  18.500  4.2629e-02
9.250  18.750  3.6315e-02
9.250  19.000  3.2136e-02
9.250  19.250  2.1679e-02
9.250  19.500  1.5453e-02
9.250  19.750  1.1836e-02
9.250  20.000  9.9039e-03
9.250  20.250  8.9288e-03
9.250  20.500  8.3861e-03
9.250  20.750  8.0819e-03
9.250  21.000  7.9484e-03
9.250  21.250  7.8795e-03
9.250  21.500  7.8408e-03
9.250  21.750  7.8249e-03
9.250  22.000  7.8181e-03
9.250  22.250  7.8153e-03
9.250  22.500  7.8142e-03
9.250  22.750  7.8135e-03
9.250  23.000  7.8133e-03
9.250  23.250  7.8131e-03
9.250  23.500  7.8130e-03
9.250  23.750  7.8129e-03
9.250  24.000  7.8130e-03
9.500  17.000  2.8207e-02
9.500  17.250  3.0608e-02
9.500  17.500  3.2894e-02
9.500  17.750  3.5100e-02
9.500  18.000  3.7229e-02
9.500  18.250  3.9541e-02
9.500  18.500  4.2120e-02
9.500  18.750  4.3306e-02
9.500  19.000  3.6252e-02
9.500  19.250  3.2105e-02
9.500  19.500  2.1678e-02
9.500  19.750  1.5453e-02
9.500  20.000  1.1831e-02
9.500  20.250  9.9007e-03
9.500  20.500  8.9280e-03
9.500  20.750  8.3857e-03
9.500  21.000  8.0814e-03
9.500  21.250  7.9479e-03
9.500  21.500  7.8788e-03
9.500  21.750  7.8405e-03
9.500  22.000  7.8246e-03
9.500  22.250  7.8180e-03
9.500  22.500  7.8151e-03
9.500  22.750  7.8137e-03
9.500  23.000  7.8131e-03
9.500  23.250  7.8127e-03
9.500  23.500  7.8125e-03
9.500  23.750  7.8124e-03
9.500  24.000  7.8123e-03
9.750  17.000  2.5441e-02
9.750  17.250  2.8277e-02
9.750  17.500  3.1049e-02
9.750  17.750  3.3759e-02
9.750  18.000  3.6410e-02
9.750  18.250  3.9069e-02
9.750  18.500  4.1936e-02
9.750  18.750  4.5039e-02
9.750  19.000  4.2957e-02
9.750  19.250  3.6147e-02
9.750  19.500  3.2048e-02
9.750  19.750  2.1676e-02
9.750  20.000  1.5455e-02
9.750  20.250  1.1828e-02
9.750  20.500  9.8984e-03
9.750  20.750  8.9274e-03
9.750  21.000  8.3855e-03
9.750  21.250  8.0813e-03
9.750  21.500  7.9480e-03
9.750  21.750  7.8789e-03
9.750  22.000  7.8405e-03
9.750  22.250  7.8246e-03
9.750  22.500  7.8179e-03
9.750  22.750  7.8151e-03
9.750  23.000  7.8137e-03
9.750  23.250  7.8130e-03
9.750  23.500  7.8127e-03
9.750  23.750  7.8125e-03
9.750  24.000  7.8123e-03
10.000  17.000  2.2109e-02
10.000  17.250  2.5386e-02
10.000  17.500  2.8694e-02
10.000  17.750  3.2097e-02
10.000  18.000  3.5522e-02
10.000  18.250  3.8859e-02
10.000  18.500  4.1985e-02
10.000  18.750  4.5166e-02
10.000  19.000  4.7896e-02
10.000  19.250  4.2415e-02
10.000  19.500  3.5974e-02
10.000  19.750  3.1948e-02
10.000  20.000  2.1673e-02
10.000  20.250  1.5457e-02
10.000  20.500  1.1827e-02
10.000  20.750  9.8965e-03
10.000  21.000  8.9272e-03
10.000  21.250  8.3856e-03
10.000  21.500  8.0813e-03
10.000  21.750  7.9480e-03
10.000  22.000  7.8790e-03
10.000  22.250  7.8407e-03
10.000  22.500  7.8246e-03
10.000  22.750  7.8179e-03
10.000  23.000  7.8151e-03
10.000  23.250  7.8137e-03
10.000  23.500  7.8131e-03
10.000  23.750  7.8128e-03
10.000  24.000  7.8125e-03
10.250  17.000  1.8920e-02
10.250  17.250  2.1961e-02
10.250  17.500  2.5802e-02
10.250  17.750  2.9898e-02
10.250  18.000  3.4196e-02
10.250  18.250  3.8283e-02
10.250  18.500  4.1896e-02
10.250  18.750  4.5293e-02
10.250  19.000  4.8828e-02
10.250  19.250  5.1013e-02
10.250  19.500  4.1996e-02
10.250  19.750  3.5713e-02
10.250  20.000  3.1809e-02
10.250  20.250  2.1669e-02
10.250  20.500  1.5459e-02
10.250  20.750  1.1827e-02
10.250  21.000  9.8955e-03
10.250  21.250  8.9273e-03
10.250  21.500  8.3856e-03
10.250  21.750  8.0813e-03
10.250  22.000  7.9480e-03
10.250  22.250  7.8791e-03
10.250  22.500  7.8407e-03
10.250  22.750  7.8246e-03
10.250  23.000  7.8180e-03
10.250  23.250  7.8151e-03
10.250  23.500  7.8137e-03
10.250  23.750  7.8131e-03
10.250  24.000  7.8127e-03
10.500  17.000  1.6215e-02
10.500  17.250  1.8746e-02
10.500  17.500  2.2423e-02
10.500  17.750  2.7175e-02
10.500  18.000  3.2126e-02
10.500  18.250  3.6824e-02
10.500  18.500  4.0973e-02
10.500  18.750  4.4590e-02
10.500  19.000  4.8047e-02
10.500  19.250  5.1951e-02
10.500  19.500  5.2204e-02
10.500  19.750  4.2002e-02
10.500  20.000  3.5636e-02
10.500  20.250  3.1642e-02
10.500  20.500  2.1663e-02
10.500  20.750  1.5459e-02
10.500  21.000  1.1828e-02
10.500  21.250  9.8953e-03
10.500  21.500  8.9277e-03
10.500  21.750  8.3857e-03
10.500  22.000  8.0815e-03
10.500  22.250  7.9481e-03
10.500  22.500  7.8791e-03
10.500  22.750  7.8407e-03
10.500  23.000  7.8247e-03
10.500  23.250  7.8179e-03
10.500  23.500  7.8151e-03
10.500  23.750  7.8137e-03
10.500  24.000  7.8131e-03
10.750  17.000  1.4199e-02
10.750  17.250  1.6094e-02
10.750  17.500  1.9307e-02
10.750  17.750  2.3954e-02
10.750  18.000  2.9157e-02
10.750  18.250  3.4138e-02
10.750  18.500  3.8604e-02
10.750  18.750  4.2638e-02
10.750  19.000  4.6364e-02
10.750  19.250  5.0102e-02
10.750  19.500  5.4238e-02
10.750  19.750  5.1911e-02
10.750  20.000  4.2302e-02
10.750  20.250  3.5831e-02
10.750  20.500  3.1533e-02
10.750  20.750  2.1656e-02
10.750  21.000  1.5459e-02
10.750  21.250  1.1831e-02
10.750  21.500  9.8960e-03
10.750  21.750  8.9285e-03
10.750  22.000  8.3858e-03
10.750  22.250  8.0815e-03
10.750  22.500  7.9482e-03
10.750  22.750  7.8791e-03
10.750  23.000  7.8408e-03
10.750  23.250  7.8248e-03
10.750  23.500  7.8180e-03
10.750  23.750  7.8151e-03
10.750  24.000  7.8137e-03
11.000  17.000  1.2803e-02
11.000  17.250  1.4203e-02
11.000  17.500  1.6713e-02
11.000  17.750  2.0564e-02
11.000  18.000  2.5285e-02
11.000  18.250  3.0153e-02
11.000  18.500  3.4916e-02
11.000  18.750  3.9425e-02
11.000  19.000  4.3578e-02
11.000  19.250  4.7499e-02
11.000  19.500  5.1465e-02
11.000  19.750  5.5715e-02
11.000  20.000  5.2542e-02
11.000  20.250  4.3763e-02
11.000  20.500  3.6287e-02
11.000  20.750  3.1547e-02
11.000  21.000  2.1646e-02
11.000  21.250  1.5455e-02
11.000  21.500  1.1834e-02
11.000  21.750  9.8976e-03
11.000  22.000  8.9295e-03
11.000  22.250  8.3860e-03
11.000  22.500  8.0814e-03
11.000  22.750  7.9484e-03
11.000  23.000  7.8793e-03
11.000  23.250  7.8408e-03
11.000  23.500  7.8249e-03
11.000  23.750  7.8181e-03
11.000  24.000  7.8151e-03
11.250  17.000  1.1870e-02
11.250  17.250  1.2969e-02
11.250  17.500  1.4721e-02
11.250  17.750  1.7396e-02
11.250  18.000  2.1069e-02
11.250  18.250  2.5427e-02
11.250  18.500  3.0263e-02
11.250  18.750  3.5189e-02
11.250  19.000  3.9792e-02
11.250  19.250  4.4019e-02
11.250  19.500  4.7992e-02
11.250  19.750  5.2057e-02
11.250  20.000  5.6165e-02
11.250  20.250  5.3040e-02
11.250  20.500  4.4269e-02
11.250  20.750  3.7129e-02
11.250  21.000  3.1824e-02
11.250  21.250  2.1633e-02
11.250  21.500  1.5444e-02
11.250  21.750  1.1838e-02
11.250  22.000  9.8998e-03
11.250  22.250  8.9309e-03
11.250  22.500  8.3863e-03
11.250  22.750  8.0813e-03
11.250  23.000  7.9484e-03
11.250  23.250  7.8795e-03
11.250  23.500  7.8408e-03
11.250  23.750  7.8249e-03
11.250  24.000  7.8182e-03
11.500  17.000  1.1294e-02
11.500  17.250  1.2133e-02
11.500  17.500  1.3247e-02
11.500  17.750  1.4843e-02
11.500  18.000  1.7254e-02
11.500  18.250  2.0737e-02
11.500  18.500  2.5192e-02
11.500  18.750  3.0263e-02
11.500  19.000  3.5359e-02
11.500  19.250  3.9901e-02
11.500  19.500  4.4040e-02
11.500  19.750  4.8187e-02
11.500  20.000  5.2564e-02
11.500  20.250  5.6017e-02
11.500  20.500  5.4538e-02
11.500  20.750  4.5985e-02
11.500  21.000  3.8564e-02
11.500  21.250  3.2190e-02
11.500  21.500  2.1608e-02
11.500  21.750  1.5425e-02
11.500  22.000  1.1840e-02
11.500  22.250  9.9027e-03
11.500  22.500  8.9325e-03
11.500  22.750  8.3867e-03
11.500  23.000  8.0812e-03
11.500  23.250  7.9484e-03
11.500  23.500  7.8796e-03
11.500  23.750  7.8409e-03
11.500  24.000  7.8249e-03
11.750  17.000  1.0960e-02
11.750  17.250  1.1477e-02
11.750  17.500  1.2092e-02
11.750  17.750  1.2942e-02
11.750  18.000  1.4375e-02
11.750  18.250  1.6834e-02
11.750  18.500  2.0517e-02
11.750  18.750  2.5261e-02
11.750  19.000  3.0521e-02
11.750  19.250  3.5568e-02
11.750  19.500  4.0005e-02
11.750  19.750  4.4235e-02
11.750  20.000  4.8703e-02
11.750  20.250  5.3619e-02
11.750  20.500  5.7629e-02
11.750  20.750  5.6285e-02
11.750  21.000  4.8207e-02
11.750  21.250  4.1060e-02
11.750  21.500  3.2290e-02
11.750  21.750  2.1567e-02
11.750  22.000  1.5390e-02
11.750  22.250  1.1839e-02
11.750  22.500  9.9060e-03
11.750  22.750  8.9343e-03
11.750  23.000  8.3873e-03
11.750  23.250  8.0811e-03
11.750  23.500  7.9484e-03
11.750  23.750  7.8796e-03
11.750  24.000  7.8412e-03
12.000  17.000  1.0686e-02
12.000  17.250  1.0870e-02
12.000  17.500  1.1068e-02
12.000  17.750  1.1491e-02
12.000  18.000  1.2408e-02
12.000  18.250  1.4100e-02
12.000  18.500  1.6918e-02
12.000  18.750  2.0871e-02
12.000  19.000  2.5769e-02
12.000  19.250  3.1106e-02
12.000  19.500  3.6100e-02
12.000  19.750  4.0538e-02
12.000  20.000  4.5076e-02
12.000  20.250  4.9956e-02
12.000  20.500  5.5366e-02
12.000  20.750  5.9034e-02
12.000  21.000  5.8711e-02
12.000  21.250  5.2625e-02
12.000  21.500  4.4928e-02
12.000  21.750  3.2288e-02
12.000  22.000  2.1509e-02
12.000  22.250  1.5343e-02
12.000  22.500  1.1833e-02
12.000  22.750  9.9095e-03
12.000  23.000  8.9362e-03
12.000  23.250  8.3881e-03
12.000  23.500  8.0808e-03
12.000  23.750  7.9483e-03
12.000  24.000  7.8796e-03
12.250  17.000  1.0353e-02
12.250  17.250  1.0200e-02
12.250  17.500  1.0064e-02
12.250  17.750  1.0259e-02
12.250  18.000  1.0964e-02
12.250  18.250  1.2399e-02
12.250  18.500  1.4670e-02
12.250  18.750  1.7788e-02
12.250  19.000  2.1837e-02
12.250  19.250  2.6862e-02
12.250  19.500  3.2240e-02
12.250  19.750  3.7296e-02
12.250  20.000  4.1898e-02
12.250  20.250  4.6831e-02
12.250  20.500  5.2319e-02
12.250  20.750  5.8541e-02
12.250  21.000  6.2668e-02
12.250  21.250  6.3894e-02
12.250  21.500  5.8556e-02
12.250  21.750  4.9179e-02
12.250  22.000  3.2245e-02
12.250  22.250  2.1442e-02
12.250  22.500  1.5308e-02
12.250  22.750  1.1819e-02
12.250  23.000  9.9127e-03
12.250  23.250  8.9381e-03
12.250  23.500  8.3888e-03
12.250  23.750  8.0806e-03
12.250  24.000  7.9482e-03
12.500  17.000  9.7367e-03
12.500  17.250  9.3358e-03
12.500  17.500  9.0366e-03
12.500  17.750  9.1012e-03
12.500  18.000  9.8291e-03
12.500  18.250  1.1248e-02
12.500  18.500  1.3353e-02
12.500  18.750  1.6081e-02
12.500  19.000  1.9392e-02
12.500  19.250  2.3587e-02
12.500  19.500  2.8671e-02
12.500  19.750  3.4192e-02
12.500  20.000  3.9343e-02
12.500  20.250  4.5247e-02
12.500  20.500  5.1849e-02
12.500  20.750  5.8635e-02
12.500  21.000  6.5091e-02
12.500  21.250  7.0235e-02
12.500  21.500  7.1257e-02
12.500  21.750  6.5317e-02
12.500  22.000  5.1044e-02
12.500  22.250  3.2169e-02
12.500  22.500  2.1355e-02
12.500  22.750  1.5235e-02
12.500  23.000  1.1798e-02
12.500  23.250  9.9148e-03
12.500  23.500  8.9398e-03
12.500  23.750  8.3895e-03
12.500  24.000  8.0802e-03
12.750  17.000  7.6416e-03
12.750  17.250  8.1453e-03
12.750  17.500  1.0075e-02
12.750  17.750  1.3526e-02
12.750  18.000  1.8261e-02
12.750  18.250  2.4042e-02
12.750  18.500  3.0631e-02
12.750  18.750  3.7791e-02
12.750  19.000  4.5285e-02
12.750  19.250  5.2874e-02
12.750  19.500  6.0321e-02
12.750  19.750  6.7389e-02
12.750  20.000  7.3840e-02
12.750  20.250  7.9437e-02
12.750  20.500  8.3941e-02
12.750  20.750  8.7116e-02
12.750  21.000  8.8723e-02
12.750  21.250  8.8526e-02
12.750  21.500  8.6286e-02
12.750  21.750  8.1766e-02
12.750  22.000  7.2194e-02
12.750  22.250  5.1082e-02
12.750  22.500  3.2065e-02
12.750  22.750  2.1246e-02
12.750  23.000  1.5162e-02
12.750  23.250  1.1771e-02
12.750  23.500  9.9152e-03
12.750  23.750  8.9412e-03
12.750  24.000  8.3900e-03
13.000  17.000  4.6098e-03
13.000  17.250  5.8649e-03
13.000  17.500  6.6612e-03
13.000  17.750  7.2021e-03
13.000  18.000  8.0384e-03
13.000  18.250  9.4914e-03
13.000  18.500  1.1587e-02
13.000  18.750  1.4311e-02
13.000  19.000  1.7516e-02
13.000  19.250  2.1089e-02
13.000  19.500  2.4881e-02
13.000  19.750  2.9552e-02
13.000  20.000  3.4947e-02
13.000  20.250  4.0888e-02
13.000  20.500  4.7570e-02
13.000  20.750  5.4301e-02
13.000  21.000  6.3012e-02
13.000  21.250  7.6214e-02
13.000  21.500  8.8771e-02
13.000  21.750  9.3965e-02
13.000  22.000  9.1482e-02
13.000  22.250  7.7016e-02
13.000  22.500  5.1013e-02
13.000  22.750  3.1940e-02
13.000  23.000  2.1142e-02
13.000  23.250  1.5086e-02
13.000  23.500  1.1738e-02
13.000  23.750  9.9133e-03
13.000  24.000  8.9416e-03
13.250  17.000  3.0528e-03
13.250  17.250  3.9804e-03
13.250  17.500  5.5977e-03
13.250  17.750  6.4521e-03
13.250  18.000  7.3084e-03
13.250  18.250  8.7436e-03
13.250  18.500  1.0813e-02
13.250  18.750  1.3525e-02
13.250  19.000  1.6806e-02
13.250  19.250  2.0477e-02
13.250  19.500  2.4348e-02
13.250  19.750  2.8811e-02
13.250  20.000  3.3825e-02
13.250  20.250  3.9487e-02
13.250  20.500  4.6216e-02
13.250  20.750  5.3928e-02
13.250  21.000  6.2998e-02
13.250  21.250  7.4540e-02
13.250  21.500  8.6806e-02
13.250  21.750  1.0004e-01
13.250  22.000  1.0261e-01
13.250  22.250  9.8676e-02
13.250  22.500  7.8672e-02
13.250  22.750  5.0887e-02
13.250  23.000  3.1787e-02
13.250  23.250  2.1056e-02
13.250  23.500  1.5038e-02
13.250  23.750  1.1703e-02
13.250  24.000  9.9081e-03
13.500  17.000  2.0481e-03
13.500  17.250  2.7363e-03
13.500  17.500  4.0400e-03
13.500  17.750  5.5113e-03
13.500  18.000  6.6887e-03
13.500  18.250  8.0709e-03
13.500  18.500  1.0088e-02
13.500  18.750  1.2761e-02
13.500  19.000  1.6058e-02
13.500  19.250  1.9839e-02
13.500  19.500  2.3936e-02
13.500  19.750  2.8400e-02
13.500  20.000  3.3402e-02
13.500  20.250  3.9272e-02
13.500  20.500  4.5604e-02
13.500  20.750  5.2810e-02
13.500  21.000  6.0591e-02
13.500  21.250  7.1878e-02
13.500  21.500  8.0770e-02
13.500  21.750  9.4429e-02
13.500  22.000  1.0769e-01
13.500  22.250  1.0810e-01
13.500  22.500  9.9527e-02
13.500  22.750  7.8126e-02
13.500  23.000  5.0687e-02
13.500  23.250  3.1602e-02
13.500  23.500  2.0903e-02
13.500  23.750  1.4928e-02
13.500  24.000  1.1668e-02
13.750  17.000  1.4172e-03
13.750  17.250  1.9046e-03
13.750  17.500  2.9109e-03
13.750  17.750  4.3039e-03
13.750  18.000  6.1198e-03
13.750  18.250  7.4885e-03
13.750  18.500  9.4237e-03
13.750  18.750  1.2027e-02
13.750  19.000  1.5310e-02
13.750  19.250  1.9197e-02
13.750  19.500  2.3518e-02
13.750  19.750  2.8201e-02
13.750  20.000  3.3402e-02
13.750  20.250  3.9346e-02
13.750  20.500  4.6053e-02
13.750  20.750  5.3294e-02
13.750  21.000  6.1016e-02
13.750  21.250  6.9202e-02
13.750  21.500  7.8351e-02
13.750  21.750  9.0447e-02
13.750  22.000  1.0521e-01
13.750  22.250  1.1944e-01
13.750  22.500  1.1051e-01
13.750  22.750  1.0094e-01
13.750  23.000  7.7992e-02
13.750  23.250  5.0415e-02
13.750  23.500  3.1410e-02
13.750  23.750  2.0763e-02
13.750  24.000  1.4838e-02
14.000  17.000  1.0060e-03
14.000  17.250  1.3691e-03
14.000  17.500  2.0826e-03
14.000  17.750  3.2872e-03
14.000  18.000  5.0444e-03
14.000  18.250  6.9758e-03
14.000  18.500  8.8307e-03
14.000  18.750  1.1352e-02
14.000  19.000  1.4591e-02
14.000  19.250  1.8539e-02
14.000  19.500  2.3102e-02
14.000  19.750  2.8119e-02
14.000  20.000  3.3560e-02
14.000  20.250  3.9667e-02
14.000  20.500  4.6677e-02
14.000  20.750  5.4393e-02
14.000  21.000  6.2742e-02
14.000  21.250  7.1714e-02
14.000  21.500  7.9720e-02
14.000  21.750  9.0822e-02
14.000  22.000  1.0499e-01
14.000  22.250  1.2449e-01
14.000  22.500  1.3534e-01
14.000  22.750  1.1732e-01
14.000  23.000  1.0221e-01
14.000  23.250  7.8754e-02
14.000  23.500  5.0075e-02
14.000  23.750  3.1191e-02
14.000  24.000  2.0599e-02
