InwC 880.000A  relative to Inci 1215.00A scaled to 1215A.
Hden   Phi(H)  Eq_Width (A)
7.000  17.000  3.9968e-03
7.000  17.250  5.6278e-03
7.000  17.500  6.7388e-03
7.000  17.750  7.2877e-03
7.000  18.000  7.5744e-03
7.000  18.250  7.7742e-03
7.000  18.500  7.8853e-03
7.000  18.750  7.9139e-03
7.000  19.000  7.9263e-03
7.000  19.250  7.9315e-03
7.000  19.500  7.9325e-03
7.000  19.750  7.9328e-03
7.000  20.000  7.9329e-03
7.000  20.250  7.9330e-03
7.000  20.500  7.9330e-03
7.000  20.750  7.9331e-03
7.000  21.000  7.9331e-03
7.000  21.250  7.9331e-03
7.000  21.500  7.9333e-03
7.000  21.750  7.9331e-03
7.000  22.000  7.9331e-03
7.000  22.250  7.9331e-03
7.000  22.500  7.9331e-03
7.000  22.750  7.9333e-03
7.000  23.000  7.9333e-03
7.000  23.250  7.9331e-03
7.000  23.500  7.9331e-03
7.000  23.750  7.9331e-03
7.000  24.000  7.9331e-03
7.250  17.000  2.4977e-03
7.250  17.250  4.0082e-03
7.250  17.500  5.6401e-03
7.250  17.750  6.7464e-03
7.250  18.000  7.2902e-03
7.250  18.250  7.5751e-03
7.250  18.500  7.7744e-03
7.250  18.750  7.8853e-03
7.250  19.000  7.9139e-03
7.250  19.250  7.9263e-03
7.250  19.500  7.9315e-03
7.250  19.750  7.9325e-03
7.250  20.000  7.9328e-03
7.250  20.250  7.9329e-03
7.250  20.500  7.9330e-03
7.250  20.750  7.9330e-03
7.250  21.000  7.9331e-03
7.250  21.250  7.9331e-03
7.250  21.500  7.9331e-03
7.250  21.750  7.9347e-03
7.250  22.000  7.9331e-03
7.250  22.250  7.9331e-03
7.250  22.500  7.9331e-03
7.250  22.750  7.9338e-03
7.250  23.000  7.9338e-03
7.250  23.250  7.9331e-03
7.250  23.500  7.9331e-03
7.250  23.750  7.9331e-03
7.250  24.000  7.9331e-03
7.500  17.000  1.3512e-03
7.500  17.250  2.5040e-03
7.500  17.500  4.0181e-03
7.500  17.750  5.6526e-03
7.500  18.000  6.7555e-03
7.500  18.250  7.2935e-03
7.500  18.500  7.5763e-03
7.500  18.750  7.7747e-03
7.500  19.000  7.8854e-03
7.500  19.250  7.9140e-03
7.500  19.500  7.9263e-03
7.500  19.750  7.9315e-03
7.500  20.000  7.9325e-03
7.500  20.250  7.9328e-03
7.500  20.500  7.9329e-03
7.500  20.750  7.9329e-03
7.500  21.000  7.9330e-03
7.500  21.250  7.9330e-03
7.500  21.500  7.9330e-03
7.500  21.750  7.9331e-03
7.500  22.000  7.9331e-03
7.500  22.250  7.9331e-03
7.500  22.500  7.9331e-03
7.500  22.750  7.9331e-03
7.500  23.000  7.9335e-03
7.500  23.250  7.9338e-03
7.500  23.500  7.9331e-03
7.500  23.750  7.9340e-03
7.500  24.000  7.9331e-03
7.750  17.000  7.0280e-04
7.750  17.250  1.3554e-03
7.750  17.500  2.5080e-03
7.750  17.750  4.0263e-03
7.750  18.000  5.6653e-03
7.750  18.250  6.7662e-03
7.750  18.500  7.2978e-03
7.750  18.750  7.5779e-03
7.750  19.000  7.7752e-03
7.750  19.250  7.8855e-03
7.750  19.500  7.9140e-03
7.750  19.750  7.9263e-03
7.750  20.000  7.9315e-03
7.750  20.250  7.9325e-03
7.750  20.500  7.9328e-03
7.750  20.750  7.9329e-03
7.750  21.000  7.9329e-03
7.750  21.250  7.9330e-03
7.750  21.500  7.9330e-03
7.750  21.750  7.9330e-03
7.750  22.000  7.9330e-03
7.750  22.250  7.9330e-03
7.750  22.500  7.9331e-03
7.750  22.750  7.9333e-03
7.750  23.000  7.9333e-03
7.750  23.250  7.9331e-03
7.750  23.500  7.9338e-03
7.750  23.750  7.9338e-03
7.750  24.000  7.9331e-03
8.000  17.000  3.6749e-04
8.000  17.250  7.0222e-04
8.000  17.500  1.3537e-03
8.000  17.750  2.5096e-03
8.000  18.000  4.0331e-03
8.000  18.250  5.6786e-03
8.000  18.500  6.7783e-03
8.000  18.750  7.3033e-03
8.000  19.000  7.5801e-03
8.000  19.250  7.7759e-03
8.000  19.500  7.8857e-03
8.000  19.750  7.9140e-03
8.000  20.000  7.9263e-03
8.000  20.250  7.9315e-03
8.000  20.500  7.9325e-03
8.000  20.750  7.9328e-03
8.000  21.000  7.9329e-03
8.000  21.250  7.9329e-03
8.000  21.500  7.9329e-03
8.000  21.750  7.9330e-03
8.000  22.000  7.9330e-03
8.000  22.250  7.9330e-03
8.000  22.500  7.9330e-03
8.000  22.750  7.9332e-03
8.000  23.000  7.9330e-03
8.000  23.250  7.9335e-03
8.000  23.500  7.9330e-03
8.000  23.750  7.9330e-03
8.000  24.000  7.9330e-03
8.250  17.000  1.9276e-04
8.250  17.250  3.6757e-04
8.250  17.500  7.0239e-04
8.250  17.750  1.3534e-03
8.250  18.000  2.5097e-03
8.250  18.250  4.0384e-03
8.250  18.500  5.6924e-03
8.250  18.750  6.7920e-03
8.250  19.000  7.3096e-03
8.250  19.250  7.5827e-03
8.250  19.500  7.7768e-03
8.250  19.750  7.8858e-03
8.250  20.000  7.9141e-03
8.250  20.250  7.9263e-03
8.250  20.500  7.9315e-03
8.250  20.750  7.9325e-03
8.250  21.000  7.9328e-03
8.250  21.250  7.9329e-03
8.250  21.500  7.9329e-03
8.250  21.750  7.9329e-03
8.250  22.000  7.9329e-03
8.250  22.250  7.9330e-03
8.250  22.500  7.9330e-03
8.250  22.750  7.9332e-03
8.250  23.000  7.9330e-03
8.250  23.250  7.9351e-03
8.250  23.500  7.9330e-03
8.250  23.750  7.9330e-03
8.250  24.000  7.9336e-03
8.500  17.000  1.0148e-04
8.500  17.250  1.9251e-04
8.500  17.500  3.6708e-04
8.500  17.750  7.0156e-04
8.500  18.000  1.3516e-03
8.500  18.250  2.5072e-03
8.500  18.500  4.0426e-03
8.500  18.750  5.7070e-03
8.500  19.000  6.8075e-03
8.500  19.250  7.3169e-03
8.500  19.500  7.5858e-03
8.500  19.750  7.7779e-03
8.500  20.000  7.8861e-03
8.500  20.250  7.9142e-03
8.500  20.500  7.9263e-03
8.500  20.750  7.9315e-03
8.500  21.000  7.9325e-03
8.500  21.250  7.9328e-03
8.500  21.500  7.9329e-03
8.500  21.750  7.9329e-03
8.500  22.000  7.9329e-03
8.500  22.250  7.9329e-03
8.500  22.500  7.9330e-03
8.500  22.750  7.9330e-03
8.500  23.000  7.9330e-03
8.500  23.250  7.9332e-03
8.500  23.500  7.9330e-03
8.500  23.750  7.9330e-03
8.500  24.000  7.9330e-03
8.750  17.000  5.3992e-05
8.750  17.250  1.0123e-04
8.750  17.500  1.9226e-04
8.750  17.750  3.6667e-04
8.750  18.000  7.0058e-04
8.750  18.250  1.3481e-03
8.750  18.500  2.5023e-03
8.750  18.750  4.0449e-03
8.750  19.000  5.7222e-03
8.750  19.250  6.8239e-03
8.750  19.500  7.3249e-03
8.750  19.750  7.5891e-03
8.750  20.000  7.7791e-03
8.750  20.250  7.8865e-03
8.750  20.500  7.9143e-03
8.750  20.750  7.9263e-03
8.750  21.000  7.9315e-03
8.750  21.250  7.9325e-03
8.750  21.500  7.9328e-03
8.750  21.750  7.9329e-03
8.750  22.000  7.9329e-03
8.750  22.250  7.9329e-03
8.750  22.500  7.9329e-03
8.750  22.750  7.9330e-03
8.750  23.000  7.9337e-03
8.750  23.250  7.9330e-03
8.750  23.500  7.9332e-03
8.750  23.750  7.9330e-03
8.750  24.000  7.9330e-03
9.000  17.000  2.8889e-05
9.000  17.250  5.3909e-05
9.000  17.500  1.0115e-04
9.000  17.750  1.9210e-04
9.000  18.000  3.6691e-04
9.000  18.250  7.0058e-04
9.000  18.500  1.3456e-03
9.000  18.750  2.4978e-03
9.000  19.000  4.0461e-03
9.000  19.250  5.7368e-03
9.000  19.500  6.8409e-03
9.000  19.750  7.3333e-03
9.000  20.000  7.5928e-03
9.000  20.250  7.7805e-03
9.000  20.500  7.8868e-03
9.000  20.750  7.9144e-03
9.000  21.000  7.9264e-03
9.000  21.250  7.9315e-03
9.000  21.500  7.9325e-03
9.000  21.750  7.9328e-03
9.000  22.000  7.9328e-03
9.000  22.250  7.9329e-03
9.000  22.500  7.9329e-03
9.000  22.750  7.9329e-03
9.000  23.000  7.9330e-03
9.000  23.250  7.9330e-03
9.000  23.500  7.9330e-03
9.000  23.750  7.9330e-03
9.000  24.000  7.9331e-03
9.250  17.000  1.5473e-05
9.250  17.250  2.8889e-05
9.250  17.500  5.4074e-05
9.250  17.750  1.0156e-04
9.250  18.000  1.9325e-04
9.250  18.250  3.6914e-04
9.250  18.500  7.0379e-04
9.250  18.750  1.3467e-03
9.250  19.000  2.4949e-03
9.250  19.250  4.0460e-03
9.250  19.500  5.7493e-03
9.250  19.750  6.8574e-03
9.250  20.000  7.3417e-03
9.250  20.250  7.5965e-03
9.250  20.500  7.7820e-03
9.250  20.750  7.8872e-03
9.250  21.000  7.9146e-03
9.250  21.250  7.9264e-03
9.250  21.500  7.9310e-03
9.250  21.750  7.9320e-03
9.250  22.000  7.9322e-03
9.250  22.250  7.9323e-03
9.250  22.500  7.9326e-03
9.250  22.750  7.9326e-03
9.250  23.000  7.9327e-03
9.250  23.250  7.9328e-03
9.250  23.500  7.9328e-03
9.250  23.750  7.9328e-03
9.250  24.000  7.9328e-03
9.500  17.000  8.0658e-06
9.500  17.250  1.5556e-05
9.500  17.500  2.9218e-05
9.500  17.750  5.4815e-05
9.500  18.000  1.0296e-04
9.500  18.250  1.9588e-04
9.500  18.500  3.7424e-04
9.500  18.750  7.1391e-04
9.500  19.000  1.3568e-03
9.500  19.250  2.4984e-03
9.500  19.500  4.0464e-03
9.500  19.750  5.7584e-03
9.500  20.000  6.8726e-03
9.500  20.250  7.3500e-03
9.500  20.500  7.6002e-03
9.500  20.750  7.7807e-03
9.500  21.000  7.8866e-03
9.500  21.250  7.9140e-03
9.500  21.500  7.9258e-03
9.500  21.750  7.9307e-03
9.500  22.000  7.9318e-03
9.500  22.250  7.9320e-03
9.500  22.500  7.9321e-03
9.500  22.750  7.9322e-03
9.500  23.000  7.9322e-03
9.500  23.250  7.9322e-03
9.500  23.500  7.9322e-03
9.500  23.750  7.9322e-03
9.500  24.000  7.9322e-03
9.750  17.000  4.1152e-06
9.750  17.250  8.1481e-06
9.750  17.500  1.5802e-05
9.750  17.750  2.9959e-05
9.750  18.000  5.6214e-05
9.750  18.250  1.0543e-04
9.750  18.500  2.0058e-04
9.750  18.750  3.8395e-04
9.750  19.000  7.3185e-04
9.750  19.250  1.3851e-03
9.750  19.500  2.5179e-03
9.750  19.750  4.0523e-03
9.750  20.000  5.7670e-03
9.750  20.250  6.8827e-03
9.750  20.500  7.3555e-03
9.750  20.750  7.6021e-03
9.750  21.000  7.7830e-03
9.750  21.250  7.8872e-03
9.750  21.500  7.9142e-03
9.750  21.750  7.9259e-03
9.750  22.000  7.9308e-03
9.750  22.250  7.9318e-03
9.750  22.500  7.9320e-03
9.750  22.750  7.9322e-03
9.750  23.000  7.9322e-03
9.750  23.250  7.9322e-03
9.750  23.500  7.9322e-03
9.750  23.750  7.9322e-03
9.750  24.000  7.9322e-03
10.000  17.000  1.8930e-06
10.000  17.250  4.1975e-06
10.000  17.500  8.3951e-06
10.000  17.750  1.6461e-05
10.000  18.000  3.1111e-05
10.000  18.250  5.8189e-05
10.000  18.500  1.0930e-04
10.000  18.750  2.0905e-04
10.000  19.000  4.0337e-04
10.000  19.250  7.7457e-04
10.000  19.500  1.4575e-03
10.000  19.750  2.5713e-03
10.000  20.000  4.0733e-03
10.000  20.250  5.7753e-03
10.000  20.500  6.8972e-03
10.000  20.750  7.3649e-03
10.000  21.000  7.6072e-03
10.000  21.250  7.7862e-03
10.000  21.500  7.8878e-03
10.000  21.750  7.9145e-03
10.000  22.000  7.9261e-03
10.000  22.250  7.9309e-03
10.000  22.500  7.9318e-03
10.000  22.750  7.9320e-03
10.000  23.000  7.9321e-03
10.000  23.250  7.9322e-03
10.000  23.500  7.9322e-03
10.000  23.750  7.9322e-03
10.000  24.000  7.9322e-03
10.250  17.000  9.0535e-07
10.250  17.250  1.8930e-06
10.250  17.500  4.3621e-06
10.250  17.750  8.8066e-06
10.250  18.000  1.7202e-05
10.250  18.250  3.2675e-05
10.250  18.500  6.1564e-05
10.250  18.750  1.1712e-04
10.250  19.000  2.2774e-04
10.250  19.250  4.4609e-04
10.250  19.500  8.5794e-04
10.250  19.750  1.5938e-03
10.250  20.000  2.6721e-03
10.250  20.250  4.1202e-03
10.250  20.500  5.7909e-03
10.250  20.750  6.9116e-03
10.250  21.000  7.3732e-03
10.250  21.250  7.6117e-03
10.250  21.500  7.7887e-03
10.250  21.750  7.8887e-03
10.250  22.000  7.9147e-03
10.250  22.250  7.9263e-03
10.250  22.500  7.9310e-03
10.250  22.750  7.9318e-03
10.250  23.000  7.9321e-03
10.250  23.250  7.9322e-03
10.250  23.500  7.9322e-03
10.250  23.750  7.9322e-03
10.250  24.000  7.9322e-03
10.500  17.000  1.0000e-07
10.500  17.250  9.8765e-07
10.500  17.500  2.0576e-06
10.500  17.750  4.6091e-06
10.500  18.000  9.4650e-06
10.500  18.250  1.8519e-05
10.500  18.500  3.5720e-05
10.500  18.750  6.8642e-05
10.500  19.000  1.3374e-04
10.500  19.250  2.6494e-04
10.500  19.500  5.1366e-04
10.500  19.750  9.9037e-04
10.500  20.000  1.7965e-03
10.500  20.250  2.8535e-03
10.500  20.500  4.2190e-03
10.500  20.750  5.8224e-03
10.500  21.000  6.9245e-03
10.500  21.250  7.3813e-03
10.500  21.500  7.6161e-03
10.500  21.750  7.7912e-03
10.500  22.000  7.8900e-03
10.500  22.250  7.9151e-03
10.500  22.500  7.9263e-03
10.500  22.750  7.9311e-03
10.500  23.000  7.9319e-03
10.500  23.250  7.9320e-03
10.500  23.500  7.9322e-03
10.500  23.750  7.9322e-03
10.500  24.000  7.9322e-03
10.750  17.000  1.0000e-07
10.750  17.250  1.0000e-07
10.750  17.500  9.8765e-07
10.750  17.750  2.2222e-06
10.750  18.000  5.0206e-06
10.750  18.250  1.0617e-05
10.750  18.500  2.1317e-05
10.750  18.750  4.2305e-05
10.750  19.000  8.3210e-05
10.750  19.250  1.6436e-04
10.750  19.500  3.2650e-04
10.750  19.750  6.2247e-04
10.750  20.000  1.1759e-03
10.750  20.250  2.0359e-03
10.750  20.500  3.0972e-03
10.750  20.750  4.4064e-03
10.750  21.000  5.8794e-03
10.750  21.250  6.9402e-03
10.750  21.500  7.3899e-03
10.750  21.750  7.6212e-03
10.750  22.000  7.7939e-03
10.750  22.250  7.8910e-03
10.750  22.500  7.9158e-03
10.750  22.750  7.9265e-03
10.750  23.000  7.9312e-03
10.750  23.250  7.9320e-03
10.750  23.500  7.9321e-03
10.750  23.750  7.9321e-03
10.750  24.000  7.9322e-03
11.000  17.000  1.0000e-07
11.000  17.250  1.0000e-07
11.000  17.500  1.0000e-07
11.000  17.750  1.1523e-06
11.000  18.000  2.6337e-06
11.000  18.250  5.9259e-06
11.000  18.500  1.3086e-05
11.000  18.750  2.7160e-05
11.000  19.000  5.4403e-05
11.000  19.250  1.0700e-04
11.000  19.500  2.1012e-04
11.000  19.750  4.1432e-04
11.000  20.000  7.6856e-04
11.000  20.250  1.3715e-03
11.000  20.500  2.3100e-03
11.000  20.750  3.4267e-03
11.000  21.000  4.6042e-03
11.000  21.250  5.9853e-03
11.000  21.500  6.9629e-03
11.000  21.750  7.4004e-03
11.000  22.000  7.6273e-03
11.000  22.250  7.7972e-03
11.000  22.500  7.8923e-03
11.000  22.750  7.9165e-03
11.000  23.000  7.9269e-03
11.000  23.250  7.9313e-03
11.000  23.500  7.9321e-03
11.000  23.750  7.9323e-03
11.000  24.000  7.9322e-03
11.250  17.000  1.0000e-07
11.250  17.250  1.0000e-07
11.250  17.500  1.0000e-07
11.250  17.750  1.0000e-07
11.250  18.000  1.3992e-06
11.250  18.250  3.2922e-06
11.250  18.500  7.9012e-06
11.250  18.750  1.7613e-05
11.250  19.000  3.6214e-05
11.250  19.250  7.1440e-05
11.250  19.500  1.3844e-04
11.250  19.750  2.6856e-04
11.250  20.000  5.2313e-04
11.250  20.250  9.4708e-04
11.250  20.500  1.6426e-03
11.250  20.750  2.5966e-03
11.250  21.000  3.6933e-03
11.250  21.250  4.8716e-03
11.250  21.500  6.1123e-03
11.250  21.750  6.9972e-03
11.250  22.000  7.4151e-03
11.250  22.250  7.6356e-03
11.250  22.500  7.8015e-03
11.250  22.750  7.8937e-03
11.250  23.000  7.9172e-03
11.250  23.250  7.9274e-03
11.250  23.500  7.9314e-03
11.250  23.750  7.9322e-03
11.250  24.000  7.9323e-03
11.500  17.000  1.0000e-07
11.500  17.250  1.0000e-07
11.500  17.500  1.0000e-07
11.500  17.750  1.0000e-07
11.500  18.000  1.0000e-07
11.500  18.250  1.8107e-06
11.500  18.500  4.5267e-06
11.500  18.750  1.0782e-05
11.500  19.000  2.3539e-05
11.500  19.250  4.7078e-05
11.500  19.500  9.1111e-05
11.500  19.750  1.7465e-04
11.500  20.000  3.3539e-04
11.500  20.250  6.3778e-04
11.500  20.500  1.1407e-03
11.500  20.750  1.9101e-03
11.500  21.000  2.8889e-03
11.500  21.250  3.9884e-03
11.500  21.500  5.1188e-03
11.500  21.750  6.2647e-03
11.500  22.000  7.0467e-03
11.500  22.250  7.4358e-03
11.500  22.500  7.6475e-03
11.500  22.750  7.8074e-03
11.500  23.000  7.8958e-03
11.500  23.250  7.9182e-03
11.500  23.500  7.9279e-03
11.500  23.750  7.9315e-03
11.500  24.000  7.9322e-03
11.750  17.000  1.0000e-07
11.750  17.250  1.0000e-07
11.750  17.500  1.0000e-07
11.750  17.750  1.0000e-07
11.750  18.000  1.0000e-07
11.750  18.250  9.8765e-07
11.750  18.500  2.4691e-06
11.750  18.750  6.0905e-06
11.750  19.000  1.4074e-05
11.750  19.250  2.9712e-05
11.750  19.500  5.8272e-05
11.750  19.750  1.1128e-04
11.750  20.000  2.1193e-04
11.750  20.250  4.0560e-04
11.750  20.500  7.5342e-04
11.750  20.750  1.3396e-03
11.750  21.000  2.1865e-03
11.750  21.250  3.2006e-03
11.750  21.500  4.2389e-03
11.750  21.750  5.3923e-03
11.750  22.000  6.4135e-03
11.750  22.250  7.1063e-03
11.750  22.500  7.4638e-03
11.750  22.750  7.6652e-03
11.750  23.000  7.8157e-03
11.750  23.250  7.8986e-03
11.750  23.500  7.9195e-03
11.750  23.750  7.9284e-03
11.750  24.000  7.9319e-03
12.000  17.000  1.0000e-07
12.000  17.250  1.0000e-07
12.000  17.500  1.0000e-07
12.000  17.750  1.0000e-07
12.000  18.000  1.0000e-07
12.000  18.250  1.0000e-07
12.000  18.500  1.2346e-06
12.000  18.750  3.2099e-06
12.000  19.000  7.7366e-06
12.000  19.250  1.7284e-05
12.000  19.500  3.5556e-05
12.000  19.750  6.8560e-05
12.000  20.000  1.3037e-04
12.000  20.250  2.4840e-04
12.000  20.500  4.7407e-04
12.000  20.750  8.7630e-04
12.000  21.000  1.5467e-03
12.000  21.250  2.4659e-03
12.000  21.500  3.5077e-03
12.000  21.750  4.5398e-03
12.000  22.000  5.6315e-03
12.000  22.250  6.5462e-03
12.000  22.500  7.1658e-03
12.000  22.750  7.4974e-03
12.000  23.000  7.6855e-03
12.000  23.250  7.8266e-03
12.000  23.500  7.9022e-03
12.000  23.750  7.9211e-03
12.000  24.000  7.9290e-03
12.250  17.000  1.0000e-07
12.250  17.250  1.0000e-07
12.250  17.500  1.0000e-07
12.250  17.750  1.0000e-07
12.250  18.000  1.0000e-07
12.250  18.250  1.0000e-07
12.250  18.500  1.0000e-07
12.250  18.750  1.5638e-06
12.250  19.000  3.8683e-06
12.250  19.250  9.1358e-06
12.250  19.500  2.0000e-05
12.250  19.750  4.0576e-05
12.250  20.000  7.7942e-05
12.250  20.250  1.4823e-04
12.250  20.500  2.8346e-04
12.250  20.750  5.4016e-04
12.250  21.000  1.0006e-03
12.250  21.250  1.7512e-03
12.250  21.500  2.7311e-03
12.250  21.750  3.7962e-03
12.250  22.000  4.7956e-03
12.250  22.250  5.8267e-03
12.250  22.500  6.6594e-03
12.250  22.750  7.2213e-03
12.250  23.000  7.5319e-03
12.250  23.250  7.7084e-03
12.250  23.500  7.8392e-03
12.250  23.750  7.9063e-03
12.250  24.000  7.9227e-03
12.500  17.000  1.0000e-07
12.500  17.250  1.0000e-07
12.500  17.500  1.0000e-07
12.500  17.750  1.0000e-07
12.500  18.000  1.0000e-07
12.500  18.250  1.0000e-07
12.500  18.500  1.0000e-07
12.500  18.750  1.0000e-07
12.500  19.000  1.8930e-06
12.500  19.250  4.4444e-06
12.500  19.500  1.0206e-05
12.500  19.750  2.2140e-05
12.500  20.000  4.4856e-05
12.500  20.250  8.6255e-05
12.500  20.500  1.6527e-04
12.500  20.750  3.1802e-04
12.500  21.000  6.0798e-04
12.500  21.250  1.1255e-03
12.500  21.500  1.9447e-03
12.500  21.750  2.9709e-03
12.500  22.000  4.0477e-03
12.500  22.250  5.0208e-03
12.500  22.500  5.9986e-03
12.500  22.750  6.7761e-03
12.500  23.000  7.2695e-03
12.500  23.250  7.5613e-03
12.500  23.500  7.7304e-03
12.500  23.750  7.8517e-03
12.500  24.000  7.9104e-03
12.750  17.000  1.0000e-07
12.750  17.250  1.0000e-07
12.750  17.500  1.0000e-07
12.750  17.750  1.0000e-07
12.750  18.000  1.0000e-07
12.750  18.250  1.0000e-07
12.750  18.500  1.0000e-07
12.750  18.750  1.0000e-07
12.750  19.000  9.0535e-07
12.750  19.250  2.0576e-06
12.750  19.500  4.7737e-06
12.750  19.750  1.0947e-05
12.750  20.000  2.3786e-05
12.750  20.250  4.8477e-05
12.750  20.500  9.4074e-05
12.750  20.750  1.8272e-04
12.750  21.000  3.5539e-04
12.750  21.250  6.7712e-04
12.750  21.500  1.2386e-03
12.750  21.750  2.1232e-03
12.750  22.000  3.1791e-03
12.750  22.250  4.2556e-03
12.750  22.500  5.2175e-03
12.750  22.750  6.1532e-03
12.750  23.000  6.8563e-03
12.750  23.250  7.3101e-03
12.750  23.500  7.5859e-03
12.750  23.750  7.7492e-03
12.750  24.000  7.8626e-03
13.000  17.000  1.0000e-07
13.000  17.250  1.0000e-07
13.000  17.500  1.0000e-07
13.000  17.750  1.0000e-07
13.000  18.000  1.0000e-07
13.000  18.250  1.0000e-07
13.000  18.500  1.0000e-07
13.000  18.750  1.0000e-07
13.000  19.000  1.0000e-07
13.000  19.250  9.8765e-07
13.000  19.500  2.1399e-06
13.000  19.750  4.8560e-06
13.000  20.000  1.1358e-05
13.000  20.250  2.4938e-05
13.000  20.500  5.1770e-05
13.000  20.750  1.0189e-04
13.000  21.000  1.9984e-04
13.000  21.250  3.9160e-04
13.000  21.500  7.3852e-04
13.000  21.750  1.3574e-03
13.000  22.000  2.2756e-03
13.000  22.250  3.3653e-03
13.000  22.500  4.4435e-03
13.000  22.750  5.3825e-03
13.000  23.000  6.2546e-03
13.000  23.250  6.9190e-03
13.000  23.500  7.3430e-03
13.000  23.750  7.6061e-03
13.000  24.000  7.7644e-03
13.250  17.000  1.0000e-07
13.250  17.250  1.0000e-07
13.250  17.500  1.0000e-07
13.250  17.750  1.0000e-07
13.250  18.000  1.0000e-07
13.250  18.250  1.0000e-07
13.250  18.500  1.0000e-07
13.250  18.750  1.0000e-07
13.250  19.000  1.0000e-07
13.250  19.250  1.0000e-07
13.250  19.500  9.8765e-07
13.250  19.750  2.1399e-06
13.250  20.000  4.9383e-06
13.250  20.250  1.1358e-05
13.250  20.500  2.5514e-05
13.250  20.750  5.3827e-05
13.250  21.000  1.0889e-04
13.250  21.250  2.1580e-04
13.250  21.500  4.1844e-04
13.250  21.750  7.8724e-04
13.250  22.000  1.4579e-03
13.250  22.250  2.4300e-03
13.250  22.500  3.5356e-03
13.250  22.750  4.6091e-03
13.250  23.000  5.5174e-03
13.250  23.250  6.3182e-03
13.250  23.500  6.9533e-03
13.250  23.750  7.3716e-03
13.250  24.000  7.6224e-03
13.500  17.000  1.0000e-07
13.500  17.250  1.0000e-07
13.500  17.500  1.0000e-07
13.500  17.750  1.0000e-07
13.500  18.000  1.0000e-07
13.500  18.250  1.0000e-07
13.500  18.500  1.0000e-07
13.500  18.750  1.0000e-07
13.500  19.000  1.0000e-07
13.500  19.250  1.0000e-07
13.500  19.500  1.0000e-07
13.500  19.750  9.8765e-07
13.500  20.000  2.1399e-06
13.500  20.250  4.9383e-06
13.500  20.500  1.1440e-05
13.500  20.750  2.5761e-05
13.500  21.000  5.4156e-05
13.500  21.250  1.1202e-04
13.500  21.500  2.2107e-04
13.500  21.750  4.3391e-04
13.500  22.000  8.3202e-04
13.500  22.250  1.5576e-03
13.500  22.500  2.5925e-03
13.500  22.750  3.7250e-03
13.500  23.000  4.7553e-03
13.500  23.250  5.6308e-03
13.500  23.500  6.4095e-03
13.500  23.750  7.0072e-03
13.500  24.000  7.3948e-03
13.750  17.000  1.0000e-07
13.750  17.250  1.0000e-07
13.750  17.500  1.0000e-07
13.750  17.750  1.0000e-07
13.750  18.000  1.0000e-07
13.750  18.250  1.0000e-07
13.750  18.500  1.0000e-07
13.750  18.750  1.0000e-07
13.750  19.000  1.0000e-07
13.750  19.250  1.0000e-07
13.750  19.500  1.0000e-07
13.750  19.750  1.0000e-07
13.750  20.000  1.0700e-06
13.750  20.250  2.2222e-06
13.750  20.500  5.0206e-06
13.750  20.750  1.1605e-05
13.750  21.000  2.6091e-05
13.750  21.250  5.4897e-05
13.750  21.500  1.1226e-04
13.750  21.750  2.2634e-04
13.750  22.000  4.4724e-04
13.750  22.250  8.8198e-04
13.750  22.500  1.6761e-03
13.750  22.750  2.7793e-03
13.750  23.000  3.9275e-03
13.750  23.250  4.8891e-03
13.750  23.500  5.7296e-03
13.750  23.750  6.4798e-03
13.750  24.000  7.0514e-03
14.000  17.000  1.0000e-07
14.000  17.250  1.0000e-07
14.000  17.500  1.0000e-07
14.000  17.750  1.0000e-07
14.000  18.000  1.0000e-07
14.000  18.250  1.0000e-07
14.000  18.500  1.0000e-07
14.000  18.750  1.0000e-07
14.000  19.000  1.0000e-07
14.000  19.250  1.0000e-07
14.000  19.500  1.0000e-07
14.000  19.750  1.0000e-07
14.000  20.000  1.0000e-07
14.000  20.250  1.0700e-06
14.000  20.500  2.3868e-06
14.000  20.750  5.2675e-06
14.000  21.000  1.2099e-05
14.000  21.250  2.7078e-05
14.000  21.500  5.6626e-05
14.000  21.750  1.1481e-04
14.000  22.000  2.2955e-04
14.000  22.250  4.6305e-04
14.000  22.500  9.3160e-04
14.000  22.750  1.7691e-03
14.000  23.000  2.9501e-03
14.000  23.250  4.1202e-03
14.000  23.500  5.0272e-03
14.000  23.750  5.8316e-03
14.000  24.000  6.5607e-03
