InwC 1356.96A  relative to Inci 1215.00A scaled to 1215A.
Hden   Phi(H)  Eq_Width (A)
7.000  17.000  7.9491e-03
7.000  17.250  7.9524e-03
7.000  17.500  7.9557e-03
7.000  17.750  7.9591e-03
7.000  18.000  7.9624e-03
7.000  18.250  7.9653e-03
7.000  18.500  7.9673e-03
7.000  18.750  7.9683e-03
7.000  19.000  7.9693e-03
7.000  19.250  7.9700e-03
7.000  19.500  7.9702e-03
7.000  19.750  7.9703e-03
7.000  20.000  7.9704e-03
7.000  20.250  7.9705e-03
7.000  20.500  7.9705e-03
7.000  20.750  7.9705e-03
7.000  21.000  7.9705e-03
7.000  21.250  7.9705e-03
7.000  21.500  7.9706e-03
7.000  21.750  7.9705e-03
7.000  22.000  7.9705e-03
7.000  22.250  7.9705e-03
7.000  22.500  7.9705e-03
7.000  22.750  7.9707e-03
7.000  23.000  7.9707e-03
7.000  23.250  7.9705e-03
7.000  23.500  7.9705e-03
7.000  23.750  7.9705e-03
7.000  24.000  7.9705e-03
7.250  17.000  7.9358e-03
7.250  17.250  7.9491e-03
7.250  17.500  7.9524e-03
7.250  17.750  7.9557e-03
7.250  18.000  7.9591e-03
7.250  18.250  7.9625e-03
7.250  18.500  7.9653e-03
7.250  18.750  7.9673e-03
7.250  19.000  7.9683e-03
7.250  19.250  7.9692e-03
7.250  19.500  7.9700e-03
7.250  19.750  7.9702e-03
7.250  20.000  7.9703e-03
7.250  20.250  7.9704e-03
7.250  20.500  7.9704e-03
7.250  20.750  7.9705e-03
7.250  21.000  7.9705e-03
7.250  21.250  7.9705e-03
7.250  21.500  7.9705e-03
7.250  21.750  7.9720e-03
7.250  22.000  7.9705e-03
7.250  22.250  7.9705e-03
7.250  22.500  7.9705e-03
7.250  22.750  7.9713e-03
7.250  23.000  7.9713e-03
7.250  23.250  7.9705e-03
7.250  23.500  7.9705e-03
7.250  23.750  7.9705e-03
7.250  24.000  7.9705e-03
7.500  17.000  7.6030e-03
7.500  17.250  7.9365e-03
7.500  17.500  7.9491e-03
7.500  17.750  7.9524e-03
7.500  18.000  7.9557e-03
7.500  18.250  7.9591e-03
7.500  18.500  7.9625e-03
7.500  18.750  7.9653e-03
7.500  19.000  7.9673e-03
7.500  19.250  7.9683e-03
7.500  19.500  7.9693e-03
7.500  19.750  7.9700e-03
7.500  20.000  7.9702e-03
7.500  20.250  7.9703e-03
7.500  20.500  7.9704e-03
7.500  20.750  7.9704e-03
7.500  21.000  7.9704e-03
7.500  21.250  7.9705e-03
7.500  21.500  7.9705e-03
7.500  21.750  7.9705e-03
7.500  22.000  7.9705e-03
7.500  22.250  7.9705e-03
7.500  22.500  7.9705e-03
7.500  22.750  7.9705e-03
7.500  23.000  7.9709e-03
7.500  23.250  7.9713e-03
7.500  23.500  7.9705e-03
7.500  23.750  7.9714e-03
7.500  24.000  7.9705e-03
7.750  17.000  8.3623e-03
7.750  17.250  7.6047e-03
7.750  17.500  7.9370e-03
7.750  17.750  7.9491e-03
7.750  18.000  7.9524e-03
7.750  18.250  7.9558e-03
7.750  18.500  7.9591e-03
7.750  18.750  7.9625e-03
7.750  19.000  7.9653e-03
7.750  19.250  7.9673e-03
7.750  19.500  7.9683e-03
7.750  19.750  7.9693e-03
7.750  20.000  7.9700e-03
7.750  20.250  7.9702e-03
7.750  20.500  7.9703e-03
7.750  20.750  7.9704e-03
7.750  21.000  7.9704e-03
7.750  21.250  7.9704e-03
7.750  21.500  7.9704e-03
7.750  21.750  7.9705e-03
7.750  22.000  7.9705e-03
7.750  22.250  7.9705e-03
7.750  22.500  7.9705e-03
7.750  22.750  7.9707e-03
7.750  23.000  7.9707e-03
7.750  23.250  7.9705e-03
7.750  23.500  7.9713e-03
7.750  23.750  7.9713e-03
7.750  24.000  7.9705e-03
8.000  17.000  1.3003e-02
8.000  17.250  8.4509e-03
8.000  17.500  4.5555e-03
8.000  17.750  1.4032e-03
8.000  18.000  -1.0622e-03
8.000  18.250  -2.8968e-03
8.000  18.500  -4.1570e-03
8.000  18.750  -4.8987e-03
8.000  19.000  -5.1783e-03
8.000  19.250  -5.0519e-03
8.000  19.500  -4.5758e-03
8.000  19.750  -3.8060e-03
8.000  20.000  -2.7988e-03
8.000  20.250  -1.6103e-03
8.000  20.500  -2.9686e-04
8.000  20.750  1.0855e-03
8.000  21.000  2.4805e-03
8.000  21.250  3.8320e-03
8.000  21.500  5.0838e-03
8.000  21.750  6.1798e-03
8.000  22.000  7.0636e-03
8.000  22.250  7.6792e-03
8.000  22.500  7.9704e-03
8.000  22.750  7.9706e-03
8.000  23.000  7.9705e-03
8.000  23.250  7.9709e-03
8.000  23.500  7.9705e-03
8.000  23.750  7.9705e-03
8.000  24.000  7.9705e-03
8.250  17.000  1.6648e-02
8.250  17.250  1.2943e-02
8.250  17.500  8.4329e-03
8.250  17.750  7.6030e-03
8.250  18.000  7.9360e-03
8.250  18.250  7.9491e-03
8.250  18.500  7.9524e-03
8.250  18.750  7.9558e-03
8.250  19.000  7.9592e-03
8.250  19.250  7.9625e-03
8.250  19.500  7.9653e-03
8.250  19.750  7.9673e-03
8.250  20.000  7.9683e-03
8.250  20.250  7.9693e-03
8.250  20.500  7.9700e-03
8.250  20.750  7.9702e-03
8.250  21.000  7.9703e-03
8.250  21.250  7.9704e-03
8.250  21.500  7.9704e-03
8.250  21.750  7.9704e-03
8.250  22.000  7.9704e-03
8.250  22.250  7.9704e-03
8.250  22.500  7.9704e-03
8.250  22.750  7.9706e-03
8.250  23.000  7.9704e-03
8.250  23.250  7.9725e-03
8.250  23.500  7.9704e-03
8.250  23.750  7.9704e-03
8.250  24.000  7.9710e-03
8.500  17.000  1.9330e-02
8.500  17.250  1.6551e-02
8.500  17.500  1.2870e-02
8.500  17.750  8.4079e-03
8.500  18.000  7.6039e-03
8.500  18.250  7.9364e-03
8.500  18.500  7.9491e-03
8.500  18.750  7.8856e-03
8.500  19.000  7.8427e-03
8.500  19.250  7.8177e-03
8.500  19.500  7.8080e-03
8.500  19.750  7.8109e-03
8.500  20.000  7.8238e-03
8.500  20.250  7.8440e-03
8.500  20.500  7.8688e-03
8.500  20.750  7.8957e-03
8.500  21.000  7.9220e-03
8.500  21.250  7.9450e-03
8.500  21.500  7.9620e-03
8.500  21.750  7.9704e-03
8.500  22.000  7.9704e-03
8.500  22.250  7.9704e-03
8.500  22.500  7.9704e-03
8.500  22.750  7.9704e-03
8.500  23.000  7.9704e-03
8.500  23.250  7.9706e-03
8.500  23.500  7.9704e-03
8.500  23.750  7.9704e-03
8.500  24.000  7.9704e-03
8.750  17.000  2.1260e-02
8.750  17.250  1.9228e-02
8.750  17.500  1.6426e-02
8.750  17.750  1.2818e-02
8.750  18.000  8.3626e-03
8.750  18.250  7.6044e-03
8.750  18.500  7.9364e-03
8.750  18.750  8.2176e-03
8.750  19.000  8.4236e-03
8.750  19.250  8.5625e-03
8.750  19.500  8.6426e-03
8.750  19.750  8.6720e-03
8.750  20.000  8.6588e-03
8.750  20.250  8.6112e-03
8.750  20.500  8.5374e-03
8.750  20.750  8.4455e-03
8.750  21.000  8.3436e-03
8.750  21.250  8.2399e-03
8.750  21.500  8.1426e-03
8.750  21.750  8.0598e-03
8.750  22.000  7.9997e-03
8.750  22.250  7.9704e-03
8.750  22.500  7.9704e-03
8.750  22.750  7.9704e-03
8.750  23.000  7.9712e-03
8.750  23.250  7.9704e-03
8.750  23.500  7.9706e-03
8.750  23.750  7.9704e-03
8.750  24.000  7.9704e-03
9.000  17.000  2.2624e-02
9.000  17.250  2.1153e-02
9.000  17.500  1.9069e-02
9.000  17.750  1.6213e-02
9.000  18.000  1.2590e-02
9.000  18.250  8.2205e-03
9.000  18.500  7.6044e-03
9.000  18.750  7.9360e-03
9.000  19.000  7.9489e-03
9.000  19.250  7.9524e-03
9.000  19.500  7.9559e-03
9.000  19.750  7.9593e-03
9.000  20.000  7.9626e-03
9.000  20.250  7.9653e-03
9.000  20.500  7.9673e-03
9.000  20.750  7.9683e-03
9.000  21.000  7.9693e-03
9.000  21.250  7.9700e-03
9.000  21.500  7.9702e-03
9.000  21.750  7.9703e-03
9.000  22.000  7.9703e-03
9.000  22.250  7.9704e-03
9.000  22.500  7.9704e-03
9.000  22.750  7.9704e-03
9.000  23.000  7.9704e-03
9.000  23.250  7.9704e-03
9.000  23.500  7.9704e-03
9.000  23.750  7.9704e-03
9.000  24.000  7.9705e-03
9.250  17.000  2.3580e-02
9.250  17.250  2.2520e-02
9.250  17.500  2.0974e-02
9.250  17.750  1.8776e-02
9.250  18.000  1.5826e-02
9.250  18.250  1.2160e-02
9.250  18.500  7.8989e-03
9.250  18.750  7.6034e-03
9.250  19.000  7.9352e-03
9.250  19.250  7.9487e-03
9.250  19.500  7.9524e-03
9.250  19.750  7.9560e-03
9.250  20.000  7.9593e-03
9.250  20.250  7.9626e-03
9.250  20.500  7.9653e-03
9.250  20.750  7.9673e-03
9.250  21.000  7.9683e-03
9.250  21.250  7.9693e-03
9.250  21.500  7.9695e-03
9.250  21.750  7.9696e-03
9.250  22.000  7.9696e-03
9.250  22.250  7.9698e-03
9.250  22.500  7.9700e-03
9.250  22.750  7.9700e-03
9.250  23.000  7.9701e-03
9.250  23.250  7.9702e-03
9.250  23.500  7.9702e-03
9.250  23.750  7.9702e-03
9.250  24.000  7.9703e-03
9.500  17.000  2.4246e-02
9.500  17.250  2.3476e-02
9.500  17.500  2.2334e-02
9.500  17.750  2.0654e-02
9.500  18.000  1.8277e-02
9.500  18.250  1.5119e-02
9.500  18.500  1.1311e-02
9.500  18.750  8.6115e-03
9.500  19.000  7.6012e-03
9.500  19.250  7.9335e-03
9.500  19.500  7.9484e-03
9.500  19.750  7.9523e-03
9.500  20.000  7.9560e-03
9.500  20.250  7.9593e-03
9.500  20.500  7.9626e-03
9.500  20.750  7.9649e-03
9.500  21.000  7.9668e-03
9.500  21.250  7.9678e-03
9.500  21.500  7.9686e-03
9.500  21.750  7.9691e-03
9.500  22.000  7.9694e-03
9.500  22.250  7.9695e-03
9.500  22.500  7.9695e-03
9.500  22.750  7.9695e-03
9.500  23.000  7.9695e-03
9.500  23.250  7.9695e-03
9.500  23.500  7.9696e-03
9.500  23.750  7.9696e-03
9.500  24.000  7.9696e-03
9.750  17.000  2.4709e-02
9.750  17.250  2.4147e-02
9.750  17.500  2.3303e-02
9.750  17.750  2.2016e-02
9.750  18.000  2.0078e-02
9.750  18.250  1.7405e-02
9.750  18.500  1.3947e-02
9.750  18.750  9.8376e-03
9.750  19.000  7.3914e-03
9.750  19.250  7.5971e-03
9.750  19.500  7.9303e-03
9.750  19.750  7.9480e-03
9.750  20.000  7.9522e-03
9.750  20.250  7.9560e-03
9.750  20.500  7.9593e-03
9.750  20.750  7.9626e-03
9.750  21.000  7.9650e-03
9.750  21.250  7.9669e-03
9.750  21.500  7.9678e-03
9.750  21.750  7.9687e-03
9.750  22.000  7.9691e-03
9.750  22.250  7.9695e-03
9.750  22.500  7.9695e-03
9.750  22.750  7.9695e-03
9.750  23.000  7.9695e-03
9.750  23.250  7.9695e-03
9.750  23.500  7.9695e-03
9.750  23.750  7.9695e-03
9.750  24.000  7.9695e-03
10.000  17.000  2.5034e-02
10.000  17.250  2.4616e-02
10.000  17.500  2.3982e-02
10.000  17.750  2.2987e-02
10.000  18.000  2.1423e-02
10.000  18.250  1.9172e-02
10.000  18.500  1.6192e-02
10.000  18.750  1.2590e-02
10.000  19.000  8.7112e-03
10.000  19.250  7.3878e-03
10.000  19.500  7.5911e-03
10.000  19.750  7.9247e-03
10.000  20.000  8.1452e-03
10.000  20.250  8.2684e-03
10.000  20.500  8.3128e-03
10.000  20.750  8.2972e-03
10.000  21.000  8.2400e-03
10.000  21.250  8.1600e-03
10.000  21.500  8.0757e-03
10.000  21.750  8.0058e-03
10.000  22.000  7.9688e-03
10.000  22.250  7.9693e-03
10.000  22.500  7.9694e-03
10.000  22.750  7.9695e-03
10.000  23.000  7.9695e-03
10.000  23.250  7.9696e-03
10.000  23.500  7.9696e-03
10.000  23.750  7.9696e-03
10.000  24.000  7.9696e-03
10.250  17.000  2.5261e-02
10.250  17.250  2.4946e-02
10.250  17.500  2.4457e-02
10.250  17.750  2.3672e-02
10.250  18.000  2.2413e-02
10.250  18.250  2.0587e-02
10.250  18.500  1.8092e-02
10.250  18.750  1.4920e-02
10.250  19.000  1.1096e-02
10.250  19.250  8.4454e-03
10.250  19.500  7.3864e-03
10.250  19.750  7.5848e-03
10.250  20.000  7.9167e-03
10.250  20.250  7.9462e-03
10.250  20.500  7.9517e-03
10.250  20.750  7.9559e-03
10.250  21.000  7.9594e-03
10.250  21.250  7.9627e-03
10.250  21.500  7.9653e-03
10.250  21.750  7.9670e-03
10.250  22.000  7.9679e-03
10.250  22.250  7.9688e-03
10.250  22.500  7.9694e-03
10.250  22.750  7.9694e-03
10.250  23.000  7.9695e-03
10.250  23.250  7.9695e-03
10.250  23.500  7.9695e-03
10.250  23.750  7.9696e-03
10.250  24.000  7.9696e-03
10.500  17.000  2.5420e-02
10.500  17.250  2.5174e-02
10.500  17.500  2.4787e-02
10.500  17.750  2.4152e-02
10.500  18.000  2.3129e-02
10.500  18.250  2.1633e-02
10.500  18.500  1.9655e-02
10.500  18.750  1.7030e-02
10.500  19.000  1.3773e-02
10.500  19.250  9.7830e-03
10.500  19.500  7.7530e-03
10.500  19.750  7.3866e-03
10.500  20.000  7.5794e-03
10.500  20.250  7.9072e-03
10.500  20.500  7.9448e-03
10.500  20.750  7.9511e-03
10.500  21.000  7.9557e-03
10.500  21.250  7.9594e-03
10.500  21.500  7.9627e-03
10.500  21.750  7.9653e-03
10.500  22.000  7.9672e-03
10.500  22.250  7.9680e-03
10.500  22.500  7.9688e-03
10.500  22.750  7.9695e-03
10.500  23.000  7.9695e-03
10.500  23.250  7.9695e-03
10.500  23.500  7.9695e-03
10.500  23.750  7.9696e-03
10.500  24.000  7.9696e-03
10.750  17.000  2.5529e-02
10.750  17.250  2.5330e-02
10.750  17.500  2.5012e-02
10.750  17.750  2.4478e-02
10.750  18.000  2.3641e-02
10.750  18.250  2.2466e-02
10.750  18.500  2.0914e-02
10.750  18.750  1.8897e-02
10.750  19.000  1.6235e-02
10.750  19.250  1.2794e-02
10.750  19.500  8.7579e-03
10.750  19.750  7.2714e-03
10.750  20.000  7.3877e-03
10.750  20.250  7.5762e-03
10.750  20.500  7.8993e-03
10.750  20.750  7.9434e-03
10.750  21.000  7.9505e-03
10.750  21.250  7.9556e-03
10.750  21.500  7.9594e-03
10.750  21.750  7.9627e-03
10.750  22.000  7.9653e-03
10.750  22.250  7.9672e-03
10.750  22.500  7.9681e-03
10.750  22.750  7.9689e-03
10.750  23.000  7.9695e-03
10.750  23.250  7.9696e-03
10.750  23.500  7.9695e-03
10.750  23.750  7.9695e-03
10.750  24.000  7.9696e-03
11.000  17.000  2.5597e-02
11.000  17.250  2.5432e-02
11.000  17.500  2.5152e-02
11.000  17.750  2.4690e-02
11.000  18.000  2.4005e-02
11.000  18.250  2.3093e-02
11.000  18.500  2.1934e-02
11.000  18.750  2.0397e-02
11.000  19.000  1.8313e-02
11.000  19.250  1.5510e-02
11.000  19.500  1.1890e-02
11.000  19.750  9.2446e-03
11.000  20.000  7.8376e-03
11.000  20.250  7.3890e-03
11.000  20.500  7.5769e-03
11.000  20.750  7.8972e-03
11.000  21.000  7.9416e-03
11.000  21.250  7.9496e-03
11.000  21.500  7.9553e-03
11.000  21.750  7.9593e-03
11.000  22.000  7.9626e-03
11.000  22.250  7.9653e-03
11.000  22.500  7.9673e-03
11.000  22.750  7.9682e-03
11.000  23.000  7.9691e-03
11.000  23.250  7.9695e-03
11.000  23.500  7.9697e-03
11.000  23.750  7.9697e-03
11.000  24.000  7.9696e-03
11.250  17.000  2.5630e-02
11.250  17.250  2.5485e-02
11.250  17.500  2.5221e-02
11.250  17.750  2.4806e-02
11.250  18.000  2.4235e-02
11.250  18.250  2.3546e-02
11.250  18.500  2.2691e-02
11.250  18.750  2.1530e-02
11.250  19.000  1.9963e-02
11.250  19.250  1.7815e-02
11.250  19.500  1.4892e-02
11.250  19.750  1.1019e-02
11.250  20.000  7.1951e-03
11.250  20.250  7.2742e-03
11.250  20.500  7.3940e-03
11.250  20.750  7.5840e-03
11.250  21.000  7.9054e-03
11.250  21.250  7.9406e-03
11.250  21.500  7.9488e-03
11.250  21.750  7.9549e-03
11.250  22.000  7.9592e-03
11.250  22.250  7.9626e-03
11.250  22.500  7.9653e-03
11.250  22.750  7.9673e-03
11.250  23.000  7.9683e-03
11.250  23.250  7.9692e-03
11.250  23.500  7.9695e-03
11.250  23.750  7.9697e-03
11.250  24.000  7.9698e-03
11.500  17.000  2.5631e-02
11.500  17.250  2.5485e-02
11.500  17.500  2.5223e-02
11.500  17.750  2.4828e-02
11.500  18.000  2.4344e-02
11.500  18.250  2.3825e-02
11.500  18.500  2.3208e-02
11.500  18.750  2.2374e-02
11.500  19.000  2.1223e-02
11.500  19.250  1.9616e-02
11.500  19.500  1.7373e-02
11.500  19.750  1.4291e-02
11.500  20.000  1.0201e-02
11.500  20.250  7.1202e-03
11.500  20.500  7.2767e-03
11.500  20.750  7.3995e-03
11.500  21.000  7.6035e-03
11.500  21.250  7.9194e-03
11.500  21.500  7.9390e-03
11.500  21.750  7.9480e-03
11.500  22.000  7.9545e-03
11.500  22.250  7.9590e-03
11.500  22.500  7.9626e-03
11.500  22.750  7.9653e-03
11.500  23.000  7.9673e-03
11.500  23.250  7.9683e-03
11.500  23.500  7.9692e-03
11.500  23.750  7.9696e-03
11.500  24.000  7.9697e-03
11.750  17.000  2.5591e-02
11.750  17.250  2.5429e-02
11.750  17.500  2.5146e-02
11.750  17.750  2.4745e-02
11.750  18.000  2.4339e-02
11.750  18.250  2.3956e-02
11.750  18.500  2.3528e-02
11.750  18.750  2.2956e-02
11.750  19.000  2.2128e-02
11.750  19.250  2.0961e-02
11.750  19.500  1.9301e-02
11.750  19.750  1.6980e-02
11.750  20.000  1.3744e-02
11.750  20.250  9.4663e-03
11.750  20.500  7.1575e-03
11.750  20.750  7.2822e-03
11.750  21.000  7.4155e-03
11.750  21.250  7.6523e-03
11.750  21.500  7.9220e-03
11.750  21.750  7.9374e-03
11.750  22.000  7.9469e-03
11.750  22.250  7.9541e-03
11.750  22.500  7.9588e-03
11.750  22.750  7.9624e-03
11.750  23.000  7.9652e-03
11.750  23.250  7.9672e-03
11.750  23.500  7.9683e-03
11.750  23.750  7.9693e-03
11.750  24.000  7.9698e-03
12.000  17.000  2.5491e-02
12.000  17.250  2.5288e-02
12.000  17.500  2.4951e-02
12.000  17.750  2.4545e-02
12.000  18.000  2.4221e-02
12.000  18.250  2.3962e-02
12.000  18.500  2.3679e-02
12.000  18.750  2.3295e-02
12.000  19.000  2.2733e-02
12.000  19.250  2.1916e-02
12.000  19.500  2.0728e-02
12.000  19.750  1.9027e-02
12.000  20.000  1.6617e-02
12.000  20.250  1.3267e-02
12.000  20.500  8.8415e-03
12.000  20.750  7.1524e-03
12.000  21.000  7.2933e-03
12.000  21.250  7.4602e-03
12.000  21.500  7.7402e-03
12.000  21.750  7.9206e-03
12.000  22.000  7.9362e-03
12.000  22.250  7.9463e-03
12.000  22.500  7.9535e-03
12.000  22.750  7.9586e-03
12.000  23.000  7.9622e-03
12.000  23.250  7.9651e-03
12.000  23.500  7.9672e-03
12.000  23.750  7.9683e-03
12.000  24.000  7.9693e-03
12.250  17.000  2.5213e-02
12.250  17.250  2.4953e-02
12.250  17.500  2.4569e-02
12.250  17.750  2.4219e-02
12.250  18.000  2.4009e-02
12.250  18.250  2.3851e-02
12.250  18.500  2.3683e-02
12.250  18.750  2.3442e-02
12.250  19.000  2.3084e-02
12.250  19.250  2.2542e-02
12.250  19.500  2.1731e-02
12.250  19.750  2.0521e-02
12.250  20.000  1.8790e-02
12.250  20.250  1.6306e-02
12.250  20.500  1.2829e-02
12.250  20.750  8.2358e-03
12.250  21.000  7.1537e-03
12.250  21.250  7.3201e-03
12.250  21.500  7.5264e-03
12.250  21.750  7.8453e-03
12.250  22.000  7.9183e-03
12.250  22.250  7.9332e-03
12.250  22.500  7.9447e-03
12.250  22.750  7.9529e-03
12.250  23.000  7.9583e-03
12.250  23.250  7.9621e-03
12.250  23.500  7.9650e-03
12.250  23.750  7.9672e-03
12.250  24.000  7.9682e-03
12.500  17.000  2.4518e-02
12.500  17.250  2.4235e-02
12.500  17.500  2.3939e-02
12.500  17.750  2.3784e-02
12.500  18.000  2.3694e-02
12.500  18.250  2.3625e-02
12.500  18.500  2.3546e-02
12.500  18.750  2.3429e-02
12.500  19.000  2.3235e-02
12.500  19.250  2.2906e-02
12.500  19.500  2.2386e-02
12.500  19.750  2.1573e-02
12.500  20.000  2.0353e-02
12.500  20.250  1.8580e-02
12.500  20.500  1.6009e-02
12.500  20.750  1.2437e-02
12.500  21.000  7.8278e-03
12.500  21.250  7.1721e-03
12.500  21.500  7.3632e-03
12.500  21.750  7.6077e-03
12.500  22.000  7.8934e-03
12.500  22.250  7.9157e-03
12.500  22.500  7.9308e-03
12.500  22.750  7.9431e-03
12.500  23.000  7.9520e-03
12.500  23.250  7.9579e-03
12.500  23.500  7.9618e-03
12.500  23.750  7.9649e-03
12.500  24.000  7.9672e-03
12.750  17.000  1.7979e-02
12.750  17.250  2.2919e-02
12.750  17.500  2.3257e-02
12.750  17.750  2.3276e-02
12.750  18.000  2.3271e-02
12.750  18.250  2.3270e-02
12.750  18.500  2.3276e-02
12.750  18.750  2.3263e-02
12.750  19.000  2.3202e-02
12.750  19.250  2.3052e-02
12.750  19.500  2.2758e-02
12.750  19.750  2.2248e-02
12.750  20.000  2.1433e-02
12.750  20.250  2.0198e-02
12.750  20.500  1.8369e-02
12.750  20.750  1.5732e-02
12.750  21.000  1.1985e-02
12.750  21.250  7.2484e-03
12.750  21.500  7.1970e-03
12.750  21.750  7.4249e-03
12.750  22.000  7.6947e-03
12.750  22.250  7.8936e-03
12.750  22.500  7.9134e-03
12.750  22.750  7.9291e-03
12.750  23.000  7.9418e-03
12.750  23.250  7.9510e-03
12.750  23.500  7.9573e-03
12.750  23.750  7.9614e-03
12.750  24.000  7.9647e-03
13.000  17.000  9.0111e-03
13.000  17.250  1.6249e-02
13.000  17.500  2.1228e-02
13.000  17.750  2.2683e-02
13.000  18.000  2.2729e-02
13.000  18.250  2.2787e-02
13.000  18.500  2.2868e-02
13.000  18.750  2.2951e-02
13.000  19.000  2.3009e-02
13.000  19.250  2.3006e-02
13.000  19.500  2.2895e-02
13.000  19.750  2.2624e-02
13.000  20.000  2.2124e-02
13.000  20.250  2.1304e-02
13.000  20.500  2.0037e-02
13.000  20.750  1.8150e-02
13.000  21.000  1.5395e-02
13.000  21.250  1.1495e-02
13.000  21.500  6.9335e-03
13.000  21.750  7.2407e-03
13.000  22.000  7.4785e-03
13.000  22.250  7.7600e-03
13.000  22.500  7.8924e-03
13.000  22.750  7.9118e-03
13.000  23.000  7.9277e-03
13.000  23.250  7.9404e-03
13.000  23.500  7.9500e-03
13.000  23.750  7.9565e-03
13.000  24.000  7.9609e-03
13.250  17.000  5.5394e-03
13.250  17.250  1.0245e-02
13.250  17.500  1.8984e-02
13.250  17.750  2.1979e-02
13.250  18.000  2.2066e-02
13.250  18.250  2.2164e-02
13.250  18.500  2.2313e-02
13.250  18.750  2.2492e-02
13.250  19.000  2.2661e-02
13.250  19.250  2.2788e-02
13.250  19.500  2.2831e-02
13.250  19.750  2.2749e-02
13.250  20.000  2.2492e-02
13.250  20.250  2.1990e-02
13.250  20.500  2.1149e-02
13.250  20.750  1.9838e-02
13.250  21.000  1.7861e-02
13.250  21.250  1.4994e-02
13.250  21.500  1.1151e-02
13.250  21.750  6.9524e-03
13.250  22.000  7.2603e-03
13.250  22.250  7.5174e-03
13.250  22.500  7.7802e-03
13.250  22.750  7.8910e-03
13.250  23.000  7.9101e-03
13.250  23.250  7.9258e-03
13.250  23.500  7.9391e-03
13.250  23.750  7.9491e-03
13.250  24.000  7.9556e-03
13.500  17.000  3.3791e-03
13.500  17.250  6.4365e-03
13.500  17.500  1.2782e-02
13.500  17.750  1.9093e-02
13.500  18.000  2.1278e-02
13.500  18.250  2.1413e-02
13.500  18.500  2.1614e-02
13.500  18.750  2.1881e-02
13.500  19.000  2.2158e-02
13.500  19.250  2.2407e-02
13.500  19.500  2.2585e-02
13.500  19.750  2.2660e-02
13.500  20.000  2.2597e-02
13.500  20.250  2.2344e-02
13.500  20.500  2.1827e-02
13.500  20.750  2.0957e-02
13.500  21.000  1.9596e-02
13.500  21.250  1.7521e-02
13.500  21.500  1.4675e-02
13.500  21.750  1.0698e-02
13.500  22.000  6.9744e-03
13.500  22.250  7.2599e-03
13.500  22.500  7.5075e-03
13.500  22.750  7.7681e-03
13.500  23.000  7.8887e-03
13.500  23.250  7.9077e-03
13.500  23.500  7.9244e-03
13.500  23.750  7.9379e-03
13.500  24.000  7.9477e-03
13.750  17.000  2.0812e-03
13.750  17.250  3.9728e-03
13.750  17.500  8.3623e-03
13.750  17.750  1.3981e-02
13.750  18.000  2.0005e-02
13.750  18.250  2.0472e-02
13.750  18.500  2.0760e-02
13.750  18.750  2.1120e-02
13.750  19.000  2.1497e-02
13.750  19.250  2.1865e-02
13.750  19.500  2.2174e-02
13.750  19.750  2.2391e-02
13.750  20.000  2.2487e-02
13.750  20.250  2.2427e-02
13.750  20.500  2.2162e-02
13.750  20.750  2.1617e-02
13.750  21.000  2.0689e-02
13.750  21.250  1.9236e-02
13.750  21.500  1.7153e-02
13.750  21.750  1.4066e-02
13.750  22.000  1.0054e-02
13.750  22.250  6.9942e-03
13.750  22.500  7.2369e-03
13.750  22.750  7.4948e-03
13.750  23.000  7.7608e-03
13.750  23.250  7.8848e-03
13.750  23.500  7.9047e-03
13.750  23.750  7.9223e-03
13.750  24.000  7.9360e-03
14.000  17.000  1.2621e-03
14.000  17.250  2.4677e-03
14.000  17.500  5.2223e-03
14.000  17.750  9.6897e-03
14.000  18.000  1.5369e-02
14.000  18.250  1.9359e-02
14.000  18.500  1.9690e-02
14.000  18.750  2.0148e-02
14.000  19.000  2.0661e-02
14.000  19.250  2.1161e-02
14.000  19.500  2.1601e-02
14.000  19.750  2.1954e-02
14.000  20.000  2.2194e-02
14.000  20.250  2.2298e-02
14.000  20.500  2.2226e-02
14.000  20.750  2.1928e-02
14.000  21.000  2.1328e-02
14.000  21.250  2.0298e-02
14.000  21.500  1.8782e-02
14.000  21.750  1.6427e-02
14.000  22.000  1.3091e-02
14.000  22.250  9.1112e-03
14.000  22.500  7.0036e-03
14.000  22.750  7.2195e-03
14.000  23.000  7.4779e-03
14.000  23.250  7.7682e-03
14.000  23.500  7.8784e-03
14.000  23.750  7.8994e-03
14.000  24.000  7.9188e-03
