nFnu 511.948A  relative to Inci 1215.00A scaled to 1215A.
Hden   Phi(H)  Eq_Width (A)
7.000  17.000  3.9856e-02
7.000  17.250  3.7142e-02
7.000  17.500  2.9709e-02
7.000  17.750  2.0499e-02
7.000  18.000  1.4410e-02
7.000  18.250  1.0799e-02
7.000  18.500  8.8036e-03
7.000  18.750  8.0626e-03
7.000  19.000  7.7023e-03
7.000  19.250  7.5111e-03
7.000  19.500  7.3976e-03
7.000  19.750  7.3298e-03
7.000  20.000  7.2985e-03
7.000  20.250  7.2945e-03
7.000  20.500  7.3085e-03
7.000  20.750  7.3314e-03
7.000  21.000  7.3540e-03
7.000  21.250  7.3671e-03
7.000  21.500  7.3669e-03
7.000  21.750  7.3666e-03
7.000  22.000  7.3665e-03
7.000  22.250  7.3664e-03
7.000  22.500  7.3664e-03
7.000  22.750  7.3666e-03
7.000  23.000  7.3666e-03
7.000  23.250  7.3663e-03
7.000  23.500  7.3663e-03
7.000  23.750  7.3663e-03
7.000  24.000  7.3663e-03
7.250  17.000  3.7616e-02
7.250  17.250  3.8842e-02
7.250  17.500  3.6614e-02
7.250  17.750  2.9429e-02
7.250  18.000  2.0339e-02
7.250  18.250  1.4326e-02
7.250  18.500  1.0759e-02
7.250  18.750  8.7899e-03
7.250  19.000  8.0575e-03
7.250  19.250  7.7006e-03
7.250  19.500  7.5108e-03
7.250  19.750  7.4310e-03
7.250  20.000  7.3896e-03
7.250  20.250  7.3674e-03
7.250  20.500  7.3593e-03
7.250  20.750  7.3601e-03
7.250  21.000  7.3646e-03
7.250  21.250  7.3677e-03
7.250  21.500  7.3671e-03
7.250  21.750  7.3682e-03
7.250  22.000  7.3666e-03
7.250  22.250  7.3665e-03
7.250  22.500  7.3664e-03
7.250  22.750  7.3672e-03
7.250  23.000  7.3671e-03
7.250  23.250  7.3663e-03
7.250  23.500  7.3663e-03
7.250  23.750  7.3663e-03
7.250  24.000  7.3663e-03
7.500  17.000  2.3960e-02
7.500  17.250  3.6629e-02
7.500  17.500  3.8258e-02
7.500  17.750  3.6329e-02
7.500  18.000  2.9277e-02
7.500  18.250  2.0238e-02
7.500  18.500  1.4273e-02
7.500  18.750  1.0734e-02
7.500  19.000  8.7809e-03
7.500  19.250  8.0542e-03
7.500  19.500  7.6994e-03
7.500  19.750  7.5105e-03
7.500  20.000  7.3951e-03
7.500  20.250  7.3223e-03
7.500  20.500  7.2843e-03
7.500  20.750  7.2737e-03
7.500  21.000  7.2830e-03
7.500  21.250  7.3044e-03
7.500  21.500  7.3306e-03
7.500  21.750  7.3539e-03
7.500  22.000  7.3667e-03
7.500  22.250  7.3666e-03
7.500  22.500  7.3665e-03
7.500  22.750  7.3664e-03
7.500  23.000  7.3667e-03
7.500  23.250  7.3671e-03
7.500  23.500  7.3663e-03
7.500  23.750  7.3672e-03
7.500  24.000  7.3663e-03
7.750  17.000  9.6448e-03
7.750  17.250  2.3630e-02
7.750  17.500  3.6073e-02
7.750  17.750  3.7920e-02
7.750  18.000  3.6190e-02
7.750  18.250  2.9208e-02
7.750  18.500  2.0174e-02
7.750  18.750  1.4239e-02
7.750  19.000  1.0718e-02
7.750  19.250  8.7752e-03
7.750  19.500  8.0520e-03
7.750  19.750  7.6987e-03
7.750  20.000  7.5103e-03
7.750  20.250  7.3982e-03
7.750  20.500  7.3311e-03
7.750  20.750  7.3001e-03
7.750  21.000  7.2960e-03
7.750  21.250  7.3097e-03
7.750  21.500  7.3321e-03
7.750  21.750  7.3543e-03
7.750  22.000  7.3670e-03
7.750  22.250  7.3667e-03
7.750  22.500  7.3666e-03
7.750  22.750  7.3667e-03
7.750  23.000  7.3667e-03
7.750  23.250  7.3664e-03
7.750  23.500  7.3671e-03
7.750  23.750  7.3671e-03
7.750  24.000  7.3663e-03
8.000  17.000  6.4566e-03
8.000  17.250  9.5105e-03
8.000  17.500  2.3278e-02
8.000  17.750  3.5758e-02
8.000  18.000  3.7717e-02
8.000  18.250  3.6139e-02
8.000  18.500  2.9191e-02
8.000  18.750  2.0131e-02
8.000  19.000  1.4216e-02
8.000  19.250  1.0708e-02
8.000  19.500  8.7718e-03
8.000  19.750  8.0508e-03
8.000  20.000  7.6982e-03
8.000  20.250  7.5102e-03
8.000  20.500  7.4309e-03
8.000  20.750  7.3929e-03
8.000  21.000  7.3757e-03
8.000  21.250  7.3710e-03
8.000  21.500  7.3706e-03
8.000  21.750  7.3686e-03
8.000  22.000  7.3676e-03
8.000  22.250  7.3670e-03
8.000  22.500  7.3667e-03
8.000  22.750  7.3667e-03
8.000  23.000  7.3664e-03
8.000  23.250  7.3668e-03
8.000  23.500  7.3663e-03
8.000  23.750  7.3663e-03
8.000  24.000  7.3663e-03
8.250  17.000  4.4584e-03
8.250  17.250  6.4119e-03
8.250  17.500  9.4618e-03
8.250  17.750  2.3121e-02
8.250  18.000  3.5528e-02
8.250  18.250  3.7578e-02
8.250  18.500  3.6141e-02
8.250  18.750  2.9205e-02
8.250  19.000  2.0102e-02
8.250  19.250  1.4199e-02
8.250  19.500  1.0702e-02
8.250  19.750  8.7696e-03
8.250  20.000  8.0500e-03
8.250  20.250  7.6979e-03
8.250  20.500  7.5101e-03
8.250  20.750  7.4309e-03
8.250  21.000  7.3968e-03
8.250  21.250  7.3815e-03
8.250  21.500  7.3742e-03
8.250  21.750  7.3706e-03
8.250  22.000  7.3686e-03
8.250  22.250  7.3676e-03
8.250  22.500  7.3670e-03
8.250  22.750  7.3668e-03
8.250  23.000  7.3665e-03
8.250  23.250  7.3683e-03
8.250  23.500  7.3663e-03
8.250  23.750  7.3663e-03
8.250  24.000  7.3668e-03
8.500  17.000  3.1858e-03
8.500  17.250  4.4322e-03
8.500  17.500  6.3828e-03
8.500  17.750  9.4189e-03
8.500  18.000  2.2991e-02
8.500  18.250  3.5321e-02
8.500  18.500  3.7470e-02
8.500  18.750  3.6177e-02
8.500  19.000  2.9241e-02
8.500  19.250  2.0079e-02
8.500  19.500  1.4187e-02
8.500  19.750  1.0697e-02
8.500  20.000  8.7681e-03
8.500  20.250  8.0495e-03
8.500  20.500  7.6978e-03
8.500  20.750  7.5101e-03
8.500  21.000  7.4309e-03
8.500  21.250  7.3968e-03
8.500  21.500  7.3815e-03
8.500  21.750  7.3742e-03
8.500  22.000  7.3706e-03
8.500  22.250  7.3686e-03
8.500  22.500  7.3676e-03
8.500  22.750  7.3670e-03
8.500  23.000  7.3667e-03
8.500  23.250  7.3667e-03
8.500  23.500  7.3664e-03
8.500  23.750  7.3663e-03
8.500  24.000  7.3663e-03
8.750  17.000  2.3578e-03
8.750  17.250  3.1781e-03
8.750  17.500  4.4220e-03
8.750  17.750  6.3631e-03
8.750  18.000  9.3894e-03
8.750  18.250  2.2850e-02
8.750  18.500  3.5110e-02
8.750  18.750  3.7359e-02
8.750  19.000  3.6230e-02
8.750  19.250  2.9288e-02
8.750  19.500  2.0059e-02
8.750  19.750  1.4176e-02
8.750  20.000  1.0694e-02
8.750  20.250  8.7672e-03
8.750  20.500  8.0493e-03
8.750  20.750  7.6977e-03
8.750  21.000  7.5101e-03
8.750  21.250  7.4309e-03
8.750  21.500  7.3967e-03
8.750  21.750  7.3815e-03
8.750  22.000  7.3742e-03
8.750  22.250  7.3705e-03
8.750  22.500  7.3686e-03
8.750  22.750  7.3676e-03
8.750  23.000  7.3677e-03
8.750  23.250  7.3667e-03
8.750  23.500  7.3667e-03
8.750  23.750  7.3664e-03
8.750  24.000  7.3663e-03
9.000  17.000  1.7733e-03
9.000  17.250  2.3753e-03
9.000  17.500  3.1908e-03
9.000  17.750  4.4237e-03
9.000  18.000  6.3567e-03
9.000  18.250  9.3652e-03
9.000  18.500  2.2720e-02
9.000  18.750  3.4893e-02
9.000  19.000  3.7232e-02
9.000  19.250  3.6277e-02
9.000  19.500  2.9339e-02
9.000  19.750  2.0041e-02
9.000  20.000  1.4167e-02
9.000  20.250  1.0691e-02
9.000  20.500  8.7665e-03
9.000  20.750  8.0492e-03
9.000  21.000  7.6977e-03
9.000  21.250  7.5101e-03
9.000  21.500  7.4309e-03
9.000  21.750  7.3967e-03
9.000  22.000  7.3815e-03
9.000  22.250  7.3742e-03
9.000  22.500  7.3705e-03
9.000  22.750  7.3686e-03
9.000  23.000  7.3676e-03
9.000  23.250  7.3670e-03
9.000  23.500  7.3667e-03
9.000  23.750  7.3665e-03
9.000  24.000  7.3665e-03
9.250  17.000  1.3201e-03
9.250  17.250  1.8108e-03
9.250  17.500  2.4187e-03
9.250  17.750  3.2314e-03
9.250  18.000  4.4582e-03
9.250  18.250  6.3838e-03
9.250  18.500  9.3824e-03
9.250  18.750  2.2659e-02
9.250  19.000  3.4670e-02
9.250  19.250  3.7075e-02
9.250  19.500  3.6296e-02
9.250  19.750  2.9385e-02
9.250  20.000  2.0025e-02
9.250  20.250  1.4160e-02
9.250  20.500  1.0688e-02
9.250  20.750  8.7659e-03
9.250  21.000  8.0491e-03
9.250  21.250  7.6977e-03
9.250  21.500  7.5096e-03
9.250  21.750  7.4304e-03
9.250  22.000  7.3961e-03
9.250  22.250  7.3810e-03
9.250  22.500  7.3739e-03
9.250  22.750  7.3702e-03
9.250  23.000  7.3684e-03
9.250  23.250  7.3674e-03
9.250  23.500  7.3668e-03
9.250  23.750  7.3665e-03
9.250  24.000  7.3664e-03
9.500  17.000  9.4436e-04
9.500  17.250  1.3661e-03
9.500  17.500  1.8788e-03
9.500  17.750  2.5001e-03
9.500  18.000  3.3124e-03
9.500  18.250  4.5349e-03
9.500  18.500  6.4711e-03
9.500  18.750  9.5499e-03
9.500  19.000  2.2749e-02
9.500  19.250  3.4473e-02
9.500  19.500  3.6891e-02
9.500  19.750  3.6271e-02
9.500  20.000  2.9422e-02
9.500  20.250  2.0011e-02
9.500  20.500  1.4154e-02
9.500  20.750  1.0687e-02
9.500  21.000  8.7649e-03
9.500  21.250  8.0486e-03
9.500  21.500  7.6970e-03
9.500  21.750  7.5094e-03
9.500  22.000  7.4302e-03
9.500  22.250  7.3960e-03
9.500  22.500  7.3807e-03
9.500  22.750  7.3735e-03
9.500  23.000  7.3699e-03
9.500  23.250  7.3679e-03
9.500  23.500  7.3669e-03
9.500  23.750  7.3663e-03
9.500  24.000  7.3660e-03
9.750  17.000  6.2881e-04
9.750  17.250  9.8099e-04
9.750  17.500  1.4384e-03
9.750  17.750  1.9858e-03
9.750  18.000  2.6226e-03
9.750  18.250  3.4421e-03
9.750  18.500  4.6885e-03
9.750  18.750  6.6945e-03
9.750  19.000  1.0868e-02
9.750  19.250  2.3091e-02
9.750  19.500  3.4359e-02
9.750  19.750  3.6698e-02
9.750  20.000  3.6210e-02
9.750  20.250  2.9444e-02
9.750  20.500  2.0000e-02
9.750  20.750  1.4150e-02
9.750  21.000  1.0685e-02
9.750  21.250  8.7644e-03
9.750  21.500  8.0486e-03
9.750  21.750  7.6971e-03
9.750  22.000  7.5094e-03
9.750  22.250  7.4302e-03
9.750  22.500  7.3960e-03
9.750  22.750  7.3808e-03
9.750  23.000  7.3735e-03
9.750  23.250  7.3698e-03
9.750  23.500  7.3679e-03
9.750  23.750  7.3668e-03
9.750  24.000  7.3663e-03
10.000  17.000  3.7218e-04
10.000  17.250  6.4979e-04
10.000  17.500  1.0397e-03
10.000  17.750  1.5426e-03
10.000  18.000  2.1271e-03
10.000  18.250  2.7917e-03
10.000  18.500  3.6506e-03
10.000  18.750  4.9821e-03
10.000  19.000  7.1402e-03
10.000  19.250  1.4123e-02
10.000  19.500  2.3947e-02
10.000  19.750  3.4425e-02
10.000  20.000  3.6539e-02
10.000  20.250  3.6118e-02
10.000  20.500  2.9460e-02
10.000  20.750  1.9994e-02
10.000  21.000  1.4149e-02
10.000  21.250  1.0685e-02
10.000  21.500  8.7640e-03
10.000  21.750  8.0486e-03
10.000  22.000  7.6972e-03
10.000  22.250  7.5095e-03
10.000  22.500  7.4302e-03
10.000  22.750  7.3960e-03
10.000  23.000  7.3807e-03
10.000  23.250  7.3736e-03
10.000  23.500  7.3699e-03
10.000  23.750  7.3679e-03
10.000  24.000  7.3668e-03
10.250  17.000  2.2123e-04
10.250  17.250  3.8420e-04
10.250  17.500  6.9037e-04
10.250  17.750  1.1227e-03
10.250  18.000  1.6768e-03
10.250  18.250  2.3168e-03
10.250  18.500  3.0471e-03
10.250  18.750  4.0157e-03
10.250  19.000  5.5226e-03
10.250  19.250  7.9055e-03
10.250  19.500  1.7331e-02
10.250  19.750  2.5504e-02
10.250  20.000  3.4773e-02
10.250  20.250  3.6501e-02
10.250  20.500  3.6022e-02
10.250  20.750  2.9469e-02
10.250  21.000  1.9992e-02
10.250  21.250  1.4150e-02
10.250  21.500  1.0685e-02
10.250  21.750  8.7637e-03
10.250  22.000  8.0487e-03
10.250  22.250  7.6973e-03
10.250  22.500  7.5095e-03
10.250  22.750  7.4302e-03
10.250  23.000  7.3960e-03
10.250  23.250  7.3808e-03
10.250  23.500  7.3735e-03
10.250  23.750  7.3699e-03
10.250  24.000  7.3679e-03
10.500  17.000  1.3506e-04
10.500  17.250  2.2823e-04
10.500  17.500  4.1193e-04
10.500  17.750  7.5490e-04
10.500  18.000  1.2426e-03
10.500  18.250  1.8720e-03
10.500  18.500  2.6012e-03
10.500  18.750  3.4460e-03
10.500  19.000  4.5756e-03
10.500  19.250  6.3317e-03
10.500  19.500  1.0093e-02
10.500  19.750  1.9910e-02
10.500  20.000  2.7240e-02
10.500  20.250  3.5603e-02
10.500  20.500  3.6683e-02
10.500  20.750  3.5961e-02
10.500  21.000  2.9466e-02
10.500  21.250  1.9995e-02
10.500  21.500  1.4155e-02
10.500  21.750  1.0685e-02
10.500  22.000  8.7636e-03
10.500  22.250  8.0488e-03
10.500  22.500  7.6974e-03
10.500  22.750  7.5096e-03
10.500  23.000  7.4303e-03
10.500  23.250  7.3960e-03
10.500  23.500  7.3808e-03
10.500  23.750  7.3736e-03
10.500  24.000  7.3699e-03
10.750  17.000  8.6914e-05
10.750  17.250  1.3967e-04
10.750  17.500  2.4872e-04
10.750  17.750  4.7259e-04
10.750  18.000  8.6658e-04
10.750  18.250  1.4413e-03
10.750  18.500  2.1648e-03
10.750  18.750  2.9960e-03
10.750  19.000  3.9777e-03
10.750  19.250  5.3202e-03
10.750  19.500  7.3970e-03
10.750  19.750  1.5664e-02
10.750  20.000  2.2812e-02
10.750  20.250  2.9428e-02
10.750  20.500  3.7207e-02
10.750  20.750  3.7243e-02
10.750  21.000  3.5975e-02
10.750  21.250  2.9458e-02
10.750  21.500  2.0003e-02
10.750  21.750  1.4162e-02
10.750  22.000  1.0687e-02
10.750  22.250  8.7635e-03
10.750  22.500  8.0491e-03
10.750  22.750  7.6975e-03
10.750  23.000  7.5097e-03
10.750  23.250  7.4304e-03
10.750  23.500  7.3960e-03
10.750  23.750  7.3807e-03
10.750  24.000  7.3735e-03
11.000  17.000  5.9424e-05
11.000  17.250  8.9794e-05
11.000  17.500  1.5358e-04
11.000  17.750  2.9638e-04
11.000  18.000  5.7860e-04
11.000  18.250  1.0407e-03
11.000  18.500  1.7015e-03
11.000  18.750  2.5207e-03
11.000  19.000  3.4581e-03
11.000  19.250  4.6152e-03
11.000  19.500  6.2523e-03
11.000  19.750  8.7654e-03
11.000  20.000  1.8767e-02
11.000  20.250  2.5551e-02
11.000  20.500  3.2741e-02
11.000  20.750  3.9988e-02
11.000  21.000  3.8404e-02
11.000  21.250  3.6144e-02
11.000  21.500  2.9449e-02
11.000  21.750  2.0017e-02
11.000  22.000  1.4173e-02
11.000  22.250  1.0691e-02
11.000  22.500  8.7631e-03
11.000  22.750  8.0494e-03
11.000  23.000  7.6978e-03
11.000  23.250  7.5097e-03
11.000  23.500  7.4305e-03
11.000  23.750  7.3962e-03
11.000  24.000  7.3808e-03
11.250  17.000  4.2716e-05
11.250  17.250  6.0576e-05
11.250  17.500  9.8354e-05
11.250  17.750  1.8626e-04
11.250  18.000  3.7687e-04
11.250  18.250  7.1284e-04
11.250  18.500  1.2380e-03
11.250  18.750  1.9848e-03
11.250  19.000  2.8973e-03
11.250  19.250  3.9706e-03
11.250  19.500  5.3737e-03
11.250  19.750  7.4111e-03
11.250  20.000  1.0384e-02
11.250  20.250  2.3010e-02
11.250  20.500  3.0701e-02
11.250  20.750  3.7329e-02
11.250  21.000  4.3968e-02
11.250  21.250  4.0367e-02
11.250  21.500  3.6571e-02
11.250  21.750  2.9447e-02
11.250  22.000  2.0038e-02
11.250  22.250  1.4188e-02
11.250  22.500  1.0695e-02
11.250  22.750  8.7629e-03
11.250  23.000  8.0496e-03
11.250  23.250  7.6981e-03
11.250  23.500  7.5097e-03
11.250  23.750  7.4305e-03
11.250  24.000  7.3963e-03
11.500  17.000  3.2346e-05
11.500  17.250  4.3045e-05
11.500  17.500  6.5432e-05
11.500  17.750  1.1687e-04
11.500  18.000  2.3580e-04
11.500  18.250  4.6535e-04
11.500  18.500  8.4387e-04
11.500  18.750  1.4333e-03
11.500  19.000  2.2720e-03
11.500  19.250  3.2925e-03
11.500  19.500  4.5508e-03
11.500  19.750  6.2991e-03
11.500  20.000  8.8502e-03
11.500  20.250  1.8274e-02
11.500  20.500  2.7511e-02
11.500  20.750  3.6163e-02
11.500  21.000  4.3530e-02
11.500  21.250  4.9219e-02
11.500  21.500  4.3133e-02
11.500  21.750  3.7292e-02
11.500  22.000  2.9463e-02
11.500  22.250  2.0065e-02
11.500  22.500  1.4206e-02
11.500  22.750  1.0702e-02
11.500  23.000  8.7626e-03
11.500  23.250  8.0498e-03
11.500  23.500  7.6984e-03
11.500  23.750  7.5099e-03
11.500  24.000  7.4305e-03
11.750  17.000  2.5597e-05
11.750  17.250  3.2099e-05
11.750  17.500  4.5432e-05
11.750  17.750  7.4568e-05
11.750  18.000  1.4181e-04
11.750  18.250  2.8551e-04
11.750  18.500  5.4667e-04
11.750  18.750  9.6683e-04
11.750  19.000  1.6264e-03
11.750  19.250  2.5684e-03
11.750  19.500  3.7240e-03
11.750  19.750  5.2423e-03
11.750  20.000  7.4385e-03
11.750  20.250  1.0641e-02
11.750  20.500  2.2212e-02
11.750  20.750  3.3251e-02
11.750  21.000  4.3647e-02
11.750  21.250  5.2031e-02
11.750  21.500  5.4949e-02
11.750  21.750  4.6619e-02
11.750  22.000  3.8450e-02
11.750  22.250  2.9507e-02
11.750  22.500  2.0099e-02
11.750  22.750  1.4229e-02
11.750  23.000  1.0711e-02
11.750  23.250  8.7623e-03
11.750  23.500  8.0500e-03
11.750  23.750  7.6986e-03
11.750  24.000  7.5101e-03
12.000  17.000  2.0905e-05
12.000  17.250  2.4938e-05
12.000  17.500  3.2922e-05
12.000  17.750  4.9465e-05
12.000  18.000  8.5679e-05
12.000  18.250  1.6576e-04
12.000  18.500  3.3012e-04
12.000  18.750  6.2165e-04
12.000  19.000  1.0854e-03
12.000  19.250  1.8243e-03
12.000  19.500  2.8830e-03
12.000  19.750  4.2202e-03
12.000  20.000  6.0985e-03
12.000  20.250  8.8666e-03
12.000  20.500  1.2800e-02
12.000  20.750  2.7878e-02
12.000  21.000  4.0584e-02
12.000  21.250  5.3726e-02
12.000  21.500  6.3164e-02
12.000  21.750  6.1213e-02
12.000  22.000  5.0584e-02
12.000  22.250  3.9901e-02
12.000  22.500  2.9584e-02
12.000  22.750  2.0136e-02
12.000  23.000  1.4253e-02
12.000  23.250  1.0723e-02
12.000  23.500  8.7620e-03
12.000  23.750  8.0501e-03
12.000  24.000  7.6988e-03
12.250  17.000  1.7613e-05
12.250  17.250  2.0165e-05
12.250  17.500  2.4856e-05
12.250  17.750  3.4403e-05
12.250  18.000  5.4074e-05
12.250  18.250  9.6543e-05
12.250  18.500  1.8823e-04
12.250  18.750  3.7391e-04
12.250  19.000  6.9325e-04
12.250  19.250  1.2053e-03
12.250  19.500  2.0354e-03
12.250  19.750  3.2421e-03
12.250  20.000  4.8377e-03
12.250  20.250  7.1982e-03
12.250  20.500  1.0680e-02
12.250  20.750  1.5462e-02
12.250  21.000  3.4833e-02
12.250  21.250  5.0374e-02
12.250  21.500  6.6624e-02
12.250  21.750  7.6097e-02
12.250  22.000  6.7811e-02
12.250  22.250  5.3154e-02
12.250  22.500  4.0553e-02
12.250  22.750  2.9693e-02
12.250  23.000  2.0172e-02
12.250  23.250  1.4279e-02
12.250  23.500  1.0735e-02
12.250  23.750  8.7612e-03
12.250  24.000  8.0502e-03
12.500  17.000  1.4815e-05
12.500  17.250  1.6708e-05
12.500  17.500  1.9753e-05
12.500  17.750  2.5103e-05
12.500  18.000  3.6214e-05
12.500  18.250  5.8848e-05
12.500  18.500  1.0757e-04
12.500  18.750  2.1169e-04
12.500  19.000  4.1671e-04
12.500  19.250  7.6329e-04
12.500  19.500  1.3261e-03
12.500  19.750  2.2747e-03
12.500  20.000  3.6690e-03
12.500  20.250  5.6220e-03
12.500  20.500  8.6190e-03
12.500  20.750  1.3010e-02
12.500  21.000  1.8956e-02
12.500  21.250  4.3784e-02
12.500  21.500  6.3306e-02
12.500  21.750  8.2295e-02
12.500  22.000  8.7985e-02
12.500  22.250  7.3344e-02
12.500  22.500  5.6757e-02
12.500  22.750  4.2310e-02
12.500  23.000  2.9819e-02
12.500  23.250  2.0201e-02
12.500  23.500  1.4304e-02
12.500  23.750  1.0748e-02
12.500  24.000  8.7598e-03
12.750  17.000  1.2510e-05
12.750  17.250  1.3827e-05
12.750  17.500  1.5802e-05
12.750  17.750  1.9342e-05
12.750  18.000  2.5844e-05
12.750  18.250  3.8354e-05
12.750  18.500  6.4280e-05
12.750  18.750  1.1984e-04
12.750  19.000  2.3638e-04
12.750  19.250  4.5720e-04
12.750  19.500  8.2609e-04
12.750  19.750  1.4509e-03
12.750  20.000  2.5298e-03
12.750  20.250  4.1965e-03
12.750  20.500  6.6258e-03
12.750  20.750  1.0466e-02
12.750  21.000  1.6102e-02
12.750  21.250  2.3516e-02
12.750  21.500  5.4806e-02
12.750  21.750  8.0440e-02
12.750  22.000  1.0042e-01
12.750  22.250  1.0056e-01
12.750  22.500  8.0435e-02
12.750  22.750  6.0993e-02
12.750  23.000  4.3642e-02
12.750  23.250  2.9938e-02
12.750  23.500  2.0220e-02
12.750  23.750  1.4327e-02
12.750  24.000  1.0760e-02
13.000  17.000  1.0617e-05
13.000  17.250  1.1523e-05
13.000  17.500  1.2840e-05
13.000  17.750  1.5144e-05
13.000  18.000  1.9259e-05
13.000  18.250  2.6831e-05
13.000  18.500  4.1564e-05
13.000  18.750  7.1523e-05
13.000  19.000  1.3325e-04
13.000  19.250  2.5770e-04
13.000  19.500  4.8486e-04
13.000  19.750  8.7432e-04
13.000  20.000  1.5608e-03
13.000  20.250  2.7817e-03
13.000  20.500  4.8216e-03
13.000  20.750  7.8431e-03
13.000  21.000  1.2610e-02
13.000  21.250  1.9757e-02
13.000  21.500  2.8671e-02
13.000  21.750  7.0895e-02
13.000  22.000  9.8635e-02
13.000  22.250  1.1897e-01
13.000  22.500  1.1275e-01
13.000  22.750  8.6757e-02
13.000  23.000  6.4001e-02
13.000  23.250  4.4695e-02
13.000  23.500  3.0044e-02
13.000  23.750  2.0228e-02
13.000  24.000  1.4343e-02
13.250  17.000  8.9712e-06
13.250  17.250  9.6296e-06
13.250  17.500  1.0617e-05
13.250  17.750  1.2181e-05
13.250  18.000  1.4897e-05
13.250  18.250  1.9753e-05
13.250  18.500  2.8971e-05
13.250  18.750  4.6584e-05
13.250  19.000  8.0905e-05
13.250  19.250  1.4831e-04
13.250  19.500  2.7646e-04
13.250  19.750  5.1218e-04
13.250  20.000  9.2288e-04
13.250  20.250  1.6510e-03
13.250  20.500  3.0178e-03
13.250  20.750  5.3512e-03
13.250  21.000  9.0949e-03
13.250  21.250  1.4877e-02
13.250  21.500  2.3098e-02
13.250  21.750  4.0129e-02
13.250  22.000  8.5592e-02
13.250  22.250  1.1865e-01
13.250  22.500  1.3814e-01
13.250  22.750  1.2529e-01
13.250  23.000  9.3251e-02
13.250  23.250  6.4878e-02
13.250  23.500  4.4737e-02
13.250  23.750  3.0122e-02
13.250  24.000  2.0219e-02
13.500  17.000  7.6543e-06
13.500  17.250  8.0658e-06
13.500  17.500  8.8066e-06
13.500  17.750  9.9588e-06
13.500  18.000  1.1852e-05
13.500  18.250  1.5309e-05
13.500  18.500  2.1564e-05
13.500  18.750  3.3086e-05
13.500  19.000  5.4568e-05
13.500  19.250  9.4403e-05
13.500  19.500  1.6905e-04
13.500  19.750  3.0905e-04
13.500  20.000  5.6140e-04
13.500  20.250  1.0066e-03
13.500  20.500  1.7941e-03
13.500  20.750  3.2416e-03
13.500  21.000  5.7016e-03
13.500  21.250  1.0008e-02
13.500  21.500  1.6244e-02
13.500  21.750  2.5684e-02
13.500  22.000  5.0180e-02
13.500  22.250  9.9097e-02
13.500  22.500  1.3962e-01
13.500  22.750  1.5975e-01
13.500  23.000  1.3815e-01
13.500  23.250  1.0045e-01
13.500  23.500  6.9115e-02
13.500  23.750  4.6143e-02
13.500  24.000  3.0141e-02
13.750  17.000  6.5021e-06
13.750  17.250  6.8313e-06
13.750  17.500  7.4074e-06
13.750  17.750  8.2305e-06
13.750  18.000  9.7119e-06
13.750  18.250  1.2181e-05
13.750  18.500  1.6790e-05
13.750  18.750  2.5103e-05
13.750  19.000  4.0329e-05
13.750  19.250  6.7737e-05
13.750  19.500  1.1671e-04
13.750  19.750  2.0626e-04
13.750  20.000  3.7136e-04
13.750  20.250  6.6798e-04
13.750  20.500  1.1791e-03
13.750  20.750  2.0567e-03
13.750  21.000  3.6154e-03
13.750  21.250  6.3221e-03
13.750  21.500  1.0925e-02
13.750  21.750  1.8297e-02
13.750  22.000  2.8879e-02
13.750  22.250  6.2265e-02
13.750  22.500  1.1864e-01
13.750  22.750  1.6478e-01
13.750  23.000  1.8275e-01
13.750  23.250  1.5075e-01
13.750  23.500  1.0584e-01
13.750  23.750  7.1253e-02
13.750  24.000  4.6671e-02
14.000  17.000  5.5967e-06
14.000  17.250  5.8436e-06
14.000  17.500  6.1728e-06
14.000  17.750  6.9136e-06
14.000  18.000  8.0658e-06
14.000  18.250  1.0041e-05
14.000  18.500  1.3580e-05
14.000  18.750  2.0000e-05
14.000  19.000  3.1770e-05
14.000  19.250  5.2840e-05
14.000  19.500  9.0123e-05
14.000  19.750  1.5539e-04
14.000  20.000  2.7226e-04
14.000  20.250  4.8354e-04
14.000  20.500  8.5844e-04
14.000  20.750  1.4905e-03
14.000  21.000  2.5462e-03
14.000  21.250  4.3820e-03
14.000  21.500  7.4860e-03
14.000  21.750  1.2811e-02
14.000  22.000  2.1084e-02
14.000  22.250  3.3688e-02
14.000  22.500  7.9466e-02
14.000  22.750  1.3958e-01
14.000  23.000  1.9233e-01
14.000  23.250  2.0608e-01
14.000  23.500  1.6323e-01
14.000  23.750  1.1060e-01
14.000  24.000  7.3254e-02
