InwC 760.023A  relative to Inci 1215.00A scaled to 1215A.
Hden   Phi(H)  Eq_Width (A)
7.000  17.000  4.7077e-03
7.000  17.250  6.0890e-03
7.000  17.500  6.9520e-03
7.000  17.750  7.3602e-03
7.000  18.000  7.5692e-03
7.000  18.250  7.7128e-03
7.000  18.500  7.7918e-03
7.000  18.750  7.8120e-03
7.000  19.000  7.8209e-03
7.000  19.250  7.8247e-03
7.000  19.500  7.8255e-03
7.000  19.750  7.8258e-03
7.000  20.000  7.8258e-03
7.000  20.250  7.8259e-03
7.000  20.500  7.8259e-03
7.000  20.750  7.8259e-03
7.000  21.000  7.8259e-03
7.000  21.250  7.8259e-03
7.000  21.500  7.8261e-03
7.000  21.750  7.8259e-03
7.000  22.000  7.8259e-03
7.000  22.250  7.8259e-03
7.000  22.500  7.8259e-03
7.000  22.750  7.8262e-03
7.000  23.000  7.8262e-03
7.000  23.250  7.8259e-03
7.000  23.500  7.8259e-03
7.000  23.750  7.8259e-03
7.000  24.000  7.8259e-03
7.250  17.000  3.2602e-03
7.250  17.250  4.7180e-03
7.250  17.500  6.0988e-03
7.250  17.750  6.9578e-03
7.250  18.000  7.3621e-03
7.250  18.250  7.5698e-03
7.250  18.500  7.7130e-03
7.250  18.750  7.7918e-03
7.250  19.000  7.8121e-03
7.250  19.250  7.8209e-03
7.250  19.500  7.8247e-03
7.250  19.750  7.8255e-03
7.250  20.000  7.8258e-03
7.250  20.250  7.8258e-03
7.250  20.500  7.8258e-03
7.250  20.750  7.8259e-03
7.250  21.000  7.8259e-03
7.250  21.250  7.8259e-03
7.250  21.500  7.8259e-03
7.250  21.750  7.8275e-03
7.250  22.000  7.8259e-03
7.250  22.250  7.8259e-03
7.250  22.500  7.8259e-03
7.250  22.750  7.8267e-03
7.250  23.000  7.8267e-03
7.250  23.250  7.8259e-03
7.250  23.500  7.8259e-03
7.250  23.750  7.8259e-03
7.250  24.000  7.8259e-03
7.500  17.000  1.8845e-03
7.500  17.250  3.2667e-03
7.500  17.500  4.7268e-03
7.500  17.750  6.1089e-03
7.500  18.000  6.9646e-03
7.500  18.250  7.3645e-03
7.500  18.500  7.5706e-03
7.500  18.750  7.7133e-03
7.500  19.000  7.7919e-03
7.500  19.250  7.8121e-03
7.500  19.500  7.8209e-03
7.500  19.750  7.8247e-03
7.500  20.000  7.8255e-03
7.500  20.250  7.8258e-03
7.500  20.500  7.8258e-03
7.500  20.750  7.8258e-03
7.500  21.000  7.8258e-03
7.500  21.250  7.8259e-03
7.500  21.500  7.8259e-03
7.500  21.750  7.8259e-03
7.500  22.000  7.8259e-03
7.500  22.250  7.8259e-03
7.500  22.500  7.8259e-03
7.500  22.750  7.8259e-03
7.500  23.000  7.8263e-03
7.500  23.250  7.8267e-03
7.500  23.500  7.8259e-03
7.500  23.750  7.8269e-03
7.500  24.000  7.8259e-03
7.750  17.000  9.8675e-04
7.750  17.250  1.8902e-03
7.750  17.500  3.2708e-03
7.750  17.750  4.7342e-03
7.750  18.000  6.1191e-03
7.750  18.250  6.9727e-03
7.750  18.500  7.3677e-03
7.750  18.750  7.5718e-03
7.750  19.000  7.7136e-03
7.750  19.250  7.7919e-03
7.750  19.500  7.8121e-03
7.750  19.750  7.8209e-03
7.750  20.000  7.8247e-03
7.750  20.250  7.8255e-03
7.750  20.500  7.8257e-03
7.750  20.750  7.8258e-03
7.750  21.000  7.8258e-03
7.750  21.250  7.8258e-03
7.750  21.500  7.8258e-03
7.750  21.750  7.8258e-03
7.750  22.000  7.8259e-03
7.750  22.250  7.8259e-03
7.750  22.500  7.8259e-03
7.750  22.750  7.8261e-03
7.750  23.000  7.8262e-03
7.750  23.250  7.8260e-03
7.750  23.500  7.8267e-03
7.750  23.750  7.8267e-03
7.750  24.000  7.8259e-03
8.000  17.000  5.1827e-04
8.000  17.250  9.8486e-04
8.000  17.500  1.8863e-03
8.000  17.750  3.2721e-03
8.000  18.000  4.7402e-03
8.000  18.250  6.1296e-03
8.000  18.500  6.9818e-03
8.000  18.750  7.3717e-03
8.000  19.000  7.5733e-03
8.000  19.250  7.7141e-03
8.000  19.500  7.7920e-03
8.000  19.750  7.8121e-03
8.000  20.000  7.8209e-03
8.000  20.250  7.8247e-03
8.000  20.500  7.8255e-03
8.000  20.750  7.8257e-03
8.000  21.000  7.8258e-03
8.000  21.250  7.8258e-03
8.000  21.500  7.8258e-03
8.000  21.750  7.8258e-03
8.000  22.000  7.8258e-03
8.000  22.250  7.8258e-03
8.000  22.500  7.8258e-03
8.000  22.750  7.8261e-03
8.000  23.000  7.8259e-03
8.000  23.250  7.8264e-03
8.000  23.500  7.8259e-03
8.000  23.750  7.8259e-03
8.000  24.000  7.8259e-03
8.250  17.000  2.7333e-04
8.250  17.250  5.1835e-04
8.250  17.500  9.8510e-04
8.250  17.750  1.8855e-03
8.250  18.000  3.2719e-03
8.250  18.250  4.7449e-03
8.250  18.500  6.1407e-03
8.250  18.750  6.9921e-03
8.250  19.000  7.3764e-03
8.250  19.250  7.5752e-03
8.250  19.500  7.7147e-03
8.250  19.750  7.7922e-03
8.250  20.000  7.8122e-03
8.250  20.250  7.8209e-03
8.250  20.500  7.8247e-03
8.250  20.750  7.8255e-03
8.250  21.000  7.8258e-03
8.250  21.250  7.8258e-03
8.250  21.500  7.8258e-03
8.250  21.750  7.8258e-03
8.250  22.000  7.8258e-03
8.250  22.250  7.8258e-03
8.250  22.500  7.8258e-03
8.250  22.750  7.8261e-03
8.250  23.000  7.8258e-03
8.250  23.250  7.8279e-03
8.250  23.500  7.8258e-03
8.250  23.750  7.8258e-03
8.250  24.000  7.8264e-03
8.500  17.000  1.4461e-04
8.500  17.250  2.7300e-04
8.500  17.500  5.1786e-04
8.500  17.750  9.8395e-04
8.500  18.000  1.8829e-03
8.500  18.250  3.2688e-03
8.500  18.500  4.7483e-03
8.500  18.750  6.1522e-03
8.500  19.000  7.0038e-03
8.500  19.250  7.3816e-03
8.500  19.500  7.5774e-03
8.500  19.750  7.7155e-03
8.500  20.000  7.7923e-03
8.500  20.250  7.8122e-03
8.500  20.500  7.8209e-03
8.500  20.750  7.8247e-03
8.500  21.000  7.8255e-03
8.500  21.250  7.8257e-03
8.500  21.500  7.8258e-03
8.500  21.750  7.8258e-03
8.500  22.000  7.8258e-03
8.500  22.250  7.8258e-03
8.500  22.500  7.8258e-03
8.500  22.750  7.8258e-03
8.500  23.000  7.8258e-03
8.500  23.250  7.8261e-03
8.500  23.500  7.8258e-03
8.500  23.750  7.8258e-03
8.500  24.000  7.8258e-03
8.750  17.000  7.7202e-05
8.750  17.250  1.4436e-04
8.750  17.500  2.7267e-04
8.750  17.750  5.1728e-04
8.750  18.000  9.8288e-04
8.750  18.250  1.8780e-03
8.750  18.500  3.2632e-03
8.750  18.750  4.7503e-03
8.750  19.000  6.1644e-03
8.750  19.250  7.0160e-03
8.750  19.500  7.3875e-03
8.750  19.750  7.5799e-03
8.750  20.000  7.7164e-03
8.750  20.250  7.7926e-03
8.750  20.500  7.8123e-03
8.750  20.750  7.8210e-03
8.750  21.000  7.8247e-03
8.750  21.250  7.8255e-03
8.750  21.500  7.8257e-03
8.750  21.750  7.8258e-03
8.750  22.000  7.8258e-03
8.750  22.250  7.8258e-03
8.750  22.500  7.8258e-03
8.750  22.750  7.8258e-03
8.750  23.000  7.8267e-03
8.750  23.250  7.8258e-03
8.750  23.500  7.8261e-03
8.750  23.750  7.8258e-03
8.750  24.000  7.8258e-03
9.000  17.000  4.1481e-05
9.000  17.250  7.7202e-05
9.000  17.500  1.4428e-04
9.000  17.750  2.7267e-04
9.000  18.000  5.1778e-04
9.000  18.250  9.8313e-04
9.000  18.500  1.8744e-03
9.000  18.750  3.2580e-03
9.000  19.000  4.7511e-03
9.000  19.250  6.1759e-03
9.000  19.500  7.0288e-03
9.000  19.750  7.3936e-03
9.000  20.000  7.5825e-03
9.000  20.250  7.7174e-03
9.000  20.500  7.7928e-03
9.000  20.750  7.8123e-03
9.000  21.000  7.8210e-03
9.000  21.250  7.8247e-03
9.000  21.500  7.8255e-03
9.000  21.750  7.8257e-03
9.000  22.000  7.8258e-03
9.000  22.250  7.8258e-03
9.000  22.500  7.8258e-03
9.000  22.750  7.8258e-03
9.000  23.000  7.8258e-03
9.000  23.250  7.8258e-03
9.000  23.500  7.8258e-03
9.000  23.750  7.8258e-03
9.000  24.000  7.8259e-03
9.250  17.000  2.2222e-05
9.250  17.250  4.1564e-05
9.250  17.500  7.7449e-05
9.250  17.750  1.4502e-04
9.250  18.000  2.7449e-04
9.250  18.250  5.2156e-04
9.250  18.500  9.8864e-04
9.250  18.750  1.8764e-03
9.250  19.000  3.2547e-03
9.250  19.250  4.7508e-03
9.250  19.500  6.1858e-03
9.250  19.750  7.0412e-03
9.250  20.000  7.3998e-03
9.250  20.250  7.5852e-03
9.250  20.500  7.7184e-03
9.250  20.750  7.7932e-03
9.250  21.000  7.8125e-03
9.250  21.250  7.8210e-03
9.250  21.500  7.8243e-03
9.250  21.750  7.8249e-03
9.250  22.000  7.8250e-03
9.250  22.250  7.8253e-03
9.250  22.500  7.8254e-03
9.250  22.750  7.8255e-03
9.250  23.000  7.8256e-03
9.250  23.250  7.8257e-03
9.250  23.500  7.8257e-03
9.250  23.750  7.8257e-03
9.250  24.000  7.8258e-03
9.500  17.000  1.1687e-05
9.500  17.250  2.2387e-05
9.500  17.500  4.1975e-05
9.500  17.750  7.8601e-05
9.500  18.000  1.4733e-04
9.500  18.250  2.7877e-04
9.500  18.500  5.2996e-04
9.500  18.750  1.0061e-03
9.500  19.000  1.8916e-03
9.500  19.250  3.2585e-03
9.500  19.500  4.7510e-03
9.500  19.750  6.1930e-03
9.500  20.000  7.0525e-03
9.500  20.250  7.4059e-03
9.500  20.500  7.5879e-03
9.500  20.750  7.7174e-03
9.500  21.000  7.7926e-03
9.500  21.250  7.8119e-03
9.500  21.500  7.8204e-03
9.500  21.750  7.8240e-03
9.500  22.000  7.8247e-03
9.500  22.250  7.8249e-03
9.500  22.500  7.8250e-03
9.500  22.750  7.8250e-03
9.500  23.000  7.8250e-03
9.500  23.250  7.8251e-03
9.500  23.500  7.8251e-03
9.500  23.750  7.8251e-03
9.500  24.000  7.8251e-03
9.750  17.000  6.0082e-06
9.750  17.250  1.1852e-05
9.750  17.500  2.2798e-05
9.750  17.750  4.3210e-05
9.750  18.000  8.0905e-05
9.750  18.250  1.5128e-04
9.750  18.500  2.8675e-04
9.750  18.750  5.4765e-04
9.750  19.000  1.0400e-03
9.750  19.250  1.9342e-03
9.750  19.500  3.2802e-03
9.750  19.750  4.7563e-03
9.750  20.000  6.1997e-03
9.750  20.250  7.0602e-03
9.750  20.500  7.4099e-03
9.750  20.750  7.5893e-03
9.750  21.000  7.7191e-03
9.750  21.250  7.7930e-03
9.750  21.500  7.8121e-03
9.750  21.750  7.8205e-03
9.750  22.000  7.8240e-03
9.750  22.250  7.8248e-03
9.750  22.500  7.8249e-03
9.750  22.750  7.8250e-03
9.750  23.000  7.8250e-03
9.750  23.250  7.8250e-03
9.750  23.500  7.8250e-03
9.750  23.750  7.8250e-03
9.750  24.000  7.8250e-03
10.000  17.000  2.7160e-06
10.000  17.250  6.0905e-06
10.000  17.500  1.2181e-05
10.000  17.750  2.3786e-05
10.000  18.000  4.5103e-05
10.000  18.250  8.4198e-05
10.000  18.500  1.5827e-04
10.000  18.750  3.0305e-04
10.000  19.000  5.8642e-04
10.000  19.250  1.1198e-03
10.000  19.500  2.0412e-03
10.000  19.750  3.3392e-03
10.000  20.000  4.7754e-03
10.000  20.250  6.2063e-03
10.000  20.500  7.0709e-03
10.000  20.750  7.4168e-03
10.000  21.000  7.5929e-03
10.000  21.250  7.7214e-03
10.000  21.500  7.7935e-03
10.000  21.750  7.8123e-03
10.000  22.000  7.8207e-03
10.000  22.250  7.8241e-03
10.000  22.500  7.8248e-03
10.000  22.750  7.8249e-03
10.000  23.000  7.8250e-03
10.000  23.250  7.8251e-03
10.000  23.500  7.8251e-03
10.000  23.750  7.8251e-03
10.000  24.000  7.8251e-03
10.250  17.000  1.3169e-06
10.250  17.250  2.7984e-06
10.250  17.500  6.3374e-06
10.250  17.750  1.2922e-05
10.250  18.000  2.5185e-05
10.250  18.250  4.7901e-05
10.250  18.500  9.0617e-05
10.250  18.750  1.7391e-04
10.250  19.000  3.4066e-04
10.250  19.250  6.6996e-04
10.250  19.500  1.2657e-03
10.250  19.750  2.2328e-03
10.250  20.000  3.4469e-03
10.250  20.250  4.8179e-03
10.250  20.500  6.2188e-03
10.250  20.750  7.0816e-03
10.250  21.000  7.4228e-03
10.250  21.250  7.5961e-03
10.250  21.500  7.7232e-03
10.250  21.750  7.7941e-03
10.250  22.000  7.8125e-03
10.250  22.250  7.8207e-03
10.250  22.500  7.8242e-03
10.250  22.750  7.8248e-03
10.250  23.000  7.8249e-03
10.250  23.250  7.8250e-03
10.250  23.500  7.8250e-03
10.250  23.750  7.8251e-03
10.250  24.000  7.8251e-03
10.500  17.000  1.0000e-07
10.500  17.250  1.3992e-06
10.500  17.500  2.9630e-06
10.500  17.750  6.8313e-06
10.500  18.000  1.3909e-05
10.500  18.250  2.7654e-05
10.500  18.500  5.3992e-05
10.500  18.750  1.0519e-04
10.500  19.000  2.0733e-04
10.500  19.250  4.1251e-04
10.500  19.500  7.8815e-04
10.500  19.750  1.4739e-03
10.500  20.000  2.4905e-03
10.500  20.250  3.6365e-03
10.500  20.500  4.9067e-03
10.500  20.750  6.2438e-03
10.500  21.000  7.0914e-03
10.500  21.250  7.4287e-03
10.500  21.500  7.5993e-03
10.500  21.750  7.7249e-03
10.500  22.000  7.7950e-03
10.500  22.250  7.8128e-03
10.500  22.500  7.8208e-03
10.500  22.750  7.8243e-03
10.500  23.000  7.8249e-03
10.500  23.250  7.8249e-03
10.500  23.500  7.8250e-03
10.500  23.750  7.8251e-03
10.500  24.000  7.8251e-03
10.750  17.000  1.0000e-07
10.750  17.250  1.0000e-07
10.750  17.500  1.4815e-06
10.750  17.750  3.3745e-06
10.750  18.000  7.6543e-06
10.750  18.250  1.6296e-05
10.750  18.500  3.3416e-05
10.750  18.750  6.7325e-05
10.750  19.000  1.3374e-04
10.750  19.250  2.6453e-04
10.750  19.500  5.2272e-04
10.750  19.750  9.6749e-04
10.750  20.000  1.7375e-03
10.750  20.250  2.7681e-03
10.750  20.500  3.8812e-03
10.750  20.750  5.0737e-03
10.750  21.000  6.2891e-03
10.750  21.250  7.1030e-03
10.750  21.500  7.4350e-03
10.750  21.750  7.6030e-03
10.750  22.000  7.7268e-03
10.750  22.250  7.7958e-03
10.750  22.500  7.8133e-03
10.750  22.750  7.8210e-03
10.750  23.000  7.8244e-03
10.750  23.250  7.8249e-03
10.750  23.500  7.8250e-03
10.750  23.750  7.8250e-03
10.750  24.000  7.8251e-03
11.000  17.000  1.0000e-07
11.000  17.250  1.0000e-07
11.000  17.500  1.0000e-07
11.000  17.750  1.7284e-06
11.000  18.000  4.1152e-06
11.000  18.250  9.5473e-06
11.000  18.500  2.1317e-05
11.000  18.750  4.4774e-05
11.000  19.000  8.9712e-05
11.000  19.250  1.7597e-04
11.000  19.500  3.4272e-04
11.000  19.750  6.6889e-04
11.000  20.000  1.1896e-03
11.000  20.250  1.9765e-03
11.000  20.500  3.0689e-03
11.000  20.750  4.2023e-03
11.000  21.000  5.2448e-03
11.000  21.250  6.3728e-03
11.000  21.500  7.1199e-03
11.000  21.750  7.4426e-03
11.000  22.000  7.6074e-03
11.000  22.250  7.7292e-03
11.000  22.500  7.7966e-03
11.000  22.750  7.8138e-03
11.000  23.000  7.8213e-03
11.000  23.250  7.8244e-03
11.000  23.500  7.8250e-03
11.000  23.750  7.8251e-03
11.000  24.000  7.8251e-03
11.250  17.000  1.0000e-07
11.250  17.250  1.0000e-07
11.250  17.500  1.0000e-07
11.250  17.750  9.0535e-07
11.250  18.000  2.2222e-06
11.250  18.250  5.5967e-06
11.250  18.500  1.3333e-05
11.250  18.750  2.9383e-05
11.250  19.000  6.0165e-05
11.250  19.250  1.1794e-04
11.250  19.500  2.2667e-04
11.250  19.750  4.3465e-04
11.250  20.000  8.3630e-04
11.250  20.250  1.4407e-03
11.250  20.500  2.3161e-03
11.250  20.750  3.3663e-03
11.250  21.000  4.4491e-03
11.250  21.250  5.4730e-03
11.250  21.500  6.4725e-03
11.250  21.750  7.1454e-03
11.250  22.000  7.4533e-03
11.250  22.250  7.6133e-03
11.250  22.500  7.7323e-03
11.250  22.750  7.7977e-03
11.250  23.000  7.8143e-03
11.250  23.250  7.8216e-03
11.250  23.500  7.8244e-03
11.250  23.750  7.8251e-03
11.250  24.000  7.8252e-03
11.500  17.000  1.0000e-07
11.500  17.250  1.0000e-07
11.500  17.500  1.0000e-07
11.500  17.750  1.0000e-07
11.500  18.000  1.2346e-06
11.500  18.250  3.1276e-06
11.500  18.500  7.9012e-06
11.500  18.750  1.8189e-05
11.500  19.000  3.8765e-05
11.500  19.250  7.6872e-05
11.500  19.500  1.4749e-04
11.500  19.750  2.8049e-04
11.500  20.000  5.3276e-04
11.500  20.250  9.9926e-04
11.500  20.500  1.6911e-03
11.500  20.750  2.6177e-03
11.500  21.000  3.6584e-03
11.500  21.250  4.7172e-03
11.500  21.500  5.6784e-03
11.500  21.750  6.5909e-03
11.500  22.000  7.1823e-03
11.500  22.250  7.4683e-03
11.500  22.500  7.6218e-03
11.500  22.750  7.7365e-03
11.500  23.000  7.7991e-03
11.500  23.250  7.8150e-03
11.500  23.500  7.8220e-03
11.500  23.750  7.8246e-03
11.500  24.000  7.8251e-03
11.750  17.000  1.0000e-07
11.750  17.250  1.0000e-07
11.750  17.500  1.0000e-07
11.750  17.750  1.0000e-07
11.750  18.000  1.0000e-07
11.750  18.250  1.7284e-06
11.750  18.500  4.3621e-06
11.750  18.750  1.0535e-05
11.750  19.000  2.3292e-05
11.750  19.250  4.7819e-05
11.750  19.500  9.2675e-05
11.750  19.750  1.7564e-04
11.750  20.000  3.3193e-04
11.750  20.250  6.2947e-04
11.750  20.500  1.1484e-03
11.750  20.750  1.9338e-03
11.750  21.000  2.9187e-03
11.750  21.250  3.9652e-03
11.750  21.500  4.9360e-03
11.750  21.750  5.9025e-03
11.750  22.000  6.7054e-03
11.750  22.250  7.2264e-03
11.750  22.500  7.4886e-03
11.750  22.750  7.6345e-03
11.750  23.000  7.7423e-03
11.750  23.250  7.8011e-03
11.750  23.500  7.8159e-03
11.750  23.750  7.8224e-03
11.750  24.000  7.8249e-03
12.000  17.000  1.0000e-07
12.000  17.250  1.0000e-07
12.000  17.500  1.0000e-07
12.000  17.750  1.0000e-07
12.000  18.000  1.0000e-07
12.000  18.250  9.0535e-07
12.000  18.500  2.3045e-06
12.000  18.750  5.5967e-06
12.000  19.000  1.2922e-05
12.000  19.250  2.7737e-05
12.000  19.500  5.5638e-05
12.000  19.750  1.0626e-04
12.000  20.000  2.0058e-04
12.000  20.250  3.7934e-04
12.000  20.500  7.1860e-04
12.000  20.750  1.3067e-03
12.000  21.000  2.1793e-03
12.000  21.250  3.2158e-03
12.000  21.500  4.2641e-03
12.000  21.750  5.1964e-03
12.000  22.000  6.0948e-03
12.000  22.250  6.8066e-03
12.000  22.500  7.2704e-03
12.000  22.750  7.5130e-03
12.000  23.000  7.6491e-03
12.000  23.250  7.7500e-03
12.000  23.500  7.8036e-03
12.000  23.750  7.8170e-03
12.000  24.000  7.8228e-03
12.250  17.000  1.0000e-07
12.250  17.250  1.0000e-07
12.250  17.500  1.0000e-07
12.250  17.750  1.0000e-07
12.250  18.000  1.0000e-07
12.250  18.250  1.0000e-07
12.250  18.500  1.1523e-06
12.250  18.750  2.7984e-06
12.250  19.000  6.6667e-06
12.250  19.250  1.4815e-05
12.250  19.500  3.1276e-05
12.250  19.750  6.2058e-05
12.250  20.000  1.1778e-04
12.250  20.250  2.2263e-04
12.250  20.500  4.2255e-04
12.250  20.750  8.0148e-04
12.250  21.000  1.4637e-03
12.250  21.250  2.4163e-03
12.250  21.500  3.4928e-03
12.250  21.750  4.5410e-03
12.250  22.000  5.4123e-03
12.250  22.250  6.2495e-03
12.250  22.500  6.8923e-03
12.250  22.750  7.3111e-03
12.250  23.000  7.5379e-03
12.250  23.250  7.6653e-03
12.250  23.500  7.7589e-03
12.250  23.750  7.8065e-03
12.250  24.000  7.8182e-03
12.500  17.000  1.0000e-07
12.500  17.250  1.0000e-07
12.500  17.500  1.0000e-07
12.500  17.750  1.0000e-07
12.500  18.000  1.0000e-07
12.500  18.250  1.0000e-07
12.500  18.500  1.0000e-07
12.500  18.750  1.3992e-06
12.500  19.000  3.2099e-06
12.500  19.250  7.3251e-06
12.500  19.500  1.6214e-05
12.500  19.750  3.3909e-05
12.500  20.000  6.6996e-05
12.500  20.250  1.2749e-04
12.500  20.500  2.4247e-04
12.500  20.750  4.6387e-04
12.500  21.000  8.8650e-04
12.500  21.250  1.6209e-03
12.500  21.500  2.6390e-03
12.500  21.750  3.7393e-03
12.500  22.000  4.7716e-03
12.500  22.250  5.5993e-03
12.500  22.500  6.3844e-03
12.500  22.750  6.9804e-03
12.500  23.000  7.3465e-03
12.500  23.250  7.5591e-03
12.500  23.500  7.6810e-03
12.500  23.750  7.7677e-03
12.500  24.000  7.8093e-03
12.750  17.000  1.0000e-07
12.750  17.250  1.0000e-07
12.750  17.500  1.0000e-07
12.750  17.750  1.0000e-07
12.750  18.000  1.0000e-07
12.750  18.250  1.0000e-07
12.750  18.500  1.0000e-07
12.750  18.750  1.0000e-07
12.750  19.000  1.5638e-06
12.750  19.250  3.4568e-06
12.750  19.500  7.7366e-06
12.750  19.750  1.7037e-05
12.750  20.000  3.5638e-05
12.750  20.250  7.0947e-05
12.750  20.500  1.3621e-04
12.750  20.750  2.6247e-04
12.750  21.000  5.0938e-04
12.750  21.250  9.7621e-04
12.750  21.500  1.7631e-03
12.750  21.750  2.8440e-03
12.750  22.000  3.9500e-03
12.750  22.250  4.9527e-03
12.750  22.500  5.7608e-03
12.750  22.750  6.5050e-03
12.750  23.000  7.0405e-03
12.750  23.250  7.3762e-03
12.750  23.500  7.5768e-03
12.750  23.750  7.6944e-03
12.750  24.000  7.7754e-03
13.000  17.000  1.0000e-07
13.000  17.250  1.0000e-07
13.000  17.500  1.0000e-07
13.000  17.750  1.0000e-07
13.000  18.000  1.0000e-07
13.000  18.250  1.0000e-07
13.000  18.500  1.0000e-07
13.000  18.750  1.0000e-07
13.000  19.000  1.0000e-07
13.000  19.250  1.5638e-06
13.000  19.500  3.5391e-06
13.000  19.750  7.9012e-06
13.000  20.000  1.7366e-05
13.000  20.250  3.6708e-05
13.000  20.500  7.4486e-05
13.000  20.750  1.4502e-04
13.000  21.000  2.8255e-04
13.000  21.250  5.5514e-04
13.000  21.500  1.0559e-03
13.000  21.750  1.9181e-03
13.000  22.000  3.0130e-03
13.000  22.250  4.1328e-03
13.000  22.500  5.1141e-03
13.000  22.750  5.8946e-03
13.000  23.000  6.5833e-03
13.000  23.250  7.0872e-03
13.000  23.500  7.4002e-03
13.000  23.750  7.5913e-03
13.000  24.000  7.7052e-03
13.250  17.000  1.0000e-07
13.250  17.250  1.0000e-07
13.250  17.500  1.0000e-07
13.250  17.750  1.0000e-07
13.250  18.000  1.0000e-07
13.250  18.250  1.0000e-07
13.250  18.500  1.0000e-07
13.250  18.750  1.0000e-07
13.250  19.000  1.0000e-07
13.250  19.250  1.0000e-07
13.250  19.500  1.6461e-06
13.250  19.750  3.5391e-06
13.250  20.000  7.8189e-06
13.250  20.250  1.7366e-05
13.250  20.500  3.7366e-05
13.250  20.750  7.6708e-05
13.250  21.000  1.5317e-04
13.250  21.250  3.0222e-04
13.250  21.500  5.8675e-04
13.250  21.750  1.1151e-03
13.250  22.000  2.0361e-03
13.250  22.250  3.1755e-03
13.250  22.500  4.2919e-03
13.250  22.750  5.2546e-03
13.250  23.000  6.0031e-03
13.250  23.250  6.6316e-03
13.250  23.500  7.1125e-03
13.250  23.750  7.4210e-03
13.250  24.000  7.6030e-03
13.500  17.000  1.0000e-07
13.500  17.250  1.0000e-07
13.500  17.500  1.0000e-07
13.500  17.750  1.0000e-07
13.500  18.000  1.0000e-07
13.500  18.250  1.0000e-07
13.500  18.500  1.0000e-07
13.500  18.750  1.0000e-07
13.500  19.000  1.0000e-07
13.500  19.250  1.0000e-07
13.500  19.500  1.0000e-07
13.500  19.750  1.6461e-06
13.500  20.000  3.5391e-06
13.500  20.250  7.8189e-06
13.500  20.500  1.7366e-05
13.500  20.750  3.7531e-05
13.500  21.000  7.6790e-05
13.500  21.250  1.5638e-04
13.500  21.500  3.0576e-04
13.500  21.750  5.9975e-04
13.500  22.000  1.1589e-03
13.500  22.250  2.1384e-03
13.500  22.500  3.3297e-03
13.500  22.750  4.4615e-03
13.500  23.000  5.3774e-03
13.500  23.250  6.0937e-03
13.500  23.500  6.7018e-03
13.500  23.750  7.1526e-03
13.500  24.000  7.4379e-03
13.750  17.000  1.0000e-07
13.750  17.250  1.0000e-07
13.750  17.500  1.0000e-07
13.750  17.750  1.0000e-07
13.750  18.000  1.0000e-07
13.750  18.250  1.0000e-07
13.750  18.500  1.0000e-07
13.750  18.750  1.0000e-07
13.750  19.000  1.0000e-07
13.750  19.250  1.0000e-07
13.750  19.500  1.0000e-07
13.750  19.750  8.2305e-07
13.750  20.000  1.7284e-06
13.750  20.250  3.6214e-06
13.750  20.500  7.9835e-06
13.750  20.750  1.7613e-05
13.750  21.000  3.7860e-05
13.750  21.250  7.7449e-05
13.750  21.500  1.5506e-04
13.750  21.750  3.0922e-04
13.750  22.000  6.0938e-04
13.750  22.250  1.2100e-03
13.750  22.500  2.2519e-03
13.750  22.750  3.5047e-03
13.750  23.000  4.6406e-03
13.750  23.250  5.4887e-03
13.750  23.500  6.1720e-03
13.750  23.750  6.7553e-03
13.750  24.000  7.1852e-03
14.000  17.000  1.0000e-07
14.000  17.250  1.0000e-07
14.000  17.500  1.0000e-07
14.000  17.750  1.0000e-07
14.000  18.000  1.0000e-07
14.000  18.250  1.0000e-07
14.000  18.500  1.0000e-07
14.000  18.750  1.0000e-07
14.000  19.000  1.0000e-07
14.000  19.250  1.0000e-07
14.000  19.500  1.0000e-07
14.000  19.750  1.0000e-07
14.000  20.000  9.0535e-07
14.000  20.250  1.8107e-06
14.000  20.500  3.7860e-06
14.000  20.750  8.3128e-06
14.000  21.000  1.8272e-05
14.000  21.250  3.9177e-05
14.000  21.500  7.9259e-05
14.000  21.750  1.5761e-04
14.000  22.000  3.1152e-04
14.000  22.250  6.2642e-04
14.000  22.500  1.2651e-03
14.000  22.750  2.3433e-03
14.000  23.000  3.6649e-03
14.000  23.250  4.8119e-03
14.000  23.500  5.6028e-03
14.000  23.750  6.2521e-03
14.000  24.000  6.8165e-03
