InwC 8204.00A  relative to Inci 1215.00A scaled to 1215A.
Hden   Phi(H)  Eq_Width (A)
7.000  17.000  2.1212e-03
7.000  17.250  2.1221e-03
7.000  17.500  2.1230e-03
7.000  17.750  2.1239e-03
7.000  18.000  2.1248e-03
7.000  18.250  2.1255e-03
7.000  18.500  2.1260e-03
7.000  18.750  2.1263e-03
7.000  19.000  2.1266e-03
7.000  19.250  2.1267e-03
7.000  19.500  2.1268e-03
7.000  19.750  2.1268e-03
7.000  20.000  2.1268e-03
7.000  20.250  2.1269e-03
7.000  20.500  2.1269e-03
7.000  20.750  2.1269e-03
7.000  21.000  2.1269e-03
7.000  21.250  2.1269e-03
7.000  21.500  2.1269e-03
7.000  21.750  2.1269e-03
7.000  22.000  2.1269e-03
7.000  22.250  2.1269e-03
7.000  22.500  2.1269e-03
7.000  22.750  2.1270e-03
7.000  23.000  2.1270e-03
7.000  23.250  2.1269e-03
7.000  23.500  2.1269e-03
7.000  23.750  2.1269e-03
7.000  24.000  2.1269e-03
7.250  17.000  2.1176e-03
7.250  17.250  2.1212e-03
7.250  17.500  2.1221e-03
7.250  17.750  2.1230e-03
7.250  18.000  2.1239e-03
7.250  18.250  2.1248e-03
7.250  18.500  2.1255e-03
7.250  18.750  2.1260e-03
7.250  19.000  2.1263e-03
7.250  19.250  2.1266e-03
7.250  19.500  2.1267e-03
7.250  19.750  2.1268e-03
7.250  20.000  2.1268e-03
7.250  20.250  2.1268e-03
7.250  20.500  2.1269e-03
7.250  20.750  2.1269e-03
7.250  21.000  2.1269e-03
7.250  21.250  2.1269e-03
7.250  21.500  2.1269e-03
7.250  21.750  2.1273e-03
7.250  22.000  2.1269e-03
7.250  22.250  2.1269e-03
7.250  22.500  2.1269e-03
7.250  22.750  2.1271e-03
7.250  23.000  2.1271e-03
7.250  23.250  2.1269e-03
7.250  23.500  2.1269e-03
7.250  23.750  2.1269e-03
7.250  24.000  2.1269e-03
7.500  17.000  2.0347e-03
7.500  17.250  2.1178e-03
7.500  17.500  2.1212e-03
7.500  17.750  2.1221e-03
7.500  18.000  2.1230e-03
7.500  18.250  2.1239e-03
7.500  18.500  2.1248e-03
7.500  18.750  2.1255e-03
7.500  19.000  2.1260e-03
7.500  19.250  2.1263e-03
7.500  19.500  2.1266e-03
7.500  19.750  2.1267e-03
7.500  20.000  2.1268e-03
7.500  20.250  2.1268e-03
7.500  20.500  2.1268e-03
7.500  20.750  2.1268e-03
7.500  21.000  2.1269e-03
7.500  21.250  2.1269e-03
7.500  21.500  2.1269e-03
7.500  21.750  2.1269e-03
7.500  22.000  2.1269e-03
7.500  22.250  2.1269e-03
7.500  22.500  2.1269e-03
7.500  22.750  2.1269e-03
7.500  23.000  2.1270e-03
7.500  23.250  2.1271e-03
7.500  23.500  2.1269e-03
7.500  23.750  2.1272e-03
7.500  24.000  2.1269e-03
7.750  17.000  1.8807e-03
7.750  17.250  2.0351e-03
7.750  17.500  2.1179e-03
7.750  17.750  2.1212e-03
7.750  18.000  2.1221e-03
7.750  18.250  2.1230e-03
7.750  18.500  2.1239e-03
7.750  18.750  2.1248e-03
7.750  19.000  2.1255e-03
7.750  19.250  2.1260e-03
7.750  19.500  2.1263e-03
7.750  19.750  2.1266e-03
7.750  20.000  2.1267e-03
7.750  20.250  2.1268e-03
7.750  20.500  2.1268e-03
7.750  20.750  2.1268e-03
7.750  21.000  2.1268e-03
7.750  21.250  2.1269e-03
7.750  21.500  2.1269e-03
7.750  21.750  2.1269e-03
7.750  22.000  2.1269e-03
7.750  22.250  2.1269e-03
7.750  22.500  2.1269e-03
7.750  22.750  2.1269e-03
7.750  23.000  2.1270e-03
7.750  23.250  2.1269e-03
7.750  23.500  2.1271e-03
7.750  23.750  2.1271e-03
7.750  24.000  2.1269e-03
8.000  17.000  1.3299e-03
8.000  17.250  1.8693e-03
8.000  17.500  2.0344e-03
8.000  17.750  2.1176e-03
8.000  18.000  2.1212e-03
8.000  18.250  2.1221e-03
8.000  18.500  2.1230e-03
8.000  18.750  2.1239e-03
8.000  19.000  2.1248e-03
8.000  19.250  2.1255e-03
8.000  19.500  2.1260e-03
8.000  19.750  2.1263e-03
8.000  20.000  2.1266e-03
8.000  20.250  2.1267e-03
8.000  20.500  2.1268e-03
8.000  20.750  2.1268e-03
8.000  21.000  2.1268e-03
8.000  21.250  2.1268e-03
8.000  21.500  2.1268e-03
8.000  21.750  2.1269e-03
8.000  22.000  2.1269e-03
8.000  22.250  2.1269e-03
8.000  22.500  2.1269e-03
8.000  22.750  2.1269e-03
8.000  23.000  2.1269e-03
8.000  23.250  2.1270e-03
8.000  23.500  2.1269e-03
8.000  23.750  2.1269e-03
8.000  24.000  2.1269e-03
8.250  17.000  9.3160e-04
8.250  17.250  1.3351e-03
8.250  17.500  1.8713e-03
8.250  17.750  2.0347e-03
8.250  18.000  2.1177e-03
8.250  18.250  2.1212e-03
8.250  18.500  2.1221e-03
8.250  18.750  2.1230e-03
8.250  19.000  2.1239e-03
8.250  19.250  2.1248e-03
8.250  19.500  2.1255e-03
8.250  19.750  2.1261e-03
8.250  20.000  2.1263e-03
8.250  20.250  2.1266e-03
8.250  20.500  2.1267e-03
8.250  20.750  2.1268e-03
8.250  21.000  2.1268e-03
8.250  21.250  2.1268e-03
8.250  21.500  2.1268e-03
8.250  21.750  2.1268e-03
8.250  22.000  2.1269e-03
8.250  22.250  2.1269e-03
8.250  22.500  2.1269e-03
8.250  22.750  2.1269e-03
8.250  23.000  2.1269e-03
8.250  23.250  2.1274e-03
8.250  23.500  2.1269e-03
8.250  23.750  2.1269e-03
8.250  24.000  2.1270e-03
8.500  17.000  6.5078e-04
8.500  17.250  9.3844e-04
8.500  17.500  1.3409e-03
8.500  17.750  1.8738e-03
8.500  18.000  2.0349e-03
8.500  18.250  2.1178e-03
8.500  18.500  2.1212e-03
8.500  18.750  2.1221e-03
8.500  19.000  2.1230e-03
8.500  19.250  2.1239e-03
8.500  19.500  2.1248e-03
8.500  19.750  2.1255e-03
8.500  20.000  2.1260e-03
8.500  20.250  2.1263e-03
8.500  20.500  2.1266e-03
8.500  20.750  2.1267e-03
8.500  21.000  2.1268e-03
8.500  21.250  2.1268e-03
8.500  21.500  2.1268e-03
8.500  21.750  2.1268e-03
8.500  22.000  2.1268e-03
8.500  22.250  2.1268e-03
8.500  22.500  2.1269e-03
8.500  22.750  2.1269e-03
8.500  23.000  2.1269e-03
8.500  23.250  2.1269e-03
8.500  23.500  2.1269e-03
8.500  23.750  2.1269e-03
8.500  24.000  2.1269e-03
8.750  17.000  4.5498e-04
8.750  17.250  6.5844e-04
8.750  17.500  9.4815e-04
8.750  17.750  1.3447e-03
8.750  18.000  1.8783e-03
8.750  18.250  2.0351e-03
8.750  18.500  2.1179e-03
8.750  18.750  2.1212e-03
8.750  19.000  2.1221e-03
8.750  19.250  2.1230e-03
8.750  19.500  2.1239e-03
8.750  19.750  2.1248e-03
8.750  20.000  2.1255e-03
8.750  20.250  2.1260e-03
8.750  20.500  2.1263e-03
8.750  20.750  2.1266e-03
8.750  21.000  2.1267e-03
8.750  21.250  2.1268e-03
8.750  21.500  2.1268e-03
8.750  21.750  2.1268e-03
8.750  22.000  2.1268e-03
8.750  22.250  2.1268e-03
8.750  22.500  2.1268e-03
8.750  22.750  2.1268e-03
8.750  23.000  2.1271e-03
8.750  23.250  2.1269e-03
8.750  23.500  2.1269e-03
8.750  23.750  2.1268e-03
8.750  24.000  2.1269e-03
9.000  17.000  3.1811e-04
9.000  17.250  4.6156e-04
9.000  17.500  6.6955e-04
9.000  17.750  9.6502e-04
9.000  18.000  1.3637e-03
9.000  18.250  1.8933e-03
9.000  18.500  2.0349e-03
9.000  18.750  2.1178e-03
9.000  19.000  2.1212e-03
9.000  19.250  2.1221e-03
9.000  19.500  2.1230e-03
9.000  19.750  2.1240e-03
9.000  20.000  2.1248e-03
9.000  20.250  2.1255e-03
9.000  20.500  2.1261e-03
9.000  20.750  2.1263e-03
9.000  21.000  2.1266e-03
9.000  21.250  2.1267e-03
9.000  21.500  2.1268e-03
9.000  21.750  2.1268e-03
9.000  22.000  2.1268e-03
9.000  22.250  2.1268e-03
9.000  22.500  2.1268e-03
9.000  22.750  2.1268e-03
9.000  23.000  2.1269e-03
9.000  23.250  2.1268e-03
9.000  23.500  2.1269e-03
9.000  23.750  2.1268e-03
9.000  24.000  2.1269e-03
9.250  17.000  2.2272e-04
9.250  17.250  3.2370e-04
9.250  17.500  4.7276e-04
9.250  17.750  6.9078e-04
9.250  18.000  9.9564e-04
9.250  18.250  1.4032e-03
9.250  18.500  1.9284e-03
9.250  18.750  2.0344e-03
9.250  19.000  2.1176e-03
9.250  19.250  2.1211e-03
9.250  19.500  2.1221e-03
9.250  19.750  2.1230e-03
9.250  20.000  2.1240e-03
9.250  20.250  2.1248e-03
9.250  20.500  2.1255e-03
9.250  20.750  2.1261e-03
9.250  21.000  2.1263e-03
9.250  21.250  2.1266e-03
9.250  21.500  2.1267e-03
9.250  21.750  2.1267e-03
9.250  22.000  2.1267e-03
9.250  22.250  2.1267e-03
9.250  22.500  2.1267e-03
9.250  22.750  2.1267e-03
9.250  23.000  2.1268e-03
9.250  23.250  2.1268e-03
9.250  23.500  2.1268e-03
9.250  23.750  2.1268e-03
9.250  24.000  2.1268e-03
9.500  17.000  1.5671e-04
9.500  17.250  2.2749e-04
9.500  17.500  3.3407e-04
9.500  17.750  4.9481e-04
9.500  18.000  7.2881e-04
9.500  18.250  1.0567e-03
9.500  18.500  1.4891e-03
9.500  18.750  1.9832e-03
9.500  19.000  2.0335e-03
9.500  19.250  2.1171e-03
9.500  19.500  2.1211e-03
9.500  19.750  2.1221e-03
9.500  20.000  2.1230e-03
9.500  20.250  2.1240e-03
9.500  20.500  2.1248e-03
9.500  20.750  2.1254e-03
9.500  21.000  2.1259e-03
9.500  21.250  2.1262e-03
9.500  21.500  2.1264e-03
9.500  21.750  2.1266e-03
9.500  22.000  2.1266e-03
9.500  22.250  2.1267e-03
9.500  22.500  2.1267e-03
9.500  22.750  2.1267e-03
9.500  23.000  2.1267e-03
9.500  23.250  2.1267e-03
9.500  23.500  2.1267e-03
9.500  23.750  2.1267e-03
9.500  24.000  2.1267e-03
9.750  17.000  1.1021e-04
9.750  17.250  1.6025e-04
9.750  17.500  2.3605e-04
9.750  17.750  3.5424e-04
9.750  18.000  5.3720e-04
9.750  18.250  8.0123e-04
9.750  18.500  1.1665e-03
9.750  18.750  1.6472e-03
9.750  19.000  1.9808e-03
9.750  19.250  2.0317e-03
9.750  19.500  2.1160e-03
9.750  19.750  2.1209e-03
9.750  20.000  2.1220e-03
9.750  20.250  2.1230e-03
9.750  20.500  2.1239e-03
9.750  20.750  2.1248e-03
9.750  21.000  2.1254e-03
9.750  21.250  2.1259e-03
9.750  21.500  2.1262e-03
9.750  21.750  2.1264e-03
9.750  22.000  2.1266e-03
9.750  22.250  2.1266e-03
9.750  22.500  2.1267e-03
9.750  22.750  2.1267e-03
9.750  23.000  2.1267e-03
9.750  23.250  2.1267e-03
9.750  23.500  2.1267e-03
9.750  23.750  2.1267e-03
9.750  24.000  2.1267e-03
10.000  17.000  7.7531e-05
10.000  17.250  1.1284e-04
10.000  17.500  1.6708e-04
10.000  17.750  2.5416e-04
10.000  18.000  3.9597e-04
10.000  18.250  6.0864e-04
10.000  18.500  9.0757e-04
10.000  18.750  1.3023e-03
10.000  19.000  1.7751e-03
10.000  19.250  1.9772e-03
10.000  19.500  2.0283e-03
10.000  19.750  2.1136e-03
10.000  20.000  2.1205e-03
10.000  20.250  2.1219e-03
10.000  20.500  2.1230e-03
10.000  20.750  2.1240e-03
10.000  21.000  2.1248e-03
10.000  21.250  2.1255e-03
10.000  21.500  2.1259e-03
10.000  21.750  2.1262e-03
10.000  22.000  2.1264e-03
10.000  22.250  2.1266e-03
10.000  22.500  2.1266e-03
10.000  22.750  2.1267e-03
10.000  23.000  2.1267e-03
10.000  23.250  2.1267e-03
10.000  23.500  2.1267e-03
10.000  23.750  2.1267e-03
10.000  24.000  2.1267e-03
10.250  17.000  5.4733e-05
10.250  17.250  7.9671e-05
10.250  17.500  1.1868e-04
10.250  17.750  1.8337e-04
10.250  18.000  2.9177e-04
10.250  18.250  4.5687e-04
10.250  18.500  6.9588e-04
10.250  18.750  1.0232e-03
10.250  19.000  1.4584e-03
10.250  19.250  1.9351e-03
10.250  19.500  1.9728e-03
10.250  19.750  2.0226e-03
10.250  20.000  2.1114e-03
10.250  20.250  2.1200e-03
10.250  20.500  2.1217e-03
10.250  20.750  2.1230e-03
10.250  21.000  2.1239e-03
10.250  21.250  2.1248e-03
10.250  21.500  2.1255e-03
10.250  21.750  2.1259e-03
10.250  22.000  2.1262e-03
10.250  22.250  2.1264e-03
10.250  22.500  2.1266e-03
10.250  22.750  2.1266e-03
10.250  23.000  2.1267e-03
10.250  23.250  2.1267e-03
10.250  23.500  2.1267e-03
10.250  23.750  2.1267e-03
10.250  24.000  2.1267e-03
10.500  17.000  3.8683e-05
10.500  17.250  5.6461e-05
10.500  17.500  8.4774e-05
10.500  17.750  1.3325e-04
10.500  18.000  2.1564e-04
10.500  18.250  3.4321e-04
10.500  18.500  5.2494e-04
10.500  18.750  7.8658e-04
10.500  19.000  1.1375e-03
10.500  19.250  1.6016e-03
10.500  19.500  1.9395e-03
10.500  19.750  1.9690e-03
10.500  20.000  2.0184e-03
10.500  20.250  2.1066e-03
10.500  20.500  2.1190e-03
10.500  20.750  2.1215e-03
10.500  21.000  2.1229e-03
10.500  21.250  2.1239e-03
10.500  21.500  2.1248e-03
10.500  21.750  2.1255e-03
10.500  22.000  2.1260e-03
10.500  22.250  2.1262e-03
10.500  22.500  2.1264e-03
10.500  22.750  2.1266e-03
10.500  23.000  2.1267e-03
10.500  23.250  2.1267e-03
10.500  23.500  2.1267e-03
10.500  23.750  2.1267e-03
10.500  24.000  2.1267e-03
10.750  17.000  2.7407e-05
10.750  17.250  4.0165e-05
10.750  17.500  6.0988e-05
10.750  17.750  9.7366e-05
10.750  18.000  1.5926e-04
10.750  18.250  2.5465e-04
10.750  18.500  3.9366e-04
10.750  18.750  5.9004e-04
10.750  19.000  8.6272e-04
10.750  19.250  1.2365e-03
10.750  19.500  1.7123e-03
10.750  19.750  1.9355e-03
10.750  20.000  1.9650e-03
10.750  20.250  2.0139e-03
10.750  20.500  2.1026e-03
10.750  20.750  2.1165e-03
10.750  21.000  2.1208e-03
10.750  21.250  2.1226e-03
10.750  21.500  2.1238e-03
10.750  21.750  2.1247e-03
10.750  22.000  2.1254e-03
10.750  22.250  2.1260e-03
10.750  22.500  2.1263e-03
10.750  22.750  2.1264e-03
10.750  23.000  2.1267e-03
10.750  23.250  2.1267e-03
10.750  23.500  2.1267e-03
10.750  23.750  2.1267e-03
10.750  24.000  2.1267e-03
11.000  17.000  1.9342e-05
11.000  17.250  2.8477e-05
11.000  17.500  4.3868e-05
11.000  17.750  7.1111e-05
11.000  18.000  1.1687e-04
11.000  18.250  1.8708e-04
11.000  18.500  2.8955e-04
11.000  18.750  4.3588e-04
11.000  19.000  6.4288e-04
11.000  19.250  9.3210e-04
11.000  19.500  1.3273e-03
11.000  19.750  1.8424e-03
11.000  20.000  1.9318e-03
11.000  20.250  1.9638e-03
11.000  20.500  2.0128e-03
11.000  20.750  2.0986e-03
11.000  21.000  2.1148e-03
11.000  21.250  2.1193e-03
11.000  21.500  2.1224e-03
11.000  21.750  2.1237e-03
11.000  22.000  2.1246e-03
11.000  22.250  2.1254e-03
11.000  22.500  2.1260e-03
11.000  22.750  2.1263e-03
11.000  23.000  2.1265e-03
11.000  23.250  2.1267e-03
11.000  23.500  2.1267e-03
11.000  23.750  2.1267e-03
11.000  24.000  2.1267e-03
11.250  17.000  1.3745e-05
11.250  17.250  2.0247e-05
11.250  17.500  3.1440e-05
11.250  17.750  5.1605e-05
11.250  18.000  8.5021e-05
11.250  18.250  1.3556e-04
11.250  18.500  2.0979e-04
11.250  18.750  3.1951e-04
11.250  19.000  4.7185e-04
11.250  19.250  6.8691e-04
11.250  19.500  9.8922e-04
11.250  19.750  1.4100e-03
11.250  20.000  1.8744e-03
11.250  20.250  1.9288e-03
11.250  20.500  1.9608e-03
11.250  20.750  2.0131e-03
11.250  21.000  2.0999e-03
11.250  21.250  2.1123e-03
11.250  21.500  2.1181e-03
11.250  21.750  2.1218e-03
11.250  22.000  2.1235e-03
11.250  22.250  2.1244e-03
11.250  22.500  2.1253e-03
11.250  22.750  2.1259e-03
11.250  23.000  2.1263e-03
11.250  23.250  2.1265e-03
11.250  23.500  2.1267e-03
11.250  23.750  2.1267e-03
11.250  24.000  2.1267e-03
11.500  17.000  9.8765e-06
11.500  17.250  1.4486e-05
11.500  17.500  2.2551e-05
11.500  17.750  3.7119e-05
11.500  18.000  6.1070e-05
11.500  18.250  9.7284e-05
11.500  18.500  1.5095e-04
11.500  18.750  2.3012e-04
11.500  19.000  3.4173e-04
11.500  19.250  4.9975e-04
11.500  19.500  7.2370e-04
11.500  19.750  1.0412e-03
11.500  20.000  1.4849e-03
11.500  20.250  1.8862e-03
11.500  20.500  1.9266e-03
11.500  20.750  1.9611e-03
11.500  21.000  2.0172e-03
11.500  21.250  2.1025e-03
11.500  21.500  2.1115e-03
11.500  21.750  2.1165e-03
11.500  22.000  2.1209e-03
11.500  22.250  2.1230e-03
11.500  22.500  2.1241e-03
11.500  22.750  2.1251e-03
11.500  23.000  2.1259e-03
11.500  23.250  2.1263e-03
11.500  23.500  2.1265e-03
11.500  23.750  2.1267e-03
11.500  24.000  2.1267e-03
11.750  17.000  7.1605e-06
11.750  17.250  1.0453e-05
11.750  17.500  1.6214e-05
11.750  17.750  2.6502e-05
11.750  18.000  4.3128e-05
11.750  18.250  6.8889e-05
11.750  18.500  1.0741e-04
11.750  18.750  1.6337e-04
11.750  19.000  2.4551e-04
11.750  19.250  3.6041e-04
11.750  19.500  5.2362e-04
11.750  19.750  7.5399e-04
11.750  20.000  1.0853e-03
11.750  20.250  1.5482e-03
11.750  20.500  1.8886e-03
11.750  20.750  1.9243e-03
11.750  21.000  1.9632e-03
11.750  21.250  2.0286e-03
11.750  21.500  2.1034e-03
11.750  21.750  2.1096e-03
11.750  22.000  2.1153e-03
11.750  22.250  2.1196e-03
11.750  22.500  2.1223e-03
11.750  22.750  2.1236e-03
11.750  23.000  2.1249e-03
11.750  23.250  2.1258e-03
11.750  23.500  2.1262e-03
11.750  23.750  2.1265e-03
11.750  24.000  2.1267e-03
12.000  17.000  5.2675e-06
12.000  17.250  7.5720e-06
12.000  17.500  1.1687e-05
12.000  17.750  1.8683e-05
12.000  18.000  3.0123e-05
12.000  18.250  4.8230e-05
12.000  18.500  7.5638e-05
12.000  18.750  1.1621e-04
12.000  19.000  1.7498e-04
12.000  19.250  2.5827e-04
12.000  19.500  3.7613e-04
12.000  19.750  5.4272e-04
12.000  20.000  7.8074e-04
12.000  20.250  1.1202e-03
12.000  20.500  1.5974e-03
12.000  20.750  1.8788e-03
12.000  21.000  1.9230e-03
12.000  21.250  1.9723e-03
12.000  21.500  2.0523e-03
12.000  21.750  2.1015e-03
12.000  22.000  2.1080e-03
12.000  22.250  2.1137e-03
12.000  22.500  2.1182e-03
12.000  22.750  2.1213e-03
12.000  23.000  2.1229e-03
12.000  23.250  2.1244e-03
12.000  23.500  2.1257e-03
12.000  23.750  2.1261e-03
12.000  24.000  2.1265e-03
12.250  17.000  3.9506e-06
12.250  17.250  5.5967e-06
12.250  17.500  8.3951e-06
12.250  17.750  1.3086e-05
12.250  18.000  2.0988e-05
12.250  18.250  3.3663e-05
12.250  18.500  5.3086e-05
12.250  18.750  8.2387e-05
12.250  19.000  1.2461e-04
12.250  19.250  1.8453e-04
12.250  19.500  2.6914e-04
12.250  19.750  3.8947e-04
12.250  20.000  5.5778e-04
12.250  20.250  7.9951e-04
12.250  20.500  1.1472e-03
12.250  20.750  1.6363e-03
12.250  21.000  1.8664e-03
12.250  21.250  1.9238e-03
12.250  21.500  1.9906e-03
12.250  21.750  2.0777e-03
12.250  22.000  2.0990e-03
12.250  22.250  2.1057e-03
12.250  22.500  2.1115e-03
12.250  22.750  2.1165e-03
12.250  23.000  2.1199e-03
12.250  23.250  2.1220e-03
12.250  23.500  2.1239e-03
12.250  23.750  2.1255e-03
12.250  24.000  2.1260e-03
12.500  17.000  3.0453e-06
12.500  17.250  4.1152e-06
12.500  17.500  5.9259e-06
12.500  17.750  9.1358e-06
12.500  18.000  1.4568e-05
12.500  18.250  2.3457e-05
12.500  18.500  3.7366e-05
12.500  18.750  5.8189e-05
12.500  19.000  8.8395e-05
12.500  19.250  1.3169e-04
12.500  19.500  1.9193e-04
12.500  19.750  2.7753e-04
12.500  20.000  3.9844e-04
12.500  20.250  5.6864e-04
12.500  20.500  8.1465e-04
12.500  20.750  1.1653e-03
12.500  21.000  1.6548e-03
12.500  21.250  1.8526e-03
12.500  21.500  1.9346e-03
12.500  21.750  2.0077e-03
12.500  22.000  2.0865e-03
12.500  22.250  2.0953e-03
12.500  22.500  2.1026e-03
12.500  22.750  2.1089e-03
12.500  23.000  2.1142e-03
12.500  23.250  2.1182e-03
12.500  23.500  2.1206e-03
12.500  23.750  2.1231e-03
12.500  24.000  2.1252e-03
12.750  17.000  1.8930e-06
12.750  17.250  2.9630e-06
12.750  17.500  4.2798e-06
12.750  17.750  6.4198e-06
12.750  18.000  1.0206e-05
12.750  18.250  1.6461e-05
12.750  18.500  2.6255e-05
12.750  18.750  4.1152e-05
12.750  19.000  6.2798e-05
12.750  19.250  9.3745e-05
12.750  19.500  1.3695e-04
12.750  19.750  1.9770e-04
12.750  20.000  2.8379e-04
12.750  20.250  4.0469e-04
12.750  20.500  5.7728e-04
12.750  20.750  8.2313e-04
12.750  21.000  1.1809e-03
12.750  21.250  1.6783e-03
12.750  21.500  1.8500e-03
12.750  21.750  1.9412e-03
12.750  22.000  2.0230e-03
12.750  22.250  2.0802e-03
12.750  22.500  2.0898e-03
12.750  22.750  2.0980e-03
12.750  23.000  2.1052e-03
12.750  23.250  2.1112e-03
12.750  23.500  2.1157e-03
12.750  23.750  2.1187e-03
12.750  24.000  2.1221e-03
13.000  17.000  9.8765e-07
13.000  17.250  1.8107e-06
13.000  17.500  3.0453e-06
13.000  17.750  4.6914e-06
13.000  18.000  7.2428e-06
13.000  18.250  1.1605e-05
13.000  18.500  1.8519e-05
13.000  18.750  2.8971e-05
13.000  19.000  4.4444e-05
13.000  19.250  6.6502e-05
13.000  19.500  9.7531e-05
13.000  19.750  1.4091e-04
13.000  20.000  2.0173e-04
13.000  20.250  2.8774e-04
13.000  20.500  4.0905e-04
13.000  20.750  5.8206e-04
13.000  21.000  8.2930e-04
13.000  21.250  1.1900e-03
13.000  21.500  1.6933e-03
13.000  21.750  1.8356e-03
13.000  22.000  1.9398e-03
13.000  22.250  2.0272e-03
13.000  22.500  2.0700e-03
13.000  22.750  2.0813e-03
13.000  23.000  2.0911e-03
13.000  23.250  2.0998e-03
13.000  23.500  2.1068e-03
13.000  23.750  2.1121e-03
13.000  24.000  2.1158e-03
13.250  17.000  1.0000e-07
13.250  17.250  1.0700e-06
13.250  17.500  2.2222e-06
13.250  17.750  3.4568e-06
13.250  18.000  5.2675e-06
13.250  18.250  8.2305e-06
13.250  18.500  1.3086e-05
13.250  18.750  2.0494e-05
13.250  19.000  3.1440e-05
13.250  19.250  4.7078e-05
13.250  19.500  6.9300e-05
13.250  19.750  1.0033e-04
13.250  20.000  1.4379e-04
13.250  20.250  2.0477e-04
13.250  20.500  2.9111e-04
13.250  20.750  4.1202e-04
13.250  21.000  5.8551e-04
13.250  21.250  8.3152e-04
13.250  21.500  1.1961e-03
13.250  21.750  1.6493e-03
13.250  22.000  1.8035e-03
13.250  22.250  1.9247e-03
13.250  22.500  2.0130e-03
13.250  22.750  2.0542e-03
13.250  23.000  2.0683e-03
13.250  23.250  2.0803e-03
13.250  23.500  2.0914e-03
13.250  23.750  2.1001e-03
13.250  24.000  2.1065e-03
13.500  17.000  1.0000e-07
13.500  17.250  1.0000e-07
13.500  17.500  1.3169e-06
13.500  17.750  2.3868e-06
13.500  18.000  3.7860e-06
13.500  18.250  5.9259e-06
13.500  18.500  9.3004e-06
13.500  18.750  1.4403e-05
13.500  19.000  2.2140e-05
13.500  19.250  3.3251e-05
13.500  19.500  4.9136e-05
13.500  19.750  7.1440e-05
13.500  20.000  1.0239e-04
13.500  20.250  1.4584e-04
13.500  20.500  2.0700e-04
13.500  20.750  2.9243e-04
13.500  21.000  4.1119e-04
13.500  21.250  5.8140e-04
13.500  21.500  8.2897e-04
13.500  21.750  1.1734e-03
13.500  22.000  1.5811e-03
13.500  22.250  1.7513e-03
13.500  22.500  1.8859e-03
13.500  22.750  1.9819e-03
13.500  23.000  2.0300e-03
13.500  23.250  2.0483e-03
13.500  23.500  2.0648e-03
13.500  23.750  2.0791e-03
13.500  24.000  2.0899e-03
13.750  17.000  1.0000e-07
13.750  17.250  1.0000e-07
13.750  17.500  1.0000e-07
13.750  17.750  1.5638e-06
13.750  18.000  2.7160e-06
13.750  18.250  4.1975e-06
13.750  18.500  6.5021e-06
13.750  18.750  1.0123e-05
13.750  19.000  1.5556e-05
13.750  19.250  2.3374e-05
13.750  19.500  3.4733e-05
13.750  19.750  5.0617e-05
13.750  20.000  7.2840e-05
13.750  20.250  1.0395e-04
13.750  20.500  1.4741e-04
13.750  20.750  2.0823e-04
13.750  21.000  2.9243e-04
13.750  21.250  4.0823e-04
13.750  21.500  5.7901e-04
13.750  21.750  8.1366e-04
13.750  22.000  1.1385e-03
13.750  22.250  1.4997e-03
13.750  22.500  1.6788e-03
13.750  22.750  1.8330e-03
13.750  23.000  1.9396e-03
13.750  23.250  1.9937e-03
13.750  23.500  2.0181e-03
13.750  23.750  2.0412e-03
13.750  24.000  2.0603e-03
14.000  17.000  1.0000e-07
14.000  17.250  1.0000e-07
14.000  17.500  1.0000e-07
14.000  17.750  9.8765e-07
14.000  18.000  1.8107e-06
14.000  18.250  3.0453e-06
14.000  18.500  4.6091e-06
14.000  18.750  7.0782e-06
14.000  19.000  1.0782e-05
14.000  19.250  1.6379e-05
14.000  19.500  2.4362e-05
14.000  19.750  3.5720e-05
14.000  20.000  5.1687e-05
14.000  20.250  7.3909e-05
14.000  20.500  1.0502e-04
14.000  20.750  1.4840e-04
14.000  21.000  2.0790e-04
14.000  21.250  2.9021e-04
14.000  21.500  4.0848e-04
14.000  21.750  5.6741e-04
14.000  22.000  7.8807e-04
14.000  22.250  1.0926e-03
14.000  22.500  1.4021e-03
14.000  22.750  1.5893e-03
14.000  23.000  1.7596e-03
14.000  23.250  1.8820e-03
14.000  23.500  1.9406e-03
14.000  23.750  1.9738e-03
14.000  24.000  2.0065e-03
