InwC 1103.23A  relative to Inci 1215.00A scaled to 1215A.
Hden   Phi(H)  Eq_Width (A)
7.000  17.000  7.9907e-03
7.000  17.250  7.9941e-03
7.000  17.500  7.9974e-03
7.000  17.750  8.0008e-03
7.000  18.000  8.0042e-03
7.000  18.250  8.0071e-03
7.000  18.500  8.0091e-03
7.000  18.750  8.0100e-03
7.000  19.000  8.0110e-03
7.000  19.250  8.0117e-03
7.000  19.500  8.0119e-03
7.000  19.750  8.0121e-03
7.000  20.000  8.0122e-03
7.000  20.250  8.0122e-03
7.000  20.500  8.0123e-03
7.000  20.750  8.0123e-03
7.000  21.000  8.0123e-03
7.000  21.250  8.0123e-03
7.000  21.500  8.0124e-03
7.000  21.750  8.0123e-03
7.000  22.000  8.0123e-03
7.000  22.250  8.0123e-03
7.000  22.500  8.0123e-03
7.000  22.750  8.0125e-03
7.000  23.000  8.0125e-03
7.000  23.250  8.0123e-03
7.000  23.500  8.0123e-03
7.000  23.750  8.0123e-03
7.000  24.000  8.0123e-03
7.250  17.000  7.9774e-03
7.250  17.250  7.9907e-03
7.250  17.500  7.9941e-03
7.250  17.750  7.9974e-03
7.250  18.000  8.0008e-03
7.250  18.250  8.0042e-03
7.250  18.500  8.0071e-03
7.250  18.750  8.0091e-03
7.250  19.000  8.0100e-03
7.250  19.250  8.0110e-03
7.250  19.500  8.0117e-03
7.250  19.750  8.0119e-03
7.250  20.000  8.0120e-03
7.250  20.250  8.0121e-03
7.250  20.500  8.0122e-03
7.250  20.750  8.0122e-03
7.250  21.000  8.0123e-03
7.250  21.250  8.0123e-03
7.250  21.500  8.0123e-03
7.250  21.750  8.0138e-03
7.250  22.000  8.0123e-03
7.250  22.250  8.0123e-03
7.250  22.500  8.0123e-03
7.250  22.750  8.0130e-03
7.250  23.000  8.0130e-03
7.250  23.250  8.0123e-03
7.250  23.500  8.0123e-03
7.250  23.750  8.0123e-03
7.250  24.000  8.0123e-03
7.500  17.000  7.6492e-03
7.500  17.250  7.9781e-03
7.500  17.500  7.9907e-03
7.500  17.750  7.9941e-03
7.500  18.000  7.9974e-03
7.500  18.250  8.0008e-03
7.500  18.500  8.0042e-03
7.500  18.750  8.0071e-03
7.500  19.000  8.0091e-03
7.500  19.250  8.0100e-03
7.500  19.500  8.0110e-03
7.500  19.750  8.0117e-03
7.500  20.000  8.0119e-03
7.500  20.250  8.0120e-03
7.500  20.500  8.0121e-03
7.500  20.750  8.0121e-03
7.500  21.000  8.0122e-03
7.500  21.250  8.0122e-03
7.500  21.500  8.0122e-03
7.500  21.750  8.0123e-03
7.500  22.000  8.0123e-03
7.500  22.250  8.0123e-03
7.500  22.500  8.0123e-03
7.500  22.750  8.0123e-03
7.500  23.000  8.0127e-03
7.500  23.250  8.0130e-03
7.500  23.500  8.0123e-03
7.500  23.750  8.0133e-03
7.500  24.000  8.0123e-03
7.750  17.000  8.4758e-03
7.750  17.250  7.6508e-03
7.750  17.500  7.9786e-03
7.750  17.750  7.9907e-03
7.750  18.000  7.9941e-03
7.750  18.250  7.9974e-03
7.750  18.500  8.0008e-03
7.750  18.750  8.0042e-03
7.750  19.000  8.0071e-03
7.750  19.250  8.0091e-03
7.750  19.500  8.0100e-03
7.750  19.750  8.0110e-03
7.750  20.000  8.0117e-03
7.750  20.250  8.0119e-03
7.750  20.500  8.0120e-03
7.750  20.750  8.0121e-03
7.750  21.000  8.0121e-03
7.750  21.250  8.0122e-03
7.750  21.500  8.0122e-03
7.750  21.750  8.0122e-03
7.750  22.000  8.0122e-03
7.750  22.250  8.0122e-03
7.750  22.500  8.0122e-03
7.750  22.750  8.0124e-03
7.750  23.000  8.0125e-03
7.750  23.250  8.0123e-03
7.750  23.500  8.0130e-03
7.750  23.750  8.0130e-03
7.750  24.000  8.0123e-03
8.000  17.000  1.3363e-02
8.000  17.250  8.5701e-03
8.000  17.500  4.4681e-03
8.000  17.750  1.1480e-03
8.000  18.000  -1.4494e-03
8.000  18.250  -3.3832e-03
8.000  18.500  -4.7125e-03
8.000  18.750  -5.4963e-03
8.000  19.000  -5.7937e-03
8.000  19.250  -5.6640e-03
8.000  19.500  -5.1660e-03
8.000  19.750  -4.3591e-03
8.000  20.000  -3.3022e-03
8.000  20.250  -2.0544e-03
8.000  20.500  -6.7494e-04
8.000  20.750  7.7721e-04
8.000  21.000  2.2429e-03
8.000  21.250  3.6631e-03
8.000  21.500  4.9786e-03
8.000  21.750  6.1303e-03
8.000  22.000  7.0593e-03
8.000  22.250  7.7063e-03
8.000  22.500  8.0122e-03
8.000  22.750  8.0123e-03
8.000  23.000  8.0122e-03
8.000  23.250  8.0127e-03
8.000  23.500  8.0122e-03
8.000  23.750  8.0122e-03
8.000  24.000  8.0122e-03
8.250  17.000  1.7104e-02
8.250  17.250  1.3301e-02
8.250  17.500  8.5514e-03
8.250  17.750  7.6491e-03
8.250  18.000  7.9778e-03
8.250  18.250  7.9907e-03
8.250  18.500  7.9942e-03
8.250  18.750  7.9975e-03
8.250  19.000  8.0009e-03
8.250  19.250  8.0042e-03
8.250  19.500  8.0071e-03
8.250  19.750  8.0091e-03
8.250  20.000  8.0100e-03
8.250  20.250  8.0110e-03
8.250  20.500  8.0117e-03
8.250  20.750  8.0119e-03
8.250  21.000  8.0120e-03
8.250  21.250  8.0121e-03
8.250  21.500  8.0121e-03
8.250  21.750  8.0121e-03
8.250  22.000  8.0122e-03
8.250  22.250  8.0122e-03
8.250  22.500  8.0122e-03
8.250  22.750  8.0123e-03
8.250  23.000  8.0122e-03
8.250  23.250  8.0142e-03
8.250  23.500  8.0122e-03
8.250  23.750  8.0122e-03
8.250  24.000  8.0128e-03
8.500  17.000  1.9755e-02
8.500  17.250  1.7006e-02
8.500  17.500  1.3227e-02
8.500  17.750  8.5256e-03
8.500  18.000  7.6501e-03
8.500  18.250  7.9781e-03
8.500  18.500  7.9907e-03
8.500  18.750  7.9272e-03
8.500  19.000  7.8844e-03
8.500  19.250  7.8594e-03
8.500  19.500  7.8497e-03
8.500  19.750  7.8526e-03
8.500  20.000  7.8655e-03
8.500  20.250  7.8857e-03
8.500  20.500  7.9106e-03
8.500  20.750  7.9375e-03
8.500  21.000  7.9637e-03
8.500  21.250  7.9867e-03
8.500  21.500  8.0037e-03
8.500  21.750  8.0121e-03
8.500  22.000  8.0121e-03
8.500  22.250  8.0121e-03
8.500  22.500  8.0121e-03
8.500  22.750  8.0122e-03
8.500  23.000  8.0122e-03
8.500  23.250  8.0123e-03
8.500  23.500  8.0122e-03
8.500  23.750  8.0122e-03
8.500  24.000  8.0122e-03
8.750  17.000  2.1553e-02
8.750  17.250  1.9654e-02
8.750  17.500  1.6880e-02
8.750  17.750  1.3177e-02
8.750  18.000  8.4788e-03
8.750  18.250  7.6507e-03
8.750  18.500  7.9782e-03
8.750  18.750  7.9907e-03
8.750  19.000  7.9301e-03
8.750  19.250  7.8877e-03
8.750  19.500  7.8613e-03
8.750  19.750  7.8487e-03
8.750  20.000  7.8479e-03
8.750  20.250  7.8567e-03
8.750  20.500  7.8728e-03
8.750  20.750  7.8942e-03
8.750  21.000  7.9187e-03
8.750  21.250  7.9441e-03
8.750  21.500  7.9683e-03
8.750  21.750  7.9891e-03
8.750  22.000  8.0045e-03
8.750  22.250  8.0121e-03
8.750  22.500  8.0122e-03
8.750  22.750  8.0121e-03
8.750  23.000  8.0129e-03
8.750  23.250  8.0122e-03
8.750  23.500  8.0123e-03
8.750  23.750  8.0122e-03
8.750  24.000  8.0122e-03
9.000  17.000  2.2694e-02
9.000  17.250  2.1449e-02
9.000  17.500  1.9497e-02
9.000  17.750  1.6668e-02
9.000  18.000  1.2947e-02
9.000  18.250  8.3297e-03
9.000  18.500  7.6508e-03
9.000  18.750  7.9779e-03
9.000  19.000  7.9906e-03
9.000  19.250  7.9942e-03
9.000  19.500  7.9976e-03
9.000  19.750  8.0010e-03
9.000  20.000  8.0043e-03
9.000  20.250  8.0071e-03
9.000  20.500  8.0091e-03
9.000  20.750  8.0100e-03
9.000  21.000  8.0110e-03
9.000  21.250  8.0117e-03
9.000  21.500  8.0119e-03
9.000  21.750  8.0120e-03
9.000  22.000  8.0121e-03
9.000  22.250  8.0121e-03
9.000  22.500  8.0121e-03
9.000  22.750  8.0121e-03
9.000  23.000  8.0122e-03
9.000  23.250  8.0121e-03
9.000  23.500  8.0122e-03
9.000  23.750  8.0121e-03
9.000  24.000  8.0122e-03
9.250  17.000  2.3336e-02
9.250  17.250  2.2592e-02
9.250  17.500  2.1273e-02
9.250  17.750  1.9207e-02
9.250  18.000  1.6282e-02
9.250  18.250  1.2507e-02
9.250  18.500  7.9899e-03
9.250  18.750  7.6501e-03
9.250  19.000  7.9773e-03
9.250  19.250  7.9905e-03
9.250  19.500  7.9942e-03
9.250  19.750  7.9976e-03
9.250  20.000  8.0011e-03
9.250  20.250  8.0044e-03
9.250  20.500  8.0071e-03
9.250  20.750  8.0091e-03
9.250  21.000  8.0100e-03
9.250  21.250  8.0110e-03
9.250  21.500  8.0113e-03
9.250  21.750  8.0114e-03
9.250  22.000  8.0114e-03
9.250  22.250  8.0115e-03
9.250  22.500  8.0118e-03
9.250  22.750  8.0118e-03
9.250  23.000  8.0119e-03
9.250  23.250  8.0120e-03
9.250  23.500  8.0119e-03
9.250  23.750  8.0119e-03
9.250  24.000  8.0120e-03
9.500  17.000  2.3585e-02
9.500  17.250  2.3230e-02
9.500  17.500  2.2409e-02
9.500  17.750  2.0959e-02
9.500  18.000  1.8709e-02
9.500  18.250  1.5562e-02
9.500  18.500  1.1626e-02
9.500  18.750  8.7629e-03
9.500  19.000  7.6483e-03
9.500  19.250  7.9758e-03
9.500  19.500  7.9904e-03
9.500  19.750  7.9941e-03
9.500  20.000  7.9977e-03
9.500  20.250  8.0011e-03
9.500  20.500  8.0044e-03
9.500  20.750  8.0067e-03
9.500  21.000  8.0086e-03
9.500  21.250  8.0095e-03
9.500  21.500  8.0105e-03
9.500  21.750  8.0109e-03
9.500  22.000  8.0111e-03
9.500  22.250  8.0113e-03
9.500  22.500  8.0113e-03
9.500  22.750  8.0114e-03
9.500  23.000  8.0114e-03
9.500  23.250  8.0114e-03
9.500  23.500  8.0114e-03
9.500  23.750  8.0114e-03
9.500  24.000  8.0114e-03
9.750  17.000  2.3529e-02
9.750  17.250  2.3478e-02
9.750  17.500  2.3053e-02
9.750  17.750  2.2086e-02
9.750  18.000  2.0367e-02
9.750  18.250  1.7817e-02
9.750  18.500  1.4358e-02
9.750  18.750  1.0079e-02
9.750  19.000  7.9199e-03
9.750  19.250  7.6450e-03
9.750  19.500  7.9731e-03
9.750  19.750  7.9900e-03
9.750  20.000  7.9940e-03
9.750  20.250  8.0131e-03
9.750  20.500  8.0227e-03
9.750  20.750  8.0252e-03
9.750  21.000  8.0229e-03
9.750  21.250  8.0181e-03
9.750  21.500  8.0132e-03
9.750  21.750  8.0105e-03
9.750  22.000  8.0109e-03
9.750  22.250  8.0112e-03
9.750  22.500  8.0113e-03
9.750  22.750  8.0114e-03
9.750  23.000  8.0114e-03
9.750  23.250  8.0113e-03
9.750  23.500  8.0114e-03
9.750  23.750  8.0114e-03
9.750  24.000  8.0114e-03
10.000  17.000  2.3218e-02
10.000  17.250  2.3410e-02
10.000  17.500  2.3286e-02
10.000  17.750  2.2697e-02
10.000  18.000  2.1437e-02
10.000  18.250  1.9423e-02
10.000  18.500  1.6580e-02
10.000  18.750  1.2962e-02
10.000  19.000  8.8904e-03
10.000  19.250  7.4477e-03
10.000  19.500  7.6399e-03
10.000  19.750  7.9681e-03
10.000  20.000  8.1732e-03
10.000  20.250  8.2766e-03
10.000  20.500  8.3004e-03
10.000  20.750  8.2671e-03
10.000  21.000  8.1991e-03
10.000  21.250  8.1186e-03
10.000  21.500  8.0479e-03
10.000  21.750  8.0096e-03
10.000  22.000  8.0105e-03
10.000  22.250  8.0110e-03
10.000  22.500  8.0112e-03
10.000  22.750  8.0113e-03
10.000  23.000  8.0114e-03
10.000  23.250  8.0114e-03
10.000  23.500  8.0114e-03
10.000  23.750  8.0114e-03
10.000  24.000  8.0114e-03
10.250  17.000  2.2684e-02
10.250  17.250  2.3076e-02
10.250  17.500  2.3182e-02
10.250  17.750  2.2866e-02
10.250  18.000  2.1994e-02
10.250  18.250  2.0528e-02
10.250  18.500  1.8321e-02
10.250  18.750  1.5298e-02
10.250  19.000  1.1414e-02
10.250  19.250  8.8232e-03
10.250  19.500  7.7242e-03
10.250  19.750  7.6342e-03
10.250  20.000  7.9610e-03
10.250  20.250  7.9890e-03
10.250  20.500  7.9937e-03
10.250  20.750  7.9976e-03
10.250  21.000  8.0012e-03
10.250  21.250  8.0044e-03
10.250  21.500  8.0071e-03
10.250  21.750  8.0087e-03
10.250  22.000  8.0096e-03
10.250  22.250  8.0106e-03
10.250  22.500  8.0111e-03
10.250  22.750  8.0112e-03
10.250  23.000  8.0113e-03
10.250  23.250  8.0114e-03
10.250  23.500  8.0114e-03
10.250  23.750  8.0114e-03
10.250  24.000  8.0114e-03
10.500  17.000  2.1936e-02
10.500  17.250  2.2498e-02
10.500  17.500  2.2774e-02
10.500  17.750  2.2650e-02
10.500  18.000  2.2077e-02
10.500  18.250  2.1067e-02
10.500  18.500  1.9545e-02
10.500  18.750  1.7231e-02
10.500  19.000  1.4102e-02
10.500  19.250  1.0023e-02
10.500  19.500  7.8780e-03
10.500  19.750  7.4458e-03
10.500  20.000  7.6294e-03
10.500  20.250  7.9523e-03
10.500  20.500  7.9881e-03
10.500  20.750  7.9934e-03
10.500  21.000  7.9976e-03
10.500  21.250  8.0012e-03
10.500  21.500  8.0044e-03
10.500  21.750  8.0071e-03
10.500  22.000  8.0090e-03
10.500  22.250  8.0097e-03
10.500  22.500  8.0106e-03
10.500  22.750  8.0112e-03
10.500  23.000  8.0113e-03
10.500  23.250  8.0113e-03
10.500  23.500  8.0114e-03
10.500  23.750  8.0114e-03
10.500  24.000  8.0114e-03
10.750  17.000  2.0966e-02
10.750  17.250  2.1682e-02
10.750  17.500  2.2074e-02
10.750  17.750  2.2070e-02
10.750  18.000  2.1738e-02
10.750  18.250  2.1160e-02
10.750  18.500  2.0208e-02
10.750  18.750  1.8689e-02
10.750  19.000  1.6373e-02
10.750  19.250  1.3076e-02
10.750  19.500  8.9519e-03
10.750  19.750  7.3407e-03
10.750  20.000  7.4465e-03
10.750  20.250  7.6266e-03
10.750  20.500  7.9453e-03
10.750  20.750  7.9873e-03
10.750  21.000  7.9929e-03
10.750  21.250  7.9974e-03
10.750  21.500  8.0012e-03
10.750  21.750  8.0044e-03
10.750  22.000  8.0072e-03
10.750  22.250  8.0091e-03
10.750  22.500  8.0099e-03
10.750  22.750  8.0106e-03
10.750  23.000  8.0113e-03
10.750  23.250  8.0114e-03
10.750  23.500  8.0114e-03
10.750  23.750  8.0113e-03
10.750  24.000  8.0114e-03
11.000  17.000  1.9749e-02
11.000  17.250  2.0615e-02
11.000  17.500  2.1084e-02
11.000  17.750  2.1152e-02
11.000  18.000  2.1024e-02
11.000  18.250  2.0800e-02
11.000  18.500  2.0381e-02
11.000  18.750  1.9530e-02
11.000  19.000  1.8011e-02
11.000  19.250  1.5599e-02
11.000  19.500  1.2137e-02
11.000  19.750  7.5794e-03
11.000  20.000  7.3422e-03
11.000  20.250  7.4477e-03
11.000  20.500  7.6277e-03
11.000  20.750  7.8236e-03
11.000  21.000  7.9466e-03
11.000  21.250  8.0121e-03
11.000  21.500  8.0355e-03
11.000  21.750  8.0322e-03
11.000  22.000  8.0176e-03
11.000  22.250  8.0071e-03
11.000  22.500  8.0091e-03
11.000  22.750  8.0100e-03
11.000  23.000  8.0108e-03
11.000  23.250  8.0113e-03
11.000  23.500  8.0114e-03
11.000  23.750  8.0114e-03
11.000  24.000  8.0114e-03
11.250  17.000  1.8194e-02
11.250  17.250  1.9253e-02
11.250  17.500  1.9780e-02
11.250  17.750  1.9901e-02
11.250  18.000  1.9946e-02
11.250  18.250  2.0045e-02
11.250  18.500  2.0046e-02
11.250  18.750  1.9737e-02
11.250  19.000  1.8948e-02
11.250  19.250  1.7436e-02
11.250  19.500  1.4949e-02
11.250  19.750  1.1245e-02
11.250  20.000  7.2926e-03
11.250  20.250  7.3433e-03
11.250  20.500  7.4519e-03
11.250  20.750  7.6352e-03
11.250  21.000  7.9533e-03
11.250  21.250  7.9857e-03
11.250  21.500  7.9920e-03
11.250  21.750  7.9971e-03
11.250  22.000  8.0011e-03
11.250  22.250  8.0044e-03
11.250  22.500  8.0071e-03
11.250  22.750  8.0091e-03
11.250  23.000  8.0100e-03
11.250  23.250  8.0109e-03
11.250  23.500  8.0113e-03
11.250  23.750  8.0114e-03
11.250  24.000  8.0115e-03
11.500  17.000  1.6140e-02
11.500  17.250  1.7470e-02
11.500  17.500  1.8108e-02
11.500  17.750  1.8302e-02
11.500  18.000  1.8535e-02
11.500  18.250  1.8906e-02
11.500  18.500  1.9243e-02
11.500  18.750  1.9391e-02
11.500  19.000  1.9215e-02
11.500  19.250  1.8469e-02
11.500  19.500  1.6930e-02
11.500  19.750  1.4329e-02
11.500  20.000  1.0411e-02
11.500  20.250  7.2137e-03
11.500  20.500  7.3458e-03
11.500  20.750  7.4581e-03
11.500  21.000  7.6560e-03
11.500  21.250  7.9684e-03
11.500  21.500  7.9848e-03
11.500  21.750  7.9915e-03
11.500  22.000  7.9969e-03
11.500  22.250  8.0010e-03
11.500  22.500  8.0044e-03
11.500  22.750  8.0071e-03
11.500  23.000  8.0091e-03
11.500  23.250  8.0100e-03
11.500  23.500  8.0110e-03
11.500  23.750  8.0114e-03
11.500  24.000  8.0115e-03
11.750  17.000  1.3447e-02
11.750  17.250  1.5112e-02
11.750  17.500  1.5974e-02
11.750  17.750  1.6346e-02
11.750  18.000  1.6818e-02
11.750  18.250  1.7418e-02
11.750  18.500  1.8033e-02
11.750  18.750  1.8555e-02
11.750  19.000  1.8835e-02
11.750  19.250  1.8740e-02
11.750  19.500  1.8026e-02
11.750  19.750  1.6480e-02
11.750  20.000  1.3771e-02
11.750  20.250  9.6646e-03
11.750  20.500  7.2514e-03
11.750  20.750  7.3509e-03
11.750  21.000  7.4747e-03
11.750  21.250  7.7067e-03
11.750  21.500  7.9722e-03
11.750  21.750  7.9839e-03
11.750  22.000  7.9909e-03
11.750  22.250  7.9965e-03
11.750  22.500  8.0008e-03
11.750  22.750  8.0043e-03
11.750  23.000  8.0070e-03
11.750  23.250  8.0091e-03
11.750  23.500  8.0100e-03
11.750  23.750  8.0110e-03
11.750  24.000  8.0115e-03
12.000  17.000  1.0203e-02
12.000  17.250  1.2134e-02
12.000  17.500  1.3325e-02
12.000  17.750  1.4066e-02
12.000  18.000  1.4800e-02
12.000  18.250  1.5592e-02
12.000  18.500  1.6431e-02
12.000  18.750  1.7227e-02
12.000  19.000  1.7889e-02
12.000  19.250  1.8311e-02
12.000  19.500  1.8292e-02
12.000  19.750  1.7625e-02
12.000  20.000  1.6059e-02
12.000  20.250  1.3284e-02
12.000  20.500  9.0300e-03
12.000  20.750  7.2491e-03
12.000  21.000  7.3626e-03
12.000  21.250  7.5204e-03
12.000  21.500  7.7967e-03
12.000  21.750  7.9721e-03
12.000  22.000  7.9833e-03
12.000  22.250  7.9907e-03
12.000  22.500  7.9963e-03
12.000  22.750  8.0007e-03
12.000  23.000  8.0042e-03
12.000  23.250  8.0070e-03
12.000  23.500  8.0091e-03
12.000  23.750  8.0100e-03
12.000  24.000  8.0110e-03
12.250  17.000  6.8741e-03
12.250  17.250  8.8176e-03
12.250  17.500  1.0338e-02
12.250  17.750  1.1520e-02
12.250  18.000  1.2501e-02
12.250  18.250  1.3431e-02
12.250  18.500  1.4435e-02
12.250  18.750  1.5455e-02
12.250  19.000  1.6431e-02
12.250  19.250  1.7264e-02
12.250  19.500  1.7814e-02
12.250  19.750  1.7866e-02
12.250  20.000  1.7257e-02
12.250  20.250  1.5691e-02
12.250  20.500  1.2838e-02
12.250  20.750  8.4123e-03
12.250  21.000  7.2528e-03
12.250  21.250  7.3900e-03
12.250  21.500  7.5884e-03
12.250  21.750  7.9040e-03
12.250  22.000  7.9711e-03
12.250  22.250  7.9816e-03
12.250  22.500  7.9897e-03
12.250  22.750  7.9960e-03
12.250  23.000  8.0006e-03
12.250  23.250  8.0041e-03
12.250  23.500  8.0069e-03
12.250  23.750  8.0091e-03
12.250  24.000  8.0100e-03
12.500  17.000  4.2720e-03
12.500  17.250  5.9524e-03
12.500  17.500  7.5257e-03
12.500  17.750  8.8401e-03
12.500  18.000  9.9462e-03
12.500  18.250  1.0987e-02
12.500  18.500  1.2079e-02
12.500  18.750  1.3283e-02
12.500  19.000  1.4527e-02
12.500  19.250  1.5690e-02
12.500  19.500  1.6679e-02
12.500  19.750  1.7341e-02
12.500  20.000  1.7475e-02
12.500  20.250  1.6911e-02
12.500  20.500  1.5332e-02
12.500  20.750  1.2438e-02
12.500  21.000  7.9990e-03
12.500  21.250  7.2709e-03
12.500  21.500  7.4340e-03
12.500  21.750  7.6719e-03
12.500  22.000  7.9537e-03
12.500  22.250  7.9698e-03
12.500  22.500  7.9802e-03
12.500  22.750  7.9890e-03
12.500  23.000  7.9955e-03
12.500  23.250  8.0003e-03
12.500  23.500  8.0040e-03
12.500  23.750  8.0068e-03
12.500  24.000  8.0090e-03
12.750  17.000  2.6830e-03
12.750  17.250  3.9102e-03
12.750  17.500  5.1385e-03
12.750  17.750  6.2288e-03
12.750  18.000  7.2688e-03
12.750  18.250  8.3337e-03
12.750  18.500  9.4960e-03
12.750  18.750  1.0794e-02
12.750  19.000  1.2222e-02
12.750  19.250  1.3666e-02
12.750  19.500  1.5006e-02
12.750  19.750  1.6114e-02
12.750  20.000  1.6877e-02
12.750  20.250  1.7092e-02
12.750  20.500  1.6557e-02
12.750  20.750  1.4997e-02
12.750  21.000  1.1984e-02
12.750  21.250  7.3926e-03
12.750  21.500  7.2958e-03
12.750  21.750  7.4961e-03
12.750  22.000  7.7612e-03
12.750  22.250  7.9546e-03
12.750  22.500  7.9686e-03
12.750  22.750  7.9794e-03
12.750  23.000  7.9882e-03
12.750  23.250  7.9949e-03
12.750  23.500  8.0000e-03
12.750  23.750  8.0037e-03
12.750  24.000  8.0067e-03
13.000  17.000  1.6228e-03
13.000  17.250  2.3342e-03
13.000  17.500  3.1170e-03
13.000  17.750  3.9174e-03
13.000  18.000  4.7593e-03
13.000  18.250  5.7301e-03
13.000  18.500  6.8598e-03
13.000  18.750  8.1591e-03
13.000  19.000  9.6449e-03
13.000  19.250  1.1264e-02
13.000  19.500  1.2860e-02
13.000  19.750  1.4330e-02
13.000  20.000  1.5551e-02
13.000  20.250  1.6411e-02
13.000  20.500  1.6699e-02
13.000  20.750  1.6202e-02
13.000  21.000  1.4608e-02
13.000  21.250  1.1490e-02
13.000  21.500  7.0607e-03
13.000  21.750  7.3374e-03
13.000  22.000  7.5507e-03
13.000  22.250  7.8283e-03
13.000  22.500  7.9542e-03
13.000  22.750  7.9677e-03
13.000  23.000  7.9787e-03
13.000  23.250  7.9874e-03
13.000  23.500  7.9944e-03
13.000  23.750  7.9995e-03
13.000  24.000  8.0034e-03
13.250  17.000  1.0237e-03
13.250  17.250  1.4239e-03
13.250  17.500  1.8164e-03
13.250  17.750  2.2488e-03
13.250  18.000  2.7898e-03
13.250  18.250  3.5066e-03
13.250  18.500  4.4437e-03
13.250  18.750  5.6201e-03
13.250  19.000  7.0245e-03
13.250  19.250  8.6415e-03
13.250  19.500  1.0369e-02
13.250  19.750  1.2086e-02
13.250  20.000  1.3656e-02
13.250  20.250  1.4964e-02
13.250  20.500  1.5904e-02
13.250  20.750  1.6259e-02
13.250  21.000  1.5779e-02
13.250  21.250  1.4158e-02
13.250  21.500  1.1138e-02
13.250  21.750  7.0784e-03
13.250  22.000  7.3540e-03
13.250  22.250  7.5910e-03
13.250  22.500  7.8495e-03
13.250  22.750  7.9535e-03
13.250  23.000  7.9667e-03
13.250  23.250  7.9774e-03
13.250  23.500  7.9867e-03
13.250  23.750  7.9938e-03
13.250  24.000  7.9989e-03
13.500  17.000  6.7868e-04
13.500  17.250  9.1243e-04
13.500  17.500  1.1279e-03
13.500  17.750  1.3294e-03
13.500  18.000  1.5996e-03
13.500  18.250  2.0060e-03
13.500  18.500  2.6111e-03
13.500  18.750  3.4821e-03
13.500  19.000  4.6395e-03
13.500  19.250  6.0737e-03
13.500  19.500  7.7242e-03
13.500  19.750  9.5043e-03
13.500  20.000  1.1272e-02
13.500  20.250  1.2928e-02
13.500  20.500  1.4321e-02
13.500  20.750  1.5337e-02
13.500  21.000  1.5734e-02
13.500  21.250  1.5278e-02
13.500  21.500  1.3760e-02
13.500  21.750  1.0658e-02
13.500  22.000  7.0987e-03
13.500  22.250  7.3526e-03
13.500  22.500  7.5812e-03
13.500  22.750  7.8376e-03
13.500  23.000  7.9521e-03
13.500  23.250  7.9653e-03
13.500  23.500  7.9767e-03
13.500  23.750  7.9860e-03
13.500  24.000  7.9930e-03
13.750  17.000  4.7432e-04
13.750  17.250  6.1942e-04
13.750  17.500  7.4444e-04
13.750  17.750  8.4971e-04
13.750  18.000  9.8584e-04
13.750  18.250  1.2052e-03
13.750  18.500  1.5387e-03
13.750  18.750  2.0391e-03
13.750  19.000  2.7914e-03
13.750  19.250  3.8675e-03
13.750  19.500  5.2524e-03
13.750  19.750  6.8787e-03
13.750  20.000  8.6531e-03
13.750  20.250  1.0445e-02
13.750  20.500  1.2146e-02
13.750  20.750  1.3600e-02
13.750  21.000  1.4653e-02
13.750  21.250  1.5067e-02
13.750  21.500  1.4726e-02
13.750  21.750  1.3070e-02
13.750  22.000  9.9928e-03
13.750  22.250  7.1159e-03
13.750  22.500  7.3279e-03
13.750  22.750  7.5697e-03
13.750  23.000  7.8315e-03
13.750  23.250  7.9495e-03
13.750  23.500  7.9635e-03
13.750  23.750  7.9754e-03
13.750  24.000  7.9848e-03
14.000  17.000  3.4634e-04
14.000  17.250  4.4634e-04
14.000  17.500  5.2716e-04
14.000  17.750  5.8543e-04
14.000  18.000  6.5827e-04
14.000  18.250  7.7844e-04
14.000  18.500  9.6337e-04
14.000  18.750  1.2427e-03
14.000  19.000  1.6607e-03
14.000  19.250  2.2987e-03
14.000  19.500  3.2528e-03
14.000  19.750  4.5403e-03
14.000  20.000  6.0970e-03
14.000  20.250  7.8361e-03
14.000  20.500  9.6138e-03
14.000  20.750  1.1312e-02
14.000  21.000  1.2789e-02
14.000  21.250  1.3839e-02
14.000  21.500  1.4353e-02
14.000  21.750  1.3835e-02
14.000  22.000  1.2053e-02
14.000  22.250  9.0510e-03
14.000  22.500  7.1236e-03
14.000  22.750  7.3131e-03
14.000  23.000  7.5565e-03
14.000  23.250  7.8419e-03
14.000  23.500  7.9457e-03
14.000  23.750  7.9601e-03
14.000  24.000  7.9732e-03
