InwC 4885.36A  relative to Inci 1215.00A scaled to 1215A.
Hden   Phi(H)  Eq_Width (A)
7.000  17.000  4.4819e-03
7.000  17.250  4.4838e-03
7.000  17.500  4.4857e-03
7.000  17.750  4.4876e-03
7.000  18.000  4.4895e-03
7.000  18.250  4.4911e-03
7.000  18.500  4.4923e-03
7.000  18.750  4.4928e-03
7.000  19.000  4.4933e-03
7.000  19.250  4.4937e-03
7.000  19.500  4.4938e-03
7.000  19.750  4.4939e-03
7.000  20.000  4.4940e-03
7.000  20.250  4.4940e-03
7.000  20.500  4.4940e-03
7.000  20.750  4.4940e-03
7.000  21.000  4.4940e-03
7.000  21.250  4.4940e-03
7.000  21.500  4.4942e-03
7.000  21.750  4.4940e-03
7.000  22.000  4.4940e-03
7.000  22.250  4.4940e-03
7.000  22.500  4.4940e-03
7.000  22.750  4.4942e-03
7.000  23.000  4.4942e-03
7.000  23.250  4.4940e-03
7.000  23.500  4.4940e-03
7.000  23.750  4.4940e-03
7.000  24.000  4.4940e-03
7.250  17.000  4.4744e-03
7.250  17.250  4.4819e-03
7.250  17.500  4.4838e-03
7.250  17.750  4.4857e-03
7.250  18.000  4.4876e-03
7.250  18.250  4.4895e-03
7.250  18.500  4.4911e-03
7.250  18.750  4.4923e-03
7.250  19.000  4.4928e-03
7.250  19.250  4.4933e-03
7.250  19.500  4.4937e-03
7.250  19.750  4.4938e-03
7.250  20.000  4.4939e-03
7.250  20.250  4.4940e-03
7.250  20.500  4.4940e-03
7.250  20.750  4.4940e-03
7.250  21.000  4.4940e-03
7.250  21.250  4.4940e-03
7.250  21.500  4.4940e-03
7.250  21.750  4.4949e-03
7.250  22.000  4.4940e-03
7.250  22.250  4.4940e-03
7.250  22.500  4.4940e-03
7.250  22.750  4.4945e-03
7.250  23.000  4.4945e-03
7.250  23.250  4.4940e-03
7.250  23.500  4.4940e-03
7.250  23.750  4.4940e-03
7.250  24.000  4.4940e-03
7.500  17.000  4.2993e-03
7.500  17.250  4.4748e-03
7.500  17.500  4.4819e-03
7.500  17.750  4.4838e-03
7.500  18.000  4.4857e-03
7.500  18.250  4.4877e-03
7.500  18.500  4.4895e-03
7.500  18.750  4.4911e-03
7.500  19.000  4.4923e-03
7.500  19.250  4.4928e-03
7.500  19.500  4.4933e-03
7.500  19.750  4.4937e-03
7.500  20.000  4.4938e-03
7.500  20.250  4.4939e-03
7.500  20.500  4.4940e-03
7.500  20.750  4.4940e-03
7.500  21.000  4.4940e-03
7.500  21.250  4.4940e-03
7.500  21.500  4.4940e-03
7.500  21.750  4.4940e-03
7.500  22.000  4.4940e-03
7.500  22.250  4.4940e-03
7.500  22.500  4.4940e-03
7.500  22.750  4.4940e-03
7.500  23.000  4.4942e-03
7.500  23.250  4.4945e-03
7.500  23.500  4.4940e-03
7.500  23.750  4.4946e-03
7.500  24.000  4.4940e-03
7.750  17.000  3.9742e-03
7.750  17.250  4.3002e-03
7.750  17.500  4.4751e-03
7.750  17.750  4.4819e-03
7.750  18.000  4.4838e-03
7.750  18.250  4.4858e-03
7.750  18.500  4.4877e-03
7.750  18.750  4.4895e-03
7.750  19.000  4.4911e-03
7.750  19.250  4.4923e-03
7.750  19.500  4.4928e-03
7.750  19.750  4.4933e-03
7.750  20.000  4.4937e-03
7.750  20.250  4.4938e-03
7.750  20.500  4.4939e-03
7.750  20.750  4.4940e-03
7.750  21.000  4.4940e-03
7.750  21.250  4.4940e-03
7.750  21.500  4.4940e-03
7.750  21.750  4.4940e-03
7.750  22.000  4.4940e-03
7.750  22.250  4.4940e-03
7.750  22.500  4.4940e-03
7.750  22.750  4.4942e-03
7.750  23.000  4.4942e-03
7.750  23.250  4.4941e-03
7.750  23.500  4.4945e-03
7.750  23.750  4.4945e-03
7.750  24.000  4.4940e-03
8.000  17.000  2.8119e-03
8.000  17.250  3.9500e-03
8.000  17.500  4.2987e-03
8.000  17.750  4.4744e-03
8.000  18.000  4.4819e-03
8.000  18.250  4.4839e-03
8.000  18.500  4.4858e-03
8.000  18.750  4.4877e-03
8.000  19.000  4.4895e-03
8.000  19.250  4.4911e-03
8.000  19.500  4.4923e-03
8.000  19.750  4.4928e-03
8.000  20.000  4.4933e-03
8.000  20.250  4.4937e-03
8.000  20.500  4.4938e-03
8.000  20.750  4.4939e-03
8.000  21.000  4.4940e-03
8.000  21.250  4.4940e-03
8.000  21.500  4.4940e-03
8.000  21.750  4.4940e-03
8.000  22.000  4.4940e-03
8.000  22.250  4.4940e-03
8.000  22.500  4.4940e-03
8.000  22.750  4.4941e-03
8.000  23.000  4.4940e-03
8.000  23.250  4.4943e-03
8.000  23.500  4.4940e-03
8.000  23.750  4.4940e-03
8.000  24.000  4.4940e-03
8.250  17.000  1.9714e-03
8.250  17.250  2.8230e-03
8.250  17.500  3.9542e-03
8.250  17.750  4.2993e-03
8.250  18.000  4.4747e-03
8.250  18.250  4.4819e-03
8.250  18.500  4.4839e-03
8.250  18.750  4.4858e-03
8.250  19.000  4.4877e-03
8.250  19.250  4.4895e-03
8.250  19.500  4.4911e-03
8.250  19.750  4.4923e-03
8.250  20.000  4.4928e-03
8.250  20.250  4.4933e-03
8.250  20.500  4.4937e-03
8.250  20.750  4.4938e-03
8.250  21.000  4.4939e-03
8.250  21.250  4.4940e-03
8.250  21.500  4.4940e-03
8.250  21.750  4.4940e-03
8.250  22.000  4.4940e-03
8.250  22.250  4.4940e-03
8.250  22.500  4.4940e-03
8.250  22.750  4.4941e-03
8.250  23.000  4.4940e-03
8.250  23.250  4.4951e-03
8.250  23.500  4.4940e-03
8.250  23.750  4.4940e-03
8.250  24.000  4.4943e-03
8.500  17.000  1.3790e-03
8.500  17.250  1.9860e-03
8.500  17.500  2.8352e-03
8.500  17.750  3.9597e-03
8.500  18.000  4.2998e-03
8.500  18.250  4.4748e-03
8.500  18.500  4.4819e-03
8.500  18.750  4.4839e-03
8.500  19.000  4.4858e-03
8.500  19.250  4.4877e-03
8.500  19.500  4.4895e-03
8.500  19.750  4.4911e-03
8.500  20.000  4.4923e-03
8.500  20.250  4.4928e-03
8.500  20.500  4.4933e-03
8.500  20.750  4.4937e-03
8.500  21.000  4.4938e-03
8.500  21.250  4.4939e-03
8.500  21.500  4.4940e-03
8.500  21.750  4.4940e-03
8.500  22.000  4.4940e-03
8.500  22.250  4.4940e-03
8.500  22.500  4.4940e-03
8.500  22.750  4.4940e-03
8.500  23.000  4.4940e-03
8.500  23.250  4.4941e-03
8.500  23.500  4.4940e-03
8.500  23.750  4.4940e-03
8.500  24.000  4.4940e-03
8.750  17.000  9.6584e-04
8.750  17.250  1.3951e-03
8.750  17.500  2.0067e-03
8.750  17.750  2.8436e-03
8.750  18.000  3.9695e-03
8.750  18.250  4.3000e-03
8.750  18.500  4.4749e-03
8.750  18.750  4.4819e-03
8.750  19.000  4.4839e-03
8.750  19.250  4.4858e-03
8.750  19.500  4.4877e-03
8.750  19.750  4.4895e-03
8.750  20.000  4.4911e-03
8.750  20.250  4.4923e-03
8.750  20.500  4.4928e-03
8.750  20.750  4.4933e-03
8.750  21.000  4.4937e-03
8.750  21.250  4.4938e-03
8.750  21.500  4.4939e-03
8.750  21.750  4.4939e-03
8.750  22.000  4.4940e-03
8.750  22.250  4.4940e-03
8.750  22.500  4.4940e-03
8.750  22.750  4.4940e-03
8.750  23.000  4.4944e-03
8.750  23.250  4.4940e-03
8.750  23.500  4.4941e-03
8.750  23.750  4.4940e-03
8.750  24.000  4.4940e-03
9.000  17.000  6.7712e-04
9.000  17.250  9.7992e-04
9.000  17.500  1.4189e-03
9.000  17.750  2.0430e-03
9.000  18.000  2.8845e-03
9.000  18.250  4.0020e-03
9.000  18.500  4.3000e-03
9.000  18.750  4.4748e-03
9.000  19.000  4.4819e-03
9.000  19.250  4.4839e-03
9.000  19.500  4.4858e-03
9.000  19.750  4.4877e-03
9.000  20.000  4.4895e-03
9.000  20.250  4.4911e-03
9.000  20.500  4.4923e-03
9.000  20.750  4.4928e-03
9.000  21.000  4.4933e-03
9.000  21.250  4.4937e-03
9.000  21.500  4.4938e-03
9.000  21.750  4.4939e-03
9.000  22.000  4.4939e-03
9.000  22.250  4.4940e-03
9.000  22.500  4.4940e-03
9.000  22.750  4.4940e-03
9.000  23.000  4.4940e-03
9.000  23.250  4.4940e-03
9.000  23.500  4.4940e-03
9.000  23.750  4.4940e-03
9.000  24.000  4.4940e-03
9.250  17.000  4.7580e-04
9.250  17.250  6.8905e-04
9.250  17.500  1.0039e-03
9.250  17.750  1.4647e-03
9.250  18.000  2.1092e-03
9.250  18.250  2.9703e-03
9.250  18.500  4.0784e-03
9.250  18.750  4.2994e-03
9.250  19.000  4.4746e-03
9.250  19.250  4.4818e-03
9.250  19.500  4.4839e-03
9.250  19.750  4.4858e-03
9.250  20.000  4.4877e-03
9.250  20.250  4.4896e-03
9.250  20.500  4.4911e-03
9.250  20.750  4.4923e-03
9.250  21.000  4.4928e-03
9.250  21.250  4.4933e-03
9.250  21.500  4.4935e-03
9.250  21.750  4.4936e-03
9.250  22.000  4.4936e-03
9.250  22.250  4.4937e-03
9.250  22.500  4.4937e-03
9.250  22.750  4.4937e-03
9.250  23.000  4.4938e-03
9.250  23.250  4.4939e-03
9.250  23.500  4.4939e-03
9.250  23.750  4.4939e-03
9.250  24.000  4.4939e-03
9.500  17.000  3.3646e-04
9.500  17.250  4.8601e-04
9.500  17.500  7.1136e-04
9.500  17.750  1.0514e-03
9.500  18.000  1.5472e-03
9.500  18.250  2.2418e-03
9.500  18.500  3.1556e-03
9.500  18.750  4.1984e-03
9.500  19.000  4.2982e-03
9.500  19.250  4.4738e-03
9.500  19.500  4.4818e-03
9.500  19.750  4.4839e-03
9.500  20.000  4.4858e-03
9.500  20.250  4.4877e-03
9.500  20.500  4.4896e-03
9.500  20.750  4.4909e-03
9.500  21.000  4.4920e-03
9.500  21.250  4.4925e-03
9.500  21.500  4.4930e-03
9.500  21.750  4.4933e-03
9.500  22.000  4.4934e-03
9.500  22.250  4.4935e-03
9.500  22.500  4.4935e-03
9.500  22.750  4.4935e-03
9.500  23.000  4.4935e-03
9.500  23.250  4.4935e-03
9.500  23.500  4.4936e-03
9.500  23.750  4.4936e-03
9.500  24.000  4.4936e-03
9.750  17.000  2.3835e-04
9.750  17.250  3.4403e-04
9.750  17.500  5.0453e-04
9.750  17.750  7.5490e-04
9.750  18.000  1.1430e-03
9.750  18.250  1.7041e-03
9.750  18.500  2.4788e-03
9.750  18.750  3.4955e-03
9.750  19.000  4.1973e-03
9.750  19.250  4.2960e-03
9.750  19.500  4.4723e-03
9.750  19.750  4.4817e-03
9.750  20.000  4.4838e-03
9.750  20.250  4.4858e-03
9.750  20.500  4.4877e-03
9.750  20.750  4.4895e-03
9.750  21.000  4.4909e-03
9.750  21.250  4.4920e-03
9.750  21.500  4.4925e-03
9.750  21.750  4.4931e-03
9.750  22.000  4.4933e-03
9.750  22.250  4.4934e-03
9.750  22.500  4.4935e-03
9.750  22.750  4.4935e-03
9.750  23.000  4.4935e-03
9.750  23.250  4.4935e-03
9.750  23.500  4.4935e-03
9.750  23.750  4.4935e-03
9.750  24.000  4.4935e-03
10.000  17.000  1.6947e-04
10.000  17.250  2.4403e-04
10.000  17.500  3.5885e-04
10.000  17.750  5.4354e-04
10.000  18.000  8.4486e-04
10.000  18.250  1.2979e-03
10.000  18.500  1.9342e-03
10.000  18.750  2.7724e-03
10.000  19.000  3.7742e-03
10.000  19.250  4.1946e-03
10.000  19.500  4.2925e-03
10.000  19.750  4.4693e-03
10.000  20.000  4.4815e-03
10.000  20.250  4.4838e-03
10.000  20.500  4.4858e-03
10.000  20.750  4.4878e-03
10.000  21.000  4.4896e-03
10.000  21.250  4.4911e-03
10.000  21.500  4.4920e-03
10.000  21.750  4.4926e-03
10.000  22.000  4.4931e-03
10.000  22.250  4.4933e-03
10.000  22.500  4.4934e-03
10.000  22.750  4.4935e-03
10.000  23.000  4.4935e-03
10.000  23.250  4.4935e-03
10.000  23.500  4.4936e-03
10.000  23.750  4.4936e-03
10.000  24.000  4.4936e-03
10.250  17.000  1.2132e-04
10.250  17.250  1.7407e-04
10.250  17.500  2.5663e-04
10.250  17.750  3.9407e-04
10.250  18.000  6.2477e-04
10.250  18.250  9.7687e-04
10.250  18.500  1.4872e-03
10.250  18.750  2.1857e-03
10.250  19.000  3.1108e-03
10.250  19.250  4.1250e-03
10.250  19.500  4.1910e-03
10.250  19.750  4.2872e-03
10.250  20.000  4.4657e-03
10.250  20.250  4.4812e-03
10.250  20.500  4.4836e-03
10.250  20.750  4.4858e-03
10.250  21.000  4.4878e-03
10.250  21.250  4.4896e-03
10.250  21.500  4.4911e-03
10.250  21.750  4.4921e-03
10.250  22.000  4.4926e-03
10.250  22.250  4.4931e-03
10.250  22.500  4.4934e-03
10.250  22.750  4.4934e-03
10.250  23.000  4.4935e-03
10.250  23.250  4.4935e-03
10.250  23.500  4.4935e-03
10.250  23.750  4.4935e-03
10.250  24.000  4.4935e-03
10.500  17.000  8.7490e-05
10.500  17.250  1.2510e-04
10.500  17.500  1.8502e-04
10.500  17.750  2.8807e-04
10.500  18.000  4.6346e-04
10.500  18.250  7.3588e-04
10.500  18.500  1.1248e-03
10.500  18.750  1.6845e-03
10.500  19.000  2.4344e-03
10.500  19.250  3.4229e-03
10.500  19.500  4.1351e-03
10.500  19.750  4.1876e-03
10.500  20.000  4.2828e-03
10.500  20.250  4.4599e-03
10.500  20.500  4.4806e-03
10.500  20.750  4.4835e-03
10.500  21.000  4.4858e-03
10.500  21.250  4.4878e-03
10.500  21.500  4.4896e-03
10.500  21.750  4.4911e-03
10.500  22.000  4.4922e-03
10.500  22.250  4.4926e-03
10.500  22.500  4.4931e-03
10.500  22.750  4.4934e-03
10.500  23.000  4.4935e-03
10.500  23.250  4.4935e-03
10.500  23.500  4.4935e-03
10.500  23.750  4.4936e-03
10.500  24.000  4.4936e-03
10.750  17.000  6.3621e-05
10.750  17.250  9.0535e-05
10.750  17.500  1.3473e-04
10.750  17.750  2.1210e-04
10.750  18.000  3.4395e-04
10.750  18.250  5.4765e-04
10.750  18.500  8.4527e-04
10.750  18.750  1.2661e-03
10.750  19.000  1.8505e-03
10.750  19.250  2.6511e-03
10.750  19.500  3.6667e-03
10.750  19.750  4.1323e-03
10.750  20.000  4.1843e-03
10.750  20.250  4.2790e-03
10.750  20.500  4.4554e-03
10.750  20.750  4.4792e-03
10.750  21.000  4.4831e-03
10.750  21.250  4.4857e-03
10.750  21.500  4.4877e-03
10.750  21.750  4.4896e-03
10.750  22.000  4.4911e-03
10.750  22.250  4.4922e-03
10.750  22.500  4.4927e-03
10.750  22.750  4.4931e-03
10.750  23.000  4.4935e-03
10.750  23.250  4.4935e-03
10.750  23.500  4.4935e-03
10.750  23.750  4.4935e-03
10.750  24.000  4.4935e-03
11.000  17.000  4.6667e-05
11.000  17.250  6.6008e-05
11.000  17.500  9.8519e-05
11.000  17.750  1.5646e-04
11.000  18.000  2.5391e-04
11.000  18.250  4.0379e-04
11.000  18.500  6.2305e-04
11.000  18.750  9.3687e-04
11.000  19.000  1.3813e-03
11.000  19.250  2.0030e-03
11.000  19.500  2.8518e-03
11.000  19.750  3.9565e-03
11.000  20.000  4.1296e-03
11.000  20.250  4.1832e-03
11.000  20.500  4.2786e-03
11.000  20.750  4.4528e-03
11.000  21.000  4.4782e-03
11.000  21.250  4.4822e-03
11.000  21.500  4.4855e-03
11.000  21.750  4.4877e-03
11.000  22.000  4.4895e-03
11.000  22.250  4.4911e-03
11.000  22.500  4.4922e-03
11.000  22.750  4.4928e-03
11.000  23.000  4.4932e-03
11.000  23.250  4.4935e-03
11.000  23.500  4.4936e-03
11.000  23.750  4.4936e-03
11.000  24.000  4.4936e-03
11.250  17.000  3.4815e-05
11.250  17.250  4.8560e-05
11.250  17.500  7.2346e-05
11.250  17.750  1.1506e-04
11.250  18.000  1.8634e-04
11.250  18.250  2.9416e-04
11.250  18.500  4.5292e-04
11.250  18.750  6.8790e-04
11.250  19.000  1.0154e-03
11.250  19.250  1.4783e-03
11.250  19.500  2.1301e-03
11.250  19.750  3.0379e-03
11.250  20.000  4.0342e-03
11.250  20.250  4.1278e-03
11.250  20.500  4.1821e-03
11.250  20.750  4.2817e-03
11.250  21.000  4.4579e-03
11.250  21.250  4.4768e-03
11.250  21.500  4.4816e-03
11.250  21.750  4.4852e-03
11.250  22.000  4.4876e-03
11.250  22.250  4.4895e-03
11.250  22.500  4.4910e-03
11.250  22.750  4.4922e-03
11.250  23.000  4.4928e-03
11.250  23.250  4.4933e-03
11.250  23.500  4.4935e-03
11.250  23.750  4.4936e-03
11.250  24.000  4.4937e-03
11.500  17.000  2.6502e-05
11.500  17.250  3.6296e-05
11.500  17.500  5.3498e-05
11.500  17.750  8.4444e-05
11.500  18.000  1.3531e-04
11.500  18.250  2.1267e-04
11.500  18.500  3.2724e-04
11.500  18.750  4.9695e-04
11.500  19.000  7.3663e-04
11.500  19.250  1.0769e-03
11.500  19.500  1.5607e-03
11.500  19.750  2.2486e-03
11.500  20.000  3.2114e-03
11.500  20.250  4.0688e-03
11.500  20.500  4.1268e-03
11.500  20.750  4.1846e-03
11.500  21.000  4.2928e-03
11.500  21.250  4.4661e-03
11.500  21.500  4.4761e-03
11.500  21.750  4.4806e-03
11.500  22.000  4.4846e-03
11.500  22.250  4.4873e-03
11.500  22.500  4.4893e-03
11.500  22.750  4.4909e-03
11.500  23.000  4.4922e-03
11.500  23.250  4.4928e-03
11.500  23.500  4.4933e-03
11.500  23.750  4.4935e-03
11.500  24.000  4.4936e-03
11.750  17.000  2.0823e-05
11.750  17.250  2.7737e-05
11.750  17.500  4.0000e-05
11.750  17.750  6.1893e-05
11.750  18.000  9.7284e-05
11.750  18.250  1.5218e-04
11.750  18.500  2.3432e-04
11.750  18.750  3.5416e-04
11.750  19.000  5.3045e-04
11.750  19.250  7.7770e-04
11.750  19.500  1.1305e-03
11.750  19.750  1.6308e-03
11.750  20.000  2.3531e-03
11.750  20.250  3.3645e-03
11.750  20.500  4.0841e-03
11.750  20.750  4.1267e-03
11.750  21.000  4.1924e-03
11.750  21.250  4.3201e-03
11.750  21.500  4.4682e-03
11.750  21.750  4.4750e-03
11.750  22.000  4.4798e-03
11.750  22.250  4.4839e-03
11.750  22.500  4.4868e-03
11.750  22.750  4.4890e-03
11.750  23.000  4.4908e-03
11.750  23.250  4.4921e-03
11.750  23.500  4.4928e-03
11.750  23.750  4.4933e-03
11.750  24.000  4.4937e-03
12.000  17.000  1.6872e-05
12.000  17.250  2.1728e-05
12.000  17.500  3.0370e-05
12.000  17.750  4.5350e-05
12.000  18.000  6.9712e-05
12.000  18.250  1.0823e-04
12.000  18.500  1.6675e-04
12.000  18.750  2.5342e-04
12.000  19.000  3.7951e-04
12.000  19.250  5.5868e-04
12.000  19.500  8.1309e-04
12.000  19.750  1.1750e-03
12.000  20.000  1.6954e-03
12.000  20.250  2.4424e-03
12.000  20.500  3.4948e-03
12.000  20.750  4.0788e-03
12.000  21.000  4.1305e-03
12.000  21.250  4.2155e-03
12.000  21.500  4.3699e-03
12.000  21.750  4.4672e-03
12.000  22.000  4.4737e-03
12.000  22.250  4.4788e-03
12.000  22.500  4.4829e-03
12.000  22.750  4.4863e-03
12.000  23.000  4.4885e-03
12.000  23.250  4.4905e-03
12.000  23.500  4.4920e-03
12.000  23.750  4.4927e-03
12.000  24.000  4.4933e-03
12.250  17.000  1.4074e-05
12.250  17.250  1.7449e-05
12.250  17.500  2.3374e-05
12.250  17.750  3.3416e-05
12.250  18.000  5.0206e-05
12.250  18.250  7.7119e-05
12.250  18.500  1.1868e-04
12.250  18.750  1.8132e-04
12.250  19.000  2.7177e-04
12.250  19.250  4.0049e-04
12.250  19.500  5.8305e-04
12.250  19.750  8.4428e-04
12.250  20.000  1.2128e-03
12.250  20.250  1.7466e-03
12.250  20.500  2.5213e-03
12.250  20.750  3.6153e-03
12.250  21.000  4.0736e-03
12.250  21.250  4.1411e-03
12.250  21.500  4.2520e-03
12.250  21.750  4.4277e-03
12.250  22.000  4.4652e-03
12.250  22.250  4.4718e-03
12.250  22.500  4.4771e-03
12.250  22.750  4.4817e-03
12.250  23.000  4.4853e-03
12.250  23.250  4.4878e-03
12.250  23.500  4.4901e-03
12.250  23.750  4.4919e-03
12.250  24.000  4.4926e-03
12.500  17.000  1.2099e-05
12.500  17.250  1.4403e-05
12.500  17.500  1.8272e-05
12.500  17.750  2.5021e-05
12.500  18.000  3.6543e-05
12.500  18.250  5.5391e-05
12.500  18.500  8.5103e-05
12.500  18.750  1.2963e-04
12.500  19.000  1.9440e-04
12.500  19.250  2.8724e-04
12.500  19.500  4.1720e-04
12.500  19.750  6.0288e-04
12.500  20.000  8.6741e-04
12.500  20.250  1.2441e-03
12.500  20.500  1.7955e-03
12.500  20.750  2.5909e-03
12.500  21.000  3.7034e-03
12.500  21.250  4.0706e-03
12.500  21.500  4.1616e-03
12.500  21.750  4.2947e-03
12.500  22.000  4.4524e-03
12.500  22.250  4.4620e-03
12.500  22.500  4.4691e-03
12.500  22.750  4.4750e-03
12.500  23.000  4.4801e-03
12.500  23.250  4.4841e-03
12.500  23.500  4.4869e-03
12.500  23.750  4.4895e-03
12.500  24.000  4.4917e-03
12.750  17.000  8.3951e-06
12.750  17.250  1.1852e-05
12.750  17.500  1.4650e-05
12.750  17.750  1.9342e-05
12.750  18.000  2.7325e-05
12.750  18.250  4.0576e-05
12.750  18.500  6.1399e-05
12.750  18.750  9.3169e-05
12.750  19.000  1.3967e-04
12.750  19.250  2.0593e-04
12.750  19.500  2.9918e-04
12.750  19.750  4.3095e-04
12.750  20.000  6.1909e-04
12.750  20.250  8.8667e-04
12.750  20.500  1.2750e-03
12.750  20.750  1.8376e-03
12.750  21.000  2.6691e-03
12.750  21.250  3.8263e-03
12.750  21.500  4.0707e-03
12.750  21.750  4.1872e-03
12.750  22.000  4.3379e-03
12.750  22.250  4.4477e-03
12.750  22.500  4.4574e-03
12.750  22.750  4.4653e-03
12.750  23.000  4.4719e-03
12.750  23.250  4.4776e-03
12.750  23.500  4.4822e-03
12.750  23.750  4.4854e-03
12.750  24.000  4.4887e-03
13.000  17.000  4.1975e-06
13.000  17.250  7.9835e-06
13.000  17.500  1.1687e-05
13.000  17.750  1.5556e-05
13.000  18.000  2.1070e-05
13.000  18.250  3.0288e-05
13.000  18.500  4.4938e-05
13.000  18.750  6.7407e-05
13.000  19.000  1.0049e-04
13.000  19.250  1.4782e-04
13.000  19.500  2.1457e-04
13.000  19.750  3.0856e-04
13.000  20.000  4.4148e-04
13.000  20.250  6.3193e-04
13.000  20.500  9.0519e-04
13.000  20.750  1.3034e-03
13.000  21.000  1.8862e-03
13.000  21.250  2.7516e-03
13.000  21.500  3.8909e-03
13.000  21.750  4.0705e-03
13.000  22.000  4.2040e-03
13.000  22.250  4.3647e-03
13.000  22.500  4.4394e-03
13.000  22.750  4.4504e-03
13.000  23.000  4.4596e-03
13.000  23.250  4.4675e-03
13.000  23.500  4.4741e-03
13.000  23.750  4.4793e-03
13.000  24.000  4.4832e-03
13.250  17.000  2.5514e-06
13.250  17.250  4.8560e-06
13.250  17.500  9.5473e-06
13.250  17.750  1.3004e-05
13.250  18.000  1.6790e-05
13.250  18.250  2.3128e-05
13.250  18.500  3.3416e-05
13.250  18.750  4.9136e-05
13.250  19.000  7.2593e-05
13.250  19.250  1.0617e-04
13.250  19.500  1.5399e-04
13.250  19.750  2.2132e-04
13.250  20.000  3.1621e-04
13.250  20.250  4.5119e-04
13.250  20.500  6.4584e-04
13.250  20.750  9.2494e-04
13.250  21.000  1.3378e-03
13.250  21.250  1.9415e-03
13.250  21.500  2.7947e-03
13.250  21.750  3.8691e-03
13.250  22.000  4.0471e-03
13.250  22.250  4.2052e-03
13.250  22.500  4.3603e-03
13.250  22.750  4.4262e-03
13.250  23.000  4.4395e-03
13.250  23.250  4.4507e-03
13.250  23.500  4.4607e-03
13.250  23.750  4.4687e-03
13.250  24.000  4.4749e-03
13.500  17.000  1.4815e-06
13.500  17.250  2.9630e-06
13.500  17.500  6.0905e-06
13.500  17.750  1.0123e-05
13.500  18.000  1.3745e-05
13.500  18.250  1.8189e-05
13.500  18.500  2.5267e-05
13.500  18.750  3.6214e-05
13.500  19.000  5.2757e-05
13.500  19.250  7.6543e-05
13.500  19.500  1.1078e-04
13.500  19.750  1.5901e-04
13.500  20.000  2.2683e-04
13.500  20.250  3.2296e-04
13.500  20.500  4.6091e-04
13.500  20.750  6.5877e-04
13.500  21.000  9.4337e-04
13.500  21.250  1.3681e-03
13.500  21.500  1.9608e-03
13.500  21.750  2.8319e-03
13.500  22.000  3.8121e-03
13.500  22.250  4.0009e-03
13.500  22.500  4.1693e-03
13.500  22.750  4.3302e-03
13.500  23.000  4.4058e-03
13.500  23.250  4.4230e-03
13.500  23.500  4.4379e-03
13.500  23.750  4.4508e-03
13.500  24.000  4.4606e-03
13.750  17.000  9.0535e-07
13.750  17.250  1.7284e-06
13.750  17.500  3.7860e-06
13.750  17.750  6.9959e-06
13.750  18.000  1.1440e-05
13.750  18.250  1.4568e-05
13.750  18.500  1.9506e-05
13.750  18.750  2.7078e-05
13.750  19.000  3.8683e-05
13.750  19.250  5.5556e-05
13.750  19.500  7.9835e-05
13.750  19.750  1.1432e-04
13.750  20.000  1.6296e-04
13.750  20.250  2.3193e-04
13.750  20.500  3.3012e-04
13.750  20.750  4.7144e-04
13.750  21.000  6.7449e-04
13.750  21.250  9.6765e-04
13.750  21.500  1.3841e-03
13.750  21.750  2.0063e-03
13.750  22.000  2.8720e-03
13.750  22.250  3.7376e-03
13.750  22.500  3.9281e-03
13.750  22.750  4.1201e-03
13.750  23.000  4.2923e-03
13.750  23.250  4.3750e-03
13.750  23.500  4.3975e-03
13.750  23.750  4.4184e-03
13.750  24.000  4.4355e-03
14.000  17.000  1.0000e-07
14.000  17.250  1.0700e-06
14.000  17.500  2.3045e-06
14.000  17.750  4.6091e-06
14.000  18.000  8.2305e-06
14.000  18.250  1.2099e-05
14.000  18.500  1.5473e-05
14.000  18.750  2.0658e-05
14.000  19.000  2.8560e-05
14.000  19.250  4.0494e-05
14.000  19.500  5.7613e-05
14.000  19.750  8.2305e-05
14.000  20.000  1.1712e-04
14.000  20.250  1.6642e-04
14.000  20.500  2.3704e-04
14.000  20.750  3.3827e-04
14.000  21.000  4.8296e-04
14.000  21.250  6.9440e-04
14.000  21.500  9.8798e-04
14.000  21.750  1.4283e-03
14.000  22.000  2.0693e-03
14.000  22.250  2.9281e-03
14.000  22.500  3.6388e-03
14.000  22.750  3.8400e-03
14.000  23.000  4.0513e-03
14.000  23.250  4.2462e-03
14.000  23.500  4.3289e-03
14.000  23.750  4.3597e-03
14.000  24.000  4.3893e-03
