nFnu 1458.33A  relative to Inci 1215.00A scaled to 1215A.
Hden   Phi(H)  Eq_Width (A)
7.000  17.000  3.1430e-02
7.000  17.250  2.1996e-02
7.000  17.500  1.5975e-02
7.000  17.750  1.2312e-02
7.000  18.000  1.0304e-02
7.000  18.250  9.1696e-03
7.000  18.500  8.5198e-03
7.000  18.750  8.2273e-03
7.000  19.000  8.0754e-03
7.000  19.250  7.9909e-03
7.000  19.500  7.9555e-03
7.000  19.750  7.9407e-03
7.000  20.000  7.9343e-03
7.000  20.250  7.9314e-03
7.000  20.500  7.9298e-03
7.000  20.750  7.9291e-03
7.000  21.000  7.9286e-03
7.000  21.250  7.9284e-03
7.000  21.500  7.9284e-03
7.000  21.750  7.9281e-03
7.000  22.000  7.9281e-03
7.000  22.250  7.9281e-03
7.000  22.500  7.9281e-03
7.000  22.750  7.9283e-03
7.000  23.000  7.9283e-03
7.000  23.250  7.9281e-03
7.000  23.500  7.9281e-03
7.000  23.750  7.9281e-03
7.000  24.000  7.9281e-03
7.250  17.000  4.5698e-02
7.250  17.250  3.1310e-02
7.250  17.500  2.1931e-02
7.250  17.750  1.5940e-02
7.250  18.000  1.2294e-02
7.250  18.250  1.0295e-02
7.250  18.500  9.1655e-03
7.250  18.750  8.5184e-03
7.250  19.000  8.2268e-03
7.250  19.250  8.0752e-03
7.250  19.500  7.9908e-03
7.250  19.750  7.9555e-03
7.250  20.000  7.9407e-03
7.250  20.250  7.9343e-03
7.250  20.500  7.9313e-03
7.250  20.750  7.9298e-03
7.250  21.000  7.9291e-03
7.250  21.250  7.9286e-03
7.250  21.500  7.9284e-03
7.250  21.750  7.9298e-03
7.250  22.000  7.9281e-03
7.250  22.250  7.9281e-03
7.250  22.500  7.9281e-03
7.250  22.750  7.9289e-03
7.250  23.000  7.9289e-03
7.250  23.250  7.9281e-03
7.250  23.500  7.9281e-03
7.250  23.750  7.9281e-03
7.250  24.000  7.9281e-03
7.500  17.000  5.0622e-02
7.500  17.250  4.5614e-02
7.500  17.500  3.1241e-02
7.500  17.750  2.1893e-02
7.500  18.000  1.5918e-02
7.500  18.250  1.2282e-02
7.500  18.500  1.0289e-02
7.500  18.750  9.1627e-03
7.500  19.000  8.5174e-03
7.500  19.250  8.2264e-03
7.500  19.500  8.0751e-03
7.500  19.750  7.9908e-03
7.500  20.000  7.9555e-03
7.500  20.250  7.9407e-03
7.500  20.500  7.9343e-03
7.500  20.750  7.9313e-03
7.500  21.000  7.9298e-03
7.500  21.250  7.9290e-03
7.500  21.500  7.9286e-03
7.500  21.750  7.9284e-03
7.500  22.000  7.9282e-03
7.500  22.250  7.9281e-03
7.500  22.500  7.9281e-03
7.500  22.750  7.9281e-03
7.500  23.000  7.9285e-03
7.500  23.250  7.9289e-03
7.500  23.500  7.9281e-03
7.500  23.750  7.9291e-03
7.500  24.000  7.9281e-03
7.750  17.000  5.8354e-02
7.750  17.250  4.9972e-02
7.750  17.500  4.5576e-02
7.750  17.750  3.1201e-02
7.750  18.000  2.1872e-02
7.750  18.250  1.5904e-02
7.750  18.500  1.2273e-02
7.750  18.750  1.0285e-02
7.750  19.000  9.1610e-03
7.750  19.250  8.5168e-03
7.750  19.500  8.2263e-03
7.750  19.750  8.0751e-03
7.750  20.000  7.9908e-03
7.750  20.250  7.9555e-03
7.750  20.500  7.9407e-03
7.750  20.750  7.9342e-03
7.750  21.000  7.9313e-03
7.750  21.250  7.9298e-03
7.750  21.500  7.9290e-03
7.750  21.750  7.9286e-03
7.750  22.000  7.9283e-03
7.750  22.250  7.9282e-03
7.750  22.500  7.9281e-03
7.750  22.750  7.9283e-03
7.750  23.000  7.9283e-03
7.750  23.250  7.9281e-03
7.750  23.500  7.9289e-03
7.750  23.750  7.9289e-03
7.750  24.000  7.9281e-03
8.000  17.000  5.4986e-02
8.000  17.250  5.6299e-02
8.000  17.500  4.9260e-02
8.000  17.750  4.5511e-02
8.000  18.000  3.1177e-02
8.000  18.250  2.1861e-02
8.000  18.500  1.5895e-02
8.000  18.750  1.2267e-02
8.000  19.000  1.0282e-02
8.000  19.250  9.1598e-03
8.000  19.500  8.5164e-03
8.000  19.750  8.2261e-03
8.000  20.000  8.0750e-03
8.000  20.250  7.9908e-03
8.000  20.500  7.9555e-03
8.000  20.750  7.9407e-03
8.000  21.000  7.9342e-03
8.000  21.250  7.9313e-03
8.000  21.500  7.9297e-03
8.000  21.750  7.9290e-03
8.000  22.000  7.9286e-03
8.000  22.250  7.9283e-03
8.000  22.500  7.9281e-03
8.000  22.750  7.9283e-03
8.000  23.000  7.9281e-03
8.000  23.250  7.9286e-03
8.000  23.500  7.9281e-03
8.000  23.750  7.9281e-03
8.000  24.000  7.9281e-03
8.250  17.000  5.2221e-02
8.250  17.250  5.3711e-02
8.250  17.500  5.5284e-02
8.250  17.750  4.8878e-02
8.250  18.000  4.5500e-02
8.250  18.250  3.1160e-02
8.250  18.500  2.1856e-02
8.250  18.750  1.5889e-02
8.250  19.000  1.2261e-02
8.250  19.250  1.0279e-02
8.250  19.500  9.1590e-03
8.250  19.750  8.5161e-03
8.250  20.000  8.2260e-03
8.250  20.250  8.0750e-03
8.250  20.500  7.9907e-03
8.250  20.750  7.9555e-03
8.250  21.000  7.9407e-03
8.250  21.250  7.9342e-03
8.250  21.500  7.9313e-03
8.250  21.750  7.9297e-03
8.250  22.000  7.9290e-03
8.250  22.250  7.9285e-03
8.250  22.500  7.9283e-03
8.250  22.750  7.9283e-03
8.250  23.000  7.9281e-03
8.250  23.250  7.9301e-03
8.250  23.500  7.9280e-03
8.250  23.750  7.9280e-03
8.250  24.000  7.9286e-03
8.500  17.000  4.9787e-02
8.500  17.250  5.1231e-02
8.500  17.500  5.2883e-02
8.500  17.750  5.4640e-02
8.500  18.000  4.8669e-02
8.500  18.250  4.5482e-02
8.500  18.500  3.1146e-02
8.500  18.750  2.1855e-02
8.500  19.000  1.5883e-02
8.500  19.250  1.2256e-02
8.500  19.500  1.0277e-02
8.500  19.750  9.1584e-03
8.500  20.000  8.5159e-03
8.500  20.250  8.2259e-03
8.500  20.500  8.0750e-03
8.500  20.750  7.9907e-03
8.500  21.000  7.9555e-03
8.500  21.250  7.9407e-03
8.500  21.500  7.9342e-03
8.500  21.750  7.9313e-03
8.500  22.000  7.9297e-03
8.500  22.250  7.9290e-03
8.500  22.500  7.9285e-03
8.500  22.750  7.9282e-03
8.500  23.000  7.9281e-03
8.500  23.250  7.9282e-03
8.500  23.500  7.9281e-03
8.500  23.750  7.9280e-03
8.500  24.000  7.9280e-03
8.750  17.000  4.7695e-02
8.750  17.250  4.9138e-02
8.750  17.500  5.0690e-02
8.750  17.750  5.2382e-02
8.750  18.000  5.4277e-02
8.750  18.250  4.8555e-02
8.750  18.500  4.5454e-02
8.750  18.750  3.1133e-02
8.750  19.000  2.1855e-02
8.750  19.250  1.5879e-02
8.750  19.500  1.2251e-02
8.750  19.750  1.0275e-02
8.750  20.000  9.1578e-03
8.750  20.250  8.5157e-03
8.750  20.500  8.2259e-03
8.750  20.750  8.0750e-03
8.750  21.000  7.9907e-03
8.750  21.250  7.9555e-03
8.750  21.500  7.9407e-03
8.750  21.750  7.9342e-03
8.750  22.000  7.9313e-03
8.750  22.250  7.9297e-03
8.750  22.500  7.9290e-03
8.750  22.750  7.9285e-03
8.750  23.000  7.9291e-03
8.750  23.250  7.9281e-03
8.750  23.500  7.9282e-03
8.750  23.750  7.9280e-03
8.750  24.000  7.9280e-03
9.000  17.000  4.5716e-02
9.000  17.250  4.7347e-02
9.000  17.500  4.8881e-02
9.000  17.750  5.0490e-02
9.000  18.000  5.2225e-02
9.000  18.250  5.4177e-02
9.000  18.500  4.8469e-02
9.000  18.750  4.5414e-02
9.000  19.000  3.1118e-02
9.000  19.250  2.1856e-02
9.000  19.500  1.5875e-02
9.000  19.750  1.2246e-02
9.000  20.000  1.0273e-02
9.000  20.250  9.1573e-03
9.000  20.500  8.5156e-03
9.000  20.750  8.2258e-03
9.000  21.000  8.0750e-03
9.000  21.250  7.9907e-03
9.000  21.500  7.9555e-03
9.000  21.750  7.9407e-03
9.000  22.000  7.9342e-03
9.000  22.250  7.9312e-03
9.000  22.500  7.9297e-03
9.000  22.750  7.9290e-03
9.000  23.000  7.9285e-03
9.000  23.250  7.9282e-03
9.000  23.500  7.9281e-03
9.000  23.750  7.9281e-03
9.000  24.000  7.9281e-03
9.250  17.000  4.3573e-02
9.250  17.250  4.5566e-02
9.250  17.500  4.7356e-02
9.250  17.750  4.8997e-02
9.250  18.000  5.0636e-02
9.250  18.250  5.2472e-02
9.250  18.500  5.4372e-02
9.250  18.750  4.8375e-02
9.250  19.000  4.5356e-02
9.250  19.250  3.1099e-02
9.250  19.500  2.1856e-02
9.250  19.750  1.5871e-02
9.250  20.000  1.2241e-02
9.250  20.250  1.0272e-02
9.250  20.500  9.1568e-03
9.250  20.750  8.5155e-03
9.250  21.000  8.2258e-03
9.250  21.250  8.0750e-03
9.250  21.500  7.9903e-03
9.250  21.750  7.9549e-03
9.250  22.000  7.9401e-03
9.250  22.250  7.9337e-03
9.250  22.500  7.9309e-03
9.250  22.750  7.9294e-03
9.250  23.000  7.9287e-03
9.250  23.250  7.9283e-03
9.250  23.500  7.9281e-03
9.250  23.750  7.9280e-03
9.250  24.000  7.9280e-03
9.500  17.000  4.1044e-02
9.500  17.250  4.3481e-02
9.500  17.500  4.5770e-02
9.500  17.750  4.7794e-02
9.500  18.000  4.9520e-02
9.500  18.250  5.1309e-02
9.500  18.500  5.3490e-02
9.500  18.750  5.4601e-02
9.500  19.000  4.8259e-02
9.500  19.250  4.5276e-02
9.500  19.500  3.1076e-02
9.500  19.750  2.1854e-02
9.500  20.000  1.5868e-02
9.500  20.250  1.2237e-02
9.500  20.500  1.0271e-02
9.500  20.750  9.1562e-03
9.500  21.000  8.5148e-03
9.500  21.250  8.2253e-03
9.500  21.500  8.0743e-03
9.500  21.750  7.9900e-03
9.500  22.000  7.9547e-03
9.500  22.250  7.9399e-03
9.500  22.500  7.9335e-03
9.500  22.750  7.9305e-03
9.500  23.000  7.9290e-03
9.500  23.250  7.9281e-03
9.500  23.500  7.9277e-03
9.500  23.750  7.9275e-03
9.500  24.000  7.9274e-03
9.750  17.000  3.7980e-02
9.750  17.250  4.0833e-02
9.750  17.500  4.3716e-02
9.750  17.750  4.6388e-02
9.750  18.000  4.8699e-02
9.750  18.250  5.0751e-02
9.750  18.500  5.2921e-02
9.750  18.750  5.5520e-02
9.750  19.000  5.3999e-02
9.750  19.250  4.8097e-02
9.750  19.500  4.5166e-02
9.750  19.750  3.1050e-02
9.750  20.000  2.1849e-02
9.750  20.250  1.5866e-02
9.750  20.500  1.2234e-02
9.750  20.750  1.0270e-02
9.750  21.000  9.1560e-03
9.750  21.250  8.5147e-03
9.750  21.500  8.2253e-03
9.750  21.750  8.0744e-03
9.750  22.000  7.9900e-03
9.750  22.250  7.9547e-03
9.750  22.500  7.9399e-03
9.750  22.750  7.9335e-03
9.750  23.000  7.9305e-03
9.750  23.250  7.9289e-03
9.750  23.500  7.9281e-03
9.750  23.750  7.9277e-03
9.750  24.000  7.9275e-03
10.000  17.000  3.4435e-02
10.000  17.250  3.7496e-02
10.000  17.500  4.0859e-02
10.000  17.750  4.4380e-02
10.000  18.000  4.7618e-02
10.000  18.250  5.0440e-02
10.000  18.500  5.2732e-02
10.000  18.750  5.5090e-02
10.000  19.000  5.7660e-02
10.000  19.250  5.3168e-02
10.000  19.500  4.7849e-02
10.000  19.750  4.5008e-02
10.000  20.000  3.1024e-02
10.000  20.250  2.1843e-02
10.000  20.500  1.5865e-02
10.000  20.750  1.2232e-02
10.000  21.000  1.0269e-02
10.000  21.250  9.1559e-03
10.000  21.500  8.5147e-03
10.000  21.750  8.2254e-03
10.000  22.000  8.0745e-03
10.000  22.250  7.9901e-03
10.000  22.500  7.9547e-03
10.000  22.750  7.9399e-03
10.000  23.000  7.9335e-03
10.000  23.250  7.9305e-03
10.000  23.500  7.9290e-03
10.000  23.750  7.9281e-03
10.000  24.000  7.9277e-03
10.250  17.000  3.1319e-02
10.250  17.250  3.3714e-02
10.250  17.500  3.7346e-02
10.250  17.750  4.1485e-02
10.250  18.000  4.5784e-02
10.250  18.250  4.9522e-02
10.250  18.500  5.2389e-02
10.250  18.750  5.4819e-02
10.250  19.000  5.7531e-02
10.250  19.250  5.9840e-02
10.250  19.500  5.2607e-02
10.250  19.750  4.7507e-02
10.250  20.000  4.4838e-02
10.250  20.250  3.1007e-02
10.250  20.500  2.1836e-02
10.250  20.750  1.5865e-02
10.250  21.000  1.2231e-02
10.250  21.250  1.0270e-02
10.250  21.500  9.1559e-03
10.250  21.750  8.5146e-03
10.250  22.000  8.2254e-03
10.250  22.250  8.0745e-03
10.250  22.500  7.9902e-03
10.250  22.750  7.9547e-03
10.250  23.000  7.9399e-03
10.250  23.250  7.9335e-03
10.250  23.500  7.9305e-03
10.250  23.750  7.9290e-03
10.250  24.000  7.9281e-03
10.500  17.000  2.8992e-02
10.500  17.250  3.0492e-02
10.500  17.500  3.3481e-02
10.500  17.750  3.7986e-02
10.500  18.000  4.2868e-02
10.500  18.250  4.7301e-02
10.500  18.500  5.0848e-02
10.500  18.750  5.3520e-02
10.500  19.000  5.6063e-02
10.500  19.250  5.9412e-02
10.500  19.500  6.1614e-02
10.500  19.750  5.2802e-02
10.500  20.000  4.7547e-02
10.500  20.250  4.4678e-02
10.500  20.500  3.1006e-02
10.500  20.750  2.1829e-02
10.500  21.000  1.5866e-02
10.500  21.250  1.2231e-02
10.500  21.500  1.0270e-02
10.500  21.750  9.1560e-03
10.500  22.000  8.5147e-03
10.500  22.250  8.2255e-03
10.500  22.500  8.0746e-03
10.500  22.750  7.9902e-03
10.500  23.000  7.9548e-03
10.500  23.250  7.9399e-03
10.500  23.500  7.9335e-03
10.500  23.750  7.9305e-03
10.500  24.000  7.9290e-03
10.750  17.000  2.7583e-02
10.750  17.250  2.8254e-02
10.750  17.500  3.0348e-02
10.750  17.750  3.4215e-02
10.750  18.000  3.8883e-02
10.750  18.250  4.3389e-02
10.750  18.500  4.7287e-02
10.750  18.750  5.0652e-02
10.750  19.000  5.3722e-02
10.750  19.250  5.6927e-02
10.750  19.500  6.0870e-02
10.750  19.750  6.1468e-02
10.750  20.000  5.3584e-02
10.750  20.250  4.8154e-02
10.750  20.500  4.4723e-02
10.750  20.750  3.1031e-02
10.750  21.000  2.1825e-02
10.750  21.250  1.5867e-02
10.750  21.500  1.2232e-02
10.750  21.750  1.0272e-02
10.750  22.000  9.1562e-03
10.750  22.250  8.5147e-03
10.750  22.500  8.2258e-03
10.750  22.750  8.0747e-03
10.750  23.000  7.9903e-03
10.750  23.250  7.9549e-03
10.750  23.500  7.9400e-03
10.750  23.750  7.9335e-03
10.750  24.000  7.9305e-03
11.000  17.000  2.7007e-02
11.000  17.250  2.7126e-02
11.000  17.500  2.8293e-02
11.000  17.750  3.0707e-02
11.000  18.000  3.4161e-02
11.000  18.250  3.8062e-02
11.000  18.500  4.2192e-02
11.000  18.750  4.6309e-02
11.000  19.000  5.0127e-02
11.000  19.250  5.3726e-02
11.000  19.500  5.7467e-02
11.000  19.750  6.1788e-02
11.000  20.000  6.2890e-02
11.000  20.250  5.6360e-02
11.000  20.500  4.9333e-02
11.000  20.750  4.5074e-02
11.000  21.000  3.1131e-02
11.000  21.250  2.1826e-02
11.000  21.500  1.5869e-02
11.000  21.750  1.2234e-02
11.000  22.000  1.0273e-02
11.000  22.250  9.1566e-03
11.000  22.500  8.5145e-03
11.000  22.750  8.2258e-03
11.000  23.000  8.0748e-03
11.000  23.250  7.9903e-03
11.000  23.500  7.9550e-03
11.000  23.750  7.9401e-03
11.000  24.000  7.9336e-03
11.250  17.000  2.7157e-02
11.250  17.250  2.6935e-02
11.250  17.500  2.7129e-02
11.250  17.750  2.7928e-02
11.250  18.000  2.9621e-02
11.250  18.250  3.2353e-02
11.250  18.500  3.6272e-02
11.250  18.750  4.0852e-02
11.250  19.000  4.5409e-02
11.250  19.250  4.9583e-02
11.250  19.500  5.3531e-02
11.250  19.750  5.7676e-02
11.250  20.000  6.2445e-02
11.250  20.250  6.4278e-02
11.250  20.500  5.7755e-02
11.250  20.750  5.1305e-02
11.250  21.000  4.6059e-02
11.250  21.250  3.1302e-02
11.250  21.500  2.1841e-02
11.250  21.750  1.5871e-02
11.250  22.000  1.2237e-02
11.250  22.250  1.0275e-02
11.250  22.500  9.1573e-03
11.250  22.750  8.5143e-03
11.250  23.000  8.2258e-03
11.250  23.250  8.0751e-03
11.250  23.500  7.9903e-03
11.250  23.750  7.9550e-03
11.250  24.000  7.9402e-03
11.500  17.000  2.8026e-02
11.500  17.250  2.7329e-02
11.500  17.500  2.6617e-02
11.500  17.750  2.6059e-02
11.500  18.000  2.6067e-02
11.500  18.250  2.7383e-02
11.500  18.500  3.0384e-02
11.500  18.750  3.4860e-02
11.500  19.000  3.9981e-02
11.500  19.250  4.4703e-02
11.500  19.500  4.9053e-02
11.500  19.750  5.3486e-02
11.500  20.000  5.8259e-02
11.500  20.250  6.3262e-02
11.500  20.500  6.7279e-02
11.500  20.750  6.1243e-02
11.500  21.000  5.4389e-02
11.500  21.250  4.7298e-02
11.500  21.500  3.1549e-02
11.500  21.750  2.1868e-02
11.500  22.000  1.5872e-02
11.500  22.250  1.2241e-02
11.500  22.500  1.0278e-02
11.500  22.750  9.1582e-03
11.500  23.000  8.5142e-03
11.500  23.250  8.2258e-03
11.500  23.500  8.0751e-03
11.500  23.750  7.9905e-03
11.500  24.000  7.9551e-03
11.750  17.000  2.9581e-02
11.750  17.250  2.8078e-02
11.750  17.500  2.6505e-02
11.750  17.750  2.4929e-02
11.750  18.000  2.3829e-02
11.750  18.250  2.3885e-02
11.750  18.500  2.5638e-02
11.750  18.750  2.9246e-02
11.750  19.000  3.4209e-02
11.750  19.250  3.9511e-02
11.750  19.500  4.4332e-02
11.750  19.750  4.9054e-02
11.750  20.000  5.4137e-02
11.750  20.250  5.9786e-02
11.750  20.500  6.6282e-02
11.750  20.750  7.0797e-02
11.750  21.000  6.5652e-02
11.750  21.250  5.9264e-02
11.750  21.500  4.8200e-02
11.750  21.750  3.1830e-02
11.750  22.000  2.1916e-02
11.750  22.250  1.5871e-02
11.750  22.500  1.2245e-02
11.750  22.750  1.0281e-02
11.750  23.000  9.1593e-03
11.750  23.250  8.5138e-03
11.750  23.500  8.2258e-03
11.750  23.750  8.0752e-03
11.750  24.000  7.9906e-03
12.000  17.000  3.1664e-02
12.000  17.250  2.9095e-02
12.000  17.500  2.6602e-02
12.000  17.750  2.4311e-02
12.000  18.000  2.2647e-02
12.000  18.250  2.1951e-02
12.000  18.500  2.2668e-02
12.000  18.750  2.4949e-02
12.000  19.000  2.8912e-02
12.000  19.250  3.4155e-02
12.000  19.500  3.9598e-02
12.000  19.750  4.4648e-02
12.000  20.000  4.9979e-02
12.000  20.250  5.5823e-02
12.000  20.500  6.2309e-02
12.000  20.750  6.9481e-02
12.000  21.000  7.5570e-02
12.000  21.250  7.3630e-02
12.000  21.500  6.6454e-02
12.000  21.750  4.8917e-02
12.000  22.000  3.2129e-02
12.000  22.250  2.1976e-02
12.000  22.500  1.5867e-02
12.000  22.750  1.2250e-02
12.000  23.000  1.0284e-02
12.000  23.250  9.1607e-03
12.000  23.500  8.5135e-03
12.000  23.750  8.2258e-03
12.000  24.000  8.0752e-03
12.250  17.000  3.4173e-02
12.250  17.250  3.0254e-02
12.250  17.500  2.6790e-02
12.250  17.750  2.4003e-02
12.250  18.000  2.2096e-02
12.250  18.250  2.1259e-02
12.250  18.500  2.1433e-02
12.250  18.750  2.2620e-02
12.250  19.000  2.5128e-02
12.250  19.250  2.9350e-02
12.250  19.500  3.4816e-02
12.250  19.750  4.0507e-02
12.250  20.000  4.5980e-02
12.250  20.250  5.2042e-02
12.250  20.500  5.8874e-02
12.250  20.750  6.6619e-02
12.250  21.000  7.5812e-02
12.250  21.250  8.4665e-02
12.250  21.500  8.4196e-02
12.250  21.750  7.4389e-02
12.250  22.000  4.9592e-02
12.250  22.250  3.2260e-02
12.250  22.500  2.1980e-02
12.250  22.750  1.5859e-02
12.250  23.000  1.2254e-02
12.250  23.250  1.0287e-02
12.250  23.500  9.1622e-03
12.250  23.750  8.5130e-03
12.250  24.000  8.2256e-03
12.500  17.000  3.6601e-02
12.500  17.250  3.1219e-02
12.500  17.500  2.6973e-02
12.500  17.750  2.3918e-02
12.500  18.000  2.2124e-02
12.500  18.250  2.1334e-02
12.500  18.500  2.1349e-02
12.500  18.750  2.2027e-02
12.500  19.000  2.3447e-02
12.500  19.250  2.6081e-02
12.500  19.500  2.9996e-02
12.500  19.750  3.5124e-02
12.500  20.000  4.1401e-02
12.500  20.250  4.8758e-02
12.500  20.500  5.7131e-02
12.500  20.750  6.6452e-02
12.500  21.000  7.6656e-02
12.500  21.250  8.7676e-02
12.500  21.500  9.7366e-02
12.500  21.750  9.6341e-02
12.500  22.000  7.8641e-02
12.500  22.250  5.0037e-02
12.500  22.500  3.2472e-02
12.500  22.750  2.2036e-02
12.500  23.000  1.5846e-02
12.500  23.250  1.2257e-02
12.500  23.500  1.0290e-02
12.500  23.750  9.1637e-03
12.500  24.000  8.5123e-03
12.750  17.000  3.2847e-02
12.750  17.250  3.1597e-02
12.750  17.500  2.7347e-02
12.750  17.750  2.4425e-02
12.750  18.000  2.2720e-02
12.750  18.250  2.1947e-02
12.750  18.500  2.1887e-02
12.750  18.750  2.4224e-02
12.750  19.000  2.9064e-02
12.750  19.250  3.5942e-02
12.750  19.500  4.4397e-02
12.750  19.750  5.3967e-02
12.750  20.000  6.4190e-02
12.750  20.250  7.4602e-02
12.750  20.500  8.4742e-02
12.750  20.750  9.4146e-02
12.750  21.000  1.0235e-01
12.750  21.250  1.0890e-01
12.750  21.500  1.1333e-01
12.750  21.750  1.1517e-01
12.750  22.000  1.0895e-01
12.750  22.250  8.0311e-02
12.750  22.500  5.0610e-02
12.750  22.750  3.2705e-02
12.750  23.000  2.2058e-02
12.750  23.250  1.5826e-02
12.750  23.500  1.2258e-02
12.750  23.750  1.0293e-02
12.750  24.000  9.1649e-03
13.000  17.000  2.4062e-02
13.000  17.250  2.7769e-02
13.000  17.500  2.7784e-02
13.000  17.750  2.5805e-02
13.000  18.000  2.5975e-02
13.000  18.250  2.8913e-02
13.000  18.500  3.4218e-02
13.000  18.750  4.1487e-02
13.000  19.000  5.0319e-02
13.000  19.250  6.0310e-02
13.000  19.500  7.1058e-02
13.000  19.750  8.2163e-02
13.000  20.000  9.3221e-02
13.000  20.250  1.0383e-01
13.000  20.500  1.1359e-01
13.000  20.750  1.2209e-01
13.000  21.000  1.2894e-01
13.000  21.250  1.3373e-01
13.000  21.500  1.3606e-01
13.000  21.750  1.3553e-01
13.000  22.000  1.3174e-01
13.000  22.250  1.1852e-01
13.000  22.500  8.1603e-02
13.000  22.750  5.1041e-02
13.000  23.000  3.2830e-02
13.000  23.250  2.2056e-02
13.000  23.500  1.5800e-02
13.000  23.750  1.2256e-02
13.000  24.000  1.0294e-02
13.250  17.000  2.1053e-02
13.250  17.250  2.4178e-02
13.250  17.500  2.9260e-02
13.250  17.750  2.8224e-02
13.250  18.000  2.8558e-02
13.250  18.250  3.2444e-02
13.250  18.500  3.9351e-02
13.250  18.750  4.8749e-02
13.250  19.000  6.0108e-02
13.250  19.250  7.2897e-02
13.250  19.500  8.6586e-02
13.250  19.750  1.0064e-01
13.250  20.000  1.1454e-01
13.250  20.250  1.2775e-01
13.250  20.500  1.3973e-01
13.250  20.750  1.4996e-01
13.250  21.000  1.5791e-01
13.250  21.250  1.6305e-01
13.250  21.500  1.6484e-01
13.250  21.750  1.6276e-01
13.250  22.000  1.5628e-01
13.250  22.250  1.4486e-01
13.250  22.500  1.2355e-01
13.250  22.750  8.2811e-02
13.250  23.000  5.1439e-02
13.250  23.250  3.2778e-02
13.250  23.500  2.2006e-02
13.250  23.750  1.5771e-02
13.250  24.000  1.2251e-02
13.500  17.000  1.9180e-02
13.500  17.250  2.2050e-02
13.500  17.500  2.6985e-02
13.500  17.750  2.9484e-02
13.500  18.000  2.8681e-02
13.500  18.250  2.7112e-02
13.500  18.500  2.6260e-02
13.500  18.750  2.6107e-02
13.500  19.000  2.6623e-02
13.500  19.250  3.1442e-02
13.500  19.500  4.0766e-02
13.500  19.750  5.3622e-02
13.500  20.000  6.9035e-02
13.500  20.250  8.6032e-02
13.500  20.500  1.0364e-01
13.500  20.750  1.2088e-01
13.500  21.000  1.3678e-01
13.500  21.250  1.5037e-01
13.500  21.500  1.6067e-01
13.500  21.750  1.6671e-01
13.500  22.000  1.6752e-01
13.500  22.250  1.6212e-01
13.500  22.500  1.4953e-01
13.500  22.750  1.2549e-01
13.500  23.000  8.3873e-02
13.500  23.250  5.1864e-02
13.500  23.500  3.2967e-02
13.500  23.750  2.1999e-02
13.500  24.000  1.5741e-02
13.750  17.000  1.8205e-02
13.750  17.250  2.0657e-02
13.750  17.500  2.5587e-02
13.750  17.750  2.9085e-02
13.750  18.000  3.1722e-02
13.750  18.250  2.9870e-02
13.750  18.500  2.8606e-02
13.750  18.750  2.8109e-02
13.750  19.000  2.8307e-02
13.750  19.250  3.2886e-02
13.750  19.500  4.2072e-02
13.750  19.750  5.4930e-02
13.750  20.000  7.0527e-02
13.750  20.250  8.7926e-02
13.750  20.500  1.0619e-01
13.750  20.750  1.2439e-01
13.750  21.000  1.4159e-01
13.750  21.250  1.5685e-01
13.750  21.500  1.6923e-01
13.750  21.750  1.7781e-01
13.750  22.000  1.8165e-01
13.750  22.250  1.7981e-01
13.750  22.500  1.7136e-01
13.750  22.750  1.5536e-01
13.750  23.000  1.2802e-01
13.750  23.250  8.4756e-02
13.750  23.500  5.2091e-02
13.750  23.750  3.2980e-02
13.750  24.000  2.1943e-02
14.000  17.000  1.7551e-02
14.000  17.250  1.9947e-02
14.000  17.500  2.4459e-02
14.000  17.750  2.8722e-02
14.000  18.000  3.2591e-02
14.000  18.250  3.3416e-02
14.000  18.500  3.1516e-02
14.000  18.750  3.0435e-02
14.000  19.000  3.0263e-02
14.000  19.250  3.0907e-02
14.000  19.500  3.2335e-02
14.000  19.750  3.4629e-02
14.000  20.000  3.7833e-02
14.000  20.250  4.2255e-02
14.000  20.500  4.8196e-02
14.000  20.750  5.5581e-02
14.000  21.000  6.3075e-02
14.000  21.250  7.1538e-02
14.000  21.500  8.2499e-02
14.000  21.750  9.7489e-02
14.000  22.000  1.1804e-01
14.000  22.250  1.4593e-01
14.000  22.500  1.7275e-01
14.000  22.750  1.6827e-01
14.000  23.000  1.6131e-01
14.000  23.250  1.3180e-01
14.000  23.500  8.5479e-02
14.000  23.750  5.2225e-02
14.000  24.000  3.2953e-02
