InwT 1585.12A  relative to Inci 1215.00A scaled to 1215A.
Hden   Phi(H)  Eq_Width (A)
7.000  17.000  2.1148e-02
7.000  17.250  1.5374e-02
7.000  17.500  1.1941e-02
7.000  17.750  1.0008e-02
7.000  18.000  9.0046e-03
7.000  18.250  8.4470e-03
7.000  18.500  8.1337e-03
7.000  18.750  7.9955e-03
7.000  19.000  7.9242e-03
7.000  19.250  7.8847e-03
7.000  19.500  7.8682e-03
7.000  19.750  7.8614e-03
7.000  20.000  7.8584e-03
7.000  20.250  7.8571e-03
7.000  20.500  7.8564e-03
7.000  20.750  7.8560e-03
7.000  21.000  7.8558e-03
7.000  21.250  7.8557e-03
7.000  21.500  7.8558e-03
7.000  21.750  7.8556e-03
7.000  22.000  7.8556e-03
7.000  22.250  7.8556e-03
7.000  22.500  7.8556e-03
7.000  22.750  7.8558e-03
7.000  23.000  7.8558e-03
7.000  23.250  7.8556e-03
7.000  23.500  7.8556e-03
7.000  23.750  7.8556e-03
7.000  24.000  7.8556e-03
7.250  17.000  3.0499e-02
7.250  17.250  2.1093e-02
7.250  17.500  1.5344e-02
7.250  17.750  1.1925e-02
7.250  18.000  9.9999e-03
7.250  18.250  9.0008e-03
7.250  18.500  8.4453e-03
7.250  18.750  8.1331e-03
7.250  19.000  7.9952e-03
7.250  19.250  7.9241e-03
7.250  19.500  7.8847e-03
7.250  19.750  7.8682e-03
7.250  20.000  7.8614e-03
7.250  20.250  7.8584e-03
7.250  20.500  7.8570e-03
7.250  20.750  7.8564e-03
7.250  21.000  7.8560e-03
7.250  21.250  7.8558e-03
7.250  21.500  7.8557e-03
7.250  21.750  7.8572e-03
7.250  22.000  7.8556e-03
7.250  22.250  7.8556e-03
7.250  22.500  7.8556e-03
7.250  22.750  7.8564e-03
7.250  23.000  7.8564e-03
7.250  23.250  7.8556e-03
7.250  23.500  7.8556e-03
7.250  23.750  7.8556e-03
7.250  24.000  7.8556e-03
7.500  17.000  3.4351e-02
7.500  17.250  3.0459e-02
7.500  17.500  2.1061e-02
7.500  17.750  1.5326e-02
7.500  18.000  1.1913e-02
7.500  18.250  9.9943e-03
7.500  18.500  8.9983e-03
7.500  18.750  8.4441e-03
7.500  19.000  8.1327e-03
7.500  19.250  7.9951e-03
7.500  19.500  7.9240e-03
7.500  19.750  7.8847e-03
7.500  20.000  7.8682e-03
7.500  20.250  7.8614e-03
7.500  20.500  7.8584e-03
7.500  20.750  7.8570e-03
7.500  21.000  7.8563e-03
7.500  21.250  7.8560e-03
7.500  21.500  7.8558e-03
7.500  21.750  7.8557e-03
7.500  22.000  7.8556e-03
7.500  22.250  7.8556e-03
7.500  22.500  7.8556e-03
7.500  22.750  7.8556e-03
7.500  23.000  7.8560e-03
7.500  23.250  7.8564e-03
7.500  23.500  7.8556e-03
7.500  23.750  7.8565e-03
7.500  24.000  7.8556e-03
7.750  17.000  3.9727e-02
7.750  17.250  3.4112e-02
7.750  17.500  3.0439e-02
7.750  17.750  2.1042e-02
7.750  18.000  1.5315e-02
7.750  18.250  1.1905e-02
7.750  18.500  9.9900e-03
7.750  18.750  8.9964e-03
7.750  19.000  8.4434e-03
7.750  19.250  8.1324e-03
7.750  19.500  7.9950e-03
7.750  19.750  7.9240e-03
7.750  20.000  7.8847e-03
7.750  20.250  7.8682e-03
7.750  20.500  7.8614e-03
7.750  20.750  7.8584e-03
7.750  21.000  7.8570e-03
7.750  21.250  7.8563e-03
7.750  21.500  7.8560e-03
7.750  21.750  7.8558e-03
7.750  22.000  7.8556e-03
7.750  22.250  7.8556e-03
7.750  22.500  7.8556e-03
7.750  22.750  7.8558e-03
7.750  23.000  7.8558e-03
7.750  23.250  7.8556e-03
7.750  23.500  7.8564e-03
7.750  23.750  7.8564e-03
7.750  24.000  7.8556e-03
8.000  17.000  3.6926e-02
8.000  17.250  3.8761e-02
8.000  17.500  3.3788e-02
8.000  17.750  3.0399e-02
8.000  18.000  2.1031e-02
8.000  18.250  1.5308e-02
8.000  18.500  1.1898e-02
8.000  18.750  9.9863e-03
8.000  19.000  8.9950e-03
8.000  19.250  8.4429e-03
8.000  19.500  8.1323e-03
8.000  19.750  7.9950e-03
8.000  20.000  7.9240e-03
8.000  20.250  7.8846e-03
8.000  20.500  7.8682e-03
8.000  20.750  7.8614e-03
8.000  21.000  7.8584e-03
8.000  21.250  7.8570e-03
8.000  21.500  7.8563e-03
8.000  21.750  7.8560e-03
8.000  22.000  7.8557e-03
8.000  22.250  7.8556e-03
8.000  22.500  7.8556e-03
8.000  22.750  7.8557e-03
8.000  23.000  7.8556e-03
8.000  23.250  7.8560e-03
8.000  23.500  7.8556e-03
8.000  23.750  7.8556e-03
8.000  24.000  7.8556e-03
8.250  17.000  3.4711e-02
8.250  17.250  3.6469e-02
8.250  17.500  3.8394e-02
8.250  17.750  3.3654e-02
8.250  18.000  3.0395e-02
8.250  18.250  2.1023e-02
8.250  18.500  1.5304e-02
8.250  18.750  1.1892e-02
8.250  19.000  9.9830e-03
8.250  19.250  8.9937e-03
8.250  19.500  8.4426e-03
8.250  19.750  8.1321e-03
8.250  20.000  7.9949e-03
8.250  20.250  7.9240e-03
8.250  20.500  7.8846e-03
8.250  20.750  7.8682e-03
8.250  21.000  7.8614e-03
8.250  21.250  7.8584e-03
8.250  21.500  7.8570e-03
8.250  21.750  7.8563e-03
8.250  22.000  7.8560e-03
8.250  22.250  7.8557e-03
8.250  22.500  7.8556e-03
8.250  22.750  7.8558e-03
8.250  23.000  7.8556e-03
8.250  23.250  7.8576e-03
8.250  23.500  7.8556e-03
8.250  23.750  7.8556e-03
8.250  24.000  7.8561e-03
8.500  17.000  3.2795e-02
8.500  17.250  3.4372e-02
8.500  17.500  3.6187e-02
8.500  17.750  3.8174e-02
8.500  18.000  3.3587e-02
8.500  18.250  3.0391e-02
8.500  18.500  2.1019e-02
8.500  18.750  1.5301e-02
8.500  19.000  1.1886e-02
8.500  19.250  9.9796e-03
8.500  19.500  8.9925e-03
8.500  19.750  8.4422e-03
8.500  20.000  8.1321e-03
8.500  20.250  7.9949e-03
8.500  20.500  7.9240e-03
8.500  20.750  7.8846e-03
8.500  21.000  7.8682e-03
8.500  21.250  7.8614e-03
8.500  21.500  7.8584e-03
8.500  21.750  7.8570e-03
8.500  22.000  7.8563e-03
8.500  22.250  7.8560e-03
8.500  22.500  7.8557e-03
8.500  22.750  7.8556e-03
8.500  23.000  7.8556e-03
8.500  23.250  7.8557e-03
8.500  23.500  7.8555e-03
8.500  23.750  7.8555e-03
8.500  24.000  7.8555e-03
8.750  17.000  3.1118e-02
8.750  17.250  3.2603e-02
8.750  17.500  3.4230e-02
8.750  17.750  3.6035e-02
8.750  18.000  3.8077e-02
8.750  18.250  3.3556e-02
8.750  18.500  3.0384e-02
8.750  18.750  2.1015e-02
8.750  19.000  1.5299e-02
8.750  19.250  1.1881e-02
8.750  19.500  9.9761e-03
8.750  19.750  8.9914e-03
8.750  20.000  8.4420e-03
8.750  20.250  8.1320e-03
8.750  20.500  7.9949e-03
8.750  20.750  7.9240e-03
8.750  21.000  7.8846e-03
8.750  21.250  7.8682e-03
8.750  21.500  7.8614e-03
8.750  21.750  7.8584e-03
8.750  22.000  7.8570e-03
8.750  22.250  7.8563e-03
8.750  22.500  7.8560e-03
8.750  22.750  7.8557e-03
8.750  23.000  7.8564e-03
8.750  23.250  7.8556e-03
8.750  23.500  7.8557e-03
8.750  23.750  7.8555e-03
8.750  24.000  7.8555e-03
9.000  17.000  2.9509e-02
9.000  17.250  3.1059e-02
9.000  17.500  3.2603e-02
9.000  17.750  3.4277e-02
9.000  18.000  3.6111e-02
9.000  18.250  3.8158e-02
9.000  18.500  3.3530e-02
9.000  18.750  3.0371e-02
9.000  19.000  2.1011e-02
9.000  19.250  1.5298e-02
9.000  19.500  1.1875e-02
9.000  19.750  9.9727e-03
9.000  20.000  8.9905e-03
9.000  20.250  8.4416e-03
9.000  20.500  8.1319e-03
9.000  20.750  7.9949e-03
9.000  21.000  7.9240e-03
9.000  21.250  7.8846e-03
9.000  21.500  7.8682e-03
9.000  21.750  7.8614e-03
9.000  22.000  7.8584e-03
9.000  22.250  7.8570e-03
9.000  22.500  7.8563e-03
9.000  22.750  7.8560e-03
9.000  23.000  7.8557e-03
9.000  23.250  7.8556e-03
9.000  23.500  7.8556e-03
9.000  23.750  7.8556e-03
9.000  24.000  7.8556e-03
9.250  17.000  2.7784e-02
9.250  17.250  2.9542e-02
9.250  17.500  3.1207e-02
9.250  17.750  3.2861e-02
9.250  18.000  3.4601e-02
9.250  18.250  3.6544e-02
9.250  18.500  3.8506e-02
9.250  18.750  3.3490e-02
9.250  19.000  3.0350e-02
9.250  19.250  2.1007e-02
9.250  19.500  1.5297e-02
9.250  19.750  1.1870e-02
9.250  20.000  9.9694e-03
9.250  20.250  8.9895e-03
9.250  20.500  8.4414e-03
9.250  20.750  8.1319e-03
9.250  21.000  7.9949e-03
9.250  21.250  7.9240e-03
9.250  21.500  7.8842e-03
9.250  21.750  7.8677e-03
9.250  22.000  7.8607e-03
9.250  22.250  7.8579e-03
9.250  22.500  7.8566e-03
9.250  22.750  7.8560e-03
9.250  23.000  7.8557e-03
9.250  23.250  7.8556e-03
9.250  23.500  7.8555e-03
9.250  23.750  7.8554e-03
9.250  24.000  7.8554e-03
9.500  17.000  2.5789e-02
9.500  17.250  2.7850e-02
9.500  17.500  2.9815e-02
9.500  17.750  3.1694e-02
9.500  18.000  3.3498e-02
9.500  18.250  3.5476e-02
9.500  18.500  3.7755e-02
9.500  18.750  3.8996e-02
9.500  19.000  3.3429e-02
9.500  19.250  3.0314e-02
9.500  19.500  2.1003e-02
9.500  19.750  1.5297e-02
9.500  20.000  1.1866e-02
9.500  20.250  9.9666e-03
9.500  20.500  8.9888e-03
9.500  20.750  8.4410e-03
9.500  21.000  8.1314e-03
9.500  21.250  7.9944e-03
9.500  21.500  7.9234e-03
9.500  21.750  7.8839e-03
9.500  22.000  7.8674e-03
9.500  22.250  7.8607e-03
9.500  22.500  7.8576e-03
9.500  22.750  7.8562e-03
9.500  23.000  7.8556e-03
9.500  23.250  7.8551e-03
9.500  23.500  7.8550e-03
9.500  23.750  7.8549e-03
9.500  24.000  7.8548e-03
9.750  17.000  2.3381e-02
9.750  17.250  2.5792e-02
9.750  17.500  2.8169e-02
9.750  17.750  3.0471e-02
9.750  18.000  3.2686e-02
9.750  18.250  3.4894e-02
9.750  18.500  3.7311e-02
9.750  18.750  4.0026e-02
9.750  19.000  3.8658e-02
9.750  19.250  3.3330e-02
9.750  19.500  3.0256e-02
9.750  19.750  2.0997e-02
9.750  20.000  1.5297e-02
9.750  20.250  1.1864e-02
9.750  20.500  9.9644e-03
9.750  20.750  8.9882e-03
9.750  21.000  8.4408e-03
9.750  21.250  8.1313e-03
9.750  21.500  7.9944e-03
9.750  21.750  7.9235e-03
9.750  22.000  7.8839e-03
9.750  22.250  7.8675e-03
9.750  22.500  7.8607e-03
9.750  22.750  7.8577e-03
9.750  23.000  7.8562e-03
9.750  23.250  7.8555e-03
9.750  23.500  7.8551e-03
9.750  23.750  7.8550e-03
9.750  24.000  7.8548e-03
10.000  17.000  2.0527e-02
10.000  17.250  2.3248e-02
10.000  17.500  2.6048e-02
10.000  17.750  2.8936e-02
10.000  18.000  3.1793e-02
10.000  18.250  3.4543e-02
10.000  18.500  3.7107e-02
10.000  18.750  3.9779e-02
10.000  19.000  4.2269e-02
10.000  19.250  3.8153e-02
10.000  19.500  3.3173e-02
10.000  19.750  3.0162e-02
10.000  20.000  2.0990e-02
10.000  20.250  1.5297e-02
10.000  20.500  1.1862e-02
10.000  20.750  9.9628e-03
10.000  21.000  8.9881e-03
10.000  21.250  8.4409e-03
10.000  21.500  8.1313e-03
10.000  21.750  7.9944e-03
10.000  22.000  7.9235e-03
10.000  22.250  7.8840e-03
10.000  22.500  7.8675e-03
10.000  22.750  7.8607e-03
10.000  23.000  7.8576e-03
10.000  23.250  7.8563e-03
10.000  23.500  7.8556e-03
10.000  23.750  7.8552e-03
10.000  24.000  7.8550e-03
10.250  17.000  1.7853e-02
10.250  17.250  2.0284e-02
10.250  17.500  2.3457e-02
10.250  17.750  2.6886e-02
10.250  18.000  3.0477e-02
10.250  18.250  3.3850e-02
10.250  18.500  3.6800e-02
10.250  18.750  3.9584e-02
10.250  19.000  4.2573e-02
10.250  19.250  4.4677e-02
10.250  19.500  3.7779e-02
10.250  19.750  3.2940e-02
10.250  20.000  3.0039e-02
10.250  20.250  2.0984e-02
10.250  20.500  1.5297e-02
10.250  20.750  1.1862e-02
10.250  21.000  9.9619e-03
10.250  21.250  8.9881e-03
10.250  21.500  8.4409e-03
10.250  21.750  8.1313e-03
10.250  22.000  7.9944e-03
10.250  22.250  7.9235e-03
10.250  22.500  7.8841e-03
10.250  22.750  7.8675e-03
10.250  23.000  7.8607e-03
10.250  23.250  7.8576e-03
10.250  23.500  7.8562e-03
10.250  23.750  7.8556e-03
10.250  24.000  7.8551e-03
10.500  17.000  1.5639e-02
10.500  17.250  1.7564e-02
10.500  17.500  2.0490e-02
10.500  17.750  2.4379e-02
10.500  18.000  2.8472e-02
10.500  18.250  3.2342e-02
10.500  18.500  3.5737e-02
10.500  18.750  3.8677e-02
10.500  19.000  4.1544e-02
10.500  19.250  4.4903e-02
10.500  19.500  4.5777e-02
10.500  19.750  3.7823e-02
10.500  20.000  3.2899e-02
10.500  20.250  2.9900e-02
10.500  20.500  2.0979e-02
10.500  20.750  1.5296e-02
10.500  21.000  1.1863e-02
10.500  21.250  9.9618e-03
10.500  21.500  8.9886e-03
10.500  21.750  8.4410e-03
10.500  22.000  8.1314e-03
10.500  22.250  7.9945e-03
10.500  22.500  7.9236e-03
10.500  22.750  7.8841e-03
10.500  23.000  7.8676e-03
10.500  23.250  7.8606e-03
10.500  23.500  7.8577e-03
10.500  23.750  7.8563e-03
10.500  24.000  7.8556e-03
10.750  17.000  1.4027e-02
10.750  17.250  1.5392e-02
10.750  17.500  1.7829e-02
10.750  17.750  2.1494e-02
10.750  18.000  2.5680e-02
10.750  18.250  2.9728e-02
10.750  18.500  3.3378e-02
10.750  18.750  3.6693e-02
10.750  19.000  3.9797e-02
10.750  19.250  4.2984e-02
10.750  19.500  4.6628e-02
10.750  19.750  4.5568e-02
10.750  20.000  3.8167e-02
10.750  20.250  3.3139e-02
10.750  20.500  2.9837e-02
10.750  20.750  2.0979e-02
10.750  21.000  1.5295e-02
10.750  21.250  1.1866e-02
10.750  21.500  9.9625e-03
10.750  21.750  8.9893e-03
10.750  22.000  8.4412e-03
10.750  22.250  8.1314e-03
10.750  22.500  7.9947e-03
10.750  22.750  7.9236e-03
10.750  23.000  7.8842e-03
10.750  23.250  7.8677e-03
10.750  23.500  7.8607e-03
10.750  23.750  7.8576e-03
10.750  24.000  7.8562e-03
11.000  17.000  1.2943e-02
11.000  17.250  1.3904e-02
11.000  17.500  1.5706e-02
11.000  17.750  1.8556e-02
11.000  18.000  2.2176e-02
11.000  18.250  2.6024e-02
11.000  18.500  2.9899e-02
11.000  18.750  3.3643e-02
11.000  19.000  3.7134e-02
11.000  19.250  4.0477e-02
11.000  19.500  4.3930e-02
11.000  19.750  4.7742e-02
11.000  20.000  4.6249e-02
11.000  20.250  3.9634e-02
11.000  20.500  3.3654e-02
11.000  20.750  2.9909e-02
11.000  21.000  2.0989e-02
11.000  21.250  1.5292e-02
11.000  21.500  1.1868e-02
11.000  21.750  9.9639e-03
11.000  22.000  8.9903e-03
11.000  22.250  8.4413e-03
11.000  22.500  8.1314e-03
11.000  22.750  7.9948e-03
11.000  23.000  7.9238e-03
11.000  23.250  7.8842e-03
11.000  23.500  7.8677e-03
11.000  23.750  7.8608e-03
11.000  24.000  7.8577e-03
11.250  17.000  1.2256e-02
11.250  17.250  1.2986e-02
11.250  17.500  1.4127e-02
11.250  17.750  1.5910e-02
11.250  18.000  1.8504e-02
11.250  18.250  2.1791e-02
11.250  18.500  2.5660e-02
11.250  18.750  2.9744e-02
11.250  19.000  3.3645e-02
11.250  19.250  3.7262e-02
11.250  19.500  4.0722e-02
11.250  19.750  4.4341e-02
11.250  20.000  4.8158e-02
11.250  20.250  4.6839e-02
11.250  20.500  4.0224e-02
11.250  20.750  3.4564e-02
11.250  21.000  3.0267e-02
11.250  21.250  2.1009e-02
11.250  21.500  1.5287e-02
11.250  21.750  1.1871e-02
11.250  22.000  9.9658e-03
11.250  22.250  8.9915e-03
11.250  22.500  8.4416e-03
11.250  22.750  8.1313e-03
11.250  23.000  7.9949e-03
11.250  23.250  7.9240e-03
11.250  23.500  7.8842e-03
11.250  23.750  7.8677e-03
11.250  24.000  7.8609e-03
11.500  17.000  1.1880e-02
11.500  17.250  1.2392e-02
11.500  17.500  1.2976e-02
11.500  17.750  1.3825e-02
11.500  18.000  1.5296e-02
11.500  18.250  1.7743e-02
11.500  18.500  2.1176e-02
11.500  18.750  2.5317e-02
11.500  19.000  2.9625e-02
11.500  19.250  3.3529e-02
11.500  19.500  3.7140e-02
11.500  19.750  4.0823e-02
11.500  20.000  4.4784e-02
11.500  20.250  4.8245e-02
11.500  20.500  4.8373e-02
11.500  20.750  4.1985e-02
11.500  21.000  3.6061e-02
11.500  21.250  3.0728e-02
11.500  21.500  2.1034e-02
11.500  21.750  1.5278e-02
11.500  22.000  1.1873e-02
11.500  22.250  9.9684e-03
11.500  22.500  8.9930e-03
11.500  22.750  8.4421e-03
11.500  23.000  8.1312e-03
11.500  23.250  7.9948e-03
11.500  23.500  7.9241e-03
11.500  23.750  7.8843e-03
11.500  24.000  7.8678e-03
11.750  17.000  1.1713e-02
11.750  17.250  1.1923e-02
11.750  17.500  1.2063e-02
11.750  17.750  1.2274e-02
11.750  18.000  1.2941e-02
11.750  18.250  1.4496e-02
11.750  18.500  1.7177e-02
11.750  18.750  2.0923e-02
11.750  19.000  2.5288e-02
11.750  19.250  2.9612e-02
11.750  19.500  3.3482e-02
11.750  19.750  3.7240e-02
11.750  20.000  4.1268e-02
11.750  20.250  4.5760e-02
11.750  20.500  4.9842e-02
11.750  20.750  5.0160e-02
11.750  21.000  4.4237e-02
11.750  21.250  3.8571e-02
11.750  21.500  3.0952e-02
11.750  21.750  2.1054e-02
11.750  22.000  1.5262e-02
11.750  22.250  1.1872e-02
11.750  22.500  9.9714e-03
11.750  22.750  8.9947e-03
11.750  23.000  8.4426e-03
11.750  23.250  8.1310e-03
11.750  23.500  7.9948e-03
11.750  23.750  7.9241e-03
11.750  24.000  7.8845e-03
12.000  17.000  1.1582e-02
12.000  17.250  1.1467e-02
12.000  17.500  1.1225e-02
12.000  17.750  1.1081e-02
12.000  18.000  1.1349e-02
12.000  18.250  1.2286e-02
12.000  18.500  1.4210e-02
12.000  18.750  1.7175e-02
12.000  19.000  2.1097e-02
12.000  19.250  2.5582e-02
12.000  19.500  2.9914e-02
12.000  19.750  3.3844e-02
12.000  20.000  3.7927e-02
12.000  20.250  4.2378e-02
12.000  20.500  4.7361e-02
12.000  20.750  5.1367e-02
12.000  21.000  5.2616e-02
12.000  21.250  4.8563e-02
12.000  21.500  4.2389e-02
12.000  21.750  3.1074e-02
12.000  22.000  2.1065e-02
12.000  22.250  1.5240e-02
12.000  22.500  1.1867e-02
12.000  22.750  9.9744e-03
12.000  23.000  8.9965e-03
12.000  23.250  8.4434e-03
12.000  23.500  8.1308e-03
12.000  23.750  7.9948e-03
12.000  24.000  7.9241e-03
12.250  17.000  1.1373e-02
12.250  17.250  1.0918e-02
12.250  17.500  1.0376e-02
12.250  17.750  1.0416e-02
12.250  18.000  1.1172e-02
12.250  18.250  1.2587e-02
12.250  18.500  1.4602e-02
12.250  18.750  1.7160e-02
12.250  19.000  2.0203e-02
12.250  19.250  2.3672e-02
12.250  19.500  2.7509e-02
12.250  19.750  3.1657e-02
12.250  20.000  3.6058e-02
12.250  20.250  4.0653e-02
12.250  20.500  4.5385e-02
12.250  20.750  5.0196e-02
12.250  21.000  5.4902e-02
12.250  21.250  5.7647e-02
12.250  21.500  5.4336e-02
12.250  21.750  4.6587e-02
12.250  22.000  3.1161e-02
12.250  22.250  2.1040e-02
12.250  22.500  1.5216e-02
12.250  22.750  1.1856e-02
12.250  23.000  9.9772e-03
12.250  23.250  8.9983e-03
12.250  23.500  8.4440e-03
12.250  23.750  8.1305e-03
12.250  24.000  7.9947e-03
12.500  17.000  1.0874e-02
12.500  17.250  1.0167e-02
12.500  17.500  1.0122e-02
12.500  17.750  1.0820e-02
12.500  18.000  1.2196e-02
12.500  18.250  1.4183e-02
12.500  18.500  1.6716e-02
12.500  18.750  1.9731e-02
12.500  19.000  2.3162e-02
12.500  19.250  2.6943e-02
12.500  19.500  3.1010e-02
12.500  19.750  3.5296e-02
12.500  20.000  3.9737e-02
12.500  20.250  4.4267e-02
12.500  20.500  4.8820e-02
12.500  20.750  5.3333e-02
12.500  21.000  5.7738e-02
12.500  21.250  6.1971e-02
12.500  21.500  6.4746e-02
12.500  21.750  6.0927e-02
12.500  22.000  4.8561e-02
12.500  22.250  3.1184e-02
12.500  22.500  2.1016e-02
12.500  22.750  1.5175e-02
12.500  23.000  1.1839e-02
12.500  23.250  9.9792e-03
12.500  23.500  8.9999e-03
12.500  23.750  8.4448e-03
12.500  24.000  8.1301e-03
12.750  17.000  8.5820e-03
12.750  17.250  9.0999e-03
12.750  17.500  8.5271e-03
12.750  17.750  8.2770e-03
12.750  18.000  8.5501e-03
12.750  18.250  9.3638e-03
12.750  18.500  1.0712e-02
12.750  18.750  1.2562e-02
12.750  19.000  1.4778e-02
12.750  19.250  1.8899e-02
12.750  19.500  2.4917e-02
12.750  19.750  3.2290e-02
12.750  20.000  4.0474e-02
12.750  20.250  4.8925e-02
12.750  20.500  5.7099e-02
12.750  20.750  6.4454e-02
12.750  21.000  7.0446e-02
12.750  21.250  7.4531e-02
12.750  21.500  7.6165e-02
12.750  21.750  7.4806e-02
12.750  22.000  6.7668e-02
12.750  22.250  4.8877e-02
12.750  22.500  3.1210e-02
12.750  22.750  2.0980e-02
12.750  23.000  1.5127e-02
12.750  23.250  1.1817e-02
12.750  23.500  9.9795e-03
12.750  23.750  9.0011e-03
12.750  24.000  8.4453e-03
13.000  17.000  5.0765e-03
13.000  17.250  6.5796e-03
13.000  17.500  7.3644e-03
13.000  17.750  7.5887e-03
13.000  18.000  7.9325e-03
13.000  18.250  8.7761e-03
13.000  18.500  1.0135e-02
13.000  18.750  1.1997e-02
13.000  19.000  1.4262e-02
13.000  19.250  1.6863e-02
13.000  19.500  1.9735e-02
13.000  19.750  2.3444e-02
13.000  20.000  2.7950e-02
13.000  20.250  3.3100e-02
13.000  20.500  3.9033e-02
13.000  20.750  4.5124e-02
13.000  21.000  5.3057e-02
13.000  21.250  6.5077e-02
13.000  21.500  7.6869e-02
13.000  21.750  8.4082e-02
13.000  22.000  8.4112e-02
13.000  22.250  7.2518e-02
13.000  22.500  4.9052e-02
13.000  22.750  3.1197e-02
13.000  23.000  2.0929e-02
13.000  23.250  1.5074e-02
13.000  23.500  1.1789e-02
13.000  23.750  9.9777e-03
13.000  24.000  9.0016e-03
13.250  17.000  3.3637e-03
13.250  17.250  4.4398e-03
13.250  17.500  6.3696e-03
13.250  17.750  7.0370e-03
13.250  18.000  7.4233e-03
13.250  18.250  8.2671e-03
13.250  18.500  9.6099e-03
13.250  18.750  1.1465e-02
13.250  19.000  1.3786e-02
13.250  19.250  1.6456e-02
13.250  19.500  1.9352e-02
13.250  19.750  2.2792e-02
13.250  20.000  2.6818e-02
13.250  20.250  3.1555e-02
13.250  20.500  3.7366e-02
13.250  20.750  4.4190e-02
13.250  21.000  5.2346e-02
13.250  21.250  6.2804e-02
13.250  21.500  7.4192e-02
13.250  21.750  8.6746e-02
13.250  22.000  9.2214e-02
13.250  22.250  9.1151e-02
13.250  22.500  7.4490e-02
13.250  22.750  4.9173e-02
13.250  23.000  3.1159e-02
13.250  23.250  2.0860e-02
13.250  23.500  1.5033e-02
13.250  23.750  1.1760e-02
13.250  24.000  9.9730e-03
13.500  17.000  2.2722e-03
13.500  17.250  3.0477e-03
13.500  17.500  4.5798e-03
13.500  17.750  6.1449e-03
13.500  18.000  7.0207e-03
13.500  18.250  7.8365e-03
13.500  18.500  9.1409e-03
13.500  18.750  1.0962e-02
13.500  19.000  1.3291e-02
13.500  19.250  1.6040e-02
13.500  19.500  1.9100e-02
13.500  19.750  2.2524e-02
13.500  20.000  2.6462e-02
13.500  20.250  3.1213e-02
13.500  20.500  3.6524e-02
13.500  20.750  4.2744e-02
13.500  21.000  4.9626e-02
13.500  21.250  5.9700e-02
13.500  21.500  6.7954e-02
13.500  21.750  8.0497e-02
13.500  22.000  9.3441e-02
13.500  22.250  9.7470e-02
13.500  22.500  9.2562e-02
13.500  22.750  7.4470e-02
13.500  23.000  4.9216e-02
13.500  23.250  3.1103e-02
13.500  23.500  2.0786e-02
13.500  23.750  1.4956e-02
13.500  24.000  1.1731e-02
13.750  17.000  1.6001e-03
13.750  17.250  2.1306e-03
13.750  17.500  3.2938e-03
13.750  17.750  4.8055e-03
13.750  18.000  6.6238e-03
13.750  18.250  7.4730e-03
13.750  18.500  8.7266e-03
13.750  18.750  1.0496e-02
13.750  19.000  1.2806e-02
13.750  19.250  1.5624e-02
13.750  19.500  1.8843e-02
13.750  19.750  2.2428e-02
13.750  20.000  2.6512e-02
13.750  20.250  3.1287e-02
13.750  20.500  3.6800e-02
13.750  20.750  4.2911e-02
13.750  21.000  4.9598e-02
13.750  21.250  5.6838e-02
13.750  21.500  6.5148e-02
13.750  21.750  7.6114e-02
13.750  22.000  8.9673e-02
13.750  22.250  1.0408e-01
13.750  22.500  1.0029e-01
13.750  22.750  9.4538e-02
13.750  23.000  7.4815e-02
13.750  23.250  4.9178e-02
13.750  23.500  3.1007e-02
13.750  23.750  2.0691e-02
13.750  24.000  1.4884e-02
14.000  17.000  1.1680e-03
14.000  17.250  1.5548e-03
14.000  17.500  2.3611e-03
14.000  17.750  3.6692e-03
14.000  18.000  5.4857e-03
14.000  18.250  7.1696e-03
14.000  18.500  8.3602e-03
14.000  18.750  1.0069e-02
14.000  19.000  1.2347e-02
14.000  19.250  1.5201e-02
14.000  19.500  1.8589e-02
14.000  19.750  2.2414e-02
14.000  20.000  2.6675e-02
14.000  20.250  3.1575e-02
14.000  20.500  3.7317e-02
14.000  20.750  4.3772e-02
14.000  21.000  5.0907e-02
14.000  21.250  5.8727e-02
14.000  21.500  6.5942e-02
14.000  21.750  7.5901e-02
14.000  22.000  8.8702e-02
14.000  22.250  1.0667e-01
14.000  22.500  1.1898e-01
14.000  22.750  1.0722e-01
14.000  23.000  9.6429e-02
14.000  23.250  7.5957e-02
14.000  23.500  4.9062e-02
14.000  23.750  3.0876e-02
14.000  24.000  2.0572e-02
