nFnu 1324.00A  relative to Inci 1215.00A scaled to 1215A.
Hden   Phi(H)  Eq_Width (A)
7.000  17.000  2.8065e-02
7.000  17.250  2.0851e-02
7.000  17.500  1.5814e-02
7.000  17.750  1.2424e-02
7.000  18.000  1.0432e-02
7.000  18.250  9.2858e-03
7.000  18.500  8.6129e-03
7.000  18.750  8.3024e-03
7.000  19.000  8.1402e-03
7.000  19.250  8.0497e-03
7.000  19.500  8.0116e-03
7.000  19.750  7.9956e-03
7.000  20.000  7.9887e-03
7.000  20.250  7.9855e-03
7.000  20.500  7.9839e-03
7.000  20.750  7.9830e-03
7.000  21.000  7.9826e-03
7.000  21.250  7.9822e-03
7.000  21.500  7.9823e-03
7.000  21.750  7.9821e-03
7.000  22.000  7.9820e-03
7.000  22.250  7.9820e-03
7.000  22.500  7.9820e-03
7.000  22.750  7.9821e-03
7.000  23.000  7.9821e-03
7.000  23.250  7.9819e-03
7.000  23.500  7.9819e-03
7.000  23.750  7.9819e-03
7.000  24.000  7.9819e-03
7.250  17.000  3.8054e-02
7.250  17.250  2.7924e-02
7.250  17.500  2.0776e-02
7.250  17.750  1.5776e-02
7.250  18.000  1.2403e-02
7.250  18.250  1.0421e-02
7.250  18.500  9.2806e-03
7.250  18.750  8.6111e-03
7.250  19.000  8.3017e-03
7.250  19.250  8.1400e-03
7.250  19.500  8.0496e-03
7.250  19.750  8.0116e-03
7.250  20.000  7.9956e-03
7.250  20.250  7.9887e-03
7.250  20.500  7.9854e-03
7.250  20.750  7.9839e-03
7.250  21.000  7.9830e-03
7.250  21.250  7.9825e-03
7.250  21.500  7.9822e-03
7.250  21.750  7.9837e-03
7.250  22.000  7.9821e-03
7.250  22.250  7.9820e-03
7.250  22.500  7.9820e-03
7.250  22.750  7.9827e-03
7.250  23.000  7.9827e-03
7.250  23.250  7.9820e-03
7.250  23.500  7.9819e-03
7.250  23.750  7.9819e-03
7.250  24.000  7.9819e-03
7.500  17.000  4.0923e-02
7.500  17.250  3.7947e-02
7.500  17.500  2.7844e-02
7.500  17.750  2.0735e-02
7.500  18.000  1.5754e-02
7.500  18.250  1.2390e-02
7.500  18.500  1.0414e-02
7.500  18.750  9.2773e-03
7.500  19.000  8.6100e-03
7.500  19.250  8.3012e-03
7.500  19.500  8.1399e-03
7.500  19.750  8.0496e-03
7.500  20.000  8.0116e-03
7.500  20.250  7.9956e-03
7.500  20.500  7.9887e-03
7.500  20.750  7.9854e-03
7.500  21.000  7.9838e-03
7.500  21.250  7.9830e-03
7.500  21.500  7.9825e-03
7.500  21.750  7.9822e-03
7.500  22.000  7.9821e-03
7.500  22.250  7.9821e-03
7.500  22.500  7.9820e-03
7.500  22.750  7.9820e-03
7.500  23.000  7.9824e-03
7.500  23.250  7.9827e-03
7.500  23.500  7.9819e-03
7.500  23.750  7.9829e-03
7.500  24.000  7.9819e-03
7.750  17.000  4.7602e-02
7.750  17.250  4.0029e-02
7.750  17.500  3.7896e-02
7.750  17.750  2.7797e-02
7.750  18.000  2.0714e-02
7.750  18.250  1.5743e-02
7.750  18.500  1.2381e-02
7.750  18.750  1.0410e-02
7.750  19.000  9.2751e-03
7.750  19.250  8.6091e-03
7.750  19.500  8.3010e-03
7.750  19.750  8.1398e-03
7.750  20.000  8.0496e-03
7.750  20.250  8.0116e-03
7.750  20.500  7.9956e-03
7.750  20.750  7.9886e-03
7.750  21.000  7.9854e-03
7.750  21.250  7.9838e-03
7.750  21.500  7.9829e-03
7.750  21.750  7.9825e-03
7.750  22.000  7.9822e-03
7.750  22.250  7.9821e-03
7.750  22.500  7.9820e-03
7.750  22.750  7.9822e-03
7.750  23.000  7.9822e-03
7.750  23.250  7.9820e-03
7.750  23.500  7.9827e-03
7.750  23.750  7.9827e-03
7.750  24.000  7.9819e-03
8.000  17.000  5.2308e-02
8.000  17.250  4.5386e-02
8.000  17.500  3.9202e-02
8.000  17.750  3.7838e-02
8.000  18.000  2.7768e-02
8.000  18.250  2.0705e-02
8.000  18.500  1.5739e-02
8.000  18.750  1.2376e-02
8.000  19.000  1.0406e-02
8.000  19.250  9.2738e-03
8.000  19.500  8.6086e-03
8.000  19.750  8.3008e-03
8.000  20.000  8.1398e-03
8.000  20.250  8.0495e-03
8.000  20.500  8.0116e-03
8.000  20.750  7.9956e-03
8.000  21.000  7.9886e-03
8.000  21.250  7.9854e-03
8.000  21.500  7.9838e-03
8.000  21.750  7.9829e-03
8.000  22.000  7.9825e-03
8.000  22.250  7.9821e-03
8.000  22.500  7.9821e-03
8.000  22.750  7.9821e-03
8.000  23.000  7.9819e-03
8.000  23.250  7.9824e-03
8.000  23.500  7.9819e-03
8.000  23.750  7.9819e-03
8.000  24.000  7.9819e-03
8.250  17.000  5.5707e-02
8.250  17.250  5.0505e-02
8.250  17.500  4.3986e-02
8.250  17.750  3.8669e-02
8.250  18.000  3.7817e-02
8.250  18.250  2.7747e-02
8.250  18.500  2.0703e-02
8.250  18.750  1.5738e-02
8.250  19.000  1.2372e-02
8.250  19.250  1.0404e-02
8.250  19.500  9.2728e-03
8.250  19.750  8.6083e-03
8.250  20.000  8.3007e-03
8.250  20.250  8.1397e-03
8.250  20.500  8.0495e-03
8.250  20.750  8.0116e-03
8.250  21.000  7.9956e-03
8.250  21.250  7.9886e-03
8.250  21.500  7.9854e-03
8.250  21.750  7.9838e-03
8.250  22.000  7.9829e-03
8.250  22.250  7.9824e-03
8.250  22.500  7.9821e-03
8.250  22.750  7.9822e-03
8.250  23.000  7.9820e-03
8.250  23.250  7.9840e-03
8.250  23.500  7.9819e-03
8.250  23.750  7.9819e-03
8.250  24.000  7.9825e-03
8.500  17.000  5.7874e-02
8.500  17.250  5.4220e-02
8.500  17.500  4.9267e-02
8.500  17.750  4.3062e-02
8.500  18.000  3.8362e-02
8.500  18.250  3.7789e-02
8.500  18.500  2.7730e-02
8.500  18.750  2.0705e-02
8.500  19.000  1.5741e-02
8.500  19.250  1.2369e-02
8.500  19.500  1.0402e-02
8.500  19.750  9.2721e-03
8.500  20.000  8.6081e-03
8.500  20.250  8.3007e-03
8.500  20.500  8.1397e-03
8.500  20.750  8.0495e-03
8.500  21.000  8.0116e-03
8.500  21.250  7.9956e-03
8.500  21.500  7.9886e-03
8.500  21.750  7.9854e-03
8.500  22.000  7.9838e-03
8.500  22.250  7.9829e-03
8.500  22.500  7.9824e-03
8.500  22.750  7.9821e-03
8.500  23.000  7.9821e-03
8.500  23.250  7.9821e-03
8.500  23.500  7.9819e-03
8.500  23.750  7.9819e-03
8.500  24.000  7.9819e-03
8.750  17.000  5.9224e-02
8.750  17.250  5.6788e-02
8.750  17.500  5.3237e-02
8.750  17.750  4.8492e-02
8.750  18.000  4.2454e-02
8.750  18.250  3.8183e-02
8.750  18.500  3.7749e-02
8.750  18.750  2.7711e-02
8.750  19.000  1.7259e-02
8.750  19.250  9.5689e-03
8.750  19.500  4.2931e-03
8.750  19.750  1.0833e-03
8.750  20.000  -4.0891e-04
8.750  20.250  -5.3166e-04
8.750  20.500  3.6678e-04
8.750  20.750  1.9382e-03
8.750  21.000  3.8343e-03
8.750  21.250  5.7069e-03
8.750  21.500  7.2077e-03
8.750  21.750  7.9886e-03
8.750  22.000  7.9854e-03
8.750  22.250  7.9838e-03
8.750  22.500  7.9829e-03
8.750  22.750  7.9824e-03
8.750  23.000  7.9830e-03
8.750  23.250  7.9821e-03
8.750  23.500  7.9821e-03
8.750  23.750  7.9819e-03
8.750  24.000  7.9819e-03
9.000  17.000  5.9883e-02
9.000  17.250  5.8481e-02
9.000  17.500  5.6067e-02
9.000  17.750  5.2495e-02
9.000  18.000  4.7777e-02
9.000  18.250  4.1945e-02
9.000  18.500  3.8055e-02
9.000  18.750  3.7696e-02
9.000  19.000  2.7688e-02
9.000  19.250  2.0714e-02
9.000  19.500  1.5749e-02
9.000  19.750  1.2364e-02
9.000  20.000  1.0399e-02
9.000  20.250  9.2711e-03
9.000  20.500  8.6077e-03
9.000  20.750  8.3006e-03
9.000  21.000  8.1397e-03
9.000  21.250  8.0495e-03
9.000  21.500  8.0116e-03
9.000  21.750  7.9956e-03
9.000  22.000  7.9886e-03
9.000  22.250  7.9853e-03
9.000  22.500  7.9837e-03
9.000  22.750  7.9829e-03
9.000  23.000  7.9824e-03
9.000  23.250  7.9821e-03
9.000  23.500  7.9820e-03
9.000  23.750  7.9820e-03
9.000  24.000  7.9820e-03
9.250  17.000  5.9877e-02
9.250  17.250  5.9374e-02
9.250  17.500  5.7999e-02
9.250  17.750  5.5480e-02
9.250  18.000  5.1764e-02
9.250  18.250  4.7012e-02
9.250  18.500  4.1332e-02
9.250  18.750  3.7940e-02
9.250  19.000  3.7627e-02
9.250  19.250  2.7659e-02
9.250  19.500  2.0715e-02
9.250  19.750  1.5753e-02
9.250  20.000  1.2362e-02
9.250  20.250  1.0398e-02
9.250  20.500  9.2707e-03
9.250  20.750  8.6076e-03
9.250  21.000  8.3006e-03
9.250  21.250  8.1397e-03
9.250  21.500  8.0491e-03
9.250  21.750  8.0110e-03
9.250  22.000  7.9950e-03
9.250  22.250  7.9881e-03
9.250  22.500  7.9850e-03
9.250  22.750  7.9834e-03
9.250  23.000  7.9826e-03
9.250  23.250  7.9822e-03
9.250  23.500  7.9820e-03
9.250  23.750  7.9818e-03
9.250  24.000  7.9818e-03
9.500  17.000  5.9212e-02
9.500  17.250  5.9451e-02
9.500  17.500  5.9057e-02
9.500  17.750  5.7618e-02
9.500  18.000  5.4829e-02
9.500  18.250  5.0780e-02
9.500  18.500  4.5917e-02
9.500  18.750  4.0360e-02
9.500  19.000  3.7823e-02
9.500  19.250  3.7541e-02
9.500  19.500  2.7624e-02
9.500  19.750  2.0711e-02
9.500  20.000  1.5756e-02
9.500  20.250  1.2360e-02
9.500  20.500  1.0397e-02
9.500  20.750  9.2700e-03
9.500  21.000  8.6070e-03
9.500  21.250  8.3000e-03
9.500  21.500  8.1390e-03
9.500  21.750  8.0488e-03
9.500  22.000  8.0108e-03
9.500  22.250  7.9949e-03
9.500  22.500  7.9879e-03
9.500  22.750  7.9846e-03
9.500  23.000  7.9830e-03
9.500  23.250  7.9821e-03
9.500  23.500  7.9816e-03
9.500  23.750  7.9814e-03
9.500  24.000  7.9812e-03
9.750  17.000  5.7947e-02
9.750  17.250  5.8724e-02
9.750  17.500  5.9174e-02
9.750  17.750  5.8781e-02
9.750  18.000  5.7049e-02
9.750  18.250  5.3882e-02
9.750  18.500  4.9455e-02
9.750  18.750  4.4209e-02
9.750  19.000  3.9857e-02
9.750  19.250  3.7683e-02
9.750  19.500  3.7434e-02
9.750  19.750  2.7584e-02
9.750  20.000  2.0701e-02
9.750  20.250  1.5757e-02
9.750  20.500  1.2359e-02
9.750  20.750  1.0397e-02
9.750  21.000  9.2699e-03
9.750  21.250  8.6069e-03
9.750  21.500  8.3001e-03
9.750  21.750  8.1391e-03
9.750  22.000  8.0488e-03
9.750  22.250  8.0109e-03
9.750  22.500  7.9949e-03
9.750  22.750  7.9879e-03
9.750  23.000  7.9846e-03
9.750  23.250  7.9830e-03
9.750  23.500  7.9821e-03
9.750  23.750  7.9816e-03
9.750  24.000  7.9813e-03
10.000  17.000  5.6249e-02
10.000  17.250  5.7260e-02
10.000  17.500  5.8264e-02
10.000  17.750  5.8871e-02
10.000  18.000  5.8321e-02
10.000  18.250  5.6318e-02
10.000  18.500  5.2675e-02
10.000  18.750  4.7990e-02
10.000  19.000  4.3180e-02
10.000  19.250  3.9234e-02
10.000  19.500  3.7491e-02
10.000  19.750  3.7300e-02
10.000  20.000  2.7545e-02
10.000  20.250  2.0688e-02
10.000  20.500  1.5758e-02
10.000  20.750  1.2358e-02
10.000  21.000  1.0397e-02
10.000  21.250  9.2698e-03
10.000  21.500  8.6067e-03
10.000  21.750  8.3001e-03
10.000  22.000  8.1392e-03
10.000  22.250  8.0489e-03
10.000  22.500  8.0108e-03
10.000  22.750  7.9949e-03
10.000  23.000  7.9879e-03
10.000  23.250  7.9846e-03
10.000  23.500  7.9830e-03
10.000  23.750  7.9821e-03
10.000  24.000  7.9816e-03
10.250  17.000  5.4731e-02
10.250  17.250  5.5380e-02
10.250  17.500  5.6632e-02
10.250  17.750  5.7856e-02
10.250  18.000  5.8461e-02
10.250  18.250  5.7734e-02
10.250  18.500  5.5265e-02
10.250  18.750  5.1300e-02
10.250  19.000  4.6386e-02
10.250  19.250  4.1562e-02
10.250  19.500  3.8860e-02
10.250  19.750  3.7253e-02
10.250  20.000  3.7187e-02
10.250  20.250  2.7521e-02
10.250  20.500  2.0672e-02
10.250  20.750  1.5758e-02
10.250  21.000  1.2357e-02
10.250  21.250  1.0397e-02
10.250  21.500  9.2698e-03
10.250  21.750  8.6067e-03
10.250  22.000  8.3001e-03
10.250  22.250  8.1393e-03
10.250  22.500  8.0490e-03
10.250  22.750  8.0109e-03
10.250  23.000  7.9949e-03
10.250  23.250  7.9879e-03
10.250  23.500  7.9846e-03
10.250  23.750  7.9830e-03
10.250  24.000  7.9821e-03
10.500  17.000  5.3591e-02
10.500  17.250  5.3778e-02
10.500  17.500  5.4653e-02
10.500  17.750  5.6164e-02
10.500  18.000  5.7407e-02
10.500  18.250  5.7637e-02
10.500  18.500  5.6471e-02
10.500  18.750  5.3563e-02
10.500  19.000  4.9482e-02
10.500  19.250  4.4725e-02
10.500  19.500  4.2757e-02
10.500  19.750  3.9106e-02
10.500  20.000  3.7367e-02
10.500  20.250  3.7115e-02
10.500  20.500  2.7522e-02
10.500  20.750  2.0658e-02
10.500  21.000  1.5756e-02
10.500  21.250  1.2357e-02
10.500  21.500  1.0397e-02
10.500  21.750  9.2699e-03
10.500  22.000  8.6068e-03
10.500  22.250  8.3002e-03
10.500  22.500  8.1393e-03
10.500  22.750  8.0491e-03
10.500  23.000  8.0109e-03
10.500  23.250  7.9948e-03
10.500  23.500  7.9879e-03
10.500  23.750  7.9847e-03
10.500  24.000  7.9830e-03
10.750  17.000  5.2865e-02
10.750  17.250  5.2709e-02
10.750  17.500  5.3095e-02
10.750  17.750  5.4198e-02
10.750  18.000  5.5380e-02
10.750  18.250  5.6034e-02
10.750  18.500  5.5752e-02
10.750  18.750  5.4362e-02
10.750  19.000  5.1736e-02
10.750  19.250  4.7917e-02
10.750  19.500  4.3618e-02
10.750  19.750  4.2840e-02
10.750  20.000  3.9877e-02
10.750  20.250  3.8001e-02
10.750  20.500  3.7285e-02
10.750  20.750  2.7566e-02
10.750  21.000  2.0651e-02
10.750  21.250  1.5754e-02
10.750  21.500  1.2358e-02
10.750  21.750  1.0398e-02
10.750  22.000  9.2701e-03
10.750  22.250  8.6067e-03
10.750  22.500  8.3004e-03
10.750  22.750  8.1393e-03
10.750  23.000  8.0491e-03
10.750  23.250  8.0110e-03
10.750  23.500  7.9949e-03
10.750  23.750  7.9879e-03
10.750  24.000  7.9846e-03
11.000  17.000  5.2508e-02
11.000  17.250  5.2206e-02
11.000  17.500  5.2158e-02
11.000  17.750  5.2353e-02
11.000  18.000  5.2789e-02
11.000  18.250  5.3273e-02
11.000  18.500  5.3687e-02
11.000  18.750  5.3627e-02
11.000  19.000  5.2547e-02
11.000  19.250  5.0167e-02
11.000  19.500  4.6533e-02
11.000  19.750  4.1968e-02
11.000  20.000  4.4163e-02
11.000  20.250  4.2246e-02
11.000  20.500  3.9194e-02
11.000  20.750  3.7782e-02
11.000  21.000  2.7731e-02
11.000  21.250  2.0657e-02
11.000  21.500  1.5751e-02
11.000  21.750  1.2359e-02
11.000  22.000  1.0399e-02
11.000  22.250  9.2705e-03
11.000  22.500  8.6067e-03
11.000  22.750  8.3005e-03
11.000  23.000  8.1395e-03
11.000  23.250  8.0491e-03
11.000  23.500  8.0111e-03
11.000  23.750  7.9951e-03
11.000  24.000  7.9880e-03
11.250  17.000  5.2459e-02
11.250  17.250  5.2137e-02
11.250  17.500  5.1591e-02
11.250  17.750  5.0867e-02
11.250  18.000  5.0272e-02
11.250  18.250  5.0194e-02
11.250  18.500  5.0823e-02
11.250  18.750  5.1617e-02
11.250  19.000  5.1943e-02
11.250  19.250  5.1127e-02
11.250  19.500  4.8932e-02
11.250  19.750  4.5324e-02
11.250  20.000  4.2232e-02
11.250  20.250  4.5597e-02
11.250  20.500  4.3711e-02
11.250  20.750  4.1141e-02
11.250  21.000  3.8945e-02
11.250  21.250  2.8015e-02
11.250  21.500  2.0695e-02
11.250  21.750  1.5747e-02
11.250  22.000  1.2360e-02
11.250  22.250  1.0401e-02
11.250  22.500  9.2710e-03
11.250  22.750  8.6065e-03
11.250  23.000  8.3006e-03
11.250  23.250  8.1398e-03
11.250  23.500  8.0491e-03
11.250  23.750  8.0111e-03
11.250  24.000  7.9951e-03
11.500  17.000  5.2694e-02
11.500  17.250  5.2221e-02
11.500  17.500  5.1176e-02
11.500  17.750  4.9704e-02
11.500  18.000  4.8246e-02
11.500  18.250  4.7509e-02
11.500  18.500  4.7792e-02
11.500  18.750  4.8919e-02
11.500  19.000  5.0256e-02
11.500  19.250  5.0752e-02
11.500  19.500  5.0040e-02
11.500  19.750  4.8061e-02
11.500  20.000  4.4668e-02
11.500  20.250  4.3285e-02
11.500  20.500  4.8282e-02
11.500  20.750  4.6888e-02
11.500  21.000  4.4106e-02
11.500  21.250  4.0408e-02
11.500  21.500  2.8435e-02
11.500  21.750  2.0767e-02
11.500  22.000  1.5744e-02
11.500  22.250  1.2362e-02
11.500  22.500  1.0403e-02
11.500  22.750  9.2719e-03
11.500  23.000  8.6063e-03
11.500  23.250  8.3006e-03
11.500  23.500  8.1398e-03
11.500  23.750  8.0492e-03
11.500  24.000  8.0112e-03
11.750  17.000  5.3117e-02
11.750  17.250  5.2248e-02
11.750  17.500  5.0704e-02
11.750  17.750  4.8661e-02
11.750  18.000  4.6779e-02
11.750  18.250  4.5571e-02
11.750  18.500  4.5359e-02
11.750  18.750  4.6237e-02
11.750  19.000  4.7819e-02
11.750  19.250  4.9378e-02
11.750  19.500  4.9967e-02
11.750  19.750  4.9512e-02
11.750  20.000  4.7872e-02
11.750  20.250  4.4910e-02
11.750  20.500  4.5930e-02
11.750  20.750  5.1477e-02
11.750  21.000  5.0920e-02
11.750  21.250  4.8621e-02
11.750  21.500  4.1669e-02
11.750  21.750  2.8937e-02
11.750  22.000  2.0896e-02
11.750  22.250  1.5744e-02
11.750  22.500  1.2364e-02
11.750  22.750  1.0405e-02
11.750  23.000  9.2728e-03
11.750  23.250  8.6060e-03
11.750  23.500  8.3005e-03
11.750  23.750  8.1399e-03
11.750  24.000  8.0495e-03
12.000  17.000  5.3457e-02
12.000  17.250  5.2064e-02
12.000  17.500  4.9980e-02
12.000  17.750  4.7596e-02
12.000  18.000  4.5620e-02
12.000  18.250  4.4294e-02
12.000  18.500  4.3807e-02
12.000  18.750  4.4135e-02
12.000  19.000  4.5347e-02
12.000  19.250  4.6966e-02
12.000  19.500  4.8773e-02
12.000  19.750  5.0665e-02
12.000  20.000  5.2536e-02
12.000  20.250  5.4279e-02
12.000  20.500  5.5791e-02
12.000  20.750  5.6965e-02
12.000  21.000  5.7697e-02
12.000  21.250  5.7880e-02
12.000  21.500  5.5136e-02
12.000  21.750  4.2780e-02
12.000  22.000  2.9497e-02
12.000  22.250  2.1066e-02
12.000  22.500  1.5747e-02
12.000  22.750  1.2366e-02
12.000  23.000  1.0407e-02
12.000  23.250  9.2741e-03
12.000  23.500  8.6057e-03
12.000  23.750  8.3004e-03
12.000  24.000  8.1400e-03
12.250  17.000  5.3361e-02
12.250  17.250  5.1361e-02
12.250  17.500  4.8813e-02
12.250  17.750  4.6373e-02
12.250  18.000  4.4532e-02
12.250  18.250  4.3434e-02
12.250  18.500  4.3334e-02
12.250  18.750  4.4163e-02
12.250  19.000  4.5756e-02
12.250  19.250  4.7945e-02
12.250  19.500  5.0566e-02
12.250  19.750  5.3451e-02
12.250  20.000  5.6433e-02
12.250  20.250  5.9347e-02
12.250  20.500  6.2027e-02
12.250  20.750  6.4305e-02
12.250  21.000  6.6015e-02
12.250  21.250  6.6992e-02
12.250  21.500  6.7068e-02
12.250  21.750  6.2396e-02
12.250  22.000  4.3890e-02
12.250  22.250  2.9802e-02
12.250  22.500  2.1125e-02
12.250  22.750  1.5753e-02
12.250  23.000  1.2367e-02
12.250  23.250  1.0409e-02
12.250  23.500  9.2754e-03
12.250  23.750  8.6051e-03
12.250  24.000  8.3003e-03
12.500  17.000  5.2045e-02
12.500  17.250  4.9599e-02
12.500  17.500  4.7023e-02
12.500  17.750  4.4911e-02
12.500  18.000  4.3513e-02
12.500  18.250  4.2745e-02
12.500  18.500  4.3651e-02
12.500  18.750  4.6237e-02
12.500  19.000  5.0143e-02
12.500  19.250  5.5012e-02
12.500  19.500  6.0484e-02
12.500  19.750  6.6201e-02
12.500  20.000  7.1805e-02
12.500  20.250  7.6937e-02
12.500  20.500  8.1238e-02
12.500  20.750  8.4350e-02
12.500  21.000  8.5915e-02
12.500  21.250  8.5573e-02
12.500  21.500  8.2967e-02
12.500  21.750  7.7738e-02
12.500  22.000  6.6779e-02
12.500  22.250  4.4700e-02
12.500  22.500  3.0268e-02
12.500  22.750  2.1328e-02
12.500  23.000  1.5762e-02
12.500  23.250  1.2368e-02
12.500  23.500  1.0411e-02
12.500  23.750  9.2767e-03
12.500  24.000  8.6044e-03
12.750  17.000  3.9337e-02
12.750  17.250  4.6168e-02
12.750  17.500  4.4886e-02
12.750  17.750  4.3463e-02
12.750  18.000  4.3070e-02
12.750  18.250  4.3311e-02
12.750  18.500  4.4142e-02
12.750  18.750  4.5522e-02
12.750  19.000  4.7407e-02
12.750  19.250  4.9754e-02
12.750  19.500  5.2520e-02
12.750  19.750  5.5663e-02
12.750  20.000  5.9140e-02
12.750  20.250  6.2908e-02
12.750  20.500  6.6923e-02
12.750  20.750  7.1143e-02
12.750  21.000  7.5526e-02
12.750  21.250  8.0027e-02
12.750  21.500  8.4605e-02
12.750  21.750  8.9217e-02
12.750  22.000  8.9016e-02
12.750  22.250  6.9303e-02
12.750  22.500  4.5757e-02
12.750  22.750  3.0808e-02
12.750  23.000  2.1477e-02
12.750  23.250  1.5769e-02
12.750  23.500  1.2369e-02
12.750  23.750  1.0413e-02
12.750  24.000  9.2779e-03
13.000  17.000  2.1494e-02
13.000  17.250  3.3341e-02
13.000  17.500  4.0683e-02
13.000  17.750  4.2128e-02
13.000  18.000  4.1519e-02
13.000  18.250  4.1288e-02
13.000  18.500  4.1398e-02
13.000  18.750  4.1771e-02
13.000  19.000  4.2319e-02
13.000  19.250  4.2997e-02
13.000  19.500  4.3826e-02
13.000  19.750  4.5228e-02
13.000  20.000  4.7463e-02
13.000  20.250  5.0444e-02
13.000  20.500  5.4088e-02
13.000  20.750  5.7428e-02
13.000  21.000  6.1658e-02
13.000  21.250  6.8598e-02
13.000  21.500  7.5252e-02
13.000  21.750  9.2966e-02
13.000  22.000  1.0316e-01
13.000  22.250  9.8078e-02
13.000  22.500  7.1426e-02
13.000  22.750  4.6633e-02
13.000  23.000  3.1172e-02
13.000  23.250  2.1590e-02
13.000  23.500  1.5775e-02
13.000  23.750  1.2367e-02
13.000  24.000  1.0413e-02
13.250  17.000  1.4223e-02
13.250  17.250  2.2110e-02
13.250  17.500  3.6551e-02
13.250  17.750  4.0874e-02
13.250  18.000  4.0520e-02
13.250  18.250  4.0462e-02
13.250  18.500  4.0732e-02
13.250  18.750  4.1278e-02
13.250  19.000  4.2031e-02
13.250  19.250  4.2933e-02
13.250  19.500  4.3927e-02
13.250  19.750  4.5180e-02
13.250  20.000  4.6895e-02
13.250  20.250  4.9321e-02
13.250  20.500  5.2802e-02
13.250  20.750  5.7212e-02
13.250  21.000  6.2548e-02
13.250  21.250  6.9324e-02
13.250  21.500  7.6601e-02
13.250  21.750  8.5387e-02
13.250  22.000  1.0418e-01
13.250  22.250  1.1479e-01
13.250  22.500  1.0386e-01
13.250  22.750  7.3509e-02
13.250  23.000  4.7501e-02
13.250  23.250  3.1225e-02
13.250  23.500  2.1581e-02
13.250  23.750  1.5780e-02
13.250  24.000  1.2365e-02
13.500  17.000  9.7076e-03
13.500  17.250  1.4997e-02
13.500  17.500  2.5789e-02
13.500  17.750  3.6143e-02
13.500  18.000  3.9505e-02
13.500  18.250  3.9575e-02
13.500  18.500  3.9955e-02
13.500  18.750  4.0639e-02
13.500  19.000  4.1560e-02
13.500  19.250  4.2672e-02
13.500  19.500  4.3933e-02
13.500  19.750  4.5374e-02
13.500  20.000  4.7096e-02
13.500  20.250  4.9360e-02
13.500  20.500  5.2223e-02
13.500  20.750  5.5992e-02
13.500  21.000  6.0364e-02
13.500  21.250  6.7328e-02
13.500  21.500  7.2472e-02
13.500  21.750  8.0425e-02
13.500  22.000  9.1934e-02
13.500  22.250  1.1192e-01
13.500  22.500  1.2063e-01
13.500  22.750  1.0749e-01
13.500  23.000  7.5486e-02
13.500  23.250  4.8463e-02
13.500  23.500  3.1766e-02
13.500  23.750  2.1738e-02
13.500  24.000  1.5781e-02
13.750  17.000  7.0329e-03
13.750  17.250  1.0418e-02
13.750  17.500  1.8165e-02
13.750  17.750  2.7730e-02
13.750  18.000  3.7836e-02
13.750  18.250  3.8511e-02
13.750  18.500  3.9030e-02
13.750  18.750  3.9847e-02
13.750  19.000  4.0909e-02
13.750  19.250  4.2211e-02
13.750  19.500  4.3717e-02
13.750  19.750  4.5432e-02
13.750  20.000  4.7445e-02
13.750  20.250  4.9894e-02
13.750  20.500  5.2879e-02
13.750  20.750  5.6424e-02
13.750  21.000  6.0566e-02
13.750  21.250  6.5131e-02
13.750  21.500  7.0760e-02
13.750  21.750  7.7808e-02
13.750  22.000  8.6800e-02
13.750  22.250  1.0355e-01
13.750  22.500  1.1865e-01
13.750  22.750  1.2761e-01
13.750  23.000  1.1160e-01
13.750  23.250  7.7290e-02
13.750  23.500  4.9120e-02
13.750  23.750  3.2002e-02
13.750  24.000  2.1783e-02
14.000  17.000  5.3798e-03
14.000  17.250  7.6630e-03
14.000  17.500  1.2760e-02
14.000  17.750  2.0674e-02
14.000  18.000  3.0525e-02
14.000  18.250  3.7296e-02
14.000  18.500  3.7869e-02
14.000  18.750  3.8796e-02
14.000  19.000  4.0039e-02
14.000  19.250  4.1541e-02
14.000  19.500  4.3285e-02
14.000  19.750  4.5286e-02
14.000  20.000  4.7580e-02
14.000  20.250  5.0333e-02
14.000  20.500  5.3697e-02
14.000  20.750  5.7653e-02
14.000  21.000  6.2237e-02
14.000  21.250  6.7428e-02
14.000  21.500  7.2335e-02
14.000  21.750  7.8917e-02
14.000  22.000  8.7362e-02
14.000  22.250  1.0172e-01
14.000  22.500  1.2219e-01
14.000  22.750  1.3073e-01
14.000  23.000  1.3495e-01
14.000  23.250  1.1663e-01
14.000  23.500  7.8936e-02
14.000  23.750  4.9665e-02
14.000  24.000  3.2207e-02
