nFnu 575.146A  relative to Inci 1215.00A scaled to 1215A.
Hden   Phi(H)  Eq_Width (A)
7.000  17.000  6.7310e-02
7.000  17.250  5.2980e-02
7.000  17.500  3.5771e-02
7.000  17.750  2.2082e-02
7.000  18.000  1.4872e-02
7.000  18.250  1.0889e-02
7.000  18.500  8.8657e-03
7.000  18.750  8.1663e-03
7.000  19.000  7.8309e-03
7.000  19.250  7.6540e-03
7.000  19.500  7.5497e-03
7.000  19.750  7.4873e-03
7.000  20.000  7.4585e-03
7.000  20.250  7.4548e-03
7.000  20.500  7.4678e-03
7.000  20.750  7.4889e-03
7.000  21.000  7.5099e-03
7.000  21.250  7.5221e-03
7.000  21.500  7.5221e-03
7.000  21.750  7.5217e-03
7.000  22.000  7.5216e-03
7.000  22.250  7.5216e-03
7.000  22.500  7.5216e-03
7.000  22.750  7.5217e-03
7.000  23.000  7.5217e-03
7.000  23.250  7.5215e-03
7.000  23.500  7.5215e-03
7.000  23.750  7.5215e-03
7.000  24.000  7.5215e-03
7.250  17.000  7.4952e-02
7.250  17.250  6.6596e-02
7.250  17.500  5.2559e-02
7.250  17.750  3.5513e-02
7.250  18.000  2.1941e-02
7.250  18.250  1.4803e-02
7.250  18.500  1.0858e-02
7.250  18.750  8.8547e-03
7.250  19.000  8.1622e-03
7.250  19.250  7.8295e-03
7.250  19.500  7.6537e-03
7.250  19.750  7.5805e-03
7.250  20.000  7.5426e-03
7.250  20.250  7.5224e-03
7.250  20.500  7.5151e-03
7.250  20.750  7.5158e-03
7.250  21.000  7.5200e-03
7.250  21.250  7.5227e-03
7.250  21.500  7.5221e-03
7.250  21.750  7.5234e-03
7.250  22.000  7.5217e-03
7.250  22.250  7.5216e-03
7.250  22.500  7.5216e-03
7.250  22.750  7.5223e-03
7.250  23.000  7.5223e-03
7.250  23.250  7.5216e-03
7.250  23.500  7.5216e-03
7.250  23.750  7.5215e-03
7.250  24.000  7.5215e-03
7.500  17.000  5.0837e-02
7.500  17.250  7.4450e-02
7.500  17.500  6.6200e-02
7.500  17.750  5.2331e-02
7.500  18.000  3.5350e-02
7.500  18.250  2.1845e-02
7.500  18.500  1.4757e-02
7.500  18.750  1.0837e-02
7.500  19.000  8.8473e-03
7.500  19.250  8.1596e-03
7.500  19.500  7.8286e-03
7.500  19.750  7.6535e-03
7.500  20.000  7.5473e-03
7.500  20.250  7.4804e-03
7.500  20.500  7.4456e-03
7.500  20.750  7.4360e-03
7.500  21.000  7.4446e-03
7.500  21.250  7.4645e-03
7.500  21.500  7.4887e-03
7.500  21.750  7.5101e-03
7.500  22.000  7.5219e-03
7.500  22.250  7.5217e-03
7.500  22.500  7.5216e-03
7.500  22.750  7.5216e-03
7.500  23.000  7.5219e-03
7.500  23.250  7.5223e-03
7.500  23.500  7.5215e-03
7.500  23.750  7.5225e-03
7.500  24.000  7.5215e-03
7.750  17.000  2.2126e-02
7.750  17.250  5.1069e-02
7.750  17.500  7.4198e-02
7.750  17.750  6.5977e-02
7.750  18.000  5.2220e-02
7.750  18.250  3.5248e-02
7.750  18.500  2.1774e-02
7.750  18.750  1.4726e-02
7.750  19.000  1.0824e-02
7.750  19.250  8.8428e-03
7.750  19.500  8.1579e-03
7.750  19.750  7.8280e-03
7.750  20.000  7.6534e-03
7.750  20.250  7.5503e-03
7.750  20.500  7.4886e-03
7.750  20.750  7.4601e-03
7.750  21.000  7.4564e-03
7.750  21.250  7.4691e-03
7.750  21.500  7.4898e-03
7.750  21.750  7.5103e-03
7.750  22.000  7.5221e-03
7.750  22.250  7.5219e-03
7.750  22.500  7.5217e-03
7.750  22.750  7.5218e-03
7.750  23.000  7.5218e-03
7.750  23.250  7.5216e-03
7.750  23.500  7.5223e-03
7.750  23.750  7.5223e-03
7.750  24.000  7.5215e-03
8.000  17.000  1.6872e-02
8.000  17.250  2.2105e-02
8.000  17.500  5.0752e-02
8.000  17.750  7.4029e-02
8.000  18.000  6.5842e-02
8.000  18.250  5.2180e-02
8.000  18.500  3.5182e-02
8.000  18.750  2.1716e-02
8.000  19.000  1.4702e-02
8.000  19.250  1.0815e-02
8.000  19.500  8.8399e-03
8.000  19.750  8.1569e-03
8.000  20.000  7.8276e-03
8.000  20.250  7.6533e-03
8.000  20.500  7.5804e-03
8.000  20.750  7.5455e-03
8.000  21.000  7.5298e-03
8.000  21.250  7.5255e-03
8.000  21.500  7.5253e-03
8.000  21.750  7.5236e-03
8.000  22.000  7.5226e-03
8.000  22.250  7.5221e-03
8.000  22.500  7.5218e-03
8.000  22.750  7.5219e-03
8.000  23.000  7.5216e-03
8.000  23.250  7.5220e-03
8.000  23.500  7.5215e-03
8.000  23.750  7.5215e-03
8.000  24.000  7.5215e-03
8.250  17.000  1.3120e-02
8.250  17.250  1.6950e-02
8.250  17.500  2.2168e-02
8.250  17.750  5.0710e-02
8.250  18.000  7.3880e-02
8.250  18.250  6.5742e-02
8.250  18.500  5.2183e-02
8.250  18.750  3.5136e-02
8.250  19.000  2.1665e-02
8.250  19.250  1.4683e-02
8.250  19.500  1.0809e-02
8.250  19.750  8.8382e-03
8.250  20.000  8.1562e-03
8.250  20.250  7.8274e-03
8.250  20.500  7.6533e-03
8.250  20.750  7.5804e-03
8.250  21.000  7.5491e-03
8.250  21.250  7.5353e-03
8.250  21.500  7.5286e-03
8.250  21.750  7.5253e-03
8.250  22.000  7.5236e-03
8.250  22.250  7.5226e-03
8.250  22.500  7.5221e-03
8.250  22.750  7.5220e-03
8.250  23.000  7.5216e-03
8.250  23.250  7.5235e-03
8.250  23.500  7.5215e-03
8.250  23.750  7.5215e-03
8.250  24.000  7.5221e-03
8.500  17.000  1.0399e-02
8.500  17.250  1.3170e-02
8.500  17.500  1.6989e-02
8.500  17.750  2.2178e-02
8.500  18.000  5.0616e-02
8.500  18.250  7.3675e-02
8.500  18.500  6.5653e-02
8.500  18.750  5.2212e-02
8.500  19.000  3.5100e-02
8.500  19.250  2.1617e-02
8.500  19.500  1.4667e-02
8.500  19.750  1.0805e-02
8.500  20.000  8.8370e-03
8.500  20.250  8.1559e-03
8.500  20.500  7.8272e-03
8.500  20.750  7.6533e-03
8.500  21.000  7.5804e-03
8.500  21.250  7.5491e-03
8.500  21.500  7.5353e-03
8.500  21.750  7.5286e-03
8.500  22.000  7.5253e-03
8.500  22.250  7.5235e-03
8.500  22.500  7.5226e-03
8.500  22.750  7.5221e-03
8.500  23.000  7.5218e-03
8.500  23.250  7.5218e-03
8.500  23.500  7.5216e-03
8.500  23.750  7.5215e-03
8.500  24.000  7.5215e-03
8.750  17.000  8.3965e-03
8.750  17.250  1.0450e-02
8.750  17.500  1.3211e-02
8.750  17.750  1.7009e-02
8.750  18.000  2.2178e-02
8.750  18.250  5.0438e-02
8.750  18.500  7.3407e-02
8.750  18.750  6.5545e-02
8.750  19.000  5.2256e-02
8.750  19.250  3.5068e-02
8.750  19.500  2.1568e-02
8.750  19.750  1.4652e-02
8.750  20.000  1.0802e-02
8.750  20.250  8.8362e-03
8.750  20.500  8.1557e-03
8.750  20.750  7.8272e-03
8.750  21.000  7.6532e-03
8.750  21.250  7.5804e-03
8.750  21.500  7.5491e-03
8.750  21.750  7.5353e-03
8.750  22.000  7.5287e-03
8.750  22.250  7.5253e-03
8.750  22.500  7.5235e-03
8.750  22.750  7.5226e-03
8.750  23.000  7.5229e-03
8.750  23.250  7.5218e-03
8.750  23.500  7.5218e-03
8.750  23.750  7.5216e-03
8.750  24.000  7.5215e-03
9.000  17.000  6.7774e-03
9.000  17.250  8.4950e-03
9.000  17.500  1.0528e-02
9.000  17.750  1.3257e-02
9.000  18.000  1.7036e-02
9.000  18.250  2.2169e-02
9.000  18.500  5.0259e-02
9.000  18.750  7.3100e-02
9.000  19.000  6.5413e-02
9.000  19.250  5.2296e-02
9.000  19.500  3.5038e-02
9.000  19.750  2.1520e-02
9.000  20.000  1.4638e-02
9.000  20.250  1.0799e-02
9.000  20.500  8.8356e-03
9.000  20.750  8.1556e-03
9.000  21.000  7.8272e-03
9.000  21.250  7.6532e-03
9.000  21.500  7.5804e-03
9.000  21.750  7.5491e-03
9.000  22.000  7.5352e-03
9.000  22.250  7.5286e-03
9.000  22.500  7.5253e-03
9.000  22.750  7.5235e-03
9.000  23.000  7.5226e-03
9.000  23.250  7.5221e-03
9.000  23.500  7.5218e-03
9.000  23.750  7.5216e-03
9.000  24.000  7.5216e-03
9.250  17.000  5.3087e-03
9.250  17.250  6.9291e-03
9.250  17.500  8.6538e-03
9.250  17.750  1.0671e-02
9.250  18.000  1.3380e-02
9.250  18.250  1.7134e-02
9.250  18.500  2.2233e-02
9.250  18.750  5.0268e-02
9.250  19.000  7.2769e-02
9.250  19.250  6.5243e-02
9.250  19.500  5.2319e-02
9.250  19.750  3.5012e-02
9.250  20.000  2.1475e-02
9.250  20.250  1.4626e-02
9.250  20.500  1.0796e-02
9.250  20.750  8.8351e-03
9.250  21.000  8.1556e-03
9.250  21.250  7.8272e-03
9.250  21.500  7.6528e-03
9.250  21.750  7.5799e-03
9.250  22.000  7.5486e-03
9.250  22.250  7.5347e-03
9.250  22.500  7.5283e-03
9.250  22.750  7.5250e-03
9.250  23.000  7.5234e-03
9.250  23.250  7.5225e-03
9.250  23.500  7.5219e-03
9.250  23.750  7.5216e-03
9.250  24.000  7.5216e-03
9.500  17.000  3.9019e-03
9.500  17.250  5.4929e-03
9.500  17.500  7.1733e-03
9.500  17.750  8.9289e-03
9.500  18.000  1.0932e-02
9.500  18.250  1.3614e-02
9.500  18.500  1.7370e-02
9.500  18.750  2.2592e-02
9.500  19.000  5.0687e-02
9.500  19.250  7.2481e-02
9.500  19.500  6.5042e-02
9.500  19.750  5.2309e-02
9.500  20.000  3.4994e-02
9.500  20.250  2.1437e-02
9.500  20.500  1.4616e-02
9.500  20.750  1.0794e-02
9.500  21.000  8.8339e-03
9.500  21.250  8.1550e-03
9.500  21.500  7.8265e-03
9.500  21.750  7.6524e-03
9.500  22.000  7.5797e-03
9.500  22.250  7.5485e-03
9.500  22.500  7.5345e-03
9.500  22.750  7.5279e-03
9.500  23.000  7.5246e-03
9.500  23.250  7.5228e-03
9.500  23.500  7.5219e-03
9.500  23.750  7.5214e-03
9.500  24.000  7.5211e-03
9.750  17.000  2.5900e-03
9.750  17.250  4.0581e-03
9.750  17.500  5.7682e-03
9.750  17.750  7.5533e-03
9.750  18.000  9.3377e-03
9.750  18.250  1.1340e-02
9.750  18.500  1.4058e-02
9.750  18.750  1.7919e-02
9.750  19.000  2.5107e-02
9.750  19.250  5.1801e-02
9.750  19.500  7.2359e-02
9.750  19.750  6.4842e-02
9.750  20.000  5.2280e-02
9.750  20.250  3.4986e-02
9.750  20.500  2.1408e-02
9.750  20.750  1.4610e-02
9.750  21.000  1.0792e-02
9.750  21.250  8.8336e-03
9.750  21.500  8.1551e-03
9.750  21.750  7.8267e-03
9.750  22.000  7.6524e-03
9.750  22.250  7.5797e-03
9.750  22.500  7.5485e-03
9.750  22.750  7.5346e-03
9.750  23.000  7.5279e-03
9.750  23.250  7.5246e-03
9.750  23.500  7.5228e-03
9.750  23.750  7.5219e-03
9.750  24.000  7.5213e-03
10.000  17.000  1.4484e-03
10.000  17.250  2.6849e-03
10.000  17.500  4.2957e-03
10.000  17.750  6.1613e-03
10.000  18.000  8.0523e-03
10.000  18.250  9.9007e-03
10.000  18.500  1.1998e-02
10.000  18.750  1.4890e-02
10.000  19.000  1.8974e-02
10.000  19.250  3.3497e-02
10.000  19.500  5.4353e-02
10.000  19.750  7.2606e-02
10.000  20.000  6.4710e-02
10.000  20.250  5.2232e-02
10.000  20.500  3.4988e-02
10.000  20.750  2.1388e-02
10.000  21.000  1.4608e-02
10.000  21.250  1.0792e-02
10.000  21.500  8.8333e-03
10.000  21.750  8.1551e-03
10.000  22.000  7.8267e-03
10.000  22.250  7.6526e-03
10.000  22.500  7.5797e-03
10.000  22.750  7.5485e-03
10.000  23.000  7.5346e-03
10.000  23.250  7.5280e-03
10.000  23.500  7.5246e-03
10.000  23.750  7.5229e-03
10.000  24.000  7.5219e-03
10.250  17.000  7.6675e-04
10.250  17.250  1.4984e-03
10.250  17.500  2.8474e-03
10.250  17.750  4.6184e-03
10.250  18.000  6.6553e-03
10.250  18.250  8.7216e-03
10.250  18.500  1.0770e-02
10.250  18.750  1.3146e-02
10.250  19.000  1.6365e-02
10.250  19.250  2.0753e-02
10.250  19.500  4.3190e-02
10.250  19.750  5.8924e-02
10.250  20.000  7.3297e-02
10.250  20.250  6.4749e-02
10.250  20.500  5.2190e-02
10.250  20.750  3.5004e-02
10.250  21.000  2.1380e-02
10.250  21.250  1.4611e-02
10.250  21.500  1.0792e-02
10.250  21.750  8.8331e-03
10.250  22.000  8.1552e-03
10.250  22.250  7.8268e-03
10.250  22.500  7.6527e-03
10.250  22.750  7.5797e-03
10.250  23.000  7.5485e-03
10.250  23.250  7.5346e-03
10.250  23.500  7.5279e-03
10.250  23.750  7.5246e-03
10.250  24.000  7.5229e-03
10.500  17.000  4.1053e-04
10.500  17.250  7.8889e-04
10.500  17.500  1.5920e-03
10.500  17.750  3.0767e-03
10.500  18.000  5.0440e-03
10.500  18.250  7.3442e-03
10.500  18.500  9.7113e-03
10.500  18.750  1.2090e-02
10.500  19.000  1.4812e-02
10.500  19.250  1.8460e-02
10.500  19.500  2.5701e-02
10.500  19.750  5.0906e-02
10.500  20.000  6.3559e-02
10.500  20.250  7.4951e-02
10.500  20.500  6.5122e-02
10.500  20.750  5.2194e-02
10.500  21.000  3.5030e-02
10.500  21.250  2.1383e-02
10.500  21.500  1.4618e-02
10.500  21.750  1.0793e-02
10.500  22.000  8.8331e-03
10.500  22.250  8.1554e-03
10.500  22.500  7.8269e-03
10.500  22.750  7.6528e-03
10.500  23.000  7.5798e-03
10.500  23.250  7.5484e-03
10.500  23.500  7.5346e-03
10.500  23.750  7.5280e-03
10.500  24.000  7.5246e-03
10.750  17.000  2.5374e-04
10.750  17.250  4.2337e-04
10.750  17.500  8.4091e-04
10.750  17.750  1.7698e-03
10.750  18.000  3.4073e-03
10.750  18.250  5.6872e-03
10.750  18.500  8.3232e-03
10.750  18.750  1.1010e-02
10.750  19.000  1.3721e-02
10.750  19.250  1.6872e-02
10.750  19.500  2.1081e-02
10.750  19.750  4.3728e-02
10.750  20.000  5.9206e-02
10.750  20.250  6.8799e-02
10.750  20.500  7.7868e-02
10.750  20.750  6.6077e-02
10.750  21.000  5.2276e-02
10.750  21.250  3.5067e-02
10.750  21.500  2.1399e-02
10.750  21.750  1.4631e-02
10.750  22.000  1.0796e-02
10.750  22.250  8.8330e-03
10.750  22.500  8.1558e-03
10.750  22.750  7.8271e-03
10.750  23.000  7.6528e-03
10.750  23.250  7.5799e-03
10.750  23.500  7.5485e-03
10.750  23.750  7.5346e-03
10.750  24.000  7.5280e-03
11.000  17.000  1.8905e-04
11.000  17.250  2.6560e-04
11.000  17.500  4.5539e-04
11.000  17.750  9.4560e-04
11.000  18.000  2.0233e-03
11.000  18.250  3.8781e-03
11.000  18.500  6.4807e-03
11.000  18.750  9.4424e-03
11.000  19.000  1.2402e-02
11.000  19.250  1.5507e-02
11.000  19.500  1.9269e-02
11.000  19.750  2.4309e-02
11.000  20.000  5.2578e-02
11.000  20.250  6.5716e-02
11.000  20.500  7.6282e-02
11.000  20.750  8.2928e-02
11.000  21.000  6.7615e-02
11.000  21.250  5.2521e-02
11.000  21.500  3.5120e-02
11.000  21.750  2.1429e-02
11.000  22.000  1.4648e-02
11.000  22.250  1.0800e-02
11.000  22.500  8.8328e-03
11.000  22.750  8.1561e-03
11.000  23.000  7.8274e-03
11.000  23.250  7.6528e-03
11.000  23.500  7.5799e-03
11.000  23.750  7.5486e-03
11.000  24.000  7.5347e-03
11.250  17.000  1.6008e-04
11.250  17.250  2.0066e-04
11.250  17.500  2.9235e-04
11.250  17.750  5.2601e-04
11.250  18.000  1.1063e-03
11.250  18.250  2.3159e-03
11.250  18.500  4.3976e-03
11.250  18.750  7.3074e-03
11.250  19.000  1.0521e-02
11.250  19.250  1.3802e-02
11.250  19.500  1.7481e-02
11.250  19.750  2.2110e-02
11.250  20.000  2.8059e-02
11.250  20.250  6.4650e-02
11.250  20.500  7.9269e-02
11.250  20.750  8.5818e-02
11.250  21.000  8.9045e-02
11.250  21.250  7.0106e-02
11.250  21.500  5.2943e-02
11.250  21.750  3.5188e-02
11.250  22.000  2.1473e-02
11.250  22.250  1.4672e-02
11.250  22.500  1.0807e-02
11.250  22.750  8.8327e-03
11.250  23.000  8.1564e-03
11.250  23.250  7.8277e-03
11.250  23.500  7.6529e-03
11.250  23.750  7.5800e-03
11.250  24.000  7.5486e-03
11.500  17.000  1.4691e-04
11.500  17.250  1.7284e-04
11.500  17.500  2.2741e-04
11.500  17.750  3.4922e-04
11.500  18.000  6.3753e-04
11.500  18.250  1.2762e-03
11.500  18.500  2.5846e-03
11.500  18.750  4.8905e-03
11.500  19.000  8.0848e-03
11.500  19.250  1.1566e-02
11.500  19.500  1.5319e-02
11.500  19.750  1.9839e-02
11.500  20.000  2.5583e-02
11.500  20.250  4.7304e-02
11.500  20.500  7.6041e-02
11.500  20.750  9.1574e-02
11.500  21.000  9.7845e-02
11.500  21.250  9.6862e-02
11.500  21.500  7.3217e-02
11.500  21.750  5.3552e-02
11.500  22.000  3.5266e-02
11.500  22.250  2.1531e-02
11.500  22.500  1.4701e-02
11.500  22.750  1.0815e-02
11.500  23.000  8.8326e-03
11.500  23.250  8.1566e-03
11.500  23.500  7.8281e-03
11.500  23.750  7.6530e-03
11.500  24.000  7.5800e-03
11.750  17.000  1.4049e-04
11.750  17.250  1.5909e-04
11.750  17.500  1.9852e-04
11.750  17.750  2.7605e-04
11.750  18.000  4.3465e-04
11.750  18.250  7.5490e-04
11.750  18.500  1.4184e-03
11.750  18.750  2.8215e-03
11.750  19.000  5.3649e-03
11.750  19.250  8.8731e-03
11.750  19.500  1.2719e-02
11.750  19.750  1.7164e-02
11.750  20.000  2.2766e-02
11.750  20.250  2.9899e-02
11.750  20.500  5.6835e-02
11.750  20.750  9.0085e-02
11.750  21.000  1.0825e-01
11.750  21.250  1.1399e-01
11.750  21.500  1.0426e-01
11.750  21.750  7.6922e-02
11.750  22.000  5.4373e-02
11.750  22.250  3.5336e-02
11.750  22.500  2.1601e-02
11.750  22.750  1.4737e-02
11.750  23.000  1.0827e-02
11.750  23.250  8.8326e-03
11.750  23.500  8.1570e-03
11.750  23.750  7.8283e-03
11.750  24.000  7.6533e-03
12.000  17.000  1.3704e-04
12.000  17.250  1.5111e-04
12.000  17.500  1.8132e-04
12.000  17.750  2.3868e-04
12.000  18.000  3.4239e-04
12.000  18.250  5.2683e-04
12.000  18.500  8.5531e-04
12.000  18.750  1.5374e-03
12.000  19.000  3.0609e-03
12.000  19.250  5.8926e-03
12.000  19.500  9.7757e-03
12.000  19.750  1.4146e-02
12.000  20.000  1.9542e-02
12.000  20.250  2.6451e-02
12.000  20.500  3.5036e-02
12.000  20.750  7.0860e-02
12.000  21.000  1.0691e-01
12.000  21.250  1.3018e-01
12.000  21.500  1.3425e-01
12.000  21.750  1.1218e-01
12.000  22.000  8.0723e-02
12.000  22.250  5.5235e-02
12.000  22.500  3.5369e-02
12.000  22.750  2.1678e-02
12.000  23.000  1.4777e-02
12.000  23.250  1.0842e-02
12.000  23.500  8.8325e-03
12.000  23.750  8.1573e-03
12.000  24.000  7.8286e-03
12.250  17.000  1.3572e-04
12.250  17.250  1.4568e-04
12.250  17.500  1.6741e-04
12.250  17.750  2.1169e-04
12.250  18.000  2.8716e-04
12.250  18.250  4.1366e-04
12.250  18.500  6.1350e-04
12.250  18.750  9.4848e-04
12.250  19.000  1.6683e-03
12.250  19.250  3.3751e-03
12.250  19.500  6.5659e-03
12.250  19.750  1.0929e-02
12.250  20.000  1.6051e-02
12.250  20.250  2.2652e-02
12.250  20.500  3.1101e-02
12.250  20.750  4.1320e-02
12.250  21.000  8.7682e-02
12.250  21.250  1.2924e-01
12.250  21.500  1.5688e-01
12.250  21.750  1.5590e-01
12.250  22.000  1.1972e-01
12.250  22.250  8.2812e-02
12.250  22.500  5.5468e-02
12.250  22.750  3.5347e-02
12.250  23.000  2.1753e-02
12.250  23.250  1.4819e-02
12.250  23.500  1.0858e-02
12.250  23.750  8.8322e-03
12.250  24.000  8.1575e-03
12.500  17.000  1.3267e-04
12.500  17.250  1.4165e-04
12.500  17.500  1.5909e-04
12.500  17.750  1.8856e-04
12.500  18.000  2.4551e-04
12.500  18.250  3.3802e-04
12.500  18.500  4.8436e-04
12.500  18.750  6.9901e-04
12.500  19.000  1.0561e-03
12.500  19.250  1.8695e-03
12.500  19.500  3.8304e-03
12.500  19.750  7.4932e-03
12.500  20.000  1.2446e-02
12.500  20.250  1.8542e-02
12.500  20.500  2.6635e-02
12.500  20.750  3.7043e-02
12.500  21.000  4.9798e-02
12.500  21.250  1.0912e-01
12.500  21.500  1.5789e-01
12.500  21.750  1.8723e-01
12.500  22.000  1.7291e-01
12.500  22.250  1.2534e-01
12.500  22.500  8.5683e-02
12.500  22.750  5.6309e-02
12.500  23.000  3.5259e-02
12.500  23.250  2.1814e-02
12.500  23.500  1.4860e-02
12.500  23.750  1.0875e-02
12.500  24.000  8.8309e-03
12.750  17.000  1.2691e-04
12.750  17.250  1.3374e-04
12.750  17.500  1.4667e-04
12.750  17.750  1.7128e-04
12.750  18.000  2.1267e-04
12.750  18.250  2.8091e-04
12.750  18.500  3.9119e-04
12.750  18.750  5.5794e-04
12.750  19.000  7.9852e-04
12.750  19.250  1.2096e-03
12.750  19.500  2.1715e-03
12.750  19.750  4.4639e-03
12.750  20.000  8.6164e-03
12.750  20.250  1.4407e-02
12.750  20.500  2.1732e-02
12.750  20.750  3.1788e-02
12.750  21.000  4.5172e-02
12.750  21.250  6.0976e-02
12.750  21.500  1.3467e-01
12.750  21.750  1.9550e-01
12.750  22.000  2.1981e-01
12.750  22.250  1.8847e-01
12.750  22.500  1.3220e-01
12.750  22.750  8.8856e-02
12.750  23.000  5.6674e-02
12.750  23.250  3.5107e-02
12.750  23.500  2.1852e-02
12.750  23.750  1.4896e-02
12.750  24.000  1.0890e-02
13.000  17.000  1.2107e-04
13.000  17.250  1.2584e-04
13.000  17.500  1.3440e-04
13.000  17.750  1.5276e-04
13.000  18.000  1.8403e-04
13.000  18.250  2.3654e-04
13.000  18.500  3.2189e-04
13.000  18.750  4.5374e-04
13.000  19.000  6.4510e-04
13.000  19.250  9.2823e-04
13.000  19.500  1.4209e-03
13.000  19.750  2.5643e-03
13.000  20.000  5.1756e-03
13.000  20.250  9.8375e-03
13.000  20.500  1.6787e-02
13.000  20.750  2.5668e-02
13.000  21.000  3.7966e-02
13.000  21.250  5.4900e-02
13.000  21.500  7.3488e-02
13.000  21.750  1.7318e-01
13.000  22.000  2.3281e-01
13.000  22.250  2.4914e-01
13.000  22.500  2.0208e-01
13.000  22.750  1.3761e-01
13.000  23.000  9.0545e-02
13.000  23.250  5.6746e-02
13.000  23.500  3.4874e-02
13.000  23.750  2.1860e-02
13.000  24.000  1.4924e-02
13.250  17.000  1.1391e-04
13.250  17.250  1.1646e-04
13.250  17.500  1.2370e-04
13.250  17.750  1.3654e-04
13.250  18.000  1.5992e-04
13.250  18.250  2.0115e-04
13.250  18.500  2.6947e-04
13.250  18.750  3.7745e-04
13.250  19.000  5.3712e-04
13.250  19.250  7.6930e-04
13.250  19.500  1.1160e-03
13.250  19.750  1.7370e-03
13.250  20.000  3.0727e-03
13.250  20.250  5.8998e-03
13.250  20.500  1.1120e-02
13.250  20.750  1.9011e-02
13.250  21.000  3.0013e-02
13.250  21.250  4.4948e-02
13.250  21.500  6.3523e-02
13.250  21.750  9.5321e-02
13.250  22.000  2.0523e-01
13.250  22.250  2.6990e-01
13.250  22.500  2.7499e-01
13.250  22.750  2.1496e-01
13.250  23.000  1.4275e-01
13.250  23.250  9.0090e-02
13.250  23.500  5.6201e-02
13.250  23.750  3.4587e-02
13.250  24.000  2.1825e-02
13.500  17.000  1.0634e-04
13.500  17.250  1.0741e-04
13.500  17.500  1.1300e-04
13.500  17.750  1.2230e-04
13.500  18.000  1.4033e-04
13.500  18.250  1.7292e-04
13.500  18.500  2.2963e-04
13.500  18.750  3.2181e-04
13.500  19.000  4.6255e-04
13.500  19.250  6.6700e-04
13.500  19.500  9.6716e-04
13.500  19.750  1.4350e-03
13.500  20.000  2.2374e-03
13.500  20.250  3.8172e-03
13.500  20.500  6.9536e-03
13.500  20.750  1.2518e-02
13.500  21.000  2.0751e-02
13.500  21.250  3.3438e-02
13.500  21.500  4.8612e-02
13.500  21.750  6.9156e-02
13.500  22.000  1.1686e-01
13.500  22.250  2.3219e-01
13.500  22.500  3.0202e-01
13.500  22.750  3.0088e-01
13.500  23.000  2.2704e-01
13.500  23.250  1.4823e-01
13.500  23.500  9.2498e-02
13.500  23.750  5.6267e-02
13.500  24.000  3.4255e-02
13.750  17.000  1.0008e-04
13.750  17.250  9.8930e-05
13.750  17.500  1.0321e-04
13.750  17.750  1.1012e-04
13.750  18.000  1.2420e-04
13.750  18.250  1.5086e-04
13.750  18.500  1.9819e-04
13.750  18.750  2.7877e-04
13.750  19.000  4.0782e-04
13.750  19.250  6.0058e-04
13.750  19.500  8.8115e-04
13.750  19.750  1.3009e-03
13.750  20.000  1.9640e-03
13.750  20.250  3.0756e-03
13.750  20.500  5.0538e-03
13.750  20.750  8.6326e-03
13.750  21.000  1.4650e-02
13.750  21.250  2.3568e-02
13.750  21.500  3.6384e-02
13.750  21.750  5.3976e-02
13.750  22.000  7.6215e-02
13.750  22.250  1.4586e-01
13.750  22.500  2.6827e-01
13.750  22.750  3.4005e-01
13.750  23.000  3.2696e-01
13.750  23.250  2.3774e-01
13.750  23.500  1.5137e-01
13.750  23.750  9.2846e-02
13.750  24.000  5.5796e-02
14.000  17.000  9.4074e-05
14.000  17.250  9.2428e-05
14.000  17.500  9.2757e-05
14.000  17.750  9.9506e-05
14.000  18.000  1.1086e-04
14.000  18.250  1.3333e-04
14.000  18.500  1.7440e-04
14.000  18.750  2.4543e-04
14.000  19.000  3.6305e-04
14.000  19.250  5.4864e-04
14.000  19.500  8.2609e-04
14.000  19.750  1.2314e-03
14.000  20.000  1.8426e-03
14.000  20.250  2.8036e-03
14.000  20.500  4.3743e-03
14.000  20.750  6.9769e-03
14.000  21.000  1.1339e-02
14.000  21.250  1.8386e-02
14.000  21.500  2.8288e-02
14.000  21.750  4.2500e-02
14.000  22.000  6.1616e-02
14.000  22.250  8.8465e-02
14.000  22.500  1.9054e-01
14.000  22.750  3.1158e-01
14.000  23.000  3.7987e-01
14.000  23.250  3.5243e-01
14.000  23.500  2.4761e-01
14.000  23.750  1.5358e-01
14.000  24.000  9.2899e-02
