InwC 800.000A  relative to Inci 1215.00A scaled to 1215A.
Hden   Phi(H)  Eq_Width (A)
7.000  17.000  4.4747e-03
7.000  17.250  5.9468e-03
7.000  17.500  6.8921e-03
7.000  17.750  7.3453e-03
7.000  18.000  7.5788e-03
7.000  18.250  7.7400e-03
7.000  18.500  7.8289e-03
7.000  18.750  7.8518e-03
7.000  19.000  7.8617e-03
7.000  19.250  7.8659e-03
7.000  19.500  7.8668e-03
7.000  19.750  7.8671e-03
7.000  20.000  7.8672e-03
7.000  20.250  7.8672e-03
7.000  20.500  7.8672e-03
7.000  20.750  7.8672e-03
7.000  21.000  7.8672e-03
7.000  21.250  7.8672e-03
7.000  21.500  7.8675e-03
7.000  21.750  7.8672e-03
7.000  22.000  7.8672e-03
7.000  22.250  7.8672e-03
7.000  22.500  7.8673e-03
7.000  22.750  7.8675e-03
7.000  23.000  7.8675e-03
7.000  23.250  7.8672e-03
7.000  23.500  7.8672e-03
7.000  23.750  7.8672e-03
7.000  24.000  7.8672e-03
7.250  17.000  2.9951e-03
7.250  17.250  4.4855e-03
7.250  17.500  5.9575e-03
7.250  17.750  6.8984e-03
7.250  18.000  7.3474e-03
7.250  18.250  7.5794e-03
7.250  18.500  7.7402e-03
7.250  18.750  7.8290e-03
7.250  19.000  7.8518e-03
7.250  19.250  7.8617e-03
7.250  19.500  7.8659e-03
7.250  19.750  7.8668e-03
7.250  20.000  7.8671e-03
7.250  20.250  7.8672e-03
7.250  20.500  7.8672e-03
7.250  20.750  7.8672e-03
7.250  21.000  7.8672e-03
7.250  21.250  7.8672e-03
7.250  21.500  7.8672e-03
7.250  21.750  7.8688e-03
7.250  22.000  7.8672e-03
7.250  22.250  7.8672e-03
7.250  22.500  7.8673e-03
7.250  22.750  7.8681e-03
7.250  23.000  7.8681e-03
7.250  23.250  7.8672e-03
7.250  23.500  7.8672e-03
7.250  23.750  7.8673e-03
7.250  24.000  7.8672e-03
7.500  17.000  1.6891e-03
7.500  17.250  3.0016e-03
7.500  17.500  4.4947e-03
7.500  17.750  5.9684e-03
7.500  18.000  6.9060e-03
7.500  18.250  7.3501e-03
7.500  18.500  7.5804e-03
7.500  18.750  7.7404e-03
7.500  19.000  7.8290e-03
7.500  19.250  7.8518e-03
7.500  19.500  7.8617e-03
7.500  19.750  7.8659e-03
7.500  20.000  7.8668e-03
7.500  20.250  7.8671e-03
7.500  20.500  7.8672e-03
7.500  20.750  7.8672e-03
7.500  21.000  7.8672e-03
7.500  21.250  7.8672e-03
7.500  21.500  7.8672e-03
7.500  21.750  7.8673e-03
7.500  22.000  7.8672e-03
7.500  22.250  7.8672e-03
7.500  22.500  7.8672e-03
7.500  22.750  7.8672e-03
7.500  23.000  7.8677e-03
7.500  23.250  7.8681e-03
7.500  23.500  7.8672e-03
7.500  23.750  7.8682e-03
7.500  24.000  7.8672e-03
7.750  17.000  8.8198e-04
7.750  17.250  1.6942e-03
7.750  17.500  3.0057e-03
7.750  17.750  4.5024e-03
7.750  18.000  5.9795e-03
7.750  18.250  6.9149e-03
7.750  18.500  7.3536e-03
7.750  18.750  7.5817e-03
7.750  19.000  7.7408e-03
7.750  19.250  7.8291e-03
7.750  19.500  7.8519e-03
7.750  19.750  7.8616e-03
7.750  20.000  7.8659e-03
7.750  20.250  7.8668e-03
7.750  20.500  7.8671e-03
7.750  20.750  7.8672e-03
7.750  21.000  7.8672e-03
7.750  21.250  7.8672e-03
7.750  21.500  7.8672e-03
7.750  21.750  7.8672e-03
7.750  22.000  7.8672e-03
7.750  22.250  7.8672e-03
7.750  22.500  7.8672e-03
7.750  22.750  7.8675e-03
7.750  23.000  7.8675e-03
7.750  23.250  7.8673e-03
7.750  23.500  7.8681e-03
7.750  23.750  7.8681e-03
7.750  24.000  7.8672e-03
8.000  17.000  4.6247e-04
8.000  17.250  8.8066e-04
8.000  17.500  1.6912e-03
8.000  17.750  3.0072e-03
8.000  18.000  4.5087e-03
8.000  18.250  5.9909e-03
8.000  18.500  6.9250e-03
8.000  18.750  7.3581e-03
8.000  19.000  7.5835e-03
8.000  19.250  7.7414e-03
8.000  19.500  7.8292e-03
8.000  19.750  7.8519e-03
8.000  20.000  7.8617e-03
8.000  20.250  7.8659e-03
8.000  20.500  7.8668e-03
8.000  20.750  7.8671e-03
8.000  21.000  7.8672e-03
8.000  21.250  7.8672e-03
8.000  21.500  7.8672e-03
8.000  21.750  7.8672e-03
8.000  22.000  7.8672e-03
8.000  22.250  7.8672e-03
8.000  22.500  7.8672e-03
8.000  22.750  7.8674e-03
8.000  23.000  7.8672e-03
8.000  23.250  7.8677e-03
8.000  23.500  7.8672e-03
8.000  23.750  7.8672e-03
8.000  24.000  7.8672e-03
8.250  17.000  2.4337e-04
8.250  17.250  4.6247e-04
8.250  17.500  8.8082e-04
8.250  17.750  1.6905e-03
8.250  18.000  3.0071e-03
8.250  18.250  4.5137e-03
8.250  18.500  6.0029e-03
8.250  18.750  6.9364e-03
8.250  19.000  7.3633e-03
8.250  19.250  7.5856e-03
8.250  19.500  7.7421e-03
8.250  19.750  7.8294e-03
8.250  20.000  7.8519e-03
8.250  20.250  7.8617e-03
8.250  20.500  7.8659e-03
8.250  20.750  7.8668e-03
8.250  21.000  7.8671e-03
8.250  21.250  7.8672e-03
8.250  21.500  7.8672e-03
8.250  21.750  7.8672e-03
8.250  22.000  7.8672e-03
8.250  22.250  7.8672e-03
8.250  22.500  7.8672e-03
8.250  22.750  7.8674e-03
8.250  23.000  7.8672e-03
8.250  23.250  7.8693e-03
8.250  23.500  7.8672e-03
8.250  23.750  7.8672e-03
8.250  24.000  7.8678e-03
8.500  17.000  1.2848e-04
8.500  17.250  2.4305e-04
8.500  17.500  4.6198e-04
8.500  17.750  8.7975e-04
8.500  18.000  1.6882e-03
8.500  18.250  3.0041e-03
8.500  18.500  4.5174e-03
8.500  18.750  6.0155e-03
8.500  19.000  6.9493e-03
8.500  19.250  7.3692e-03
8.500  19.500  7.5881e-03
8.500  19.750  7.7430e-03
8.500  20.000  7.8295e-03
8.500  20.250  7.8519e-03
8.500  20.500  7.8617e-03
8.500  20.750  7.8659e-03
8.500  21.000  7.8668e-03
8.500  21.250  7.8671e-03
8.500  21.500  7.8672e-03
8.500  21.750  7.8672e-03
8.500  22.000  7.8672e-03
8.500  22.250  7.8672e-03
8.500  22.500  7.8672e-03
8.500  22.750  7.8672e-03
8.500  23.000  7.8672e-03
8.500  23.250  7.8674e-03
8.500  23.500  7.8672e-03
8.500  23.750  7.8672e-03
8.500  24.000  7.8672e-03
8.750  17.000  6.8560e-05
8.750  17.250  1.2823e-04
8.750  17.500  2.4272e-04
8.750  17.750  4.6148e-04
8.750  18.000  8.7877e-04
8.750  18.250  1.6838e-03
8.750  18.500  2.9987e-03
8.750  18.750  4.5195e-03
8.750  19.000  6.0287e-03
8.750  19.250  6.9629e-03
8.750  19.500  7.3757e-03
8.750  19.750  7.5908e-03
8.750  20.000  7.7440e-03
8.750  20.250  7.8299e-03
8.750  20.500  7.8521e-03
8.750  20.750  7.8618e-03
8.750  21.000  7.8659e-03
8.750  21.250  7.8668e-03
8.750  21.500  7.8671e-03
8.750  21.750  7.8672e-03
8.750  22.000  7.8672e-03
8.750  22.250  7.8672e-03
8.750  22.500  7.8672e-03
8.750  22.750  7.8672e-03
8.750  23.000  7.8680e-03
8.750  23.250  7.8672e-03
8.750  23.500  7.8674e-03
8.750  23.750  7.8672e-03
8.750  24.000  7.8672e-03
9.000  17.000  3.6790e-05
9.000  17.250  6.8477e-05
9.000  17.500  1.2815e-04
9.000  17.750  2.4272e-04
9.000  18.000  4.6189e-04
9.000  18.250  8.7885e-04
9.000  18.500  1.6806e-03
9.000  18.750  2.9937e-03
9.000  19.000  4.5204e-03
9.000  19.250  6.0413e-03
9.000  19.500  6.9770e-03
9.000  19.750  7.3826e-03
9.000  20.000  7.5937e-03
9.000  20.250  7.7451e-03
9.000  20.500  7.8301e-03
9.000  20.750  7.8522e-03
9.000  21.000  7.8618e-03
9.000  21.250  7.8659e-03
9.000  21.500  7.8668e-03
9.000  21.750  7.8670e-03
9.000  22.000  7.8671e-03
9.000  22.250  7.8672e-03
9.000  22.500  7.8672e-03
9.000  22.750  7.8672e-03
9.000  23.000  7.8672e-03
9.000  23.250  7.8672e-03
9.000  23.500  7.8672e-03
9.000  23.750  7.8672e-03
9.000  24.000  7.8672e-03
9.250  17.000  1.9671e-05
9.250  17.250  3.6790e-05
9.250  17.500  6.8642e-05
9.250  17.750  1.2881e-04
9.250  18.000  2.4428e-04
9.250  18.250  4.6502e-04
9.250  18.500  8.8346e-04
9.250  18.750  1.6822e-03
9.250  19.000  2.9905e-03
9.250  19.250  4.5202e-03
9.250  19.500  6.0521e-03
9.250  19.750  6.9907e-03
9.250  20.000  7.3895e-03
9.250  20.250  7.5967e-03
9.250  20.500  7.7463e-03
9.250  20.750  7.8305e-03
9.250  21.000  7.8523e-03
9.250  21.250  7.8618e-03
9.250  21.500  7.8655e-03
9.250  21.750  7.8663e-03
9.250  22.000  7.8664e-03
9.250  22.250  7.8666e-03
9.250  22.500  7.8668e-03
9.250  22.750  7.8668e-03
9.250  23.000  7.8669e-03
9.250  23.250  7.8670e-03
9.250  23.500  7.8670e-03
9.250  23.750  7.8670e-03
9.250  24.000  7.8671e-03
9.500  17.000  1.0370e-05
9.500  17.250  1.9753e-05
9.500  17.500  3.7202e-05
9.500  17.750  6.9712e-05
9.500  18.000  1.3070e-04
9.500  18.250  2.4790e-04
9.500  18.500  4.7210e-04
9.500  18.750  8.9794e-04
9.500  19.000  1.6956e-03
9.500  19.250  2.9942e-03
9.500  19.500  4.5204e-03
9.500  19.750  6.0599e-03
9.500  20.000  7.0033e-03
9.500  20.250  7.3963e-03
9.500  20.500  7.5998e-03
9.500  20.750  7.7452e-03
9.500  21.000  7.8300e-03
9.500  21.250  7.8518e-03
9.500  21.500  7.8612e-03
9.500  21.750  7.8652e-03
9.500  22.000  7.8660e-03
9.500  22.250  7.8663e-03
9.500  22.500  7.8663e-03
9.500  22.750  7.8663e-03
9.500  23.000  7.8664e-03
9.500  23.250  7.8664e-03
9.500  23.500  7.8664e-03
9.500  23.750  7.8664e-03
9.500  24.000  7.8664e-03
9.750  17.000  5.2675e-06
9.750  17.250  1.0453e-05
9.750  17.500  2.0165e-05
9.750  17.750  3.8272e-05
9.750  18.000  7.1605e-05
9.750  18.250  1.3407e-04
9.750  18.500  2.5457e-04
9.750  18.750  4.8650e-04
9.750  19.000  9.2527e-04
9.750  19.250  1.7332e-03
9.750  19.500  3.0154e-03
9.750  19.750  4.5259e-03
9.750  20.000  6.0672e-03
9.750  20.250  7.0118e-03
9.750  20.500  7.4007e-03
9.750  20.750  7.6013e-03
9.750  21.000  7.7471e-03
9.750  21.250  7.8304e-03
9.750  21.500  7.8519e-03
9.750  21.750  7.8613e-03
9.750  22.000  7.8652e-03
9.750  22.250  7.8661e-03
9.750  22.500  7.8663e-03
9.750  22.750  7.8664e-03
9.750  23.000  7.8664e-03
9.750  23.250  7.8663e-03
9.750  23.500  7.8664e-03
9.750  23.750  7.8664e-03
9.750  24.000  7.8664e-03
10.000  17.000  2.3868e-06
10.000  17.250  5.3498e-06
10.000  17.500  1.0782e-05
10.000  17.750  2.0988e-05
10.000  18.000  3.9835e-05
10.000  18.250  7.4403e-05
10.000  18.500  1.3984e-04
10.000  18.750  2.6757e-04
10.000  19.000  5.1712e-04
10.000  19.250  9.9004e-04
10.000  19.500  1.8281e-03
10.000  19.750  3.0733e-03
10.000  20.000  4.5458e-03
10.000  20.250  6.0745e-03
10.000  20.500  7.0237e-03
10.000  20.750  7.4085e-03
10.000  21.000  7.6054e-03
10.000  21.250  7.7495e-03
10.000  21.500  7.8309e-03
10.000  21.750  7.8521e-03
10.000  22.000  7.8615e-03
10.000  22.250  7.8653e-03
10.000  22.500  7.8661e-03
10.000  22.750  7.8663e-03
10.000  23.000  7.8663e-03
10.000  23.250  7.8664e-03
10.000  23.500  7.8664e-03
10.000  23.750  7.8664e-03
10.000  24.000  7.8664e-03
10.250  17.000  1.1523e-06
10.250  17.250  2.4691e-06
10.250  17.500  5.5967e-06
10.250  17.750  1.1358e-05
10.250  18.000  2.2140e-05
10.250  18.250  4.2140e-05
10.250  18.500  7.9506e-05
10.250  18.750  1.5218e-04
10.250  19.000  2.9728e-04
10.250  19.250  5.8395e-04
10.250  19.500  1.1117e-03
10.250  19.750  2.0016e-03
10.250  20.000  3.1801e-03
10.250  20.250  4.5902e-03
10.250  20.500  6.0879e-03
10.250  20.750  7.0356e-03
10.250  21.000  7.4151e-03
10.250  21.250  7.6090e-03
10.250  21.500  7.7517e-03
10.250  21.750  7.8316e-03
10.250  22.000  7.8523e-03
10.250  22.250  7.8616e-03
10.250  22.500  7.8654e-03
10.250  22.750  7.8661e-03
10.250  23.000  7.8663e-03
10.250  23.250  7.8663e-03
10.250  23.500  7.8664e-03
10.250  23.750  7.8664e-03
10.250  24.000  7.8664e-03
10.500  17.000  1.0000e-07
10.500  17.250  1.2346e-06
10.500  17.500  2.6337e-06
10.500  17.750  6.0082e-06
10.500  18.000  1.2263e-05
10.500  18.250  2.4115e-05
10.500  18.500  4.6914e-05
10.500  18.750  9.1029e-05
10.500  19.000  1.7860e-04
10.500  19.250  3.5498e-04
10.500  19.500  6.8230e-04
10.500  19.750  1.2924e-03
10.500  20.000  2.2428e-03
10.500  20.250  3.3694e-03
10.500  20.500  4.6832e-03
10.500  20.750  6.1151e-03
10.500  21.000  7.0463e-03
10.500  21.250  7.4217e-03
10.500  21.500  7.6126e-03
10.500  21.750  7.7537e-03
10.500  22.000  7.8326e-03
10.500  22.250  7.8527e-03
10.500  22.500  7.8616e-03
10.500  22.750  7.8655e-03
10.500  23.000  7.8662e-03
10.500  23.250  7.8663e-03
10.500  23.500  7.8664e-03
10.500  23.750  7.8664e-03
10.500  24.000  7.8664e-03
10.750  17.000  1.0000e-07
10.750  17.250  1.0000e-07
10.750  17.500  1.3169e-06
10.750  17.750  2.9630e-06
10.750  18.000  6.5844e-06
10.750  18.250  1.4074e-05
10.750  18.500  2.8642e-05
10.750  18.750  5.7449e-05
10.750  19.000  1.1383e-04
10.750  19.250  2.2510e-04
10.750  19.500  4.4584e-04
10.750  19.750  8.3457e-04
10.750  20.000  1.5295e-03
10.750  20.250  2.5105e-03
10.750  20.500  3.6167e-03
10.750  20.750  4.8584e-03
10.750  21.000  6.1644e-03
10.750  21.250  7.0593e-03
10.750  21.500  7.4287e-03
10.750  21.750  7.6166e-03
10.750  22.000  7.7558e-03
10.750  22.250  7.8335e-03
10.750  22.500  7.8533e-03
10.750  22.750  7.8618e-03
10.750  23.000  7.8656e-03
10.750  23.250  7.8663e-03
10.750  23.500  7.8663e-03
10.750  23.750  7.8663e-03
10.750  24.000  7.8664e-03
11.000  17.000  1.0000e-07
11.000  17.250  1.0000e-07
11.000  17.500  1.0000e-07
11.000  17.750  1.4815e-06
11.000  18.000  3.5391e-06
11.000  18.250  8.1481e-06
11.000  18.500  1.8025e-05
11.000  18.750  3.7778e-05
11.000  19.000  7.5802e-05
11.000  19.250  1.4881e-04
11.000  19.500  2.9062e-04
11.000  19.750  5.6930e-04
11.000  20.000  1.0290e-03
11.000  20.250  1.7560e-03
11.000  20.500  2.8058e-03
11.000  20.750  3.9443e-03
11.000  21.000  5.0396e-03
11.000  21.250  6.2556e-03
11.000  21.500  7.0780e-03
11.000  21.750  7.4373e-03
11.000  22.000  7.6216e-03
11.000  22.250  7.7584e-03
11.000  22.500  7.8344e-03
11.000  22.750  7.8537e-03
11.000  23.000  7.8622e-03
11.000  23.250  7.8657e-03
11.000  23.500  7.8663e-03
11.000  23.750  7.8665e-03
11.000  24.000  7.8664e-03
11.250  17.000  1.0000e-07
11.250  17.250  1.0000e-07
11.250  17.500  1.0000e-07
11.250  17.750  1.0000e-07
11.250  18.000  1.8930e-06
11.250  18.250  4.6914e-06
11.250  18.500  1.1193e-05
11.250  18.750  2.4774e-05
11.250  19.000  5.0782e-05
11.250  19.250  9.9753e-05
11.250  19.500  1.9218e-04
11.250  19.750  3.6988e-04
11.250  20.000  7.1465e-04
11.250  20.250  1.2549e-03
11.250  20.500  2.0746e-03
11.250  20.750  3.1031e-03
11.250  21.000  4.2001e-03
11.250  21.250  5.2822e-03
11.250  21.500  6.3645e-03
11.250  21.750  7.1064e-03
11.250  22.000  7.4493e-03
11.250  22.250  7.6283e-03
11.250  22.500  7.7618e-03
11.250  22.750  7.8356e-03
11.250  23.000  7.8544e-03
11.250  23.250  7.8626e-03
11.250  23.500  7.8658e-03
11.250  23.750  7.8664e-03
11.250  24.000  7.8666e-03
11.500  17.000  1.0000e-07
11.500  17.250  1.0000e-07
11.500  17.500  1.0000e-07
11.500  17.750  1.0000e-07
11.500  18.000  9.8765e-07
11.500  18.250  2.5514e-06
11.500  18.500  6.5844e-06
11.500  18.750  1.5309e-05
11.500  19.000  3.2840e-05
11.500  19.250  6.5267e-05
11.500  19.500  1.2560e-04
11.500  19.750  2.3951e-04
11.500  20.000  4.5638e-04
11.500  20.250  8.6000e-04
11.500  20.500  1.4869e-03
11.500  20.750  2.3677e-03
11.500  21.000  3.3984e-03
11.500  21.250  4.4794e-03
11.500  21.500  5.5026e-03
11.500  21.750  6.4942e-03
11.500  22.000  7.1473e-03
11.500  22.250  7.4661e-03
11.500  22.500  7.6379e-03
11.500  22.750  7.7666e-03
11.500  23.000  7.8373e-03
11.500  23.250  7.8551e-03
11.500  23.500  7.8630e-03
11.500  23.750  7.8659e-03
11.500  24.000  7.8664e-03
11.750  17.000  1.0000e-07
11.750  17.250  1.0000e-07
11.750  17.500  1.0000e-07
11.750  17.750  1.0000e-07
11.750  18.000  1.0000e-07
11.750  18.250  1.3992e-06
11.750  18.500  3.6214e-06
11.750  18.750  8.8066e-06
11.750  19.000  1.9671e-05
11.750  19.250  4.0823e-05
11.750  19.500  7.9424e-05
11.750  19.750  1.5086e-04
11.750  20.000  2.8584e-04
11.750  20.250  5.4346e-04
11.750  20.500  9.9778e-04
11.750  20.750  1.7162e-03
11.750  21.000  2.6636e-03
11.750  21.250  3.7098e-03
11.750  21.500  4.7103e-03
11.750  21.750  5.7439e-03
11.750  22.000  6.6200e-03
11.750  22.250  7.1964e-03
11.750  22.500  7.4888e-03
11.750  22.750  7.6521e-03
11.750  23.000  7.7733e-03
11.750  23.250  7.8395e-03
11.750  23.500  7.8561e-03
11.750  23.750  7.8634e-03
11.750  24.000  7.8662e-03
12.000  17.000  1.0000e-07
12.000  17.250  1.0000e-07
12.000  17.500  1.0000e-07
12.000  17.750  1.0000e-07
12.000  18.000  1.0000e-07
12.000  18.250  1.0000e-07
12.000  18.500  1.8930e-06
12.000  18.750  4.6914e-06
12.000  19.000  1.0947e-05
12.000  19.250  2.3704e-05
12.000  19.500  4.7984e-05
12.000  19.750  9.1852e-05
12.000  20.000  1.7374e-04
12.000  20.250  3.2930e-04
12.000  20.500  6.2519e-04
12.000  20.750  1.1439e-03
12.000  21.000  1.9506e-03
12.000  21.250  2.9579e-03
12.000  21.500  4.0140e-03
12.000  21.750  4.9860e-03
12.000  22.000  5.9523e-03
12.000  22.250  6.7314e-03
12.000  22.500  7.2453e-03
12.000  22.750  7.5160e-03
12.000  23.000  7.6685e-03
12.000  23.250  7.7819e-03
12.000  23.500  7.8423e-03
12.000  23.750  7.8574e-03
12.000  24.000  7.8639e-03
12.250  17.000  1.0000e-07
12.250  17.250  1.0000e-07
12.250  17.500  1.0000e-07
12.250  17.750  1.0000e-07
12.250  18.000  1.0000e-07
12.250  18.250  1.0000e-07
12.250  18.500  9.8765e-07
12.250  18.750  2.3045e-06
12.250  19.000  5.5967e-06
12.250  19.250  1.2675e-05
12.250  19.500  2.6914e-05
12.250  19.750  5.3827e-05
12.250  20.000  1.0263e-04
12.250  20.250  1.9432e-04
12.250  20.500  3.6963e-04
12.250  20.750  7.0198e-04
12.250  21.000  1.2898e-03
12.250  21.250  2.1787e-03
12.250  21.500  3.2337e-03
12.250  21.750  4.2968e-03
12.250  22.000  5.2164e-03
12.250  22.250  6.1207e-03
12.250  22.500  6.8261e-03
12.250  22.750  7.2907e-03
12.250  23.000  7.5440e-03
12.250  23.250  7.6868e-03
12.250  23.500  7.7919e-03
12.250  23.750  7.8456e-03
12.250  24.000  7.8587e-03
12.500  17.000  1.0000e-07
12.500  17.250  1.0000e-07
12.500  17.500  1.0000e-07
12.500  17.750  1.0000e-07
12.500  18.000  1.0000e-07
12.500  18.250  1.0000e-07
12.500  18.500  1.0000e-07
12.500  18.750  1.1523e-06
12.500  19.000  2.7160e-06
12.500  19.250  6.1728e-06
12.500  19.500  1.3827e-05
12.500  19.750  2.9383e-05
12.500  20.000  5.8519e-05
12.500  20.250  1.1177e-04
12.500  20.500  2.1317e-04
12.500  20.750  4.0856e-04
12.500  21.000  7.8091e-04
12.500  21.250  1.4365e-03
12.500  21.500  2.3936e-03
12.500  21.750  3.4802e-03
12.500  22.000  4.5360e-03
12.500  22.250  5.4170e-03
12.500  22.500  6.2679e-03
12.500  22.750  6.9235e-03
12.500  23.000  7.3302e-03
12.500  23.250  7.5677e-03
12.500  23.500  7.7044e-03
12.500  23.750  7.8019e-03
12.500  24.000  7.8487e-03
12.750  17.000  1.0000e-07
12.750  17.250  1.0000e-07
12.750  17.500  1.0000e-07
12.750  17.750  1.0000e-07
12.750  18.000  1.0000e-07
12.750  18.250  1.0000e-07
12.750  18.500  1.0000e-07
12.750  18.750  1.0000e-07
12.750  19.000  1.2346e-06
12.750  19.250  2.8807e-06
12.750  19.500  6.5844e-06
12.750  19.750  1.4650e-05
12.750  20.000  3.1111e-05
12.750  20.250  6.2387e-05
12.750  20.500  1.2025e-04
12.750  20.750  2.3226e-04
12.750  21.000  4.5119e-04
12.750  21.250  8.6321e-04
12.750  21.500  1.5695e-03
12.750  21.750  2.5915e-03
12.750  22.000  3.6919e-03
12.750  22.250  4.7273e-03
12.750  22.500  5.5908e-03
12.750  22.750  6.3998e-03
12.750  23.000  6.9900e-03
12.750  23.250  7.3634e-03
12.750  23.500  7.5877e-03
12.750  23.750  7.7196e-03
12.750  24.000  7.8105e-03
13.000  17.000  1.0000e-07
13.000  17.250  1.0000e-07
13.000  17.500  1.0000e-07
13.000  17.750  1.0000e-07
13.000  18.000  1.0000e-07
13.000  18.250  1.0000e-07
13.000  18.500  1.0000e-07
13.000  18.750  1.0000e-07
13.000  19.000  1.0000e-07
13.000  19.250  1.3169e-06
13.000  19.500  2.9630e-06
13.000  19.750  6.7490e-06
13.000  20.000  1.5062e-05
13.000  20.250  3.2263e-05
13.000  20.500  6.5844e-05
13.000  20.750  1.2872e-04
13.000  21.000  2.5128e-04
13.000  21.250  4.9350e-04
13.000  21.500  9.3646e-04
13.000  21.750  1.7126e-03
13.000  22.000  2.7565e-03
13.000  22.250  3.8772e-03
13.000  22.500  4.8986e-03
13.000  22.750  5.7353e-03
13.000  23.000  6.4858e-03
13.000  23.250  7.0418e-03
13.000  23.500  7.3901e-03
13.000  23.750  7.6039e-03
13.000  24.000  7.7316e-03
13.250  17.000  1.0000e-07
13.250  17.250  1.0000e-07
13.250  17.500  1.0000e-07
13.250  17.750  1.0000e-07
13.250  18.000  1.0000e-07
13.250  18.250  1.0000e-07
13.250  18.500  1.0000e-07
13.250  18.750  1.0000e-07
13.250  19.000  1.0000e-07
13.250  19.250  1.0000e-07
13.250  19.500  1.3992e-06
13.250  19.750  2.9630e-06
13.250  20.000  6.7490e-06
13.250  20.250  1.5062e-05
13.250  20.500  3.2840e-05
13.250  20.750  6.8066e-05
13.250  21.000  1.3646e-04
13.250  21.250  2.6963e-04
13.250  21.500  5.2346e-04
13.250  21.750  9.9177e-04
13.250  22.000  1.8252e-03
13.250  22.250  2.9178e-03
13.250  22.500  4.0414e-03
13.250  22.750  5.0482e-03
13.250  23.000  5.8530e-03
13.250  23.250  6.5391e-03
13.250  23.500  7.0700e-03
13.250  23.750  7.4134e-03
13.250  24.000  7.6170e-03
13.500  17.000  1.0000e-07
13.500  17.250  1.0000e-07
13.500  17.500  1.0000e-07
13.500  17.750  1.0000e-07
13.500  18.000  1.0000e-07
13.500  18.250  1.0000e-07
13.500  18.500  1.0000e-07
13.500  18.750  1.0000e-07
13.500  19.000  1.0000e-07
13.500  19.250  1.0000e-07
13.500  19.500  1.0000e-07
13.500  19.750  1.3992e-06
13.500  20.000  2.9630e-06
13.500  20.250  6.6667e-06
13.500  20.500  1.5144e-05
13.500  20.750  3.3004e-05
13.500  21.000  6.8230e-05
13.500  21.250  1.3959e-04
13.500  21.500  2.7374e-04
13.500  21.750  5.3720e-04
13.500  22.000  1.0356e-03
13.500  22.250  1.9271e-03
13.500  22.500  3.0762e-03
13.500  22.750  4.2192e-03
13.500  23.000  5.1794e-03
13.500  23.250  5.9514e-03
13.500  23.500  6.6162e-03
13.500  23.750  7.1145e-03
13.500  24.000  7.4323e-03
13.750  17.000  1.0000e-07
13.750  17.250  1.0000e-07
13.750  17.500  1.0000e-07
13.750  17.750  1.0000e-07
13.750  18.000  1.0000e-07
13.750  18.250  1.0000e-07
13.750  18.500  1.0000e-07
13.750  18.750  1.0000e-07
13.750  19.000  1.0000e-07
13.750  19.250  1.0000e-07
13.750  19.500  1.0000e-07
13.750  19.750  1.0000e-07
13.750  20.000  1.4815e-06
13.750  20.250  3.1276e-06
13.750  20.500  6.8313e-06
13.750  20.750  1.5309e-05
13.750  21.000  3.3333e-05
13.750  21.250  6.8807e-05
13.750  21.500  1.3877e-04
13.750  21.750  2.7770e-04
13.750  22.000  5.4790e-04
13.750  22.250  1.0858e-03
13.750  22.500  2.0430e-03
13.750  22.750  3.2568e-03
13.750  23.000  4.4075e-03
13.750  23.250  5.2988e-03
13.750  23.500  6.0365e-03
13.750  23.750  6.6751e-03
13.750  24.000  7.1508e-03
14.000  17.000  1.0000e-07
14.000  17.250  1.0000e-07
14.000  17.500  1.0000e-07
14.000  17.750  1.0000e-07
14.000  18.000  1.0000e-07
14.000  18.250  1.0000e-07
14.000  18.500  1.0000e-07
14.000  18.750  1.0000e-07
14.000  19.000  1.0000e-07
14.000  19.250  1.0000e-07
14.000  19.500  1.0000e-07
14.000  19.750  1.0000e-07
14.000  20.000  1.0000e-07
14.000  20.250  1.5638e-06
14.000  20.500  3.2099e-06
14.000  20.750  7.1605e-06
14.000  21.000  1.5885e-05
14.000  21.250  3.4486e-05
14.000  21.500  7.0617e-05
14.000  21.750  1.4123e-04
14.000  22.000  2.8025e-04
14.000  22.250  5.6412e-04
14.000  22.500  1.1384e-03
14.000  22.750  2.1354e-03
14.000  23.000  3.4220e-03
14.000  23.250  4.5872e-03
14.000  23.500  5.4214e-03
14.000  23.750  6.1240e-03
14.000  24.000  6.7427e-03
