InwT 1458.33A  relative to Inci 1215.00A scaled to 1215A.
Hden   Phi(H)  Eq_Width (A)
7.000  17.000  1.9693e-02
7.000  17.250  1.4967e-02
7.000  17.500  1.1953e-02
7.000  17.750  1.0119e-02
7.000  18.000  9.1144e-03
7.000  18.250  8.5476e-03
7.000  18.500  8.2230e-03
7.000  18.750  8.0770e-03
7.000  19.000  8.0013e-03
7.000  19.250  7.9593e-03
7.000  19.500  7.9416e-03
7.000  19.750  7.9343e-03
7.000  20.000  7.9311e-03
7.000  20.250  7.9297e-03
7.000  20.500  7.9290e-03
7.000  20.750  7.9286e-03
7.000  21.000  7.9283e-03
7.000  21.250  7.9282e-03
7.000  21.500  7.9283e-03
7.000  21.750  7.9281e-03
7.000  22.000  7.9281e-03
7.000  22.250  7.9281e-03
7.000  22.500  7.9281e-03
7.000  22.750  7.9283e-03
7.000  23.000  7.9283e-03
7.000  23.250  7.9281e-03
7.000  23.500  7.9281e-03
7.000  23.750  7.9281e-03
7.000  24.000  7.9281e-03
7.250  17.000  2.6835e-02
7.250  17.250  1.9633e-02
7.250  17.500  1.4935e-02
7.250  17.750  1.1935e-02
7.250  18.000  1.0110e-02
7.250  18.250  9.1099e-03
7.250  18.500  8.5455e-03
7.250  18.750  8.2222e-03
7.250  19.000  8.0766e-03
7.250  19.250  8.0012e-03
7.250  19.500  7.9593e-03
7.250  19.750  7.9416e-03
7.250  20.000  7.9343e-03
7.250  20.250  7.9311e-03
7.250  20.500  7.9296e-03
7.250  20.750  7.9289e-03
7.250  21.000  7.9286e-03
7.250  21.250  7.9283e-03
7.250  21.500  7.9282e-03
7.250  21.750  7.9297e-03
7.250  22.000  7.9281e-03
7.250  22.250  7.9281e-03
7.250  22.500  7.9281e-03
7.250  22.750  7.9289e-03
7.250  23.000  7.9289e-03
7.250  23.250  7.9281e-03
7.250  23.500  7.9281e-03
7.250  23.750  7.9281e-03
7.250  24.000  7.9281e-03
7.500  17.000  2.9145e-02
7.500  17.250  2.6794e-02
7.500  17.500  1.9598e-02
7.500  17.750  1.4916e-02
7.500  18.000  1.1924e-02
7.500  18.250  1.0104e-02
7.500  18.500  9.1069e-03
7.500  18.750  8.5441e-03
7.500  19.000  8.2217e-03
7.500  19.250  8.0765e-03
7.500  19.500  8.0012e-03
7.500  19.750  7.9592e-03
7.500  20.000  7.9416e-03
7.500  20.250  7.9343e-03
7.500  20.500  7.9311e-03
7.500  20.750  7.9296e-03
7.500  21.000  7.9289e-03
7.500  21.250  7.9285e-03
7.500  21.500  7.9283e-03
7.500  21.750  7.9282e-03
7.500  22.000  7.9281e-03
7.500  22.250  7.9281e-03
7.500  22.500  7.9281e-03
7.500  22.750  7.9281e-03
7.500  23.000  7.9285e-03
7.500  23.250  7.9289e-03
7.500  23.500  7.9281e-03
7.500  23.750  7.9291e-03
7.500  24.000  7.9281e-03
7.750  17.000  3.2950e-02
7.750  17.250  2.8822e-02
7.750  17.500  2.6774e-02
7.750  17.750  1.9578e-02
7.750  18.000  1.4906e-02
7.750  18.250  1.1917e-02
7.750  18.500  1.0100e-02
7.750  18.750  9.1049e-03
7.750  19.000  8.5432e-03
7.750  19.250  8.2215e-03
7.750  19.500  8.0764e-03
7.750  19.750  8.0011e-03
7.750  20.000  7.9592e-03
7.750  20.250  7.9416e-03
7.750  20.500  7.9343e-03
7.750  20.750  7.9311e-03
7.750  21.000  7.9296e-03
7.750  21.250  7.9289e-03
7.750  21.500  7.9285e-03
7.750  21.750  7.9282e-03
7.750  22.000  7.9281e-03
7.750  22.250  7.9281e-03
7.750  22.500  7.9281e-03
7.750  22.750  7.9283e-03
7.750  23.000  7.9283e-03
7.750  23.250  7.9281e-03
7.750  23.500  7.9289e-03
7.750  23.750  7.9288e-03
7.750  24.000  7.9281e-03
8.000  17.000  3.1505e-02
8.000  17.250  3.1929e-02
8.000  17.500  2.8465e-02
8.000  17.750  2.6741e-02
8.000  18.000  1.9566e-02
8.000  18.250  1.4900e-02
8.000  18.500  1.1912e-02
8.000  18.750  1.0096e-02
8.000  19.000  9.1034e-03
8.000  19.250  8.5426e-03
8.000  19.500  8.2212e-03
8.000  19.750  8.0763e-03
8.000  20.000  8.0011e-03
8.000  20.250  7.9592e-03
8.000  20.500  7.9416e-03
8.000  20.750  7.9343e-03
8.000  21.000  7.9311e-03
8.000  21.250  7.9296e-03
8.000  21.500  7.9289e-03
8.000  21.750  7.9285e-03
8.000  22.000  7.9282e-03
8.000  22.250  7.9281e-03
8.000  22.500  7.9281e-03
8.000  22.750  7.9282e-03
8.000  23.000  7.9281e-03
8.000  23.250  7.9286e-03
8.000  23.500  7.9281e-03
8.000  23.750  7.9280e-03
8.000  24.000  7.9281e-03
8.250  17.000  3.0353e-02
8.250  17.250  3.0863e-02
8.250  17.500  3.1423e-02
8.250  17.750  2.8275e-02
8.250  18.000  2.6736e-02
8.250  18.250  1.9557e-02
8.250  18.500  1.4898e-02
8.250  18.750  1.1909e-02
8.250  19.000  1.0093e-02
8.250  19.250  9.1021e-03
8.250  19.500  8.5422e-03
8.250  19.750  8.2212e-03
8.250  20.000  8.0762e-03
8.250  20.250  8.0011e-03
8.250  20.500  7.9592e-03
8.250  20.750  7.9416e-03
8.250  21.000  7.9343e-03
8.250  21.250  7.9311e-03
8.250  21.500  7.9296e-03
8.250  21.750  7.9289e-03
8.250  22.000  7.9285e-03
8.250  22.250  7.9282e-03
8.250  22.500  7.9281e-03
8.250  22.750  7.9282e-03
8.250  23.000  7.9281e-03
8.250  23.250  7.9300e-03
8.250  23.500  7.9280e-03
8.250  23.750  7.9280e-03
8.250  24.000  7.9286e-03
8.500  17.000  2.9320e-02
8.500  17.250  2.9847e-02
8.500  17.500  3.0443e-02
8.500  17.750  3.1102e-02
8.500  18.000  2.8171e-02
8.500  18.250  2.6727e-02
8.500  18.500  1.9550e-02
8.500  18.750  1.4897e-02
8.500  19.000  1.1907e-02
8.500  19.250  1.0091e-02
8.500  19.500  9.1011e-03
8.500  19.750  8.5419e-03
8.500  20.000  8.2210e-03
8.500  20.250  8.0762e-03
8.500  20.500  8.0011e-03
8.500  20.750  7.9592e-03
8.500  21.000  7.9416e-03
8.500  21.250  7.9343e-03
8.500  21.500  7.9311e-03
8.500  21.750  7.9296e-03
8.500  22.000  7.9289e-03
8.500  22.250  7.9285e-03
8.500  22.500  7.9282e-03
8.500  22.750  7.9281e-03
8.500  23.000  7.9281e-03
8.500  23.250  7.9282e-03
8.500  23.500  7.9280e-03
8.500  23.750  7.9280e-03
8.500  24.000  7.9280e-03
8.750  17.000  2.8413e-02
8.750  17.250  2.8985e-02
8.750  17.500  2.9564e-02
8.750  17.750  3.0189e-02
8.750  18.000  3.0919e-02
8.750  18.250  2.8114e-02
8.750  18.500  2.6713e-02
8.750  18.750  1.9544e-02
8.750  19.000  1.4897e-02
8.750  19.250  1.1904e-02
8.750  19.500  1.0088e-02
8.750  19.750  9.1002e-03
8.750  20.000  8.5416e-03
8.750  20.250  8.2209e-03
8.750  20.500  8.0762e-03
8.750  20.750  8.0011e-03
8.750  21.000  7.9592e-03
8.750  21.250  7.9416e-03
8.750  21.500  7.9343e-03
8.750  21.750  7.9311e-03
8.750  22.000  7.9296e-03
8.750  22.250  7.9289e-03
8.750  22.500  7.9285e-03
8.750  22.750  7.9282e-03
8.750  23.000  7.9289e-03
8.750  23.250  7.9281e-03
8.750  23.500  7.9282e-03
8.750  23.750  7.9280e-03
8.750  24.000  7.9280e-03
9.000  17.000  2.7522e-02
9.000  17.250  2.8225e-02
9.000  17.500  2.8838e-02
9.000  17.750  2.9444e-02
9.000  18.000  3.0092e-02
9.000  18.250  3.0863e-02
9.000  18.500  2.8071e-02
9.000  18.750  2.6692e-02
9.000  19.000  1.9536e-02
9.000  19.250  1.4898e-02
9.000  19.500  1.1902e-02
9.000  19.750  1.0086e-02
9.000  20.000  9.0993e-03
9.000  20.250  8.5414e-03
9.000  20.500  8.2208e-03
9.000  20.750  8.0762e-03
9.000  21.000  8.0011e-03
9.000  21.250  7.9592e-03
9.000  21.500  7.9416e-03
9.000  21.750  7.9343e-03
9.000  22.000  7.9310e-03
9.000  22.250  7.9295e-03
9.000  22.500  7.9288e-03
9.000  22.750  7.9285e-03
9.000  23.000  7.9282e-03
9.000  23.250  7.9281e-03
9.000  23.500  7.9281e-03
9.000  23.750  7.9280e-03
9.000  24.000  7.9281e-03
9.250  17.000  2.6517e-02
9.250  17.250  2.7432e-02
9.250  17.500  2.8208e-02
9.250  17.750  2.8865e-02
9.250  18.000  2.9482e-02
9.250  18.250  3.0184e-02
9.250  18.500  3.0944e-02
9.250  18.750  2.8022e-02
9.250  19.000  2.6662e-02
9.250  19.250  1.9526e-02
9.250  19.500  1.4897e-02
9.250  19.750  1.1900e-02
9.250  20.000  1.0084e-02
9.250  20.250  9.0985e-03
9.250  20.500  8.5412e-03
9.250  20.750  8.2208e-03
9.250  21.000  8.0762e-03
9.250  21.250  8.0011e-03
9.250  21.500  7.9588e-03
9.250  21.750  7.9411e-03
9.250  22.000  7.9337e-03
9.250  22.250  7.9305e-03
9.250  22.500  7.9292e-03
9.250  22.750  7.9285e-03
9.250  23.000  7.9282e-03
9.250  23.250  7.9281e-03
9.250  23.500  7.9280e-03
9.250  23.750  7.9279e-03
9.250  24.000  7.9279e-03
9.500  17.000  2.5296e-02
9.500  17.250  2.6454e-02
9.500  17.500  2.7509e-02
9.500  17.750  2.8392e-02
9.500  18.000  2.9079e-02
9.500  18.250  2.9762e-02
9.500  18.500  3.0639e-02
9.500  18.750  3.1021e-02
9.500  19.000  2.7961e-02
9.500  19.250  2.6621e-02
9.500  19.500  1.9515e-02
9.500  19.750  1.4896e-02
9.500  20.000  1.1899e-02
9.500  20.250  1.0082e-02
9.500  20.500  9.0979e-03
9.500  20.750  8.5407e-03
9.500  21.000  8.2202e-03
9.500  21.250  8.0757e-03
9.500  21.500  8.0004e-03
9.500  21.750  7.9584e-03
9.500  22.000  7.9408e-03
9.500  22.250  7.9336e-03
9.500  22.500  7.9303e-03
9.500  22.750  7.9288e-03
9.500  23.000  7.9281e-03
9.500  23.250  7.9277e-03
9.500  23.500  7.9275e-03
9.500  23.750  7.9273e-03
9.500  24.000  7.9273e-03
9.750  17.000  2.3789e-02
9.750  17.250  2.5172e-02
9.750  17.500  2.6546e-02
9.750  17.750  2.7780e-02
9.750  18.000  2.8787e-02
9.750  18.250  2.9621e-02
9.750  18.500  3.0484e-02
9.750  18.750  3.1567e-02
9.750  19.000  3.0714e-02
9.750  19.250  2.7876e-02
9.750  19.500  2.6563e-02
9.750  19.750  1.9501e-02
9.750  20.000  1.4894e-02
9.750  20.250  1.1898e-02
9.750  20.500  1.0080e-02
9.750  20.750  9.0974e-03
9.750  21.000  8.5406e-03
9.750  21.250  8.2202e-03
9.750  21.500  8.0757e-03
9.750  21.750  8.0005e-03
9.750  22.000  7.9584e-03
9.750  22.250  7.9409e-03
9.750  22.500  7.9335e-03
9.750  22.750  7.9304e-03
9.750  23.000  7.9288e-03
9.750  23.250  7.9281e-03
9.750  23.500  7.9277e-03
9.750  23.750  7.9274e-03
9.750  24.000  7.9273e-03
10.000  17.000  2.2030e-02
10.000  17.250  2.3527e-02
10.000  17.500  2.5158e-02
10.000  17.750  2.6838e-02
10.000  18.000  2.8334e-02
10.000  18.250  2.9577e-02
10.000  18.500  3.0520e-02
10.000  18.750  3.1486e-02
10.000  19.000  3.2583e-02
10.000  19.250  3.0297e-02
10.000  19.500  2.7748e-02
10.000  19.750  2.6479e-02
10.000  20.000  1.9487e-02
10.000  20.250  1.4890e-02
10.000  20.500  1.1897e-02
10.000  20.750  1.0079e-02
10.000  21.000  9.0973e-03
10.000  21.250  8.5407e-03
10.000  21.500  8.2202e-03
10.000  21.750  8.0757e-03
10.000  22.000  8.0006e-03
10.000  22.250  7.9585e-03
10.000  22.500  7.9409e-03
10.000  22.750  7.9335e-03
10.000  23.000  7.9304e-03
10.000  23.250  7.9288e-03
10.000  23.500  7.9281e-03
10.000  23.750  7.9277e-03
10.000  24.000  7.9275e-03
10.250  17.000  2.0480e-02
10.250  17.250  2.1649e-02
10.250  17.500  2.3424e-02
10.250  17.750  2.5428e-02
10.250  18.000  2.7476e-02
10.250  18.250  2.9208e-02
10.250  18.500  3.0469e-02
10.250  18.750  3.1485e-02
10.250  19.000  3.2632e-02
10.250  19.250  3.3567e-02
10.250  19.500  3.0017e-02
10.250  19.750  2.7571e-02
10.250  20.000  2.6388e-02
10.250  20.250  1.9477e-02
10.250  20.500  1.4887e-02
10.250  20.750  1.1897e-02
10.250  21.000  1.0078e-02
10.250  21.250  9.0974e-03
10.250  21.500  8.5407e-03
10.250  21.750  8.2202e-03
10.250  22.000  8.0757e-03
10.250  22.250  8.0007e-03
10.250  22.500  7.9586e-03
10.250  22.750  7.9409e-03
10.250  23.000  7.9336e-03
10.250  23.250  7.9304e-03
10.250  23.500  7.9288e-03
10.250  23.750  7.9281e-03
10.250  24.000  7.9277e-03
10.500  17.000  1.9321e-02
10.500  17.250  2.0045e-02
10.500  17.500  2.1502e-02
10.500  17.750  2.3698e-02
10.500  18.000  2.6053e-02
10.500  18.250  2.8155e-02
10.500  18.500  2.9796e-02
10.500  18.750  3.0971e-02
10.500  19.000  3.2046e-02
10.500  19.250  3.3491e-02
10.500  19.500  3.4432e-02
10.500  19.750  3.0113e-02
10.500  20.000  2.7587e-02
10.500  20.250  2.6301e-02
10.500  20.500  1.9475e-02
10.500  20.750  1.4883e-02
10.500  21.000  1.1898e-02
10.500  21.250  1.0078e-02
10.500  21.500  9.0978e-03
10.500  21.750  8.5407e-03
10.500  22.000  8.2203e-03
10.500  22.250  8.0758e-03
10.500  22.500  8.0007e-03
10.500  22.750  7.9587e-03
10.500  23.000  7.9410e-03
10.500  23.250  7.9335e-03
10.500  23.500  7.9304e-03
10.500  23.750  7.9289e-03
10.500  24.000  7.9281e-03
10.750  17.000  1.8619e-02
10.750  17.250  1.8928e-02
10.750  17.500  1.9938e-02
10.750  17.750  2.1815e-02
10.750  18.000  2.4073e-02
10.750  18.250  2.6239e-02
10.750  18.500  2.8093e-02
10.750  18.750  2.9659e-02
10.750  19.000  3.1029e-02
10.750  19.250  3.2418e-02
10.750  19.500  3.4182e-02
10.750  19.750  3.4370e-02
10.750  20.000  3.0505e-02
10.750  20.250  2.7885e-02
10.750  20.500  2.6317e-02
10.750  20.750  1.9486e-02
10.750  21.000  1.4880e-02
10.750  21.250  1.1898e-02
10.750  21.500  1.0079e-02
10.750  21.750  9.0984e-03
10.750  22.000  8.5408e-03
10.750  22.250  8.2203e-03
10.750  22.500  8.0760e-03
10.750  22.750  8.0007e-03
10.750  23.000  7.9588e-03
10.750  23.250  7.9411e-03
10.750  23.500  7.9336e-03
10.750  23.750  7.9303e-03
10.750  24.000  7.9288e-03
11.000  17.000  1.8331e-02
11.000  17.250  1.8364e-02
11.000  17.500  1.8905e-02
11.000  17.750  2.0052e-02
11.000  18.000  2.1709e-02
11.000  18.250  2.3593e-02
11.000  18.500  2.5600e-02
11.000  18.750  2.7578e-02
11.000  19.000  2.9362e-02
11.000  19.250  3.0984e-02
11.000  19.500  3.2631e-02
11.000  19.750  3.4543e-02
11.000  20.000  3.5085e-02
11.000  20.250  3.1886e-02
11.000  20.500  2.8472e-02
11.000  20.750  2.6490e-02
11.000  21.000  1.9534e-02
11.000  21.250  1.4880e-02
11.000  21.500  1.1899e-02
11.000  21.750  1.0080e-02
11.000  22.000  9.0992e-03
11.000  22.250  8.5411e-03
11.000  22.500  8.2203e-03
11.000  22.750  8.0761e-03
11.000  23.000  8.0009e-03
11.000  23.250  7.9588e-03
11.000  23.500  7.9412e-03
11.000  23.750  7.9337e-03
11.000  24.000  7.9304e-03
11.250  17.000  1.8401e-02
11.250  17.250  1.8263e-02
11.250  17.500  1.8309e-02
11.250  17.750  1.8641e-02
11.250  18.000  1.9419e-02
11.250  18.250  2.0738e-02
11.250  18.500  2.2664e-02
11.250  18.750  2.4906e-02
11.250  19.000  2.7099e-02
11.250  19.250  2.9056e-02
11.250  19.500  3.0846e-02
11.250  19.750  3.2687e-02
11.250  20.000  3.4890e-02
11.250  20.250  3.5790e-02
11.250  20.500  3.2590e-02
11.250  20.750  2.9458e-02
11.250  21.000  2.6984e-02
11.250  21.250  1.9618e-02
11.250  21.500  1.4886e-02
11.250  21.750  1.1899e-02
11.250  22.000  1.0081e-02
11.250  22.250  9.1002e-03
11.250  22.500  8.5413e-03
11.250  22.750  8.2202e-03
11.250  23.000  8.0762e-03
11.250  23.250  8.0011e-03
11.250  23.500  7.9588e-03
11.250  23.750  7.9412e-03
11.250  24.000  7.9337e-03
11.500  17.000  1.8826e-02
11.500  17.250  1.8443e-02
11.500  17.500  1.8027e-02
11.500  17.750  1.7671e-02
11.500  18.000  1.7609e-02
11.500  18.250  1.8234e-02
11.500  18.500  1.9720e-02
11.500  18.750  2.1936e-02
11.500  19.000  2.4448e-02
11.500  19.250  2.6720e-02
11.500  19.500  2.8757e-02
11.500  19.750  3.0783e-02
11.500  20.000  3.2936e-02
11.500  20.250  3.5317e-02
11.500  20.500  3.7293e-02
11.500  20.750  3.4334e-02
11.500  21.000  3.1006e-02
11.500  21.250  2.7607e-02
11.500  21.500  1.9739e-02
11.500  21.750  1.4899e-02
11.500  22.000  1.1900e-02
11.500  22.250  1.0083e-02
11.500  22.500  9.1015e-03
11.500  22.750  8.5418e-03
11.500  23.000  8.2201e-03
11.500  23.250  8.0762e-03
11.500  23.500  8.0012e-03
11.500  23.750  7.9588e-03
11.500  24.000  7.9412e-03
11.750  17.000  1.9581e-02
11.750  17.250  1.8785e-02
11.750  17.500  1.7926e-02
11.750  17.750  1.7051e-02
11.750  18.000  1.6444e-02
11.750  18.250  1.6453e-02
11.750  18.500  1.7327e-02
11.750  18.750  1.9128e-02
11.750  19.000  2.1589e-02
11.750  19.250  2.4190e-02
11.750  19.500  2.6507e-02
11.750  19.750  2.8727e-02
11.750  20.000  3.1075e-02
11.750  20.250  3.3671e-02
11.750  20.500  3.6827e-02
11.750  20.750  3.9055e-02
11.750  21.000  3.6545e-02
11.750  21.250  3.3461e-02
11.750  21.500  2.8055e-02
11.750  21.750  1.9878e-02
11.750  22.000  1.4922e-02
11.750  22.250  1.1899e-02
11.750  22.500  1.0085e-02
11.750  22.750  9.1029e-03
11.750  23.000  8.5423e-03
11.750  23.250  8.2200e-03
11.750  23.500  8.0761e-03
11.750  23.750  8.0012e-03
11.750  24.000  7.9591e-03
12.000  17.000  2.0575e-02
12.000  17.250  1.9231e-02
12.000  17.500  1.7894e-02
12.000  17.750  1.6662e-02
12.000  18.000  1.5792e-02
12.000  18.250  1.5443e-02
12.000  18.500  1.5809e-02
12.000  18.750  1.6957e-02
12.000  19.000  1.8938e-02
12.000  19.250  2.1543e-02
12.000  19.500  2.4214e-02
12.000  19.750  2.6644e-02
12.000  20.000  2.9166e-02
12.000  20.250  3.1896e-02
12.000  20.500  3.4919e-02
12.000  20.750  3.8451e-02
12.000  21.000  4.1460e-02
12.000  21.250  4.0550e-02
12.000  21.500  3.7088e-02
12.000  21.750  2.8409e-02
12.000  22.000  2.0026e-02
12.000  22.250  1.4951e-02
12.000  22.500  1.1897e-02
12.000  22.750  1.0087e-02
12.000  23.000  9.1044e-03
12.000  23.250  8.5430e-03
12.000  23.500  8.2198e-03
12.000  23.750  8.0761e-03
12.000  24.000  8.0012e-03
12.250  17.000  2.1705e-02
12.250  17.250  1.9677e-02
12.250  17.500  1.7854e-02
12.250  17.750  1.6403e-02
12.250  18.000  1.5445e-02
12.250  18.250  1.5039e-02
12.250  18.500  1.5144e-02
12.250  18.750  1.5754e-02
12.250  19.000  1.7022e-02
12.250  19.250  1.9139e-02
12.250  19.500  2.1858e-02
12.250  19.750  2.4653e-02
12.250  20.000  2.7295e-02
12.250  20.250  3.0183e-02
12.250  20.500  3.3408e-02
12.250  20.750  3.7067e-02
12.250  21.000  4.1656e-02
12.250  21.250  4.6028e-02
12.250  21.500  4.5855e-02
12.250  21.750  4.1092e-02
12.250  22.000  2.8742e-02
12.250  22.250  2.0087e-02
12.250  22.500  1.4952e-02
12.250  22.750  1.1892e-02
12.250  23.000  1.0089e-02
12.250  23.250  9.1058e-03
12.250  23.500  8.5436e-03
12.250  23.750  8.2195e-03
12.250  24.000  8.0760e-03
12.500  17.000  2.2622e-02
12.500  17.250  1.9898e-02
12.500  17.500  1.7748e-02
12.500  17.750  1.6237e-02
12.500  18.000  1.5364e-02
12.500  18.250  1.4998e-02
12.500  18.500  1.5035e-02
12.500  18.750  1.5404e-02
12.500  19.000  1.6288e-02
12.500  19.250  1.7727e-02
12.500  19.500  1.9710e-02
12.500  19.750  2.2221e-02
12.500  20.000  2.5247e-02
12.500  20.250  2.8774e-02
12.500  20.500  3.2788e-02
12.500  20.750  3.7276e-02
12.500  21.000  4.2223e-02
12.500  21.250  4.7616e-02
12.500  21.500  5.2407e-02
12.500  21.750  5.1947e-02
12.500  22.000  4.3230e-02
12.500  22.250  2.8960e-02
12.500  22.500  2.0190e-02
12.500  22.750  1.4978e-02
12.500  23.000  1.1884e-02
12.500  23.250  1.0090e-02
12.500  23.500  9.1071e-03
12.500  23.750  8.5443e-03
12.500  24.000  8.2191e-03
12.750  17.000  1.9373e-02
12.750  17.250  1.9715e-02
12.750  17.500  1.7744e-02
12.750  17.750  1.6275e-02
12.750  18.000  1.6052e-02
12.750  18.250  1.6928e-02
12.750  18.500  1.8753e-02
12.750  18.750  2.1379e-02
12.750  19.000  2.4658e-02
12.750  19.250  2.8442e-02
12.750  19.500  3.2580e-02
12.750  19.750  3.6926e-02
12.750  20.000  4.1331e-02
12.750  20.250  4.5645e-02
12.750  20.500  4.9721e-02
12.750  20.750  5.3409e-02
12.750  21.000  5.6563e-02
12.750  21.250  5.9032e-02
12.750  21.500  6.0668e-02
12.750  21.750  6.1323e-02
12.750  22.000  5.8265e-02
12.750  22.250  4.4057e-02
12.750  22.500  2.9241e-02
12.750  22.750  2.0304e-02
12.750  23.000  1.4988e-02
12.750  23.250  1.1874e-02
12.750  23.500  1.0090e-02
12.750  23.750  9.1081e-03
12.750  24.000  8.5449e-03
13.000  17.000  1.3457e-02
13.000  17.250  1.6571e-02
13.000  17.500  1.7512e-02
13.000  17.750  1.6847e-02
13.000  18.000  1.5993e-02
13.000  18.250  1.5603e-02
13.000  18.500  1.5578e-02
13.000  18.750  1.7035e-02
13.000  19.000  2.0053e-02
13.000  19.250  2.4334e-02
13.000  19.500  2.9579e-02
13.000  19.750  3.5492e-02
13.000  20.000  4.1774e-02
13.000  20.250  4.8128e-02
13.000  20.500  5.4255e-02
13.000  20.750  5.9859e-02
13.000  21.000  6.4641e-02
13.000  21.250  6.8304e-02
13.000  21.500  7.0550e-02
13.000  21.750  7.1080e-02
13.000  22.000  6.9598e-02
13.000  22.250  6.3056e-02
13.000  22.500  4.4699e-02
13.000  22.750  2.9454e-02
13.000  23.000  2.0365e-02
13.000  23.250  1.4985e-02
13.000  23.500  1.1860e-02
13.000  23.750  1.0089e-02
13.000  24.000  9.1085e-03
13.250  17.000  1.1358e-02
13.250  17.250  1.3705e-02
13.250  17.500  1.7739e-02
13.250  17.750  1.7812e-02
13.250  18.000  1.6782e-02
13.250  18.250  1.6254e-02
13.250  18.500  1.6127e-02
13.250  18.750  1.6321e-02
13.250  19.000  1.8487e-02
13.250  19.250  2.2726e-02
13.250  19.500  2.8599e-02
13.250  19.750  3.5670e-02
13.250  20.000  4.3502e-02
13.250  20.250  5.1658e-02
13.250  20.500  5.9702e-02
13.250  20.750  6.7196e-02
13.250  21.000  7.3703e-02
13.250  21.250  7.8786e-02
13.250  21.500  8.2009e-02
13.250  21.750  8.2935e-02
13.250  22.000  8.1126e-02
13.250  22.250  7.6146e-02
13.250  22.500  6.5568e-02
13.250  22.750  4.5297e-02
13.250  23.000  2.9650e-02
13.250  23.250  2.0337e-02
13.250  23.500  1.4959e-02
13.250  23.750  1.1845e-02
13.250  24.000  1.0086e-02
13.500  17.000  1.0066e-02
13.500  17.250  1.1978e-02
13.500  17.500  1.5476e-02
13.500  17.750  1.7831e-02
13.500  18.000  1.7866e-02
13.500  18.250  1.8952e-02
13.500  18.500  2.1798e-02
13.500  18.750  2.6126e-02
13.500  19.000  3.1654e-02
13.500  19.250  3.8103e-02
13.500  19.500  4.5193e-02
13.500  19.750  5.2645e-02
13.500  20.000  6.0179e-02
13.500  20.250  6.7515e-02
13.500  20.500  7.4373e-02
13.500  20.750  8.0473e-02
13.500  21.000  8.5536e-02
13.500  21.250  8.9282e-02
13.500  21.500  9.1431e-02
13.500  21.750  9.1704e-02
13.500  22.000  8.9820e-02
13.500  22.250  8.5499e-02
13.500  22.500  7.8463e-02
13.500  22.750  6.6528e-02
13.500  23.000  4.5821e-02
13.500  23.250  2.9858e-02
13.500  23.500  2.0429e-02
13.500  23.750  1.4954e-02
13.500  24.000  1.1828e-02
13.750  17.000  9.3746e-03
13.750  17.250  1.0872e-02
13.750  17.500  1.3993e-02
13.750  17.750  1.6667e-02
13.750  18.000  1.9021e-02
13.750  18.250  2.2525e-02
13.750  18.500  2.7334e-02
13.750  18.750  3.3214e-02
13.750  19.000  3.9928e-02
13.750  19.250  4.7244e-02
13.750  19.500  5.4926e-02
13.750  19.750  6.2739e-02
13.750  20.000  7.0450e-02
13.750  20.250  7.7822e-02
13.750  20.500  8.4622e-02
13.750  20.750  9.0615e-02
13.750  21.000  9.5567e-02
13.750  21.250  9.9241e-02
13.750  21.500  1.0141e-01
13.750  21.750  1.0182e-01
13.750  22.000  1.0026e-01
13.750  22.250  9.6483e-02
13.750  22.500  9.0256e-02
13.750  22.750  8.1345e-02
13.750  23.000  6.7774e-02
13.750  23.250  4.6251e-02
13.750  23.500  2.9965e-02
13.750  23.750  2.0433e-02
13.750  24.000  1.4924e-02
14.000  17.000  8.9274e-03
14.000  17.250  1.0279e-02
14.000  17.500  1.2900e-02
14.000  17.750  1.5704e-02
14.000  18.000  1.8530e-02
14.000  18.250  1.9661e-02
14.000  18.500  1.8895e-02
14.000  18.750  1.7582e-02
14.000  19.000  1.6209e-02
14.000  19.250  1.4961e-02
14.000  19.500  1.4024e-02
14.000  19.750  1.3582e-02
14.000  20.000  1.3819e-02
14.000  20.250  1.4921e-02
14.000  20.500  1.7072e-02
14.000  20.750  2.0457e-02
14.000  21.000  2.5261e-02
14.000  21.250  3.1669e-02
14.000  21.500  3.9865e-02
14.000  21.750  5.0034e-02
14.000  22.000  6.2362e-02
14.000  22.250  7.7032e-02
14.000  22.500  8.9679e-02
14.000  22.750  8.7687e-02
14.000  23.000  8.4269e-02
14.000  23.250  6.9637e-02
14.000  23.500  4.6594e-02
14.000  23.750  3.0023e-02
14.000  24.000  2.0415e-02
