InwT 1073.86A  relative to Inci 1215.00A scaled to 1215A.
Hden   Phi(H)  Eq_Width (A)
7.000  17.000  1.4925e-02
7.000  17.250  1.3190e-02
7.000  17.500  1.1634e-02
7.000  17.750  1.0264e-02
7.000  18.000  9.3048e-03
7.000  18.250  8.7290e-03
7.000  18.500  8.3706e-03
7.000  18.750  8.1943e-03
7.000  19.000  8.1014e-03
7.000  19.250  8.0491e-03
7.000  19.500  8.0267e-03
7.000  19.750  8.0174e-03
7.000  20.000  8.0133e-03
7.000  20.250  8.0113e-03
7.000  20.500  8.0104e-03
7.000  20.750  8.0098e-03
7.000  21.000  8.0095e-03
7.000  21.250  8.0094e-03
7.000  21.500  8.0095e-03
7.000  21.750  8.0092e-03
7.000  22.000  8.0092e-03
7.000  22.250  8.0092e-03
7.000  22.500  8.0092e-03
7.000  22.750  8.0095e-03
7.000  23.000  8.0095e-03
7.000  23.250  8.0092e-03
7.000  23.500  8.0092e-03
7.000  23.750  8.0092e-03
7.000  24.000  8.0092e-03
7.250  17.000  1.6670e-02
7.250  17.250  1.4806e-02
7.250  17.500  1.3132e-02
7.250  17.750  1.1607e-02
7.250  18.000  1.0248e-02
7.250  18.250  9.2961e-03
7.250  18.500  8.7248e-03
7.250  18.750  8.3692e-03
7.250  19.000  8.1938e-03
7.250  19.250  8.1012e-03
7.250  19.500  8.0491e-03
7.250  19.750  8.0267e-03
7.250  20.000  8.0173e-03
7.250  20.250  8.0132e-03
7.250  20.500  8.0113e-03
7.250  20.750  8.0103e-03
7.250  21.000  8.0098e-03
7.250  21.250  8.0095e-03
7.250  21.500  8.0094e-03
7.250  21.750  8.0109e-03
7.250  22.000  8.0093e-03
7.250  22.250  8.0092e-03
7.250  22.500  8.0092e-03
7.250  22.750  8.0100e-03
7.250  23.000  8.0100e-03
7.250  23.250  8.0092e-03
7.250  23.500  8.0092e-03
7.250  23.750  8.0092e-03
7.250  24.000  8.0092e-03
7.500  17.000  1.7535e-02
7.500  17.250  1.6551e-02
7.500  17.500  1.4738e-02
7.500  17.750  1.3100e-02
7.500  18.000  1.1593e-02
7.500  18.250  1.0239e-02
7.500  18.500  9.2909e-03
7.500  18.750  8.7221e-03
7.500  19.000  8.3682e-03
7.500  19.250  8.1935e-03
7.500  19.500  8.1011e-03
7.500  19.750  8.0490e-03
7.500  20.000  8.0267e-03
7.500  20.250  8.0174e-03
7.500  20.500  8.0132e-03
7.500  20.750  8.0113e-03
7.500  21.000  8.0103e-03
7.500  21.250  8.0098e-03
7.500  21.500  8.0095e-03
7.500  21.750  8.0094e-03
7.500  22.000  8.0093e-03
7.500  22.250  8.0092e-03
7.500  22.500  8.0092e-03
7.500  22.750  8.0092e-03
7.500  23.000  8.0096e-03
7.500  23.250  8.0100e-03
7.500  23.500  8.0092e-03
7.500  23.750  8.0102e-03
7.500  24.000  8.0092e-03
7.750  17.000  1.9274e-02
7.750  17.250  1.6740e-02
7.750  17.500  1.6485e-02
7.750  17.750  1.4698e-02
7.750  18.000  1.3084e-02
7.750  18.250  1.1589e-02
7.750  18.500  1.0234e-02
7.750  18.750  9.2877e-03
7.750  19.000  8.7206e-03
7.750  19.250  8.3677e-03
7.750  19.500  8.1933e-03
7.750  19.750  8.1010e-03
7.750  20.000  8.0490e-03
7.750  20.250  8.0267e-03
7.750  20.500  8.0173e-03
7.750  20.750  8.0132e-03
7.750  21.000  8.0113e-03
7.750  21.250  8.0103e-03
7.750  21.500  8.0098e-03
7.750  21.750  8.0095e-03
7.750  22.000  8.0093e-03
7.750  22.250  8.0093e-03
7.750  22.500  8.0092e-03
7.750  22.750  8.0095e-03
7.750  23.000  8.0095e-03
7.750  23.250  8.0092e-03
7.750  23.500  8.0100e-03
7.750  23.750  8.0100e-03
7.750  24.000  8.0092e-03
8.000  17.000  1.9456e-02
8.000  17.250  1.7550e-02
8.000  17.500  1.6121e-02
8.000  17.750  1.6441e-02
8.000  18.000  1.4674e-02
8.000  18.250  1.3078e-02
8.000  18.500  1.1591e-02
8.000  18.750  1.0232e-02
8.000  19.000  9.2859e-03
8.000  19.250  8.7196e-03
8.000  19.500  8.3672e-03
8.000  19.750  8.1931e-03
8.000  20.000  8.1010e-03
8.000  20.250  8.0490e-03
8.000  20.500  8.0267e-03
8.000  20.750  8.0173e-03
8.000  21.000  8.0132e-03
8.000  21.250  8.0113e-03
8.000  21.500  8.0103e-03
8.000  21.750  8.0097e-03
8.000  22.000  8.0095e-03
8.000  22.250  8.0093e-03
8.000  22.500  8.0092e-03
8.000  22.750  8.0094e-03
8.000  23.000  8.0092e-03
8.000  23.250  8.0097e-03
8.000  23.500  8.0091e-03
8.000  23.750  8.0091e-03
8.000  24.000  8.0092e-03
8.250  17.000  1.9492e-02
8.250  17.250  1.7978e-02
8.250  17.500  1.6379e-02
8.250  17.750  1.5649e-02
8.250  18.000  1.6415e-02
8.250  18.250  1.4657e-02
8.250  18.500  1.3078e-02
8.250  18.750  1.1597e-02
8.250  19.000  1.0232e-02
8.250  19.250  9.2849e-03
8.250  19.500  8.7189e-03
8.250  19.750  8.3670e-03
8.250  20.000  8.1930e-03
8.250  20.250  8.1009e-03
8.250  20.500  8.0490e-03
8.250  20.750  8.0267e-03
8.250  21.000  8.0173e-03
8.250  21.250  8.0132e-03
8.250  21.500  8.0113e-03
8.250  21.750  8.0103e-03
8.250  22.000  8.0097e-03
8.250  22.250  8.0095e-03
8.250  22.500  8.0093e-03
8.250  22.750  8.0095e-03
8.250  23.000  8.0092e-03
8.250  23.250  8.0113e-03
8.250  23.500  8.0091e-03
8.250  23.750  8.0091e-03
8.250  24.000  8.0097e-03
8.500  17.000  1.9414e-02
8.500  17.250  1.8292e-02
8.500  17.500  1.6986e-02
8.500  17.750  1.5611e-02
8.500  18.000  1.5367e-02
8.500  18.250  1.6389e-02
8.500  18.500  1.4643e-02
8.500  18.750  1.3081e-02
8.500  19.000  1.1605e-02
8.500  19.250  1.0233e-02
8.500  19.500  9.2844e-03
8.500  19.750  8.6968e-03
8.500  20.000  8.3639e-03
8.500  20.250  8.1929e-03
8.500  20.500  8.1009e-03
8.500  20.750  8.0490e-03
8.500  21.000  8.0267e-03
8.500  21.250  8.0173e-03
8.500  21.500  8.0132e-03
8.500  21.750  8.0113e-03
8.500  22.000  8.0103e-03
8.500  22.250  8.0097e-03
8.500  22.500  8.0095e-03
8.500  22.750  8.0093e-03
8.500  23.000  8.0092e-03
8.500  23.250  8.0094e-03
8.500  23.500  8.0091e-03
8.500  23.750  8.0091e-03
8.500  24.000  8.0091e-03
8.750  17.000  1.9346e-02
8.750  17.250  1.8523e-02
8.750  17.500  1.7525e-02
8.750  17.750  1.6376e-02
8.750  18.000  1.5124e-02
8.750  18.250  1.5201e-02
8.750  18.500  1.6362e-02
8.750  18.750  1.4629e-02
8.750  19.000  1.3086e-02
8.750  19.250  1.1615e-02
8.750  19.500  1.0235e-02
8.750  19.750  9.2841e-03
8.750  20.000  8.7183e-03
8.750  20.250  8.3667e-03
8.750  20.500  8.1929e-03
8.750  20.750  8.1009e-03
8.750  21.000  8.0490e-03
8.750  21.250  8.0267e-03
8.750  21.500  8.0173e-03
8.750  21.750  8.0132e-03
8.750  22.000  8.0113e-03
8.750  22.250  8.0103e-03
8.750  22.500  8.0097e-03
8.750  22.750  8.0095e-03
8.750  23.000  8.0101e-03
8.750  23.250  8.0092e-03
8.750  23.500  8.0094e-03
8.750  23.750  8.0091e-03
8.750  24.000  8.0091e-03
9.000  17.000  1.9301e-02
9.000  17.250  1.8709e-02
9.000  17.500  1.7962e-02
9.000  17.750  1.7017e-02
9.000  18.000  1.5925e-02
9.000  18.250  1.4792e-02
9.000  18.500  1.5088e-02
9.000  18.750  1.6330e-02
9.000  19.000  1.4613e-02
9.000  19.250  1.3091e-02
9.000  19.500  1.1626e-02
9.000  19.750  1.0237e-02
9.000  20.000  9.2840e-03
9.000  20.250  8.7180e-03
9.000  20.500  8.3667e-03
9.000  20.750  8.1929e-03
9.000  21.000  8.1009e-03
9.000  21.250  8.0490e-03
9.000  21.500  8.0267e-03
9.000  21.750  8.0173e-03
9.000  22.000  8.0132e-03
9.000  22.250  8.0112e-03
9.000  22.500  8.0102e-03
9.000  22.750  8.0097e-03
9.000  23.000  8.0095e-03
9.000  23.250  8.0093e-03
9.000  23.500  8.0092e-03
9.000  23.750  8.0091e-03
9.000  24.000  8.0092e-03
9.250  17.000  1.9281e-02
9.250  17.250  1.8851e-02
9.250  17.500  1.8317e-02
9.250  17.750  1.7579e-02
9.250  18.000  1.6631e-02
9.250  18.250  1.5563e-02
9.250  18.500  1.4499e-02
9.250  18.750  1.5007e-02
9.250  19.000  1.6294e-02
9.250  19.250  1.4593e-02
9.250  19.500  1.3092e-02
9.250  19.750  1.1636e-02
9.250  20.000  1.0239e-02
9.250  20.250  9.2840e-03
9.250  20.500  8.7179e-03
9.250  20.750  8.3666e-03
9.250  21.000  8.1929e-03
9.250  21.250  8.1009e-03
9.250  21.500  8.0485e-03
9.250  21.750  8.0262e-03
9.250  22.000  8.0166e-03
9.250  22.250  8.0127e-03
9.250  22.500  8.0109e-03
9.250  22.750  8.0099e-03
9.250  23.000  8.0095e-03
9.250  23.250  8.0093e-03
9.250  23.500  8.0091e-03
9.250  23.750  8.0091e-03
9.250  24.000  8.0091e-03
9.500  17.000  1.9296e-02
9.500  17.250  1.8948e-02
9.500  17.500  1.8586e-02
9.500  17.750  1.8061e-02
9.500  18.000  1.7275e-02
9.500  18.250  1.6245e-02
9.500  18.500  1.5118e-02
9.500  18.750  1.4180e-02
9.500  19.000  1.4943e-02
9.500  19.250  1.6253e-02
9.500  19.500  1.4570e-02
9.500  19.750  1.3088e-02
9.500  20.000  1.1643e-02
9.500  20.250  1.0241e-02
9.500  20.500  9.2840e-03
9.500  20.750  8.7174e-03
9.500  21.000  8.3660e-03
9.500  21.250  8.1924e-03
9.500  21.500  8.1002e-03
9.500  21.750  8.0481e-03
9.500  22.000  8.0259e-03
9.500  22.250  8.0165e-03
9.500  22.500  8.0123e-03
9.500  22.750  8.0105e-03
9.500  23.000  8.0095e-03
9.500  23.250  8.0090e-03
9.500  23.500  8.0087e-03
9.500  23.750  8.0086e-03
9.500  24.000  8.0085e-03
9.750  17.000  1.9396e-02
9.750  17.250  1.9030e-02
9.750  17.500  1.8767e-02
9.750  17.750  1.8431e-02
9.750  18.000  1.7841e-02
9.750  18.250  1.6933e-02
9.750  18.500  1.5742e-02
9.750  18.750  1.4432e-02
9.750  19.000  1.4074e-02
9.750  19.250  1.4887e-02
9.750  19.500  1.6209e-02
9.750  19.750  1.4543e-02
9.750  20.000  1.3079e-02
9.750  20.250  1.1648e-02
9.750  20.500  1.0242e-02
9.750  20.750  9.2840e-03
9.750  21.000  8.7174e-03
9.750  21.250  8.3660e-03
9.750  21.500  8.1924e-03
9.750  21.750  8.1003e-03
9.750  22.000  8.0482e-03
9.750  22.250  8.0260e-03
9.750  22.500  8.0165e-03
9.750  22.750  8.0124e-03
9.750  23.000  8.0105e-03
9.750  23.250  8.0095e-03
9.750  23.500  8.0089e-03
9.750  23.750  8.0086e-03
9.750  24.000  8.0085e-03
10.000  17.000  1.9649e-02
10.000  17.250  1.9161e-02
10.000  17.500  1.8886e-02
10.000  17.750  1.8674e-02
10.000  18.000  1.8302e-02
10.000  18.250  1.7593e-02
10.000  18.500  1.6498e-02
10.000  18.750  1.5166e-02
10.000  19.000  1.3926e-02
10.000  19.250  1.3954e-02
10.000  19.500  1.4831e-02
10.000  19.750  1.6163e-02
10.000  20.000  1.4516e-02
10.000  20.250  1.3067e-02
10.000  20.500  1.1650e-02
10.000  20.750  1.0243e-02
10.000  21.000  9.2841e-03
10.000  21.250  8.7175e-03
10.000  21.500  8.3659e-03
10.000  21.750  8.1924e-03
10.000  22.000  8.1004e-03
10.000  22.250  8.0483e-03
10.000  22.500  8.0259e-03
10.000  22.750  8.0165e-03
10.000  23.000  8.0124e-03
10.000  23.250  8.0105e-03
10.000  23.500  8.0095e-03
10.000  23.750  8.0090e-03
10.000  24.000  8.0087e-03
10.250  17.000  2.0152e-02
10.250  17.250  1.9442e-02
10.250  17.500  1.9047e-02
10.250  17.750  1.8846e-02
10.250  18.000  1.8637e-02
10.250  18.250  1.8167e-02
10.250  18.500  1.7295e-02
10.250  18.750  1.6031e-02
10.250  19.000  1.4521e-02
10.250  19.250  1.3283e-02
10.250  19.500  1.3904e-02
10.250  19.750  1.4783e-02
10.250  20.000  1.6140e-02
10.250  20.250  1.4500e-02
10.250  20.500  1.3052e-02
10.250  20.750  1.1649e-02
10.250  21.000  1.0244e-02
10.250  21.250  9.2841e-03
10.250  21.500  8.7175e-03
10.250  21.750  8.3660e-03
10.250  22.000  8.1924e-03
10.250  22.250  8.1005e-03
10.250  22.500  8.0484e-03
10.250  22.750  8.0259e-03
10.250  23.000  8.0165e-03
10.250  23.250  8.0124e-03
10.250  23.500  8.0105e-03
10.250  23.750  8.0095e-03
10.250  24.000  8.0090e-03
10.500  17.000  2.0913e-02
10.500  17.250  1.9976e-02
10.500  17.500  1.9371e-02
10.500  17.750  1.9085e-02
10.500  18.000  1.8922e-02
10.500  18.250  1.8631e-02
10.500  18.500  1.8016e-02
10.500  18.750  1.6988e-02
10.500  19.000  1.5588e-02
10.500  19.250  1.4514e-02
10.500  19.500  1.3976e-02
10.500  19.750  1.4007e-02
10.500  20.000  1.4847e-02
10.500  20.250  1.6150e-02
10.500  20.500  1.4501e-02
10.500  20.750  1.3040e-02
10.500  21.000  1.1647e-02
10.500  21.250  1.0244e-02
10.500  21.500  9.2842e-03
10.500  21.750  8.7176e-03
10.500  22.000  8.3661e-03
10.500  22.250  8.1925e-03
10.500  22.500  8.1005e-03
10.500  22.750  8.0485e-03
10.500  23.000  8.0261e-03
10.500  23.250  8.0165e-03
10.500  23.500  8.0124e-03
10.500  23.750  8.0105e-03
10.500  24.000  8.0095e-03
10.750  17.000  2.1909e-02
10.750  17.250  2.0772e-02
10.750  17.500  1.9978e-02
10.750  17.750  1.9538e-02
10.750  18.000  1.9313e-02
10.750  18.250  1.9074e-02
10.750  18.500  1.8641e-02
10.750  18.750  1.7874e-02
10.750  19.000  1.6721e-02
10.750  19.250  1.5215e-02
10.750  19.500  1.4287e-02
10.750  19.750  1.4033e-02
10.750  20.000  1.4265e-02
10.750  20.250  1.5080e-02
10.750  20.500  1.6277e-02
10.750  20.750  1.4531e-02
10.750  21.000  1.3033e-02
10.750  21.250  1.1641e-02
10.750  21.500  1.0244e-02
10.750  21.750  9.2842e-03
10.750  22.000  8.7176e-03
10.750  22.250  8.3661e-03
10.750  22.500  8.1928e-03
10.750  22.750  8.1006e-03
10.750  23.000  8.0485e-03
10.750  23.250  8.0262e-03
10.750  23.500  8.0166e-03
10.750  23.750  8.0124e-03
10.750  24.000  8.0105e-03
11.000  17.000  2.3112e-02
11.000  17.250  2.1799e-02
11.000  17.500  2.0860e-02
11.000  17.750  2.0297e-02
11.000  18.000  1.9937e-02
11.000  18.250  1.9596e-02
11.000  18.500  1.9197e-02
11.000  18.750  1.8614e-02
11.000  19.000  1.7724e-02
11.000  19.250  1.6481e-02
11.000  19.500  1.5529e-02
11.000  19.750  1.4992e-02
11.000  20.000  1.4806e-02
11.000  20.250  1.4907e-02
11.000  20.500  1.5522e-02
11.000  20.750  1.6555e-02
11.000  21.000  1.4643e-02
11.000  21.250  1.3039e-02
11.000  21.500  1.1635e-02
11.000  21.750  1.0243e-02
11.000  22.000  9.2841e-03
11.000  22.250  8.7178e-03
11.000  22.500  8.3661e-03
11.000  22.750  8.1928e-03
11.000  23.000  8.1007e-03
11.000  23.250  8.0486e-03
11.000  23.500  8.0263e-03
11.000  23.750  8.0167e-03
11.000  24.000  8.0125e-03
11.250  17.000  2.4476e-02
11.250  17.250  2.3003e-02
11.250  17.500  2.1957e-02
11.250  17.750  2.1321e-02
11.250  18.000  2.0844e-02
11.250  18.250  2.0302e-02
11.250  18.500  1.9769e-02
11.250  18.750  1.9275e-02
11.250  19.000  1.8612e-02
11.250  19.250  1.7808e-02
11.250  19.500  1.6973e-02
11.250  19.750  1.6214e-02
11.250  20.000  1.5640e-02
11.250  20.250  1.5358e-02
11.250  20.500  1.5476e-02
11.250  20.750  1.6246e-02
11.250  21.000  1.7134e-02
11.250  21.250  1.4840e-02
11.250  21.500  1.3075e-02
11.250  21.750  1.1627e-02
11.250  22.000  1.0241e-02
11.250  22.250  9.2840e-03
11.250  22.500  8.7179e-03
11.250  22.750  8.3660e-03
11.250  23.000  8.1929e-03
11.250  23.250  8.1009e-03
11.250  23.500  8.0486e-03
11.250  23.750  8.0263e-03
11.250  24.000  8.0168e-03
11.500  17.000  2.5912e-02
11.500  17.250  2.4322e-02
11.500  17.500  2.3202e-02
11.500  17.750  2.2511e-02
11.500  18.000  2.1941e-02
11.500  18.250  2.1255e-02
11.500  18.500  2.0463e-02
11.500  18.750  1.9616e-02
11.500  19.000  1.8761e-02
11.500  19.250  1.7944e-02
11.500  19.500  1.7214e-02
11.500  19.750  1.6617e-02
11.500  20.000  1.6199e-02
11.500  20.250  1.6008e-02
11.500  20.500  1.6091e-02
11.500  20.750  1.6494e-02
11.500  21.000  1.7344e-02
11.500  21.250  1.7885e-02
11.500  21.500  1.5143e-02
11.500  21.750  1.3145e-02
11.500  22.000  1.1621e-02
11.500  22.250  1.0240e-02
11.500  22.500  9.2840e-03
11.500  22.750  8.7181e-03
11.500  23.000  8.3659e-03
11.500  23.250  8.1929e-03
11.500  23.500  8.1010e-03
11.500  23.750  8.0486e-03
11.500  24.000  8.0263e-03
11.750  17.000  2.7173e-02
11.750  17.250  2.5598e-02
11.750  17.500  2.4473e-02
11.750  17.750  2.3737e-02
11.750  18.000  2.3065e-02
11.750  18.250  2.2391e-02
11.750  18.500  2.1728e-02
11.750  18.750  2.1090e-02
11.750  19.000  2.0490e-02
11.750  19.250  1.9941e-02
11.750  19.500  1.9456e-02
11.750  19.750  1.9049e-02
11.750  20.000  1.8733e-02
11.750  20.250  1.8521e-02
11.750  20.500  1.8426e-02
11.750  20.750  1.8462e-02
11.750  21.000  1.8643e-02
11.750  21.250  1.8980e-02
11.750  21.500  1.8649e-02
11.750  21.750  1.5524e-02
11.750  22.000  1.3273e-02
11.750  22.250  1.1621e-02
11.750  22.500  1.0237e-02
11.750  22.750  9.2837e-03
11.750  23.000  8.7184e-03
11.750  23.250  8.3658e-03
11.750  23.500  8.1928e-03
11.750  23.750  8.1011e-03
11.750  24.000  8.0488e-03
12.000  17.000  2.7959e-02
12.000  17.250  2.6543e-02
12.000  17.500  2.5542e-02
12.000  17.750  2.4843e-02
12.000  18.000  2.4179e-02
12.000  18.250  2.3457e-02
12.000  18.500  2.2595e-02
12.000  18.750  2.1628e-02
12.000  19.000  2.0605e-02
12.000  19.250  1.9590e-02
12.000  19.500  1.8651e-02
12.000  19.750  1.7858e-02
12.000  20.000  1.7280e-02
12.000  20.250  1.6987e-02
12.000  20.500  1.7046e-02
12.000  20.750  1.7527e-02
12.000  21.000  1.8500e-02
12.000  21.250  2.0033e-02
12.000  21.500  2.1314e-02
12.000  21.750  1.9391e-02
12.000  22.000  1.5971e-02
12.000  22.250  1.3447e-02
12.000  22.500  1.1629e-02
12.000  22.750  1.0235e-02
12.000  23.000  9.2835e-03
12.000  23.250  8.7187e-03
12.000  23.500  8.3656e-03
12.000  23.750  8.1928e-03
12.000  24.000  8.1011e-03
12.250  17.000  2.7911e-02
12.250  17.250  2.6867e-02
12.250  17.500  2.6169e-02
12.250  17.750  2.5667e-02
12.250  18.000  2.5122e-02
12.250  18.250  2.4457e-02
12.250  18.500  2.3636e-02
12.250  18.750  2.2709e-02
12.250  19.000  2.1645e-02
12.250  19.250  2.0629e-02
12.250  19.500  1.9811e-02
12.250  19.750  1.9131e-02
12.250  20.000  1.8448e-02
12.250  20.250  1.7775e-02
12.250  20.500  1.7003e-02
12.250  20.750  1.5969e-02
12.250  21.000  1.7002e-02
12.250  21.250  2.0122e-02
12.250  21.500  2.2960e-02
12.250  21.750  2.4018e-02
12.250  22.000  2.0177e-02
12.250  22.250  1.6253e-02
12.250  22.500  1.3528e-02
12.250  22.750  1.1647e-02
12.250  23.000  1.0233e-02
12.250  23.250  9.2831e-03
12.250  23.500  8.7191e-03
12.250  23.750  8.3653e-03
12.250  24.000  8.1928e-03
12.500  17.000  2.7247e-02
12.500  17.250  2.6750e-02
12.500  17.500  2.6401e-02
12.500  17.750  2.6128e-02
12.500  18.000  2.5764e-02
12.500  18.250  2.5214e-02
12.500  18.500  2.4528e-02
12.500  18.750  2.3668e-02
12.500  19.000  2.2617e-02
12.500  19.250  2.1507e-02
12.500  19.500  2.0457e-02
12.500  19.750  1.9696e-02
12.500  20.000  1.9089e-02
12.500  20.250  1.8563e-02
12.500  20.500  1.8867e-02
12.500  20.750  1.9971e-02
12.500  21.000  2.1580e-02
12.500  21.250  2.3398e-02
12.500  21.500  2.5129e-02
12.500  21.750  2.6480e-02
12.500  22.000  2.6019e-02
12.500  22.250  2.0814e-02
12.500  22.500  1.6671e-02
12.500  22.750  1.3755e-02
12.500  23.000  1.1675e-02
12.500  23.250  1.0230e-02
12.500  23.500  9.2827e-03
12.500  23.750  8.7193e-03
12.500  24.000  8.3650e-03
12.750  17.000  2.6116e-02
12.750  17.250  2.6537e-02
12.750  17.500  2.6361e-02
12.750  17.750  2.6173e-02
12.750  18.000  2.5974e-02
12.750  18.250  2.5638e-02
12.750  18.500  2.5095e-02
12.750  18.750  2.4389e-02
12.750  19.000  2.3487e-02
12.750  19.250  2.2389e-02
12.750  19.500  2.1225e-02
12.750  19.750  2.0220e-02
12.750  20.000  1.9538e-02
12.750  20.250  1.9090e-02
12.750  20.500  1.9009e-02
12.750  20.750  1.9410e-02
12.750  21.000  2.0383e-02
12.750  21.250  2.2018e-02
12.750  21.500  2.4404e-02
12.750  21.750  2.7633e-02
12.750  22.000  3.0379e-02
12.750  22.250  2.7665e-02
12.750  22.500  2.1657e-02
12.750  22.750  1.7176e-02
12.750  23.000  1.3945e-02
12.750  23.250  1.1707e-02
12.750  23.500  1.0229e-02
12.750  23.750  9.2822e-03
12.750  24.000  8.7196e-03
13.000  17.000  2.4030e-02
13.000  17.250  2.4904e-02
13.000  17.500  2.5315e-02
13.000  17.750  2.5524e-02
13.000  18.000  2.5555e-02
13.000  18.250  2.5482e-02
13.000  18.500  2.5202e-02
13.000  18.750  2.4690e-02
13.000  19.000  2.3980e-02
13.000  19.250  2.3064e-02
13.000  19.500  2.1956e-02
13.000  19.750  2.0844e-02
13.000  20.000  1.9926e-02
13.000  20.250  1.9361e-02
13.000  20.500  1.9398e-02
13.000  20.750  2.0071e-02
13.000  21.000  2.1347e-02
13.000  21.250  2.3194e-02
13.000  21.500  2.5579e-02
13.000  21.750  2.8471e-02
13.000  22.000  3.1838e-02
13.000  22.250  3.3914e-02
13.000  22.500  2.9188e-02
13.000  22.750  2.2416e-02
13.000  23.000  1.7559e-02
13.000  23.250  1.4113e-02
13.000  23.500  1.1744e-02
13.000  23.750  1.0229e-02
13.000  24.000  9.2816e-03
13.250  17.000  2.2514e-02
13.250  17.250  2.3248e-02
13.250  17.500  2.3602e-02
13.250  17.750  2.3947e-02
13.250  18.000  2.4301e-02
13.250  18.250  2.4560e-02
13.250  18.500  2.4638e-02
13.250  18.750  2.4444e-02
13.250  19.000  2.3987e-02
13.250  19.250  2.3298e-02
13.250  19.500  2.2413e-02
13.250  19.750  2.1423e-02
13.250  20.000  2.0409e-02
13.250  20.250  1.9596e-02
13.250  20.500  1.9196e-02
13.250  20.750  1.9773e-02
13.250  21.000  2.1299e-02
13.250  21.250  2.3564e-02
13.250  21.500  2.6355e-02
13.250  21.750  2.9461e-02
13.250  22.000  3.2670e-02
13.250  22.250  3.5771e-02
13.250  22.500  3.6862e-02
13.250  22.750  3.0760e-02
13.250  23.000  2.3207e-02
13.250  23.250  1.7706e-02
13.250  23.500  1.4159e-02
13.250  23.750  1.1784e-02
13.250  24.000  1.0230e-02
13.500  17.000  2.0925e-02
13.500  17.250  2.1723e-02
13.500  17.500  2.1925e-02
13.500  17.750  2.2035e-02
13.500  18.000  2.2351e-02
13.500  18.250  2.2813e-02
13.500  18.500  2.3240e-02
13.500  18.750  2.3447e-02
13.500  19.000  2.3368e-02
13.500  19.250  2.2994e-02
13.500  19.500  2.2408e-02
13.500  19.750  2.1640e-02
13.500  20.000  2.0760e-02
13.500  20.250  1.9939e-02
13.500  20.500  1.9304e-02
13.500  20.750  1.9642e-02
13.500  21.000  2.0994e-02
13.500  21.250  2.3153e-02
13.500  21.500  2.5911e-02
13.500  21.750  2.9059e-02
13.500  22.000  3.2392e-02
13.500  22.250  3.5700e-02
13.500  22.500  3.8777e-02
13.500  22.750  3.9534e-02
13.500  23.000  3.2362e-02
13.500  23.250  2.4102e-02
13.500  23.500  1.8272e-02
13.500  23.750  1.4394e-02
13.500  24.000  1.1820e-02
13.750  17.000  1.9201e-02
13.750  17.250  2.0194e-02
13.750  17.500  2.0410e-02
13.750  17.750  2.0388e-02
13.750  18.000  2.0578e-02
13.750  18.250  2.0952e-02
13.750  18.500  2.1368e-02
13.750  18.750  2.1739e-02
13.750  19.000  2.2020e-02
13.750  19.250  2.2065e-02
13.750  19.500  2.1834e-02
13.750  19.750  2.1370e-02
13.750  20.000  2.0768e-02
13.750  20.250  2.0117e-02
13.750  20.500  1.9530e-02
13.750  20.750  1.9124e-02
13.750  21.000  1.9885e-02
13.750  21.250  2.1841e-02
13.750  21.500  2.4698e-02
13.750  21.750  2.8166e-02
13.750  22.000  3.1951e-02
13.750  22.250  3.5762e-02
13.750  22.500  3.9307e-02
13.750  22.750  4.2292e-02
13.750  23.000  4.2432e-02
13.750  23.250  3.3934e-02
13.750  23.500  2.4802e-02
13.750  23.750  1.8606e-02
13.750  24.000  1.4523e-02
14.000  17.000  1.7125e-02
14.000  17.250  1.8580e-02
14.000  17.500  1.8988e-02
14.000  17.750  1.8894e-02
14.000  18.000  1.8998e-02
14.000  18.250  1.9323e-02
14.000  18.500  1.9695e-02
14.000  18.750  2.0016e-02
14.000  19.000  2.0258e-02
14.000  19.250  2.0494e-02
14.000  19.500  2.0652e-02
14.000  19.750  2.0586e-02
14.000  20.000  2.0312e-02
14.000  20.250  1.9937e-02
14.000  20.500  1.9559e-02
14.000  20.750  1.9272e-02
14.000  21.000  1.9162e-02
14.000  21.250  1.9371e-02
14.000  21.500  1.9833e-02
14.000  21.750  2.0915e-02
14.000  22.000  2.2648e-02
14.000  22.250  2.5731e-02
14.000  22.500  3.1444e-02
14.000  22.750  3.9183e-02
14.000  23.000  4.6133e-02
14.000  23.250  4.5614e-02
14.000  23.500  3.5475e-02
14.000  23.750  2.5448e-02
14.000  24.000  1.8941e-02
