nFnu 960.000A  relative to Inci 1215.00A scaled to 1215A.
Hden   Phi(H)  Eq_Width (A)
7.000  17.000  1.8434e-02
7.000  17.250  1.6620e-02
7.000  17.500  1.4647e-02
7.000  17.750  1.2412e-02
7.000  18.000  1.0605e-02
7.000  18.250  9.4842e-03
7.000  18.500  8.7550e-03
7.000  18.750  8.3787e-03
7.000  19.000  8.1779e-03
7.000  19.250  8.0641e-03
7.000  19.500  8.0152e-03
7.000  19.750  7.9945e-03
7.000  20.000  7.9853e-03
7.000  20.250  7.9811e-03
7.000  20.500  7.9789e-03
7.000  20.750  7.9778e-03
7.000  21.000  7.9771e-03
7.000  21.250  7.9768e-03
7.000  21.500  7.9768e-03
7.000  21.750  7.9765e-03
7.000  22.000  7.9765e-03
7.000  22.250  7.9764e-03
7.000  22.500  7.9764e-03
7.000  22.750  7.9766e-03
7.000  23.000  7.9766e-03
7.000  23.250  7.9764e-03
7.000  23.500  7.9764e-03
7.000  23.750  7.9764e-03
7.000  24.000  7.9764e-03
7.250  17.000  1.9792e-02
7.250  17.250  1.8114e-02
7.250  17.500  1.6465e-02
7.250  17.750  1.4577e-02
7.250  18.000  1.2372e-02
7.250  18.250  1.0583e-02
7.250  18.500  9.4734e-03
7.250  18.750  8.7512e-03
7.250  19.000  8.3773e-03
7.250  19.250  8.1774e-03
7.250  19.500  8.0640e-03
7.250  19.750  8.0152e-03
7.250  20.000  7.9944e-03
7.250  20.250  7.9853e-03
7.250  20.500  7.9810e-03
7.250  20.750  7.9789e-03
7.250  21.000  7.9778e-03
7.250  21.250  7.9771e-03
7.250  21.500  7.9768e-03
7.250  21.750  7.9782e-03
7.250  22.000  7.9765e-03
7.250  22.250  7.9765e-03
7.250  22.500  7.9764e-03
7.250  22.750  7.9772e-03
7.250  23.000  7.9772e-03
7.250  23.250  7.9764e-03
7.250  23.500  7.9764e-03
7.250  23.750  7.9764e-03
7.250  24.000  7.9764e-03
7.500  17.000  2.3081e-02
7.500  17.250  1.9435e-02
7.500  17.500  1.7927e-02
7.500  17.750  1.6381e-02
7.500  18.000  1.4544e-02
7.500  18.250  1.2350e-02
7.500  18.500  1.0569e-02
7.500  18.750  9.4667e-03
7.500  19.000  8.7488e-03
7.500  19.250  8.3763e-03
7.500  19.500  8.1771e-03
7.500  19.750  8.0640e-03
7.500  20.000  8.0151e-03
7.500  20.250  7.9944e-03
7.500  20.500  7.9853e-03
7.500  20.750  7.9810e-03
7.500  21.000  7.9788e-03
7.500  21.250  7.9777e-03
7.500  21.500  7.9771e-03
7.500  21.750  7.9768e-03
7.500  22.000  7.9766e-03
7.500  22.250  7.9765e-03
7.500  22.500  7.9765e-03
7.500  22.750  7.9764e-03
7.500  23.000  7.9768e-03
7.500  23.250  7.9772e-03
7.500  23.500  7.9764e-03
7.500  23.750  7.9774e-03
7.500  24.000  7.9764e-03
7.750  17.000  2.6496e-02
7.750  17.250  2.1042e-02
7.750  17.500  1.9231e-02
7.750  17.750  1.7818e-02
7.750  18.000  1.6338e-02
7.750  18.250  1.4535e-02
7.750  18.500  1.2340e-02
7.750  18.750  1.0562e-02
7.750  19.000  9.4626e-03
7.750  19.250  8.7472e-03
7.750  19.500  8.3757e-03
7.750  19.750  8.1769e-03
7.750  20.000  8.0639e-03
7.750  20.250  8.0151e-03
7.750  20.500  7.9944e-03
7.750  20.750  7.9853e-03
7.750  21.000  7.9810e-03
7.750  21.250  7.9788e-03
7.750  21.500  7.9777e-03
7.750  21.750  7.9771e-03
7.750  22.000  7.9768e-03
7.750  22.250  7.9766e-03
7.750  22.500  7.9765e-03
7.750  22.750  7.9766e-03
7.750  23.000  7.9766e-03
7.750  23.250  7.9765e-03
7.750  23.500  7.9772e-03
7.750  23.750  7.9772e-03
7.750  24.000  7.9764e-03
8.000  17.000  2.0086e-02
8.000  17.250  2.2193e-02
8.000  17.500  1.9525e-02
8.000  17.750  1.9111e-02
8.000  18.000  1.7752e-02
8.000  18.250  1.6320e-02
8.000  18.500  1.4542e-02
8.000  18.750  1.2338e-02
8.000  19.000  1.0541e-02
8.000  19.250  9.2880e-03
8.000  19.500  8.4870e-03
8.000  19.750  8.0445e-03
8.000  20.000  7.8671e-03
8.000  20.250  7.8618e-03
8.000  20.500  7.9353e-03
8.000  20.750  7.9944e-03
8.000  21.000  7.9853e-03
8.000  21.250  7.9810e-03
8.000  21.500  7.9788e-03
8.000  21.750  7.9777e-03
8.000  22.000  7.9770e-03
8.000  22.250  7.9767e-03
8.000  22.500  7.9765e-03
8.000  22.750  7.9766e-03
8.000  23.000  7.9764e-03
8.000  23.250  7.9769e-03
8.000  23.500  7.9764e-03
8.000  23.750  7.9764e-03
8.000  24.000  7.9764e-03
8.250  17.000  1.4993e-02
8.250  17.250  1.6820e-02
8.250  17.500  1.9331e-02
8.250  17.750  1.8321e-02
8.250  18.000  1.9032e-02
8.250  18.250  1.7707e-02
8.250  18.500  1.6318e-02
8.250  18.750  1.4560e-02
8.250  19.000  1.2340e-02
8.250  19.250  1.0556e-02
8.250  19.500  9.4586e-03
8.250  19.750  8.7457e-03
8.250  20.000  8.3751e-03
8.250  20.250  8.1767e-03
8.250  20.500  8.0639e-03
8.250  20.750  8.0151e-03
8.250  21.000  7.9944e-03
8.250  21.250  7.9853e-03
8.250  21.500  7.9810e-03
8.250  21.750  7.9788e-03
8.250  22.000  7.9777e-03
8.250  22.250  7.9770e-03
8.250  22.500  7.9767e-03
8.250  22.750  7.9767e-03
8.250  23.000  7.9765e-03
8.250  23.250  7.9784e-03
8.250  23.500  7.9764e-03
8.250  23.750  7.9763e-03
8.250  24.000  7.9769e-03
8.500  17.000  1.1452e-02
8.500  17.250  1.2552e-02
8.500  17.500  1.4671e-02
8.500  17.750  1.7471e-02
8.500  18.000  1.7603e-02
8.500  18.250  1.8968e-02
8.500  18.500  1.7675e-02
8.500  18.750  1.6324e-02
8.500  19.000  1.4586e-02
8.500  19.250  1.2346e-02
8.500  19.500  1.0555e-02
8.500  19.750  9.4577e-03
8.500  20.000  8.7453e-03
8.500  20.250  8.3751e-03
8.500  20.500  8.1766e-03
8.500  20.750  8.0639e-03
8.500  21.000  8.0151e-03
8.500  21.250  7.9944e-03
8.500  21.500  7.9853e-03
8.500  21.750  7.9810e-03
8.500  22.000  7.9788e-03
8.500  22.250  7.9777e-03
8.500  22.500  7.9770e-03
8.500  22.750  7.9767e-03
8.500  23.000  7.9765e-03
8.500  23.250  7.9766e-03
8.500  23.500  7.9764e-03
8.500  23.750  7.9763e-03
8.500  24.000  7.9763e-03
8.750  17.000  9.1362e-03
8.750  17.250  9.7243e-03
8.750  17.500  1.1051e-02
8.750  17.750  1.3365e-02
8.750  18.000  1.6326e-02
8.750  18.250  1.7183e-02
8.750  18.500  1.8909e-02
8.750  18.750  1.7643e-02
8.750  19.000  1.6336e-02
8.750  19.250  1.4616e-02
8.750  19.500  1.2353e-02
8.750  19.750  1.0556e-02
8.750  20.000  9.4572e-03
8.750  20.250  8.7450e-03
8.750  20.500  8.3750e-03
8.750  20.750  8.1766e-03
8.750  21.000  8.0639e-03
8.750  21.250  8.0151e-03
8.750  21.500  7.9944e-03
8.750  21.750  7.9853e-03
8.750  22.000  7.9810e-03
8.750  22.250  7.9788e-03
8.750  22.500  7.9777e-03
8.750  22.750  7.9770e-03
8.750  23.000  7.9775e-03
8.750  23.250  7.9765e-03
8.750  23.500  7.9766e-03
8.750  23.750  7.9764e-03
8.750  24.000  7.9763e-03
9.000  17.000  7.6258e-03
9.000  17.250  7.9319e-03
9.000  17.500  8.7053e-03
9.000  17.750  1.0179e-02
9.000  18.000  1.2618e-02
9.000  18.250  1.5688e-02
9.000  18.500  1.6908e-02
9.000  18.750  1.8849e-02
9.000  19.000  1.7609e-02
9.000  19.250  1.6347e-02
9.000  19.500  1.4647e-02
9.000  19.750  1.2362e-02
9.000  20.000  1.0556e-02
9.000  20.250  9.4569e-03
9.000  20.500  8.7449e-03
9.000  20.750  8.3749e-03
9.000  21.000  8.1766e-03
9.000  21.250  8.0639e-03
9.000  21.500  8.0151e-03
9.000  21.750  7.9944e-03
9.000  22.000  7.9853e-03
9.000  22.250  7.9810e-03
9.000  22.500  7.9788e-03
9.000  22.750  7.9777e-03
9.000  23.000  7.9770e-03
9.000  23.250  7.9767e-03
9.000  23.500  7.9765e-03
9.000  23.750  7.9764e-03
9.000  24.000  7.9765e-03
9.250  17.000  6.6142e-03
9.250  17.250  6.7734e-03
9.250  17.500  7.2533e-03
9.250  17.750  8.1710e-03
9.250  18.000  9.7880e-03
9.250  18.250  1.2355e-02
9.250  18.500  1.5367e-02
9.250  18.750  1.6726e-02
9.250  19.000  1.8785e-02
9.250  19.250  1.7568e-02
9.250  19.500  1.6349e-02
9.250  19.750  1.4676e-02
9.250  20.000  1.2370e-02
9.250  20.250  1.0557e-02
9.250  20.500  9.4566e-03
9.250  20.750  8.7447e-03
9.250  21.000  8.3749e-03
9.250  21.250  8.1766e-03
9.250  21.500  8.0634e-03
9.250  21.750  8.0147e-03
9.250  22.000  7.9937e-03
9.250  22.250  7.9848e-03
9.250  22.500  7.9806e-03
9.250  22.750  7.9784e-03
9.250  23.000  7.9774e-03
9.250  23.250  7.9769e-03
9.250  23.500  7.9765e-03
9.250  23.750  7.9764e-03
9.250  24.000  7.9763e-03
9.500  17.000  5.9084e-03
9.500  17.250  5.9830e-03
9.500  17.500  6.3265e-03
9.500  17.750  6.9644e-03
9.500  18.000  8.0221e-03
9.500  18.250  9.7974e-03
9.500  18.500  1.2531e-02
9.500  18.750  1.5195e-02
9.500  19.000  1.6600e-02
9.500  19.250  1.8719e-02
9.500  19.500  1.7520e-02
9.500  19.750  1.6340e-02
9.500  20.000  1.4698e-02
9.500  20.250  1.2378e-02
9.500  20.500  1.0558e-02
9.500  20.750  9.4560e-03
9.500  21.000  8.7440e-03
9.500  21.250  8.3744e-03
9.500  21.500  8.1760e-03
9.500  21.750  8.0630e-03
9.500  22.000  8.0143e-03
9.500  22.250  7.9937e-03
9.500  22.500  7.9845e-03
9.500  22.750  7.9802e-03
9.500  23.000  7.9780e-03
9.500  23.250  7.9769e-03
9.500  23.500  7.9763e-03
9.500  23.750  7.9760e-03
9.500  24.000  7.9758e-03
9.750  17.000  5.4577e-03
9.750  17.250  5.4118e-03
9.750  17.500  5.6661e-03
9.750  17.750  6.1748e-03
9.750  18.000  6.9830e-03
9.750  18.250  8.2562e-03
9.750  18.500  1.0248e-02
9.750  18.750  1.3031e-02
9.750  19.000  1.5021e-02
9.750  19.250  1.6507e-02
9.750  19.500  1.8654e-02
9.750  19.750  1.7467e-02
9.750  20.000  1.6320e-02
9.750  20.250  1.4711e-02
9.750  20.500  1.2383e-02
9.750  20.750  1.0558e-02
9.750  21.000  9.4560e-03
9.750  21.250  8.7440e-03
9.750  21.500  8.3744e-03
9.750  21.750  8.1760e-03
9.750  22.000  8.0630e-03
9.750  22.250  8.0144e-03
9.750  22.500  7.9937e-03
9.750  22.750  7.9845e-03
9.750  23.000  7.9802e-03
9.750  23.250  7.9780e-03
9.750  23.500  7.9769e-03
9.750  23.750  7.9762e-03
9.750  24.000  7.9759e-03
10.000  17.000  5.2380e-03
10.000  17.250  5.0252e-03
10.000  17.500  5.1502e-03
10.000  17.750  5.5905e-03
10.000  18.000  6.3280e-03
10.000  18.250  7.3541e-03
10.000  18.500  8.8179e-03
10.000  18.750  1.0945e-02
10.000  19.000  1.3388e-02
10.000  19.250  1.4884e-02
10.000  19.500  1.6434e-02
10.000  19.750  1.8597e-02
10.000  20.000  1.7415e-02
10.000  20.250  1.6290e-02
10.000  20.500  1.4717e-02
10.000  20.750  1.2387e-02
10.000  21.000  1.0559e-02
10.000  21.250  9.4561e-03
10.000  21.500  8.7438e-03
10.000  21.750  8.3744e-03
10.000  22.000  8.1761e-03
10.000  22.250  8.0632e-03
10.000  22.500  8.0144e-03
10.000  22.750  7.9937e-03
10.000  23.000  7.9845e-03
10.000  23.250  7.9802e-03
10.000  23.500  7.9780e-03
10.000  23.750  7.9770e-03
10.000  24.000  7.9763e-03
10.250  17.000  5.2663e-03
10.250  17.250  4.8591e-03
10.250  17.500  4.8115e-03
10.250  17.750  5.1428e-03
10.250  18.000  5.8320e-03
10.250  18.250  6.7547e-03
10.250  18.500  7.9405e-03
10.250  18.750  9.5472e-03
10.250  19.000  1.1682e-02
10.250  19.250  1.3632e-02
10.250  19.500  1.4847e-02
10.250  19.750  1.6391e-02
10.250  20.000  1.8590e-02
10.250  20.250  1.7384e-02
10.250  20.500  1.6257e-02
10.250  20.750  1.4717e-02
10.250  21.000  1.2390e-02
10.250  21.250  1.0559e-02
10.250  21.500  9.4561e-03
10.250  21.750  8.7438e-03
10.250  22.000  8.3744e-03
10.250  22.250  8.1761e-03
10.250  22.500  8.0633e-03
10.250  22.750  8.0144e-03
10.250  23.000  7.9937e-03
10.250  23.250  7.9845e-03
10.250  23.500  7.9802e-03
10.250  23.750  7.9780e-03
10.250  24.000  7.9769e-03
10.500  17.000  5.4860e-03
10.500  17.250  4.9340e-03
10.500  17.500  4.6982e-03
10.500  17.750  4.8774e-03
10.500  18.000  5.4511e-03
10.500  18.250  6.2967e-03
10.500  18.500  7.3063e-03
10.500  18.750  8.5370e-03
10.500  19.000  1.0143e-02
10.500  19.250  1.2190e-02
10.500  19.500  1.3890e-02
10.500  19.750  1.4993e-02
10.500  20.000  1.6498e-02
10.500  20.250  1.8644e-02
10.500  20.500  1.7387e-02
10.500  20.750  1.6228e-02
10.500  21.000  1.4708e-02
10.500  21.250  1.2390e-02
10.500  21.500  1.0558e-02
10.500  21.750  9.4561e-03
10.500  22.000  8.7439e-03
10.500  22.250  8.3745e-03
10.500  22.500  8.1762e-03
10.500  22.750  8.0634e-03
10.500  23.000  8.0145e-03
10.500  23.250  7.9937e-03
10.500  23.500  7.9845e-03
10.500  23.750  7.9802e-03
10.500  24.000  7.9780e-03
10.750  17.000  5.8381e-03
10.750  17.250  5.2044e-03
10.750  17.500  4.8420e-03
10.750  17.750  4.8559e-03
10.750  18.000  5.2363e-03
10.750  18.250  5.8844e-03
10.750  18.500  6.7077e-03
10.750  18.750  7.6637e-03
10.750  19.000  8.9046e-03
10.750  19.250  1.0609e-02
10.750  19.500  1.2508e-02
10.750  19.750  1.4095e-02
10.750  20.000  1.5342e-02
10.750  20.250  1.6839e-02
10.750  20.500  1.8892e-02
10.750  20.750  1.7449e-02
10.750  21.000  1.6213e-02
10.750  21.250  1.4693e-02
10.750  21.500  1.2389e-02
10.750  21.750  1.0558e-02
10.750  22.000  9.4562e-03
10.750  22.250  8.7439e-03
10.750  22.500  8.3747e-03
10.750  22.750  8.1763e-03
10.750  23.000  8.0634e-03
10.750  23.250  8.0146e-03
10.750  23.500  7.9937e-03
10.750  23.750  7.9845e-03
10.750  24.000  7.9802e-03
11.000  17.000  6.2830e-03
11.000  17.250  5.6109e-03
11.000  17.500  5.1871e-03
11.000  17.750  5.0818e-03
11.000  18.000  5.2462e-03
11.000  18.250  5.6026e-03
11.000  18.500  6.1621e-03
11.000  18.750  6.9121e-03
11.000  19.000  7.8858e-03
11.000  19.250  9.2225e-03
11.000  19.500  1.1074e-02
11.000  19.750  1.3012e-02
11.000  20.000  1.4625e-02
11.000  20.250  1.6139e-02
11.000  20.500  1.7487e-02
11.000  20.750  1.9390e-02
11.000  21.000  1.7677e-02
11.000  21.250  1.6228e-02
11.000  21.500  1.4673e-02
11.000  21.750  1.2385e-02
11.000  22.000  1.0556e-02
11.000  22.250  9.4562e-03
11.000  22.500  8.7437e-03
11.000  22.750  8.3748e-03
11.000  23.000  8.1765e-03
11.000  23.250  8.0634e-03
11.000  23.500  8.0147e-03
11.000  23.750  7.9938e-03
11.000  24.000  7.9846e-03
11.250  17.000  6.7848e-03
11.250  17.250  6.1037e-03
11.250  17.500  5.6554e-03
11.250  17.750  5.5424e-03
11.250  18.000  5.7493e-03
11.250  18.250  6.2375e-03
11.250  18.500  6.9687e-03
11.250  18.750  7.9046e-03
11.250  19.000  9.0067e-03
11.250  19.250  1.0237e-02
11.250  19.500  1.1556e-02
11.250  19.750  1.2927e-02
11.250  20.000  1.4310e-02
11.250  20.250  1.5667e-02
11.250  20.500  1.6961e-02
11.250  20.750  1.8550e-02
11.250  21.000  2.0380e-02
11.250  21.250  1.8080e-02
11.250  21.500  1.6314e-02
11.250  21.750  1.4652e-02
11.250  22.000  1.2379e-02
11.250  22.250  1.0555e-02
11.250  22.500  9.4563e-03
11.250  22.750  8.7435e-03
11.250  23.000  8.3749e-03
11.250  23.250  8.1767e-03
11.250  23.500  8.0635e-03
11.250  23.750  8.0147e-03
11.250  24.000  7.9939e-03
11.500  17.000  7.3055e-03
11.500  17.250  6.6430e-03
11.500  17.500  6.1904e-03
11.500  17.750  6.0146e-03
11.500  18.000  6.1047e-03
11.500  18.250  6.4387e-03
11.500  18.500  6.9946e-03
11.500  18.750  7.7503e-03
11.500  19.000  8.6838e-03
11.500  19.250  9.7731e-03
11.500  19.500  1.0996e-02
11.500  19.750  1.2331e-02
11.500  20.000  1.3755e-02
11.500  20.250  1.5247e-02
11.500  20.500  1.6785e-02
11.500  20.750  1.8346e-02
11.500  21.000  2.0165e-02
11.500  21.250  2.1682e-02
11.500  21.500  1.8711e-02
11.500  21.750  1.6482e-02
11.500  22.000  1.4636e-02
11.500  22.250  1.2372e-02
11.500  22.500  1.0553e-02
11.500  22.750  9.4565e-03
11.500  23.000  8.7434e-03
11.500  23.250  8.3749e-03
11.500  23.500  8.1768e-03
11.500  23.750  8.0635e-03
11.500  24.000  8.0147e-03
11.750  17.000  7.7508e-03
11.750  17.250  7.1642e-03
11.750  17.500  6.7355e-03
11.750  17.750  6.4863e-03
11.750  18.000  6.2776e-03
11.750  18.250  6.0651e-03
11.750  18.500  5.8617e-03
11.750  18.750  5.7775e-03
11.750  19.000  6.0390e-03
11.750  19.250  6.6874e-03
11.750  19.500  7.7076e-03
11.750  19.750  9.0846e-03
11.750  20.000  1.0803e-02
11.750  20.250  1.2849e-02
11.750  20.500  1.5206e-02
11.750  20.750  1.7768e-02
11.750  21.000  2.0223e-02
11.750  21.250  2.2553e-02
11.750  21.500  2.3107e-02
11.750  21.750  1.9520e-02
11.750  22.000  1.6791e-02
11.750  22.250  1.4635e-02
11.750  22.500  1.2363e-02
11.750  22.750  1.0551e-02
11.750  23.000  9.4567e-03
11.750  23.250  8.7431e-03
11.750  23.500  8.3748e-03
11.750  23.750  8.1769e-03
11.750  24.000  8.0637e-03
12.000  17.000  7.9845e-03
12.000  17.250  7.5533e-03
12.000  17.500  7.2030e-03
12.000  17.750  6.9609e-03
12.000  18.000  6.7360e-03
12.000  18.250  6.4918e-03
12.000  18.500  6.2125e-03
12.000  18.750  5.9565e-03
12.000  19.000  6.0052e-03
12.000  19.250  6.4288e-03
12.000  19.500  7.2263e-03
12.000  19.750  8.3967e-03
12.000  20.000  9.9392e-03
12.000  20.250  1.1853e-02
12.000  20.500  1.4136e-02
12.000  20.750  1.6789e-02
12.000  21.000  1.9810e-02
12.000  21.250  2.3198e-02
12.000  21.500  2.5962e-02
12.000  21.750  2.4560e-02
12.000  22.000  2.0492e-02
12.000  22.250  1.7217e-02
12.000  22.500  1.4660e-02
12.000  22.750  1.2354e-02
12.000  23.000  1.0548e-02
12.000  23.250  9.4569e-03
12.000  23.500  8.7428e-03
12.000  23.750  8.3747e-03
12.000  24.000  8.1770e-03
12.250  17.000  7.8070e-03
12.250  17.250  7.6537e-03
12.250  17.500  7.4653e-03
12.250  17.750  7.3100e-03
12.250  18.000  7.1409e-03
12.250  18.250  6.9193e-03
12.250  18.500  6.6232e-03
12.250  18.750  6.3077e-03
12.250  19.000  6.0134e-03
12.250  19.250  6.0883e-03
12.250  19.500  6.6226e-03
12.250  19.750  7.6146e-03
12.250  20.000  9.0626e-03
12.250  20.250  1.0965e-02
12.250  20.500  1.3320e-02
12.250  20.750  1.6126e-02
12.250  21.000  1.9381e-02
12.250  21.250  2.3084e-02
12.250  21.500  2.7233e-02
12.250  21.750  3.0039e-02
12.250  22.000  2.6150e-02
12.250  22.250  2.1144e-02
12.250  22.500  1.7436e-02
12.250  22.750  1.4715e-02
12.250  23.000  1.2344e-02
12.250  23.250  1.0546e-02
12.250  23.500  9.4571e-03
12.250  23.750  8.7424e-03
12.250  24.000  8.3747e-03
12.500  17.000  6.9494e-03
12.500  17.250  7.3372e-03
12.500  17.500  7.4180e-03
12.500  17.750  7.4358e-03
12.500  18.000  7.3942e-03
12.500  18.250  7.2542e-03
12.500  18.500  7.0236e-03
12.500  18.750  6.7049e-03
12.500  19.000  6.3361e-03
12.500  19.250  6.0235e-03
12.500  19.500  6.0430e-03
12.500  19.750  6.5063e-03
12.500  20.000  7.4703e-03
12.500  20.250  8.9916e-03
12.500  20.500  1.1127e-02
12.500  20.750  1.3934e-02
12.500  21.000  1.7468e-02
12.500  21.250  2.1786e-02
12.500  21.500  2.6946e-02
12.500  21.750  3.2221e-02
12.500  22.000  3.3405e-02
12.500  22.250  2.7503e-02
12.500  22.500  2.2102e-02
12.500  22.750  1.8005e-02
12.500  23.000  1.4799e-02
12.500  23.250  1.2337e-02
12.500  23.500  1.0543e-02
12.500  23.750  9.4573e-03
12.500  24.000  8.7417e-03
12.750  17.000  5.7943e-03
12.750  17.250  6.4338e-03
12.750  17.500  7.0012e-03
12.750  17.750  7.2595e-03
12.750  18.000  7.3942e-03
12.750  18.250  7.4214e-03
12.750  18.500  7.3112e-03
12.750  18.750  7.0754e-03
12.750  19.000  6.7337e-03
12.750  19.250  6.3421e-03
12.750  19.500  6.0031e-03
12.750  19.750  6.1831e-03
12.750  20.000  7.0159e-03
12.750  20.250  8.5204e-03
12.750  20.500  1.0716e-02
12.750  20.750  1.3621e-02
12.750  21.000  1.7255e-02
12.750  21.250  2.1637e-02
12.750  21.500  2.6786e-02
12.750  21.750  3.2721e-02
12.750  22.000  3.7954e-02
12.750  22.250  3.6567e-02
12.750  22.500  2.9308e-02
12.750  22.750  2.3273e-02
12.750  23.000  1.8503e-02
12.750  23.250  1.4899e-02
12.750  23.500  1.2333e-02
12.750  23.750  1.0540e-02
12.750  24.000  9.4574e-03
13.000  17.000  5.5558e-03
13.000  17.250  5.3933e-03
13.000  17.500  5.9166e-03
13.000  17.750  6.5693e-03
13.000  18.000  6.9933e-03
13.000  18.250  7.2642e-03
13.000  18.500  7.3747e-03
13.000  18.750  7.2980e-03
13.000  19.000  7.0632e-03
13.000  19.250  6.7111e-03
13.000  19.500  6.3079e-03
13.000  19.750  5.9702e-03
13.000  20.000  6.3740e-03
13.000  20.250  7.6651e-03
13.000  20.500  9.8078e-03
13.000  20.750  1.2767e-02
13.000  21.000  1.6506e-02
13.000  21.250  2.0990e-02
13.000  21.500  2.6184e-02
13.000  21.750  3.2051e-02
13.000  22.000  3.8556e-02
13.000  22.250  4.3533e-02
13.000  22.500  3.9632e-02
13.000  22.750  3.0990e-02
13.000  23.000  2.4204e-02
13.000  23.250  1.8958e-02
13.000  23.500  1.5019e-02
13.000  23.750  1.2333e-02
13.000  24.000  1.0538e-02
13.250  17.000  5.2678e-03
13.250  17.250  4.9156e-03
13.250  17.500  4.4264e-03
13.250  17.750  4.5953e-03
13.250  18.000  5.7993e-03
13.250  18.250  6.5111e-03
13.250  18.500  6.9836e-03
13.250  18.750  7.2171e-03
13.250  19.000  8.5210e-03
13.250  19.250  1.1070e-02
13.250  19.500  1.4626e-02
13.250  19.750  1.8949e-02
13.250  20.000  2.3800e-02
13.250  20.250  2.8941e-02
13.250  20.500  3.4131e-02
13.250  20.750  3.9131e-02
13.250  21.000  4.3704e-02
13.250  21.250  4.7609e-02
13.250  21.500  5.0607e-02
13.250  21.750  5.2459e-02
13.250  22.000  5.2927e-02
13.250  22.250  5.1770e-02
13.250  22.500  4.8750e-02
13.250  22.750  4.2882e-02
13.250  23.000  3.2783e-02
13.250  23.250  2.4638e-02
13.250  23.500  1.9119e-02
13.250  23.750  1.5147e-02
13.250  24.000  1.2341e-02
13.500  17.000  5.1309e-03
13.500  17.250  4.6878e-03
13.500  17.500  4.1154e-03
13.500  17.750  3.6401e-03
13.500  18.000  3.5777e-03
13.500  18.250  4.2435e-03
13.500  18.500  5.5983e-03
13.500  18.750  6.4661e-03
13.500  19.000  6.9137e-03
13.500  19.250  8.6589e-03
13.500  19.500  1.1899e-02
13.500  19.750  1.6336e-02
13.500  20.000  2.1670e-02
13.500  20.250  2.7602e-02
13.500  20.500  3.3834e-02
13.500  20.750  4.0065e-02
13.500  21.000  4.5998e-02
13.500  21.250  5.1333e-02
13.500  21.500  5.5772e-02
13.500  21.750  5.9015e-02
13.500  22.000  6.0763e-02
13.500  22.250  6.0717e-02
13.500  22.500  5.8579e-02
13.500  22.750  5.4049e-02
13.500  23.000  4.6301e-02
13.500  23.250  3.4834e-02
13.500  23.500  2.6014e-02
13.500  23.750  1.9758e-02
13.500  24.000  1.5266e-02
13.750  17.000  5.0811e-03
13.750  17.250  4.7116e-03
13.750  17.500  5.4377e-03
13.750  17.750  7.3592e-03
13.750  18.000  1.0327e-02
13.750  18.250  1.4192e-02
13.750  18.500  1.8806e-02
13.750  18.750  2.4018e-02
13.750  19.000  2.9681e-02
13.750  19.250  3.5644e-02
13.750  19.500  4.1760e-02
13.750  19.750  4.7878e-02
13.750  20.000  5.3850e-02
13.750  20.250  5.9527e-02
13.750  20.500  6.4760e-02
13.750  20.750  6.9399e-02
13.750  21.000  7.3295e-02
13.750  21.250  7.6300e-02
13.750  21.500  7.8265e-02
13.750  21.750  7.9039e-02
13.750  22.000  7.8475e-02
13.750  22.250  7.6423e-02
13.750  22.500  7.2735e-02
13.750  22.750  6.7260e-02
13.750  23.000  5.9850e-02
13.750  23.250  4.9766e-02
13.750  23.500  3.6519e-02
13.750  23.750  2.6900e-02
13.750  24.000  2.0144e-02
14.000  17.000  5.0644e-03
14.000  17.250  4.8326e-03
14.000  17.500  5.8459e-03
14.000  17.750  8.2196e-03
14.000  18.000  1.1786e-02
14.000  18.250  1.6379e-02
14.000  18.500  2.1830e-02
14.000  18.750  2.7973e-02
14.000  19.000  3.4640e-02
14.000  19.250  4.1664e-02
14.000  19.500  4.8878e-02
14.000  19.750  5.6114e-02
14.000  20.000  6.3206e-02
14.000  20.250  6.9986e-02
14.000  20.500  7.6286e-02
14.000  20.750  8.1940e-02
14.000  21.000  8.6781e-02
14.000  21.250  9.0640e-02
14.000  21.500  9.3352e-02
14.000  21.750  9.4748e-02
14.000  22.000  9.4662e-02
14.000  22.250  9.2926e-02
14.000  22.500  8.9373e-02
14.000  22.750  8.3836e-02
14.000  23.000  7.6147e-02
14.000  23.250  6.6140e-02
14.000  23.500  5.3273e-02
14.000  23.750  3.8136e-02
14.000  24.000  2.7816e-02
