InwT 1356.96A  relative to Inci 1215.00A scaled to 1215A.
Hden   Phi(H)  Eq_Width (A)
7.000  17.000  1.8470e-02
7.000  17.250  1.4573e-02
7.000  17.500  1.1920e-02
7.000  17.750  1.0184e-02
7.000  18.000  9.1848e-03
7.000  18.250  8.6130e-03
7.000  18.500  8.2798e-03
7.000  18.750  8.1271e-03
7.000  19.000  8.0477e-03
7.000  19.250  8.0035e-03
7.000  19.500  7.9849e-03
7.000  19.750  7.9771e-03
7.000  20.000  7.9737e-03
7.000  20.250  7.9722e-03
7.000  20.500  7.9714e-03
7.000  20.750  7.9709e-03
7.000  21.000  7.9708e-03
7.000  21.250  7.9706e-03
7.000  21.500  7.9707e-03
7.000  21.750  7.9705e-03
7.000  22.000  7.9705e-03
7.000  22.250  7.9705e-03
7.000  22.500  7.9705e-03
7.000  22.750  7.9707e-03
7.000  23.000  7.9707e-03
7.000  23.250  7.9705e-03
7.000  23.500  7.9705e-03
7.000  23.750  7.9705e-03
7.000  24.000  7.9705e-03
7.250  17.000  2.3997e-02
7.250  17.250  1.8403e-02
7.250  17.500  1.4537e-02
7.250  17.750  1.1901e-02
7.250  18.000  1.0174e-02
7.250  18.250  9.1796e-03
7.250  18.500  8.6105e-03
7.250  18.750  8.2789e-03
7.250  19.000  8.1267e-03
7.250  19.250  8.0476e-03
7.250  19.500  8.0035e-03
7.250  19.750  7.9849e-03
7.250  20.000  7.9771e-03
7.250  20.250  7.9737e-03
7.250  20.500  7.9722e-03
7.250  20.750  7.9714e-03
7.250  21.000  7.9710e-03
7.250  21.250  7.9708e-03
7.250  21.500  7.9706e-03
7.250  21.750  7.9722e-03
7.250  22.000  7.9705e-03
7.250  22.250  7.9705e-03
7.250  22.500  7.9705e-03
7.250  22.750  7.9713e-03
7.250  23.000  7.9713e-03
7.250  23.250  7.9705e-03
7.250  23.500  7.9705e-03
7.250  23.750  7.9705e-03
7.250  24.000  7.9705e-03
7.500  17.000  2.5481e-02
7.500  17.250  2.3948e-02
7.500  17.500  1.8365e-02
7.500  17.750  1.4517e-02
7.500  18.000  1.1890e-02
7.500  18.250  1.0168e-02
7.500  18.500  9.1762e-03
7.500  18.750  8.6090e-03
7.500  19.000  8.2784e-03
7.500  19.250  8.1266e-03
7.500  19.500  8.0476e-03
7.500  19.750  8.0035e-03
7.500  20.000  7.9849e-03
7.500  20.250  7.9771e-03
7.500  20.500  7.9737e-03
7.500  20.750  7.9722e-03
7.500  21.000  7.9714e-03
7.500  21.250  7.9709e-03
7.500  21.500  7.9708e-03
7.500  21.750  7.9706e-03
7.500  22.000  7.9705e-03
7.500  22.250  7.9705e-03
7.500  22.500  7.9705e-03
7.500  22.750  7.9705e-03
7.500  23.000  7.9709e-03
7.500  23.250  7.9713e-03
7.500  23.500  7.9705e-03
7.500  23.750  7.9714e-03
7.500  24.000  7.9705e-03
7.750  17.000  2.9083e-02
7.750  17.250  2.5070e-02
7.750  17.500  2.3925e-02
7.750  17.750  1.8342e-02
7.750  18.000  1.4507e-02
7.750  18.250  1.1884e-02
7.750  18.500  1.0164e-02
7.750  18.750  9.1740e-03
7.750  19.000  8.6080e-03
7.750  19.250  8.2780e-03
7.750  19.500  8.1264e-03
7.750  19.750  8.0475e-03
7.750  20.000  8.0035e-03
7.750  20.250  7.9849e-03
7.750  20.500  7.9771e-03
7.750  20.750  7.9737e-03
7.750  21.000  7.9721e-03
7.750  21.250  7.9714e-03
7.750  21.500  7.9709e-03
7.750  21.750  7.9707e-03
7.750  22.000  7.9706e-03
7.750  22.250  7.9705e-03
7.750  22.500  7.9705e-03
7.750  22.750  7.9707e-03
7.750  23.000  7.9707e-03
7.750  23.250  7.9705e-03
7.750  23.500  7.9713e-03
7.750  23.750  7.9713e-03
7.750  24.000  7.9705e-03
8.000  17.000  3.1790e-02
8.000  17.250  2.8031e-02
8.000  17.500  2.4673e-02
8.000  17.750  2.3894e-02
8.000  18.000  1.8329e-02
8.000  18.250  1.4502e-02
8.000  18.500  1.1881e-02
8.000  18.750  1.0161e-02
8.000  19.000  9.1724e-03
8.000  19.250  8.6073e-03
8.000  19.500  8.2778e-03
8.000  19.750  8.1263e-03
8.000  20.000  8.0475e-03
8.000  20.250  8.0035e-03
8.000  20.500  7.9849e-03
8.000  20.750  7.9771e-03
8.000  21.000  7.9737e-03
8.000  21.250  7.9721e-03
8.000  21.500  7.9714e-03
8.000  21.750  7.9709e-03
8.000  22.000  7.9707e-03
8.000  22.250  7.9705e-03
8.000  22.500  7.9705e-03
8.000  22.750  7.9707e-03
8.000  23.000  7.9705e-03
8.000  23.250  7.9709e-03
8.000  23.500  7.9705e-03
8.000  23.750  7.9705e-03
8.000  24.000  7.9705e-03
8.250  17.000  3.3811e-02
8.250  17.250  3.0939e-02
8.250  17.500  2.7381e-02
8.250  17.750  2.4429e-02
8.250  18.000  2.3886e-02
8.250  18.250  1.8319e-02
8.250  18.500  1.4501e-02
8.250  18.750  1.1881e-02
8.250  19.000  1.0159e-02
8.250  19.250  9.1713e-03
8.250  19.500  8.6068e-03
8.250  19.750  8.2776e-03
8.250  20.000  8.1263e-03
8.250  20.250  8.0475e-03
8.250  20.500  8.0035e-03
8.250  20.750  7.9849e-03
8.250  21.000  7.9771e-03
8.250  21.250  7.9737e-03
8.250  21.500  7.9721e-03
8.250  21.750  7.9714e-03
8.250  22.000  7.9709e-03
8.250  22.250  7.9707e-03
8.250  22.500  7.9705e-03
8.250  22.750  7.9707e-03
8.250  23.000  7.9705e-03
8.250  23.250  7.9725e-03
8.250  23.500  7.9704e-03
8.250  23.750  7.9704e-03
8.250  24.000  7.9710e-03
8.500  17.000  3.5133e-02
8.500  17.250  3.3099e-02
8.500  17.500  3.0352e-02
8.500  17.750  2.6951e-02
8.500  18.000  2.4289e-02
8.500  18.250  2.3873e-02
8.500  18.500  1.8310e-02
8.500  18.750  1.2637e-02
8.500  19.000  8.5807e-03
8.500  19.250  5.9176e-03
8.500  19.500  4.4245e-03
8.500  19.750  3.8782e-03
8.500  20.000  4.0552e-03
8.500  20.250  4.7324e-03
8.500  20.500  5.6865e-03
8.500  20.750  6.6941e-03
8.500  21.000  7.5321e-03
8.500  21.250  7.9771e-03
8.500  21.500  7.9737e-03
8.500  21.750  7.9721e-03
8.500  22.000  7.9714e-03
8.500  22.250  7.9709e-03
8.500  22.500  7.9707e-03
8.500  22.750  7.9705e-03
8.500  23.000  7.9705e-03
8.500  23.250  7.9706e-03
8.500  23.500  7.9705e-03
8.500  23.750  7.9704e-03
8.500  24.000  7.9704e-03
8.750  17.000  3.5973e-02
8.750  17.250  3.4612e-02
8.750  17.500  3.2624e-02
8.750  17.750  2.9983e-02
8.750  18.000  2.6667e-02
8.750  18.250  2.4209e-02
8.750  18.500  2.3854e-02
8.750  18.750  1.8301e-02
8.750  19.000  1.2635e-02
8.750  19.250  8.5840e-03
8.750  19.500  5.9239e-03
8.750  19.750  4.4323e-03
8.750  20.000  3.8861e-03
8.750  20.250  4.0623e-03
8.750  20.500  4.7380e-03
8.750  20.750  5.6904e-03
8.750  21.000  6.6963e-03
8.750  21.250  7.5328e-03
8.750  21.500  7.9771e-03
8.750  21.750  7.9737e-03
8.750  22.000  7.9721e-03
8.750  22.250  7.9714e-03
8.750  22.500  7.9709e-03
8.750  22.750  7.9707e-03
8.750  23.000  7.9714e-03
8.750  23.250  7.9705e-03
8.750  23.500  7.9706e-03
8.750  23.750  7.9705e-03
8.750  24.000  7.9704e-03
9.000  17.000  3.6397e-02
9.000  17.250  3.5615e-02
9.000  17.500  3.4259e-02
9.000  17.750  3.2254e-02
9.000  18.000  2.9625e-02
9.000  18.250  2.6423e-02
9.000  18.500  2.4150e-02
9.000  18.750  2.3829e-02
9.000  19.000  1.8291e-02
9.000  19.250  1.4505e-02
9.000  19.500  1.1883e-02
9.000  19.750  1.0154e-02
9.000  20.000  9.1688e-03
9.000  20.250  8.6060e-03
9.000  20.500  8.2774e-03
9.000  20.750  8.1263e-03
9.000  21.000  8.0474e-03
9.000  21.250  8.0035e-03
9.000  21.500  7.9849e-03
9.000  21.750  7.9771e-03
9.000  22.000  7.9737e-03
9.000  22.250  7.9721e-03
9.000  22.500  7.9713e-03
9.000  22.750  7.9709e-03
9.000  23.000  7.9707e-03
9.000  23.250  7.9705e-03
9.000  23.500  7.9705e-03
9.000  23.750  7.9705e-03
9.000  24.000  7.9705e-03
9.250  17.000  3.6426e-02
9.250  17.250  3.6151e-02
9.250  17.500  3.5376e-02
9.250  17.750  3.3958e-02
9.250  18.000  3.1874e-02
9.250  18.250  2.9234e-02
9.250  18.500  2.6120e-02
9.250  18.750  2.4094e-02
9.250  19.000  2.3795e-02
9.250  19.250  1.8277e-02
9.250  19.500  1.4505e-02
9.250  19.750  1.1883e-02
9.250  20.000  1.0152e-02
9.250  20.250  9.1682e-03
9.250  20.500  8.6058e-03
9.250  20.750  8.2773e-03
9.250  21.000  8.1263e-03
9.250  21.250  8.0474e-03
9.250  21.500  8.0030e-03
9.250  21.750  7.9844e-03
9.250  22.000  7.9765e-03
9.250  22.250  7.9732e-03
9.250  22.500  7.9718e-03
9.250  22.750  7.9709e-03
9.250  23.000  7.9706e-03
9.250  23.250  7.9705e-03
9.250  23.500  7.9704e-03
9.250  23.750  7.9703e-03
9.250  24.000  7.9704e-03
9.500  17.000  3.6067e-02
9.500  17.250  3.6215e-02
9.500  17.500  3.5993e-02
9.500  17.750  3.5180e-02
9.500  18.000  3.3614e-02
9.500  18.250  3.1360e-02
9.500  18.500  2.8683e-02
9.500  18.750  2.5619e-02
9.500  19.000  2.4034e-02
9.500  19.250  2.3751e-02
9.500  19.500  1.8261e-02
9.500  19.750  1.4503e-02
9.500  20.000  1.1884e-02
9.500  20.250  1.0151e-02
9.500  20.500  9.1677e-03
9.500  20.750  8.6053e-03
9.500  21.000  8.2767e-03
9.500  21.250  8.1258e-03
9.500  21.500  8.0468e-03
9.500  21.750  8.0026e-03
9.500  22.000  7.9841e-03
9.500  22.250  7.9764e-03
9.500  22.500  7.9729e-03
9.500  22.750  7.9714e-03
9.500  23.000  7.9705e-03
9.500  23.250  7.9701e-03
9.500  23.500  7.9699e-03
9.500  23.750  7.9698e-03
9.500  24.000  7.9697e-03
9.750  17.000  3.5347e-02
9.750  17.250  3.5814e-02
9.750  17.500  3.6074e-02
9.750  17.750  3.5852e-02
9.750  18.000  3.4883e-02
9.750  18.250  3.3124e-02
9.750  18.500  3.0687e-02
9.750  18.750  2.7836e-02
9.750  19.000  2.5345e-02
9.750  19.250  2.3958e-02
9.750  19.500  2.3694e-02
9.750  19.750  1.8242e-02
9.750  20.000  1.4499e-02
9.750  20.250  1.1884e-02
9.750  20.500  1.0150e-02
9.750  20.750  9.1673e-03
9.750  21.000  8.6053e-03
9.750  21.250  8.2767e-03
9.750  21.500  8.1258e-03
9.750  21.750  8.0469e-03
9.750  22.000  8.0026e-03
9.750  22.250  7.9841e-03
9.750  22.500  7.9763e-03
9.750  22.750  7.9729e-03
9.750  23.000  7.9714e-03
9.750  23.250  7.9705e-03
9.750  23.500  7.9701e-03
9.750  23.750  7.9699e-03
9.750  24.000  7.9697e-03
10.000  17.000  3.4360e-02
10.000  17.250  3.4979e-02
10.000  17.500  3.5570e-02
10.000  17.750  3.5921e-02
10.000  18.000  3.5621e-02
10.000  18.250  3.4518e-02
10.000  18.500  3.2520e-02
10.000  18.750  2.9974e-02
10.000  19.000  2.7368e-02
10.000  19.250  2.5004e-02
10.000  19.500  2.3851e-02
10.000  19.750  2.3620e-02
10.000  20.000  1.8223e-02
10.000  20.250  1.4493e-02
10.000  20.500  1.1885e-02
10.000  20.750  1.0149e-02
10.000  21.000  9.1672e-03
10.000  21.250  8.6053e-03
10.000  21.500  8.2766e-03
10.000  21.750  8.1258e-03
10.000  22.000  8.0470e-03
10.000  22.250  8.0028e-03
10.000  22.500  7.9841e-03
10.000  22.750  7.9764e-03
10.000  23.000  7.9729e-03
10.000  23.250  7.9714e-03
10.000  23.500  7.9705e-03
10.000  23.750  7.9701e-03
10.000  24.000  7.9699e-03
10.250  17.000  3.3462e-02
10.250  17.250  3.3888e-02
10.250  17.500  3.4644e-02
10.250  17.750  3.5364e-02
10.250  18.000  3.5725e-02
10.250  18.250  3.5342e-02
10.250  18.500  3.3999e-02
10.250  18.750  3.1849e-02
10.250  19.000  2.9208e-02
10.250  19.250  2.6571e-02
10.250  19.500  2.4793e-02
10.250  19.750  2.3714e-02
10.250  20.000  2.3551e-02
10.250  20.250  1.8211e-02
10.250  20.500  1.4486e-02
10.250  20.750  1.1884e-02
10.250  21.000  1.0149e-02
10.250  21.250  9.1673e-03
10.250  21.500  8.6053e-03
10.250  21.750  8.2767e-03
10.250  22.000  8.1258e-03
10.250  22.250  8.0470e-03
10.250  22.500  8.0029e-03
10.250  22.750  7.9841e-03
10.250  23.000  7.9764e-03
10.250  23.250  7.9729e-03
10.250  23.500  7.9714e-03
10.250  23.750  7.9705e-03
10.250  24.000  7.9701e-03
10.500  17.000  3.2782e-02
10.500  17.250  3.2941e-02
10.500  17.500  3.3497e-02
10.500  17.750  3.4409e-02
10.500  18.000  3.5150e-02
10.500  18.250  3.5312e-02
10.500  18.500  3.4699e-02
10.500  18.750  3.3137e-02
10.500  19.000  3.0939e-02
10.500  19.250  2.8390e-02
10.500  19.500  2.7214e-02
10.500  19.750  2.4912e-02
10.500  20.000  2.3760e-02
10.500  20.250  2.3498e-02
10.500  20.500  1.8210e-02
10.500  20.750  1.4480e-02
10.500  21.000  1.1884e-02
10.500  21.250  1.0149e-02
10.500  21.500  9.1677e-03
10.500  21.750  8.6053e-03
10.500  22.000  8.2768e-03
10.500  22.250  8.1258e-03
10.500  22.500  8.0470e-03
10.500  22.750  8.0030e-03
10.500  23.000  7.9842e-03
10.500  23.250  7.9763e-03
10.500  23.500  7.9729e-03
10.500  23.750  7.9714e-03
10.500  24.000  7.9705e-03
10.750  17.000  3.2351e-02
10.750  17.250  3.2297e-02
10.750  17.500  3.2574e-02
10.750  17.750  3.3268e-02
10.750  18.000  3.4001e-02
10.750  18.250  3.4422e-02
10.750  18.500  3.4316e-02
10.750  18.750  3.3599e-02
10.750  19.000  3.2193e-02
10.750  19.250  3.0135e-02
10.750  19.500  2.7846e-02
10.750  19.750  2.7238e-02
10.750  20.000  2.5304e-02
10.750  20.250  2.4074e-02
10.750  20.500  2.3564e-02
10.750  20.750  1.8228e-02
10.750  21.000  1.4476e-02
10.750  21.250  1.1883e-02
10.750  21.500  1.0149e-02
10.750  21.750  9.1681e-03
10.750  22.000  8.6055e-03
10.750  22.250  8.2768e-03
10.750  22.500  8.1261e-03
10.750  22.750  8.0471e-03
10.750  23.000  8.0030e-03
10.750  23.250  7.9843e-03
10.750  23.500  7.9764e-03
10.750  23.750  7.9729e-03
10.750  24.000  7.9714e-03
11.000  17.000  3.2145e-02
11.000  17.250  3.1987e-02
11.000  17.500  3.1996e-02
11.000  17.750  3.2171e-02
11.000  18.000  3.2497e-02
11.000  18.250  3.2847e-02
11.000  18.500  3.3153e-02
11.000  18.750  3.3184e-02
11.000  19.000  3.2635e-02
11.000  19.250  3.1359e-02
11.000  19.500  2.9397e-02
11.000  19.750  2.6941e-02
11.000  20.000  2.7922e-02
11.000  20.250  2.6544e-02
11.000  20.500  2.4673e-02
11.000  20.750  2.3795e-02
11.000  21.000  1.8302e-02
11.000  21.250  1.4477e-02
11.000  21.500  1.1882e-02
11.000  21.750  1.0150e-02
11.000  22.000  9.1688e-03
11.000  22.250  8.6057e-03
11.000  22.500  8.2768e-03
11.000  22.750  8.1262e-03
11.000  23.000  8.0472e-03
11.000  23.250  8.0030e-03
11.000  23.500  7.9844e-03
11.000  23.750  7.9765e-03
11.000  24.000  7.9730e-03
11.250  17.000  3.2127e-02
11.250  17.250  3.1937e-02
11.250  17.500  3.1638e-02
11.250  17.750  3.1268e-02
11.250  18.000  3.1003e-02
11.250  18.250  3.1053e-02
11.250  18.500  3.1506e-02
11.250  18.750  3.2033e-02
11.250  19.000  3.2271e-02
11.250  19.250  3.1860e-02
11.250  19.500  3.0675e-02
11.250  19.750  2.8714e-02
11.250  20.000  2.7068e-02
11.250  20.250  2.8651e-02
11.250  20.500  2.7282e-02
11.250  20.750  2.5660e-02
11.250  21.000  2.4362e-02
11.250  21.250  1.8429e-02
11.250  21.500  1.4493e-02
11.250  21.750  1.1881e-02
11.250  22.000  1.0151e-02
11.250  22.250  9.1696e-03
11.250  22.500  8.6060e-03
11.250  22.750  8.2767e-03
11.250  23.000  8.1263e-03
11.250  23.250  8.0475e-03
11.250  23.500  8.0030e-03
11.250  23.750  7.9844e-03
11.250  24.000  7.9766e-03
11.500  17.000  3.2285e-02
11.500  17.250  3.1986e-02
11.500  17.500  3.1382e-02
11.500  17.750  3.0558e-02
11.500  18.000  2.9779e-02
11.500  18.250  2.9454e-02
11.500  18.500  2.9729e-02
11.500  18.750  3.0467e-02
11.500  19.000  3.1288e-02
11.500  19.250  3.1610e-02
11.500  19.500  3.1242e-02
11.500  19.750  3.0164e-02
11.500  20.000  2.8313e-02
11.500  20.250  2.7575e-02
11.500  20.500  3.0048e-02
11.500  20.750  2.8924e-02
11.500  21.000  2.7176e-02
11.500  21.250  2.5076e-02
11.500  21.500  1.8618e-02
11.500  21.750  1.4522e-02
11.500  22.000  1.1879e-02
11.500  22.250  1.0152e-02
11.500  22.500  9.1706e-03
11.500  22.750  8.6063e-03
11.500  23.000  8.2766e-03
11.500  23.250  8.1263e-03
11.500  23.500  8.0475e-03
11.500  23.750  8.0031e-03
11.500  24.000  7.9844e-03
11.750  17.000  3.2561e-02
11.750  17.250  3.2014e-02
11.750  17.500  3.1104e-02
11.750  17.750  2.9931e-02
11.750  18.000  2.8890e-02
11.750  18.250  2.8279e-02
11.750  18.500  2.8268e-02
11.750  18.750  2.8879e-02
11.750  19.000  2.9867e-02
11.750  19.250  3.0800e-02
11.750  19.500  3.1162e-02
11.750  19.750  3.0924e-02
11.750  20.000  3.0021e-02
11.750  20.250  2.8401e-02
11.750  20.500  2.8962e-02
11.750  20.750  3.1703e-02
11.750  21.000  3.1009e-02
11.750  21.250  2.9512e-02
11.750  21.500  2.5665e-02
11.750  21.750  1.8841e-02
11.750  22.000  1.4576e-02
11.750  22.250  1.1879e-02
11.750  22.500  1.0153e-02
11.750  22.750  9.1717e-03
11.750  23.000  8.6068e-03
11.750  23.250  8.2765e-03
11.750  23.500  8.1262e-03
11.750  23.750  8.0476e-03
11.750  24.000  8.0033e-03
12.000  17.000  3.2803e-02
12.000  17.250  3.1928e-02
12.000  17.500  3.0683e-02
12.000  17.750  2.9302e-02
12.000  18.000  2.8344e-02
12.000  18.250  2.7880e-02
12.000  18.500  2.7838e-02
12.000  18.750  2.8146e-02
12.000  19.000  2.8732e-02
12.000  19.250  2.9525e-02
12.000  19.500  3.0451e-02
12.000  19.750  3.1440e-02
12.000  20.000  3.2420e-02
12.000  20.250  3.3318e-02
12.000  20.500  3.4062e-02
12.000  20.750  3.4581e-02
12.000  21.000  3.4803e-02
12.000  21.250  3.4655e-02
12.000  21.500  3.2905e-02
12.000  21.750  2.6173e-02
12.000  22.000  1.9088e-02
12.000  22.250  1.4646e-02
12.000  22.500  1.1879e-02
12.000  22.750  1.0154e-02
12.000  23.000  9.1728e-03
12.000  23.250  8.6075e-03
12.000  23.500  8.2762e-03
12.000  23.750  8.1262e-03
12.000  24.000  8.0476e-03
12.250  17.000  3.2792e-02
12.250  17.250  3.1534e-02
12.250  17.500  3.0003e-02
12.250  17.750  2.8588e-02
12.250  18.000  2.7568e-02
12.250  18.250  2.6994e-02
12.250  18.500  2.6986e-02
12.250  18.750  2.7498e-02
12.250  19.000  2.8433e-02
12.250  19.250  2.9691e-02
12.250  19.500  3.1177e-02
12.250  19.750  3.2791e-02
12.250  20.000  3.4436e-02
12.250  20.250  3.6014e-02
12.250  20.500  3.7427e-02
12.250  20.750  3.8576e-02
12.250  21.000  3.9365e-02
12.250  21.250  3.9695e-02
12.250  21.500  3.9469e-02
12.250  21.750  3.6676e-02
12.250  22.000  2.6673e-02
12.250  22.250  1.9216e-02
12.250  22.500  1.4667e-02
12.250  22.750  1.1880e-02
12.250  23.000  1.0155e-02
12.250  23.250  9.1740e-03
12.250  23.500  8.6081e-03
12.250  23.750  8.2760e-03
12.250  24.000  8.1261e-03
12.500  17.000  3.2040e-02
12.500  17.250  3.0500e-02
12.500  17.500  2.8958e-02
12.500  17.750  2.8254e-02
12.500  18.000  2.8491e-02
12.500  18.250  2.9525e-02
12.500  18.500  3.1206e-02
12.500  18.750  3.3387e-02
12.500  19.000  3.5923e-02
12.500  19.250  3.8664e-02
12.500  19.500  4.1465e-02
12.500  19.750  4.4177e-02
12.500  20.000  4.6655e-02
12.500  20.250  4.8749e-02
12.500  20.500  5.0314e-02
12.500  20.750  5.1202e-02
12.500  21.000  5.1265e-02
12.500  21.250  5.0358e-02
12.500  21.500  4.8331e-02
12.500  21.750  4.5039e-02
12.500  22.000  3.8878e-02
12.500  22.250  2.7030e-02
12.500  22.500  1.9414e-02
12.500  22.750  1.4749e-02
12.500  23.000  1.1881e-02
12.500  23.250  1.0156e-02
12.500  23.500  9.1749e-03
12.500  23.750  8.6086e-03
12.500  24.000  8.2756e-03
12.750  17.000  2.4221e-02
12.750  17.250  2.8488e-02
12.750  17.500  2.7751e-02
12.750  17.750  2.6941e-02
12.750  18.000  2.6782e-02
12.750  18.250  2.7020e-02
12.750  18.500  2.7620e-02
12.750  18.750  2.8544e-02
12.750  19.000  2.9755e-02
12.750  19.250  3.1218e-02
12.750  19.500  3.2895e-02
12.750  19.750  3.4749e-02
12.750  20.000  3.6744e-02
12.750  20.250  3.8844e-02
12.750  20.500  4.1011e-02
12.750  20.750  4.3209e-02
12.750  21.000  4.5402e-02
12.750  21.250  4.7552e-02
12.750  21.500  4.9622e-02
12.750  21.750  5.1577e-02
12.750  22.000  5.0891e-02
12.750  22.250  4.0037e-02
12.750  22.500  2.7497e-02
12.750  22.750  1.9644e-02
12.750  23.000  1.4805e-02
12.750  23.250  1.1880e-02
12.750  23.500  1.0156e-02
12.750  23.750  9.1756e-03
12.750  24.000  8.6092e-03
13.000  17.000  1.3366e-02
13.000  17.250  2.0710e-02
13.000  17.500  2.5284e-02
13.000  17.750  2.6209e-02
13.000  18.000  2.5863e-02
13.000  18.250  2.5755e-02
13.000  18.500  2.5857e-02
13.000  18.750  2.6126e-02
13.000  19.000  2.6508e-02
13.000  19.250  2.6976e-02
13.000  19.500  2.7536e-02
13.000  19.750  2.8439e-02
13.000  20.000  2.9802e-02
13.000  20.250  3.1549e-02
13.000  20.500  3.3620e-02
13.000  20.750  3.5463e-02
13.000  21.000  3.7753e-02
13.000  21.250  4.1507e-02
13.000  21.500  4.5004e-02
13.000  21.750  5.4107e-02
13.000  22.000  5.8906e-02
13.000  22.250  5.5521e-02
13.000  22.500  4.0998e-02
13.000  22.750  2.7878e-02
13.000  23.000  1.9794e-02
13.000  23.250  1.4846e-02
13.000  23.500  1.1878e-02
13.000  23.750  1.0154e-02
13.000  24.000  9.1759e-03
13.250  17.000  9.0284e-03
13.250  17.250  1.3910e-02
13.250  17.500  2.2868e-02
13.250  17.750  2.5540e-02
13.250  18.000  2.5315e-02
13.250  18.250  2.5287e-02
13.250  18.500  2.5471e-02
13.250  18.750  2.5834e-02
13.250  19.000  2.6331e-02
13.250  19.250  2.6926e-02
13.250  19.500  2.7581e-02
13.250  19.750  2.8398e-02
13.250  20.000  2.9483e-02
13.250  20.250  3.0958e-02
13.250  20.500  3.2997e-02
13.250  20.750  3.5503e-02
13.250  21.000  3.8465e-02
13.250  21.250  4.2168e-02
13.250  21.500  4.6021e-02
13.250  21.750  5.0595e-02
13.250  22.000  6.0057e-02
13.250  22.250  6.4928e-02
13.250  22.500  5.8337e-02
13.250  22.750  4.1930e-02
13.250  23.000  2.8250e-02
13.250  23.250  1.9804e-02
13.250  23.500  1.4834e-02
13.250  23.750  1.1875e-02
13.250  24.000  1.0152e-02
13.500  17.000  6.3416e-03
13.500  17.250  9.6279e-03
13.500  17.500  1.6318e-02
13.500  17.750  2.2707e-02
13.500  18.000  2.4764e-02
13.500  18.250  2.4792e-02
13.500  18.500  2.5024e-02
13.500  18.750  2.5457e-02
13.500  19.000  2.6048e-02
13.500  19.250  2.6763e-02
13.500  19.500  2.7574e-02
13.500  19.750  2.8496e-02
13.500  20.000  2.9589e-02
13.500  20.250  3.1001e-02
13.500  20.500  3.2734e-02
13.500  20.750  3.4941e-02
13.500  21.000  3.7425e-02
13.500  21.250  4.1317e-02
13.500  21.500  4.4047e-02
13.500  21.750  4.8272e-02
13.500  22.000  5.4194e-02
13.500  22.250  6.4099e-02
13.500  22.500  6.7722e-02
13.500  22.750  5.9947e-02
13.500  23.000  4.2802e-02
13.500  23.250  2.8660e-02
13.500  23.500  2.0028e-02
13.500  23.750  1.4890e-02
13.500  24.000  1.1870e-02
13.750  17.000  4.7582e-03
13.750  17.250  6.8779e-03
13.750  17.500  1.1706e-02
13.750  17.750  1.7602e-02
13.750  18.000  2.3815e-02
13.750  18.250  2.4191e-02
13.750  18.500  2.4491e-02
13.750  18.750  2.4993e-02
13.750  19.000  2.5660e-02
13.750  19.250  2.6486e-02
13.750  19.500  2.7440e-02
13.750  19.750  2.8522e-02
13.750  20.000  2.9784e-02
13.750  20.250  3.1306e-02
13.750  20.500  3.3136e-02
13.750  20.750  3.5263e-02
13.750  21.000  3.7683e-02
13.750  21.250  4.0276e-02
13.750  21.500  4.3375e-02
13.750  21.750  4.7203e-02
13.750  22.000  5.1974e-02
13.750  22.250  6.0525e-02
13.750  22.500  6.7440e-02
13.750  22.750  7.1078e-02
13.750  23.000  6.1802e-02
13.750  23.250  4.3580e-02
13.750  23.500  2.8929e-02
13.750  23.750  2.0114e-02
13.750  24.000  1.4897e-02
14.000  17.000  3.7788e-03
14.000  17.250  5.2308e-03
14.000  17.500  8.4420e-03
14.000  17.750  1.3341e-02
14.000  18.000  1.9394e-02
14.000  18.250  2.3515e-02
14.000  18.500  2.3823e-02
14.000  18.750  2.4376e-02
14.000  19.000  2.5146e-02
14.000  19.250  2.6086e-02
14.000  19.500  2.7182e-02
14.000  19.750  2.8436e-02
14.000  20.000  2.9863e-02
14.000  20.250  3.1560e-02
14.000  20.500  3.3613e-02
14.000  20.750  3.5996e-02
14.000  21.000  3.8711e-02
14.000  21.250  4.1724e-02
14.000  21.500  4.4477e-02
14.000  21.750  4.8134e-02
14.000  22.000  5.2755e-02
14.000  22.250  6.0416e-02
14.000  22.500  7.0513e-02
14.000  22.750  7.3626e-02
14.000  23.000  7.4569e-02
14.000  23.250  6.4152e-02
14.000  23.500  4.4272e-02
14.000  23.750  2.9141e-02
14.000  24.000  2.0182e-02
