InwC 9000.00A  relative to Inci 1215.00A scaled to 1215A.
Hden   Phi(H)  Eq_Width (A)
7.000  17.000  1.7677e-03
7.000  17.250  1.7684e-03
7.000  17.500  1.7691e-03
7.000  17.750  1.7699e-03
7.000  18.000  1.7706e-03
7.000  18.250  1.7713e-03
7.000  18.500  1.7717e-03
7.000  18.750  1.7719e-03
7.000  19.000  1.7722e-03
7.000  19.250  1.7723e-03
7.000  19.500  1.7723e-03
7.000  19.750  1.7724e-03
7.000  20.000  1.7724e-03
7.000  20.250  1.7724e-03
7.000  20.500  1.7724e-03
7.000  20.750  1.7724e-03
7.000  21.000  1.7724e-03
7.000  21.250  1.7724e-03
7.000  21.500  1.7725e-03
7.000  21.750  1.7724e-03
7.000  22.000  1.7724e-03
7.000  22.250  1.7724e-03
7.000  22.500  1.7724e-03
7.000  22.750  1.7725e-03
7.000  23.000  1.7725e-03
7.000  23.250  1.7724e-03
7.000  23.500  1.7724e-03
7.000  23.750  1.7724e-03
7.000  24.000  1.7724e-03
7.250  17.000  1.7647e-03
7.250  17.250  1.7677e-03
7.250  17.500  1.7684e-03
7.250  17.750  1.7691e-03
7.250  18.000  1.7699e-03
7.250  18.250  1.7706e-03
7.250  18.500  1.7713e-03
7.250  18.750  1.7717e-03
7.250  19.000  1.7719e-03
7.250  19.250  1.7722e-03
7.250  19.500  1.7723e-03
7.250  19.750  1.7723e-03
7.250  20.000  1.7724e-03
7.250  20.250  1.7724e-03
7.250  20.500  1.7724e-03
7.250  20.750  1.7724e-03
7.250  21.000  1.7724e-03
7.250  21.250  1.7724e-03
7.250  21.500  1.7724e-03
7.250  21.750  1.7728e-03
7.250  22.000  1.7724e-03
7.250  22.250  1.7724e-03
7.250  22.500  1.7724e-03
7.250  22.750  1.7726e-03
7.250  23.000  1.7726e-03
7.250  23.250  1.7724e-03
7.250  23.500  1.7724e-03
7.250  23.750  1.7724e-03
7.250  24.000  1.7724e-03
7.500  17.000  1.6956e-03
7.500  17.250  1.7649e-03
7.500  17.500  1.7677e-03
7.500  17.750  1.7684e-03
7.500  18.000  1.7691e-03
7.500  18.250  1.7699e-03
7.500  18.500  1.7706e-03
7.500  18.750  1.7713e-03
7.500  19.000  1.7717e-03
7.500  19.250  1.7719e-03
7.500  19.500  1.7722e-03
7.500  19.750  1.7723e-03
7.500  20.000  1.7723e-03
7.500  20.250  1.7724e-03
7.500  20.500  1.7724e-03
7.500  20.750  1.7724e-03
7.500  21.000  1.7724e-03
7.500  21.250  1.7724e-03
7.500  21.500  1.7724e-03
7.500  21.750  1.7724e-03
7.500  22.000  1.7724e-03
7.500  22.250  1.7724e-03
7.500  22.500  1.7724e-03
7.500  22.750  1.7724e-03
7.500  23.000  1.7725e-03
7.500  23.250  1.7726e-03
7.500  23.500  1.7724e-03
7.500  23.750  1.7727e-03
7.500  24.000  1.7724e-03
7.750  17.000  1.5672e-03
7.750  17.250  1.6960e-03
7.750  17.500  1.7649e-03
7.750  17.750  1.7677e-03
7.750  18.000  1.7684e-03
7.750  18.250  1.7691e-03
7.750  18.500  1.7699e-03
7.750  18.750  1.7706e-03
7.750  19.000  1.7713e-03
7.750  19.250  1.7717e-03
7.750  19.500  1.7719e-03
7.750  19.750  1.7722e-03
7.750  20.000  1.7723e-03
7.750  20.250  1.7723e-03
7.750  20.500  1.7724e-03
7.750  20.750  1.7724e-03
7.750  21.000  1.7724e-03
7.750  21.250  1.7724e-03
7.750  21.500  1.7724e-03
7.750  21.750  1.7724e-03
7.750  22.000  1.7724e-03
7.750  22.250  1.7724e-03
7.750  22.500  1.7724e-03
7.750  22.750  1.7725e-03
7.750  23.000  1.7725e-03
7.750  23.250  1.7724e-03
7.750  23.500  1.7726e-03
7.750  23.750  1.7726e-03
7.750  24.000  1.7724e-03
8.000  17.000  1.1082e-03
8.000  17.250  1.5578e-03
8.000  17.500  1.6954e-03
8.000  17.750  1.7647e-03
8.000  18.000  1.7677e-03
8.000  18.250  1.7684e-03
8.000  18.500  1.7691e-03
8.000  18.750  1.7699e-03
8.000  19.000  1.7706e-03
8.000  19.250  1.7713e-03
8.000  19.500  1.7717e-03
8.000  19.750  1.7719e-03
8.000  20.000  1.7722e-03
8.000  20.250  1.7723e-03
8.000  20.500  1.7723e-03
8.000  20.750  1.7724e-03
8.000  21.000  1.7724e-03
8.000  21.250  1.7724e-03
8.000  21.500  1.7724e-03
8.000  21.750  1.7724e-03
8.000  22.000  1.7724e-03
8.000  22.250  1.7724e-03
8.000  22.500  1.7724e-03
8.000  22.750  1.7724e-03
8.000  23.000  1.7724e-03
8.000  23.250  1.7725e-03
8.000  23.500  1.7724e-03
8.000  23.750  1.7724e-03
8.000  24.000  1.7724e-03
8.250  17.000  7.7630e-04
8.250  17.250  1.1126e-03
8.250  17.500  1.5594e-03
8.250  17.750  1.6956e-03
8.250  18.000  1.7648e-03
8.250  18.250  1.7677e-03
8.250  18.500  1.7684e-03
8.250  18.750  1.7691e-03
8.250  19.000  1.7700e-03
8.250  19.250  1.7707e-03
8.250  19.500  1.7713e-03
8.250  19.750  1.7717e-03
8.250  20.000  1.7719e-03
8.250  20.250  1.7722e-03
8.250  20.500  1.7723e-03
8.250  20.750  1.7723e-03
8.250  21.000  1.7724e-03
8.250  21.250  1.7724e-03
8.250  21.500  1.7724e-03
8.250  21.750  1.7724e-03
8.250  22.000  1.7724e-03
8.250  22.250  1.7724e-03
8.250  22.500  1.7724e-03
8.250  22.750  1.7724e-03
8.250  23.000  1.7724e-03
8.250  23.250  1.7728e-03
8.250  23.500  1.7724e-03
8.250  23.750  1.7724e-03
8.250  24.000  1.7725e-03
8.500  17.000  5.4230e-04
8.500  17.250  7.8206e-04
8.500  17.500  1.1174e-03
8.500  17.750  1.5616e-03
8.500  18.000  1.6958e-03
8.500  18.250  1.7649e-03
8.500  18.500  1.7677e-03
8.500  18.750  1.7684e-03
8.500  19.000  1.7691e-03
8.500  19.250  1.7700e-03
8.500  19.500  1.7707e-03
8.500  19.750  1.7713e-03
8.500  20.000  1.7717e-03
8.500  20.250  1.7719e-03
8.500  20.500  1.7722e-03
8.500  20.750  1.7723e-03
8.500  21.000  1.7723e-03
8.500  21.250  1.7724e-03
8.500  21.500  1.7724e-03
8.500  21.750  1.7724e-03
8.500  22.000  1.7724e-03
8.500  22.250  1.7724e-03
8.500  22.500  1.7724e-03
8.500  22.750  1.7724e-03
8.500  23.000  1.7724e-03
8.500  23.250  1.7724e-03
8.500  23.500  1.7724e-03
8.500  23.750  1.7724e-03
8.500  24.000  1.7724e-03
8.750  17.000  3.7909e-04
8.750  17.250  5.4864e-04
8.750  17.500  7.9021e-04
8.750  17.750  1.1208e-03
8.750  18.000  1.5654e-03
8.750  18.250  1.6959e-03
8.750  18.500  1.7649e-03
8.750  18.750  1.7677e-03
8.750  19.000  1.7684e-03
8.750  19.250  1.7692e-03
8.750  19.500  1.7700e-03
8.750  19.750  1.7707e-03
8.750  20.000  1.7713e-03
8.750  20.250  1.7717e-03
8.750  20.500  1.7719e-03
8.750  20.750  1.7722e-03
8.750  21.000  1.7723e-03
8.750  21.250  1.7723e-03
8.750  21.500  1.7724e-03
8.750  21.750  1.7724e-03
8.750  22.000  1.7724e-03
8.750  22.250  1.7724e-03
8.750  22.500  1.7724e-03
8.750  22.750  1.7724e-03
8.750  23.000  1.7726e-03
8.750  23.250  1.7724e-03
8.750  23.500  1.7724e-03
8.750  23.750  1.7724e-03
8.750  24.000  1.7724e-03
9.000  17.000  2.6502e-04
9.000  17.250  3.8461e-04
9.000  17.500  5.5811e-04
9.000  17.750  8.0461e-04
9.000  18.000  1.1370e-03
9.000  18.250  1.5784e-03
9.000  18.500  1.6959e-03
9.000  18.750  1.7649e-03
9.000  19.000  1.7677e-03
9.000  19.250  1.7684e-03
9.000  19.500  1.7692e-03
9.000  19.750  1.7700e-03
9.000  20.000  1.7707e-03
9.000  20.250  1.7713e-03
9.000  20.500  1.7717e-03
9.000  20.750  1.7719e-03
9.000  21.000  1.7722e-03
9.000  21.250  1.7723e-03
9.000  21.500  1.7723e-03
9.000  21.750  1.7723e-03
9.000  22.000  1.7724e-03
9.000  22.250  1.7724e-03
9.000  22.500  1.7724e-03
9.000  22.750  1.7724e-03
9.000  23.000  1.7724e-03
9.000  23.250  1.7724e-03
9.000  23.500  1.7724e-03
9.000  23.750  1.7724e-03
9.000  24.000  1.7724e-03
9.250  17.000  1.8551e-04
9.250  17.250  2.6979e-04
9.250  17.500  3.9416e-04
9.250  17.750  5.7621e-04
9.250  18.000  8.3103e-04
9.250  18.250  1.1712e-03
9.250  18.500  1.6088e-03
9.250  18.750  1.6957e-03
9.250  19.000  1.7648e-03
9.250  19.250  1.7677e-03
9.250  19.500  1.7684e-03
9.250  19.750  1.7692e-03
9.250  20.000  1.7700e-03
9.250  20.250  1.7707e-03
9.250  20.500  1.7713e-03
9.250  20.750  1.7717e-03
9.250  21.000  1.7719e-03
9.250  21.250  1.7722e-03
9.250  21.500  1.7722e-03
9.250  21.750  1.7723e-03
9.250  22.000  1.7723e-03
9.250  22.250  1.7723e-03
9.250  22.500  1.7723e-03
9.250  22.750  1.7723e-03
9.250  23.000  1.7723e-03
9.250  23.250  1.7723e-03
9.250  23.500  1.7723e-03
9.250  23.750  1.7723e-03
9.250  24.000  1.7724e-03
9.500  17.000  1.3053e-04
9.500  17.250  1.8955e-04
9.500  17.500  2.7860e-04
9.500  17.750  4.1300e-04
9.500  18.000  6.0905e-04
9.500  18.250  8.8370e-04
9.500  18.500  1.2449e-03
9.500  18.750  1.6567e-03
9.500  19.000  1.6953e-03
9.500  19.250  1.7645e-03
9.500  19.500  1.7676e-03
9.500  19.750  1.7684e-03
9.500  20.000  1.7692e-03
9.500  20.250  1.7700e-03
9.500  20.500  1.7707e-03
9.500  20.750  1.7712e-03
9.500  21.000  1.7716e-03
9.500  21.250  1.7719e-03
9.500  21.500  1.7720e-03
9.500  21.750  1.7722e-03
9.500  22.000  1.7722e-03
9.500  22.250  1.7722e-03
9.500  22.500  1.7723e-03
9.500  22.750  1.7723e-03
9.500  23.000  1.7723e-03
9.500  23.250  1.7723e-03
9.500  23.500  1.7723e-03
9.500  23.750  1.7723e-03
9.500  24.000  1.7723e-03
9.750  17.000  9.1770e-05
9.750  17.250  1.3350e-04
9.750  17.500  1.9687e-04
9.750  17.750  2.9588e-04
9.750  18.000  4.4947e-04
9.750  18.250  6.7144e-04
9.750  18.500  9.7786e-04
9.750  18.750  1.3797e-03
9.750  19.000  1.6566e-03
9.750  19.250  1.6947e-03
9.750  19.500  1.7640e-03
9.750  19.750  1.7676e-03
9.750  20.000  1.7684e-03
9.750  20.250  1.7692e-03
9.750  20.500  1.7700e-03
9.750  20.750  1.7707e-03
9.750  21.000  1.7712e-03
9.750  21.250  1.7716e-03
9.750  21.500  1.7719e-03
9.750  21.750  1.7720e-03
9.750  22.000  1.7722e-03
9.750  22.250  1.7722e-03
9.750  22.500  1.7722e-03
9.750  22.750  1.7723e-03
9.750  23.000  1.7723e-03
9.750  23.250  1.7723e-03
9.750  23.500  1.7723e-03
9.750  23.750  1.7723e-03
9.750  24.000  1.7723e-03
10.000  17.000  6.4527e-05
10.000  17.250  9.3992e-05
10.000  17.500  1.3934e-04
10.000  17.750  2.1235e-04
10.000  18.000  3.3160e-04
10.000  18.250  5.1086e-04
10.000  18.500  7.6280e-04
10.000  18.750  1.0945e-03
10.000  19.000  1.4907e-03
10.000  19.250  1.6560e-03
10.000  19.500  1.6936e-03
10.000  19.750  1.7630e-03
10.000  20.000  1.7675e-03
10.000  20.250  1.7684e-03
10.000  20.500  1.7692e-03
10.000  20.750  1.7700e-03
10.000  21.000  1.7707e-03
10.000  21.250  1.7713e-03
10.000  21.500  1.7716e-03
10.000  21.750  1.7719e-03
10.000  22.000  1.7721e-03
10.000  22.250  1.7722e-03
10.000  22.500  1.7722e-03
10.000  22.750  1.7722e-03
10.000  23.000  1.7723e-03
10.000  23.250  1.7723e-03
10.000  23.500  1.7723e-03
10.000  23.750  1.7723e-03
10.000  24.000  1.7723e-03
10.250  17.000  4.5514e-05
10.250  17.250  6.6337e-05
10.250  17.500  9.9012e-05
10.250  17.750  1.5333e-04
10.250  18.000  2.4453e-04
10.250  18.250  3.8387e-04
10.250  18.500  5.8601e-04
10.250  18.750  8.6280e-04
10.250  19.000  1.2291e-03
10.250  19.250  1.6308e-03
10.250  19.500  1.6551e-03
10.250  19.750  1.6921e-03
10.250  20.000  1.7615e-03
10.250  20.250  1.7674e-03
10.250  20.500  1.7683e-03
10.250  20.750  1.7691e-03
10.250  21.000  1.7700e-03
10.250  21.250  1.7707e-03
10.250  21.500  1.7713e-03
10.250  21.750  1.7717e-03
10.250  22.000  1.7719e-03
10.250  22.250  1.7721e-03
10.250  22.500  1.7722e-03
10.250  22.750  1.7722e-03
10.250  23.000  1.7723e-03
10.250  23.250  1.7723e-03
10.250  23.500  1.7723e-03
10.250  23.750  1.7723e-03
10.250  24.000  1.7723e-03
10.500  17.000  3.2181e-05
10.500  17.250  4.6996e-05
10.500  17.500  7.0700e-05
10.500  17.750  1.1136e-04
10.500  18.000  1.8074e-04
10.500  18.250  2.8848e-04
10.500  18.500  4.4247e-04
10.500  18.750  6.6436e-04
10.500  19.000  9.6181e-04
10.500  19.250  1.3536e-03
10.500  19.500  1.6346e-03
10.500  19.750  1.6542e-03
10.500  20.000  1.6908e-03
10.500  20.250  1.7596e-03
10.500  20.500  1.7672e-03
10.500  20.750  1.7682e-03
10.500  21.000  1.7691e-03
10.500  21.250  1.7700e-03
10.500  21.500  1.7707e-03
10.500  21.750  1.7713e-03
10.500  22.000  1.7717e-03
10.500  22.250  1.7719e-03
10.500  22.500  1.7721e-03
10.500  22.750  1.7722e-03
10.500  23.000  1.7722e-03
10.500  23.250  1.7722e-03
10.500  23.500  1.7723e-03
10.500  23.750  1.7723e-03
10.500  24.000  1.7723e-03
10.750  17.000  2.2716e-05
10.750  17.250  3.3416e-05
10.750  17.500  5.0782e-05
10.750  17.750  8.1399e-05
10.750  18.000  1.3342e-04
10.750  18.250  2.1391e-04
10.750  18.500  3.3169e-04
10.750  18.750  4.9844e-04
10.750  19.000  7.3037e-04
10.750  19.250  1.0482e-03
10.750  19.500  1.4509e-03
10.750  19.750  1.6339e-03
10.750  20.000  1.6533e-03
10.750  20.250  1.6897e-03
10.750  20.500  1.7580e-03
10.750  20.750  1.7669e-03
10.750  21.000  1.7681e-03
10.750  21.250  1.7691e-03
10.750  21.500  1.7699e-03
10.750  21.750  1.7706e-03
10.750  22.000  1.7713e-03
10.750  22.250  1.7717e-03
10.750  22.500  1.7719e-03
10.750  22.750  1.7721e-03
10.750  23.000  1.7722e-03
10.750  23.250  1.7723e-03
10.750  23.500  1.7723e-03
10.750  23.750  1.7723e-03
10.750  24.000  1.7723e-03
11.000  17.000  1.6049e-05
11.000  17.250  2.3704e-05
11.000  17.500  3.6543e-05
11.000  17.750  5.9424e-05
11.000  18.000  9.7860e-05
11.000  18.250  1.5695e-04
11.000  18.500  2.4362e-04
11.000  18.750  3.6790e-04
11.000  19.000  5.4420e-04
11.000  19.250  7.9111e-04
11.000  19.500  1.1283e-03
11.000  19.750  1.5665e-03
11.000  20.000  1.6331e-03
11.000  20.250  1.6526e-03
11.000  20.500  1.6893e-03
11.000  20.750  1.7573e-03
11.000  21.000  1.7665e-03
11.000  21.250  1.7677e-03
11.000  21.500  1.7690e-03
11.000  21.750  1.7699e-03
11.000  22.000  1.7706e-03
11.000  22.250  1.7712e-03
11.000  22.500  1.7717e-03
11.000  22.750  1.7719e-03
11.000  23.000  1.7721e-03
11.000  23.250  1.7722e-03
11.000  23.500  1.7723e-03
11.000  23.750  1.7723e-03
11.000  24.000  1.7723e-03
11.250  17.000  1.1358e-05
11.250  17.250  1.6790e-05
11.250  17.500  2.6173e-05
11.250  17.750  4.3045e-05
11.250  18.000  7.1111e-05
11.250  18.250  1.1358e-04
11.250  18.500  1.7630e-04
11.250  18.750  2.6922e-04
11.250  19.000  3.9901e-04
11.250  19.250  5.8280e-04
11.250  19.500  8.4181e-04
11.250  19.750  1.2026e-03
11.250  20.000  1.5976e-03
11.250  20.250  1.6321e-03
11.250  20.500  1.6521e-03
11.250  20.750  1.6903e-03
11.250  21.000  1.7591e-03
11.250  21.250  1.7659e-03
11.250  21.500  1.7676e-03
11.250  21.750  1.7688e-03
11.250  22.000  1.7698e-03
11.250  22.250  1.7705e-03
11.250  22.500  1.7712e-03
11.250  22.750  1.7717e-03
11.250  23.000  1.7719e-03
11.250  23.250  1.7721e-03
11.250  23.500  1.7722e-03
11.250  23.750  1.7723e-03
11.250  24.000  1.7723e-03
11.500  17.000  8.1481e-06
11.500  17.250  1.1934e-05
11.500  17.500  1.8765e-05
11.500  17.750  3.0947e-05
11.500  18.000  5.0947e-05
11.500  18.250  8.1399e-05
11.500  18.500  1.2667e-04
11.500  18.750  1.9366e-04
11.500  19.000  2.8848e-04
11.500  19.250  4.2337e-04
11.500  19.500  6.1547e-04
11.500  19.750  8.8889e-04
11.500  20.000  1.2714e-03
11.500  20.250  1.6105e-03
11.500  20.500  1.6309e-03
11.500  20.750  1.6523e-03
11.500  21.000  1.6940e-03
11.500  21.250  1.7617e-03
11.500  21.500  1.7657e-03
11.500  21.750  1.7672e-03
11.500  22.000  1.7685e-03
11.500  22.250  1.7695e-03
11.500  22.500  1.7704e-03
11.500  22.750  1.7711e-03
11.500  23.000  1.7717e-03
11.500  23.250  1.7719e-03
11.500  23.500  1.7721e-03
11.500  23.750  1.7723e-03
11.500  24.000  1.7723e-03
11.750  17.000  5.8436e-06
11.750  17.250  8.5597e-06
11.750  17.500  1.3416e-05
11.750  17.750  2.2058e-05
11.750  18.000  3.5967e-05
11.750  18.250  5.7531e-05
11.750  18.500  8.9959e-05
11.750  18.750  1.3720e-04
11.750  19.000  2.0683e-04
11.750  19.250  3.0461e-04
11.750  19.500  4.4453e-04
11.750  19.750  6.4313e-04
11.750  20.000  9.2996e-04
11.750  20.250  1.3312e-03
11.750  20.500  1.6147e-03
11.750  20.750  1.6294e-03
11.750  21.000  1.6542e-03
11.750  21.250  1.7040e-03
11.750  21.500  1.7626e-03
11.750  21.750  1.7649e-03
11.750  22.000  1.7665e-03
11.750  22.250  1.7681e-03
11.750  22.500  1.7693e-03
11.750  22.750  1.7701e-03
11.750  23.000  1.7709e-03
11.750  23.250  1.7716e-03
11.750  23.500  1.7719e-03
11.750  23.750  1.7721e-03
11.750  24.000  1.7723e-03
12.000  17.000  4.3621e-06
12.000  17.250  6.2551e-06
12.000  17.500  9.6296e-06
12.000  17.750  1.5556e-05
12.000  18.000  2.5103e-05
12.000  18.250  4.0247e-05
12.000  18.500  6.3292e-05
12.000  18.750  9.7449e-05
12.000  19.000  1.4708e-04
12.000  19.250  2.1786e-04
12.000  19.500  3.1852e-04
12.000  19.750  4.6189e-04
12.000  20.000  6.6815e-04
12.000  20.250  9.6412e-04
12.000  20.500  1.3802e-03
12.000  20.750  1.6094e-03
12.000  21.000  1.6285e-03
12.000  21.250  1.6616e-03
12.000  21.500  1.7235e-03
12.000  21.750  1.7614e-03
12.000  22.000  1.7637e-03
12.000  22.250  1.7655e-03
12.000  22.500  1.7673e-03
12.000  22.750  1.7688e-03
12.000  23.000  1.7698e-03
12.000  23.250  1.7707e-03
12.000  23.500  1.7715e-03
12.000  23.750  1.7719e-03
12.000  24.000  1.7721e-03
12.250  17.000  3.2099e-06
12.250  17.250  4.6091e-06
12.250  17.500  6.9136e-06
12.250  17.750  1.0864e-05
12.250  18.000  1.7449e-05
12.250  18.250  2.8066e-05
12.250  18.500  4.4362e-05
12.250  18.750  6.8971e-05
12.250  19.000  1.0453e-04
12.250  19.250  1.5531e-04
12.250  19.500  2.2733e-04
12.250  19.750  3.3062e-04
12.250  20.000  4.7630e-04
12.250  20.250  6.8716e-04
12.250  20.500  9.9267e-04
12.250  20.750  1.4226e-03
12.250  21.000  1.6021e-03
12.250  21.250  1.6290e-03
12.250  21.500  1.6754e-03
12.250  21.750  1.7444e-03
12.250  22.000  1.7592e-03
12.250  22.250  1.7617e-03
12.250  22.500  1.7640e-03
12.250  22.750  1.7663e-03
12.250  23.000  1.7681e-03
12.250  23.250  1.7692e-03
12.250  23.500  1.7704e-03
12.250  23.750  1.7714e-03
12.250  24.000  1.7718e-03
12.500  17.000  2.4691e-06
12.500  17.250  3.3745e-06
12.500  17.500  4.8560e-06
12.500  17.750  7.5720e-06
12.500  18.000  1.2099e-05
12.500  18.250  1.9506e-05
12.500  18.500  3.1111e-05
12.500  18.750  4.8642e-05
12.500  19.000  7.4074e-05
12.500  19.250  1.1062e-04
12.500  19.500  1.6173e-04
12.500  19.750  2.3498e-04
12.500  20.000  3.3926e-04
12.500  20.250  4.8757e-04
12.500  20.500  7.0420e-04
12.500  20.750  1.0153e-03
12.500  21.000  1.4483e-03
12.500  21.250  1.5928e-03
12.500  21.500  1.6356e-03
12.500  21.750  1.6888e-03
12.500  22.000  1.7513e-03
12.500  22.250  1.7556e-03
12.500  22.500  1.7588e-03
12.500  22.750  1.7618e-03
12.500  23.000  1.7646e-03
12.500  23.250  1.7668e-03
12.500  23.500  1.7682e-03
12.500  23.750  1.7698e-03
12.500  24.000  1.7712e-03
12.750  17.000  1.4815e-06
12.750  17.250  2.3868e-06
12.750  17.500  3.4568e-06
12.750  17.750  5.2675e-06
12.750  18.000  8.4774e-06
12.750  18.250  1.3663e-05
12.750  18.500  2.1811e-05
12.750  18.750  3.4321e-05
12.750  19.000  5.2510e-05
12.750  19.250  7.8601e-05
12.750  19.500  1.1523e-04
12.750  19.750  1.6700e-04
12.750  20.000  2.4099e-04
12.750  20.250  3.4601e-04
12.750  20.500  4.9794e-04
12.750  20.750  7.1687e-04
12.750  21.000  1.0379e-03
12.750  21.250  1.4820e-03
12.750  21.500  1.5891e-03
12.750  21.750  1.6393e-03
12.750  22.000  1.7003e-03
12.750  22.250  1.7449e-03
12.750  22.500  1.7500e-03
12.750  22.750  1.7544e-03
12.750  23.000  1.7584e-03
12.750  23.250  1.7620e-03
12.750  23.500  1.7648e-03
12.750  23.750  1.7667e-03
12.750  24.000  1.7689e-03
13.000  17.000  1.0000e-07
13.000  17.250  1.4815e-06
13.000  17.500  2.4691e-06
13.000  17.750  3.7860e-06
13.000  18.000  6.0082e-06
13.000  18.250  9.6296e-06
13.000  18.500  1.5391e-05
13.000  18.750  2.4198e-05
13.000  19.000  3.7119e-05
13.000  19.250  5.5720e-05
13.000  19.500  8.1893e-05
13.000  19.750  1.1877e-04
13.000  20.000  1.7086e-04
13.000  20.250  2.4543e-04
13.000  20.500  3.5193e-04
13.000  20.750  5.0609e-04
13.000  21.000  7.2955e-04
13.000  21.250  1.0574e-03
13.000  21.500  1.4988e-03
13.000  21.750  1.5766e-03
13.000  22.000  1.6365e-03
13.000  22.250  1.7026e-03
13.000  22.500  1.7349e-03
13.000  22.750  1.7417e-03
13.000  23.000  1.7477e-03
13.000  23.250  1.7531e-03
13.000  23.500  1.7578e-03
13.000  23.750  1.7616e-03
13.000  24.000  1.7641e-03
13.250  17.000  1.0000e-07
13.250  17.250  9.0535e-07
13.250  17.500  1.7284e-06
13.250  17.750  2.7984e-06
13.250  18.000  4.2798e-06
13.250  18.250  6.8313e-06
13.250  18.500  1.0864e-05
13.250  18.750  1.7037e-05
13.250  19.000  2.6173e-05
13.250  19.250  3.9342e-05
13.250  19.500  5.8107e-05
13.250  19.750  8.4444e-05
13.250  20.000  1.2156e-04
13.250  20.250  1.7424e-04
13.250  20.500  2.4988e-04
13.250  20.750  3.5753e-04
13.250  21.000  5.1473e-04
13.250  21.250  7.4099e-04
13.250  21.500  1.0669e-03
13.250  21.750  1.4675e-03
13.250  22.000  1.5500e-03
13.250  22.250  1.6228e-03
13.250  22.500  1.6889e-03
13.250  22.750  1.7198e-03
13.250  23.000  1.7291e-03
13.250  23.250  1.7372e-03
13.250  23.500  1.7449e-03
13.250  23.750  1.7514e-03
13.250  24.000  1.7562e-03
13.500  17.000  1.0000e-07
13.500  17.250  1.0000e-07
13.500  17.500  1.0700e-06
13.500  17.750  1.8930e-06
13.500  18.000  3.0453e-06
13.500  18.250  4.8560e-06
13.500  18.500  7.6543e-06
13.500  18.750  1.1934e-05
13.500  19.000  1.8436e-05
13.500  19.250  2.7737e-05
13.500  19.500  4.1152e-05
13.500  19.750  6.0000e-05
13.500  20.000  8.6420e-05
13.500  20.250  1.2387e-04
13.500  20.500  1.7737e-04
13.500  20.750  2.5342e-04
13.500  21.000  3.6123e-04
13.500  21.250  5.1909e-04
13.500  21.500  7.4313e-04
13.500  21.750  1.0593e-03
13.500  22.000  1.4147e-03
13.500  22.250  1.5071e-03
13.500  22.500  1.5891e-03
13.500  22.750  1.6605e-03
13.500  23.000  1.6971e-03
13.500  23.250  1.7101e-03
13.500  23.500  1.7221e-03
13.500  23.750  1.7329e-03
13.500  24.000  1.7414e-03
13.750  17.000  1.0000e-07
13.750  17.250  1.0000e-07
13.750  17.500  1.0000e-07
13.750  17.750  1.2346e-06
13.750  18.000  2.2222e-06
13.750  18.250  3.4568e-06
13.750  18.500  5.3498e-06
13.750  18.750  8.3951e-06
13.750  19.000  1.2922e-05
13.750  19.250  1.9506e-05
13.750  19.500  2.8971e-05
13.750  19.750  4.2469e-05
13.750  20.000  6.1399e-05
13.750  20.250  8.8230e-05
13.750  20.500  1.2617e-04
13.750  20.750  1.8033e-04
13.750  21.000  2.5687e-04
13.750  21.250  3.6510e-04
13.750  21.500  5.2132e-04
13.750  21.750  7.4296e-04
13.750  22.000  1.0426e-03
13.750  22.250  1.3466e-03
13.750  22.500  1.4467e-03
13.750  22.750  1.5430e-03
13.750  23.000  1.6221e-03
13.750  23.250  1.6636e-03
13.750  23.500  1.6818e-03
13.750  23.750  1.6994e-03
13.750  24.000  1.7147e-03
14.000  17.000  1.0000e-07
14.000  17.250  1.0000e-07
14.000  17.500  1.0000e-07
14.000  17.750  1.0000e-07
14.000  18.000  1.4815e-06
14.000  18.250  2.4691e-06
14.000  18.500  3.7860e-06
14.000  18.750  5.8436e-06
14.000  19.000  8.9712e-06
14.000  19.250  1.3580e-05
14.000  19.500  2.0329e-05
14.000  19.750  2.9959e-05
14.000  20.000  4.3539e-05
14.000  20.250  6.2634e-05
14.000  20.500  8.9877e-05
14.000  20.750  1.2848e-04
14.000  21.000  1.8288e-04
14.000  21.250  2.6033e-04
14.000  21.500  3.6979e-04
14.000  21.750  5.2428e-04
14.000  22.000  7.3909e-04
14.000  22.250  1.0165e-03
14.000  22.500  1.2602e-03
14.000  22.750  1.3695e-03
14.000  23.000  1.4789e-03
14.000  23.250  1.5698e-03
14.000  23.500  1.6150e-03
14.000  23.750  1.6405e-03
14.000  24.000  1.6666e-03
