InwC 1240.00A  relative to Inci 1215.00A scaled to 1215A.
Hden   Phi(H)  Eq_Width (A)
7.000  17.000  7.9862e-03
7.000  17.250  7.9870e-03
7.000  17.500  7.9893e-03
7.000  17.750  7.9923e-03
7.000  18.000  7.9955e-03
7.000  18.250  7.9983e-03
7.000  18.500  8.0002e-03
7.000  18.750  8.0012e-03
7.000  19.000  8.0022e-03
7.000  19.250  8.0029e-03
7.000  19.500  8.0031e-03
7.000  19.750  8.0032e-03
7.000  20.000  8.0033e-03
7.000  20.250  8.0034e-03
7.000  20.500  8.0034e-03
7.000  20.750  8.0035e-03
7.000  21.000  8.0035e-03
7.000  21.250  8.0034e-03
7.000  21.500  8.0036e-03
7.000  21.750  8.0035e-03
7.000  22.000  8.0035e-03
7.000  22.250  8.0034e-03
7.000  22.500  8.0035e-03
7.000  22.750  8.0036e-03
7.000  23.000  8.0036e-03
7.000  23.250  8.0034e-03
7.000  23.500  8.0035e-03
7.000  23.750  8.0034e-03
7.000  24.000  8.0035e-03
7.250  17.000  7.9774e-03
7.250  17.250  7.9861e-03
7.250  17.500  7.9870e-03
7.250  17.750  7.9893e-03
7.250  18.000  7.9923e-03
7.250  18.250  7.9955e-03
7.250  18.500  7.9983e-03
7.250  18.750  8.0002e-03
7.250  19.000  8.0012e-03
7.250  19.250  8.0022e-03
7.250  19.500  8.0029e-03
7.250  19.750  8.0031e-03
7.250  20.000  8.0032e-03
7.250  20.250  8.0033e-03
7.250  20.500  8.0034e-03
7.250  20.750  8.0034e-03
7.250  21.000  8.0034e-03
7.250  21.250  8.0034e-03
7.250  21.500  8.0035e-03
7.250  21.750  8.0050e-03
7.250  22.000  8.0034e-03
7.250  22.250  8.0034e-03
7.250  22.500  8.0034e-03
7.250  22.750  8.0042e-03
7.250  23.000  8.0042e-03
7.250  23.250  8.0035e-03
7.250  23.500  8.0034e-03
7.250  23.750  8.0035e-03
7.250  24.000  8.0035e-03
7.500  17.000  7.6648e-03
7.500  17.250  7.9781e-03
7.500  17.500  7.9861e-03
7.500  17.750  7.9870e-03
7.500  18.000  7.9893e-03
7.500  18.250  7.9923e-03
7.500  18.500  7.9956e-03
7.500  18.750  7.9983e-03
7.500  19.000  8.0002e-03
7.500  19.250  8.0012e-03
7.500  19.500  8.0022e-03
7.500  19.750  8.0029e-03
7.500  20.000  8.0031e-03
7.500  20.250  8.0032e-03
7.500  20.500  8.0033e-03
7.500  20.750  8.0033e-03
7.500  21.000  8.0034e-03
7.500  21.250  8.0034e-03
7.500  21.500  8.0034e-03
7.500  21.750  8.0034e-03
7.500  22.000  8.0034e-03
7.500  22.250  8.0035e-03
7.500  22.500  8.0035e-03
7.500  22.750  8.0035e-03
7.500  23.000  8.0038e-03
7.500  23.250  8.0042e-03
7.500  23.500  8.0034e-03
7.500  23.750  8.0044e-03
7.500  24.000  8.0034e-03
7.750  17.000  4.0414e-02
7.750  17.250  7.6663e-03
7.750  17.500  7.9785e-03
7.750  17.750  7.9861e-03
7.750  18.000  7.9870e-03
7.750  18.250  7.9893e-03
7.750  18.500  7.9923e-03
7.750  18.750  7.9956e-03
7.750  19.000  7.9983e-03
7.750  19.250  8.0002e-03
7.750  19.500  8.0012e-03
7.750  19.750  8.0022e-03
7.750  20.000  8.0029e-03
7.750  20.250  8.0031e-03
7.750  20.500  8.0032e-03
7.750  20.750  8.0033e-03
7.750  21.000  8.0033e-03
7.750  21.250  8.0033e-03
7.750  21.500  8.0034e-03
7.750  21.750  8.0034e-03
7.750  22.000  8.0034e-03
7.750  22.250  8.0034e-03
7.750  22.500  8.0034e-03
7.750  22.750  8.0036e-03
7.750  23.000  8.0036e-03
7.750  23.250  8.0035e-03
7.750  23.500  8.0042e-03
7.750  23.750  8.0042e-03
7.750  24.000  8.0034e-03
8.000  17.000  1.8643e-01
8.000  17.250  4.3517e-02
8.000  17.500  -8.0594e-02
8.000  17.750  -1.8331e-01
8.000  18.000  -2.6611e-01
8.000  18.250  -3.3044e-01
8.000  18.500  -3.7777e-01
8.000  18.750  -4.0957e-01
8.000  19.000  -4.2729e-01
8.000  19.250  -4.3241e-01
8.000  19.500  -4.2639e-01
8.000  19.750  -4.1069e-01
8.000  20.000  -3.8677e-01
8.000  20.250  -3.5611e-01
8.000  20.500  -3.2016e-01
8.000  20.750  -2.8038e-01
8.000  21.000  -2.3825e-01
8.000  21.250  -1.9523e-01
8.000  21.500  -1.5277e-01
8.000  21.750  -1.1235e-01
8.000  22.000  -7.5425e-02
8.000  22.250  -4.3464e-02
8.000  22.500  -1.7930e-02
8.000  22.750  -2.8595e-04
8.000  23.000  8.0034e-03
8.000  23.250  8.0039e-03
8.000  23.500  8.0034e-03
8.000  23.750  8.0034e-03
8.000  24.000  8.0034e-03
8.250  17.000  2.8292e-01
8.250  17.250  1.8485e-01
8.250  17.500  4.2923e-02
8.250  17.750  7.6652e-03
8.250  18.000  7.9778e-03
8.250  18.250  7.9861e-03
8.250  18.500  7.9870e-03
8.250  18.750  7.9894e-03
8.250  19.000  7.9924e-03
8.250  19.250  7.9956e-03
8.250  19.500  7.9984e-03
8.250  19.750  8.0002e-03
8.250  20.000  8.0012e-03
8.250  20.250  8.0022e-03
8.250  20.500  8.0029e-03
8.250  20.750  8.0031e-03
8.250  21.000  8.0032e-03
8.250  21.250  8.0033e-03
8.250  21.500  8.0033e-03
8.250  21.750  8.0033e-03
8.250  22.000  8.0033e-03
8.250  22.250  8.0033e-03
8.250  22.500  8.0033e-03
8.250  22.750  8.0035e-03
8.250  23.000  8.0034e-03
8.250  23.250  8.0054e-03
8.250  23.500  8.0034e-03
8.250  23.750  8.0034e-03
8.250  24.000  8.0040e-03
8.500  17.000  3.4584e-01
8.500  17.250  2.8077e-01
8.500  17.500  1.8295e-01
8.500  17.750  9.5446e-02
8.500  18.000  2.9360e-02
8.500  18.250  -1.7782e-02
8.500  18.500  -4.8458e-02
8.500  18.750  -6.5142e-02
8.500  19.000  -7.0310e-02
8.500  19.250  -6.6438e-02
8.500  19.500  -5.6002e-02
8.500  19.750  -4.1476e-02
8.500  20.000  -2.5337e-02
8.500  20.250  -1.0061e-02
8.500  20.500  1.8778e-03
8.500  20.750  8.0029e-03
8.500  21.000  8.0031e-03
8.500  21.250  8.0032e-03
8.500  21.500  8.0033e-03
8.500  21.750  8.0033e-03
8.500  22.000  8.0033e-03
8.500  22.250  8.0033e-03
8.500  22.500  8.0033e-03
8.500  22.750  8.0033e-03
8.500  23.000  8.0033e-03
8.500  23.250  8.0035e-03
8.500  23.500  8.0033e-03
8.500  23.750  8.0033e-03
8.500  24.000  8.0033e-03
8.750  17.000  3.8743e-01
8.750  17.250  3.4378e-01
8.750  17.500  2.7794e-01
8.750  17.750  1.8169e-01
8.750  18.000  9.8563e-02
8.750  18.250  3.8067e-02
8.750  18.500  -2.8538e-03
8.750  18.750  -2.7253e-02
8.750  19.000  -3.8184e-02
8.750  19.250  -3.8703e-02
8.750  19.500  -3.1862e-02
8.750  19.750  -2.0717e-02
8.750  20.000  -8.3223e-03
8.750  20.250  2.2687e-03
8.750  20.500  8.0012e-03
8.750  20.750  8.0022e-03
8.750  21.000  8.0029e-03
8.750  21.250  8.0031e-03
8.750  21.500  8.0032e-03
8.750  21.750  8.0033e-03
8.750  22.000  8.0033e-03
8.750  22.250  8.0033e-03
8.750  22.500  8.0033e-03
8.750  22.750  8.0033e-03
8.750  23.000  8.0041e-03
8.750  23.250  8.0033e-03
8.750  23.500  8.0035e-03
8.750  23.750  8.0033e-03
8.750  24.000  8.0033e-03
9.000  17.000  4.1517e-01
9.000  17.250  3.8546e-01
9.000  17.500  3.4055e-01
9.000  17.750  2.7308e-01
9.000  18.000  1.7573e-01
9.000  18.250  3.5948e-02
9.000  18.500  7.6674e-03
9.000  18.750  7.9779e-03
9.000  19.000  7.9859e-03
9.000  19.250  7.9869e-03
9.000  19.500  7.9894e-03
9.000  19.750  7.9925e-03
9.000  20.000  7.9956e-03
9.000  20.250  7.9984e-03
9.000  20.500  8.0002e-03
9.000  20.750  8.0012e-03
9.000  21.000  8.0022e-03
9.000  21.250  8.0029e-03
9.000  21.500  8.0031e-03
9.000  21.750  8.0032e-03
9.000  22.000  8.0032e-03
9.000  22.250  8.0033e-03
9.000  22.500  8.0033e-03
9.000  22.750  8.0033e-03
9.000  23.000  8.0033e-03
9.000  23.250  8.0033e-03
9.000  23.500  8.0033e-03
9.000  23.750  8.0033e-03
9.000  24.000  8.0034e-03
9.250  17.000  4.3386e-01
9.250  17.250  4.1336e-01
9.250  17.500  3.8214e-01
9.250  17.750  3.3465e-01
9.250  18.000  2.6440e-01
9.250  18.250  1.6402e-01
9.250  18.500  2.5060e-02
9.250  18.750  7.6664e-03
9.250  19.000  7.9772e-03
9.250  19.250  7.9858e-03
9.250  19.500  7.9869e-03
9.250  19.750  7.9895e-03
9.250  20.000  7.9925e-03
9.250  20.250  7.9956e-03
9.250  20.500  7.9984e-03
9.250  20.750  8.0002e-03
9.250  21.000  8.0012e-03
9.250  21.250  8.0022e-03
9.250  21.500  8.0025e-03
9.250  21.750  8.0026e-03
9.250  22.000  8.0026e-03
9.250  22.250  8.0027e-03
9.250  22.500  8.0030e-03
9.250  22.750  8.0030e-03
9.250  23.000  8.0030e-03
9.250  23.250  8.0031e-03
9.250  23.500  8.0031e-03
9.250  23.750  8.0031e-03
9.250  24.000  8.0032e-03
9.500  17.000  4.4647e-01
9.500  17.250  4.3215e-01
9.500  17.500  4.1027e-01
9.500  17.750  3.7654e-01
9.500  18.000  3.2450e-01
9.500  18.250  2.4733e-01
9.500  18.500  1.7536e-01
9.500  18.750  1.1620e-01
9.500  19.000  6.8748e-02
9.500  19.250  3.1878e-02
9.500  19.500  4.4731e-03
9.500  19.750  -1.4584e-02
9.500  20.000  -2.6411e-02
9.500  20.250  -3.2127e-02
9.500  20.500  -3.2850e-02
9.500  20.750  -2.9697e-02
9.500  21.000  -2.3786e-02
9.500  21.250  -1.6236e-02
9.500  21.500  -8.1637e-03
9.500  21.750  -6.8804e-04
9.500  22.000  5.0734e-03
9.500  22.250  8.0025e-03
9.500  22.500  8.0025e-03
9.500  22.750  8.0025e-03
9.500  23.000  8.0026e-03
9.500  23.250  8.0026e-03
9.500  23.500  8.0026e-03
9.500  23.750  8.0026e-03
9.500  24.000  8.0026e-03
9.750  17.000  4.5511e-01
9.750  17.250  4.4498e-01
9.750  17.500  4.2949e-01
9.750  17.750  4.0503e-01
9.750  18.000  3.6526e-01
9.750  18.250  3.0526e-01
9.750  18.500  2.1745e-01
9.750  18.750  1.3724e-01
9.750  19.000  7.3339e-02
9.750  19.250  2.4177e-02
9.750  19.500  -1.1833e-02
9.750  19.750  -3.6269e-02
9.750  20.000  -5.0715e-02
9.750  20.250  -5.6750e-02
9.750  20.500  -5.5956e-02
9.750  20.750  -4.9914e-02
9.750  21.000  -4.0206e-02
9.750  21.250  -2.8411e-02
9.750  21.500  -1.6112e-02
9.750  21.750  -4.8892e-03
9.750  22.000  3.6759e-03
9.750  22.250  8.0024e-03
9.750  22.500  8.0025e-03
9.750  22.750  8.0026e-03
9.750  23.000  8.0025e-03
9.750  23.250  8.0025e-03
9.750  23.500  8.0025e-03
9.750  23.750  8.0026e-03
9.750  24.000  8.0026e-03
10.000  17.000  4.6105e-01
10.000  17.250  4.5367e-01
10.000  17.500  4.4231e-01
10.000  17.750  4.2412e-01
10.000  18.000  3.9398e-01
10.000  18.250  3.4669e-01
10.000  18.500  2.7718e-01
10.000  18.750  1.8060e-01
10.000  19.000  9.6773e-02
10.000  19.250  3.4523e-02
10.000  19.500  -8.8359e-03
10.000  19.750  -3.5988e-02
10.000  20.000  -4.9619e-02
10.000  20.250  -5.2414e-02
10.000  20.500  -4.7058e-02
10.000  20.750  -3.6237e-02
10.000  21.000  -2.2635e-02
10.000  21.250  -8.9378e-03
10.000  21.500  2.1691e-03
10.000  21.750  8.0008e-03
10.000  22.000  8.0017e-03
10.000  22.250  8.0022e-03
10.000  22.500  8.0023e-03
10.000  22.750  8.0025e-03
10.000  23.000  8.0025e-03
10.000  23.250  8.0026e-03
10.000  23.500  8.0026e-03
10.000  23.750  8.0026e-03
10.000  24.000  8.0026e-03
10.250  17.000  4.6519e-01
10.250  17.250  4.5972e-01
10.250  17.500  4.5117e-01
10.250  17.750  4.3721e-01
10.250  18.000  4.1399e-01
10.250  18.250  3.7787e-01
10.250  18.500  3.2368e-01
10.250  18.750  2.4617e-01
10.250  19.000  1.3740e-01
10.250  19.250  5.3744e-02
10.250  19.500  4.7010e-03
10.250  19.750  -1.7464e-02
10.250  20.000  -2.0484e-02
10.250  20.250  -1.2092e-02
10.250  20.500  -2.3283e-05
10.250  20.750  7.9894e-03
10.250  21.000  7.9926e-03
10.250  21.250  7.9957e-03
10.250  21.500  7.9984e-03
10.250  21.750  7.9999e-03
10.250  22.000  8.0008e-03
10.250  22.250  8.0017e-03
10.250  22.500  8.0023e-03
10.250  22.750  8.0024e-03
10.250  23.000  8.0025e-03
10.250  23.250  8.0026e-03
10.250  23.500  8.0026e-03
10.250  23.750  8.0026e-03
10.250  24.000  8.0026e-03
10.500  17.000  4.6808e-01
10.500  17.250  4.6387e-01
10.500  17.500  4.5725e-01
10.500  17.750  4.4625e-01
10.500  18.000  4.2802e-01
10.500  18.250  3.9990e-01
10.500  18.500  3.5937e-01
10.500  18.750  2.9980e-01
10.500  19.000  2.1601e-01
10.500  19.250  1.4038e-01
10.500  19.500  8.0580e-02
10.500  19.750  3.4979e-02
10.500  20.000  1.9617e-03
10.500  20.250  -2.0088e-02
10.500  20.500  -3.2790e-02
10.500  20.750  -3.7760e-02
10.500  21.000  -3.6617e-02
10.500  21.250  -3.0980e-02
10.500  21.500  -2.2466e-02
10.500  21.750  -1.2692e-02
10.500  22.000  -3.2779e-03
10.500  22.250  4.1594e-03
10.500  22.500  8.0018e-03
10.500  22.750  8.0024e-03
10.500  23.000  8.0025e-03
10.500  23.250  8.0025e-03
10.500  23.500  8.0026e-03
10.500  23.750  8.0026e-03
10.500  24.000  8.0026e-03
10.750  17.000  4.7004e-01
10.750  17.250  4.6671e-01
10.750  17.500  4.6137e-01
10.750  17.750  4.5236e-01
10.750  18.000  4.3782e-01
10.750  18.250  4.1645e-01
10.750  18.500  3.8621e-01
10.750  18.750  3.4309e-01
10.750  19.000  2.8057e-01
10.750  19.250  1.8912e-01
10.750  19.500  6.3274e-02
10.750  19.750  7.3568e-03
10.750  20.000  7.4472e-03
10.750  20.250  7.6238e-03
10.750  20.500  7.9407e-03
10.750  20.750  7.9807e-03
10.750  21.000  7.9852e-03
10.750  21.250  7.9891e-03
10.750  21.500  7.9926e-03
10.750  21.750  7.9957e-03
10.750  22.000  7.9984e-03
10.750  22.250  8.0002e-03
10.750  22.500  8.0011e-03
10.750  22.750  8.0018e-03
10.750  23.000  8.0024e-03
10.750  23.250  8.0026e-03
10.750  23.500  8.0026e-03
10.750  23.750  8.0025e-03
10.750  24.000  8.0026e-03
11.000  17.000  4.7130e-01
11.000  17.250  4.6856e-01
11.000  17.500  4.6394e-01
11.000  17.750  4.5631e-01
11.000  18.000  4.4468e-01
11.000  18.250  4.2838e-01
11.000  18.500  4.0663e-01
11.000  18.750  3.7547e-01
11.000  19.000  3.2990e-01
11.000  19.250  2.6254e-01
11.000  19.500  1.6350e-01
11.000  19.750  7.9724e-02
11.000  20.000  2.1351e-02
11.000  20.250  -1.5460e-02
11.000  20.500  -3.4550e-02
11.000  20.750  -3.9758e-02
11.000  21.000  -3.4927e-02
11.000  21.250  -2.3895e-02
11.000  21.500  -1.0503e-02
11.000  21.750  1.4070e-03
11.000  22.000  7.9957e-03
11.000  22.250  7.9984e-03
11.000  22.500  8.0002e-03
11.000  22.750  8.0012e-03
11.000  23.000  8.0020e-03
11.000  23.250  8.0025e-03
11.000  23.500  8.0026e-03
11.000  23.750  8.0026e-03
11.000  24.000  8.0026e-03
11.250  17.000  4.7191e-01
11.250  17.250  4.6953e-01
11.250  17.500  4.6524e-01
11.250  17.750  4.5849e-01
11.250  18.000  4.4892e-01
11.250  18.250  4.3675e-01
11.250  18.500  4.2078e-01
11.250  18.750  3.9833e-01
11.250  19.000  3.6595e-01
11.250  19.250  3.1838e-01
11.250  19.500  2.4695e-01
11.250  19.750  1.3851e-01
11.250  20.000  1.0570e-02
11.250  20.250  7.3427e-03
11.250  20.500  7.4468e-03
11.250  20.750  7.6286e-03
11.250  21.000  7.9458e-03
11.250  21.250  7.9778e-03
11.250  21.500  7.9837e-03
11.250  21.750  7.9886e-03
11.250  22.000  7.9924e-03
11.250  22.250  7.9957e-03
11.250  22.500  7.9983e-03
11.250  22.750  8.0002e-03
11.250  23.000  8.0012e-03
11.250  23.250  8.0021e-03
11.250  23.500  8.0025e-03
11.250  23.750  8.0026e-03
11.250  24.000  8.0027e-03
11.500  17.000  4.7194e-01
11.500  17.250  4.6960e-01
11.500  17.500  4.6535e-01
11.500  17.750  4.5897e-01
11.500  18.000  4.5090e-01
11.500  18.250  4.4155e-01
11.500  18.500  4.2981e-01
11.500  18.750  4.1383e-01
11.500  19.000  3.9142e-01
11.500  19.250  3.5802e-01
11.500  19.500  3.0800e-01
11.500  19.750  2.3173e-01
11.500  20.000  1.1448e-01
11.500  20.250  7.2196e-03
11.500  20.500  7.3425e-03
11.500  20.750  7.4519e-03
11.500  21.000  7.6480e-03
11.500  21.250  7.9598e-03
11.500  21.500  7.9763e-03
11.500  21.750  7.9829e-03
11.500  22.000  7.9881e-03
11.500  22.250  7.9923e-03
11.500  22.500  7.9956e-03
11.500  22.750  7.9983e-03
11.500  23.000  8.0002e-03
11.500  23.250  8.0012e-03
11.500  23.500  8.0022e-03
11.500  23.750  8.0026e-03
11.500  24.000  8.0027e-03
11.750  17.000  4.7128e-01
11.750  17.250  4.6869e-01
11.750  17.500  4.6413e-01
11.750  17.750  4.5761e-01
11.750  18.000  4.5065e-01
11.750  18.250  4.4334e-01
11.750  18.500  4.3477e-01
11.750  18.750  4.2363e-01
11.750  19.000  4.0779e-01
11.750  19.250  3.8503e-01
11.750  19.500  3.5063e-01
11.750  19.750  2.9875e-01
11.750  20.000  2.1784e-01
11.750  20.250  9.2480e-02
11.750  20.500  7.2525e-03
11.750  20.750  7.3446e-03
11.750  21.000  7.4659e-03
11.750  21.250  7.6966e-03
11.750  21.500  7.9626e-03
11.750  21.750  7.9746e-03
11.750  22.000  7.9820e-03
11.750  22.250  7.9877e-03
11.750  22.500  7.9921e-03
11.750  22.750  7.9955e-03
11.750  23.000  7.9982e-03
11.750  23.250  8.0002e-03
11.750  23.500  8.0012e-03
11.750  23.750  8.0022e-03
11.750  24.000  8.0027e-03
12.000  17.000  4.6964e-01
12.000  17.250  4.6641e-01
12.000  17.500  4.6095e-01
12.000  17.750  4.5424e-01
12.000  18.000  4.4828e-01
12.000  18.250  4.4275e-01
12.000  18.500  4.3655e-01
12.000  18.750  4.2861e-01
12.000  19.000  4.1769e-01
12.000  19.250  4.0233e-01
12.000  19.500  3.7930e-01
12.000  19.750  3.4421e-01
12.000  20.000  2.9014e-01
12.000  20.250  2.0556e-01
12.000  20.500  7.3246e-02
12.000  20.750  7.2410e-03
12.000  21.000  7.3535e-03
12.000  21.250  7.5098e-03
12.000  21.500  7.7848e-03
12.000  21.750  7.9613e-03
12.000  22.000  7.9734e-03
12.000  22.250  7.9814e-03
12.000  22.500  7.9873e-03
12.000  22.750  7.9919e-03
12.000  23.000  7.9954e-03
12.000  23.250  7.9981e-03
12.000  23.500  8.0002e-03
12.000  23.750  8.0012e-03
12.000  24.000  8.0022e-03
12.250  17.000  4.6521e-01
12.250  17.250  4.6105e-01
12.250  17.500  4.5481e-01
12.250  17.750  4.4878e-01
12.250  18.000  4.4429e-01
12.250  18.250  4.4030e-01
12.250  18.500  4.3600e-01
12.250  18.750  4.3038e-01
12.250  19.000  4.2300e-01
12.250  19.250  4.1264e-01
12.250  19.500  3.9766e-01
12.250  19.750  3.7423e-01
12.250  20.000  3.3860e-01
12.250  20.250  2.8277e-01
12.250  20.500  1.9413e-01
12.250  20.750  5.4201e-02
12.250  21.000  7.2390e-03
12.250  21.250  7.3792e-03
12.250  21.500  7.5758e-03
12.250  21.750  7.8905e-03
12.250  22.000  7.9593e-03
12.250  22.250  7.9709e-03
12.250  22.500  7.9800e-03
12.250  22.750  7.9868e-03
12.250  23.000  7.9916e-03
12.250  23.250  7.9952e-03
12.250  23.500  7.9980e-03
12.250  23.750  8.0002e-03
12.250  24.000  8.0012e-03
12.500  17.000  4.5440e-01
12.500  17.250  4.4972e-01
12.500  17.500  4.4483e-01
12.500  17.750  4.4156e-01
12.500  18.000  4.3901e-01
12.500  18.250  4.3649e-01
12.500  18.500  4.3357e-01
12.500  18.750  4.2998e-01
12.500  19.000  4.2523e-01
12.500  19.250  4.1845e-01
12.500  19.500  4.0861e-01
12.500  19.750  3.9369e-01
12.500  20.000  3.7007e-01
12.500  20.250  3.3360e-01
12.500  20.500  2.7558e-01
12.500  20.750  1.8361e-01
12.500  21.000  4.0357e-02
12.500  21.250  7.2553e-03
12.500  21.500  7.4214e-03
12.500  21.750  7.6574e-03
12.500  22.000  7.9390e-03
12.500  22.250  7.9570e-03
12.500  22.500  7.9688e-03
12.500  22.750  7.9787e-03
12.500  23.000  7.9861e-03
12.500  23.250  7.9913e-03
12.500  23.500  7.9950e-03
12.500  23.750  7.9979e-03
12.500  24.000  8.0002e-03
12.750  17.000  3.5912e-01
12.750  17.250  4.3038e-01
12.750  17.500  4.3419e-01
12.750  17.750  4.3362e-01
12.750  18.000  4.3251e-01
12.750  18.250  4.3115e-01
12.750  18.500  4.2962e-01
12.750  18.750  4.2766e-01
12.750  19.000  4.2494e-01
12.750  19.250  4.2100e-01
12.750  19.500  4.1485e-01
12.750  19.750  4.0515e-01
12.750  20.000  3.9020e-01
12.750  20.250  3.6626e-01
12.750  20.500  3.2854e-01
12.750  20.750  2.6876e-01
12.750  21.000  1.7114e-01
12.750  21.250  2.0015e-02
12.750  21.500  7.2790e-03
12.750  21.750  7.4823e-03
12.750  22.000  7.7449e-03
12.750  22.250  7.9392e-03
12.750  22.500  7.9550e-03
12.750  22.750  7.9672e-03
12.750  23.000  7.9775e-03
12.750  23.250  7.9853e-03
12.750  23.500  7.9908e-03
12.750  23.750  7.9947e-03
12.750  24.000  7.9978e-03
13.000  17.000  2.0235e-01
13.000  17.250  3.3221e-01
13.000  17.500  4.0596e-01
13.000  17.750  4.2511e-01
13.000  18.000  4.2477e-01
13.000  18.250  4.2436e-01
13.000  18.500  4.2402e-01
13.000  18.750  4.2354e-01
13.000  19.000  4.2261e-01
13.000  19.250  4.2088e-01
13.000  19.500  4.1753e-01
13.000  19.750  4.1164e-01
13.000  20.000  4.0207e-01
13.000  20.250  3.8695e-01
13.000  20.500  3.6234e-01
13.000  20.750  3.2330e-01
13.000  21.000  2.6046e-01
13.000  21.250  1.5715e-01
13.000  21.500  8.0191e-03
13.000  21.750  7.3190e-03
13.000  22.000  7.5359e-03
13.000  22.250  7.8107e-03
13.000  22.500  7.9380e-03
13.000  22.750  7.9536e-03
13.000  23.000  7.9662e-03
13.000  23.250  7.9764e-03
13.000  23.500  7.9845e-03
13.000  23.750  7.9902e-03
13.000  24.000  7.9942e-03
13.250  17.000  1.3014e-01
13.250  17.250  2.2673e-01
13.250  17.500  3.7433e-01
13.250  17.750  4.1551e-01
13.250  18.000  4.1567e-01
13.250  18.250  4.1589e-01
13.250  18.500  4.1660e-01
13.250  18.750  4.1757e-01
13.250  19.000  4.1831e-01
13.250  19.250  4.1850e-01
13.250  19.500  4.1748e-01
13.250  19.750  4.1457e-01
13.250  20.000  4.0882e-01
13.250  20.250  3.9899e-01
13.250  20.500  3.8324e-01
13.250  20.750  3.5769e-01
13.250  21.000  3.1659e-01
13.250  21.250  2.5045e-01
13.250  21.500  1.4725e-01
13.250  21.750  7.1077e-03
13.250  22.000  7.3360e-03
13.250  22.250  7.5747e-03
13.250  22.500  7.8312e-03
13.250  22.750  7.9368e-03
13.250  23.000  7.9521e-03
13.250  23.250  7.9646e-03
13.250  23.500  7.9754e-03
13.250  23.750  7.9837e-03
13.250  24.000  7.9894e-03
13.500  17.000  8.1540e-02
13.500  17.250  1.4980e-01
13.500  17.500  2.7406e-01
13.500  17.750  3.7543e-01
13.500  18.000  4.0509e-01
13.500  18.250  4.0572e-01
13.500  18.500  4.0731e-01
13.500  18.750  4.0963e-01
13.500  19.000  4.1197e-01
13.500  19.250  4.1391e-01
13.500  19.500  4.1481e-01
13.500  19.750  4.1420e-01
13.500  20.000  4.1144e-01
13.500  20.250  4.0559e-01
13.500  20.500  3.9535e-01
13.500  20.750  3.7892e-01
13.500  21.000  3.5224e-01
13.500  21.250  3.0891e-01
13.500  21.500  2.4284e-01
13.500  21.750  1.3432e-01
13.500  22.000  7.1096e-03
13.500  22.250  7.3347e-03
13.500  22.500  7.5646e-03
13.500  22.750  7.8188e-03
13.500  23.000  7.9347e-03
13.500  23.250  7.9499e-03
13.500  23.500  7.9633e-03
13.500  23.750  7.9744e-03
13.500  24.000  7.9826e-03
13.750  17.000  5.0957e-02
13.750  17.250  9.5382e-02
13.750  17.500  1.9042e-01
13.750  17.750  2.9529e-01
13.750  18.000  3.8792e-01
13.750  18.250  3.9324e-01
13.750  18.500  3.9601e-01
13.750  18.750  3.9964e-01
13.750  19.000  4.0348e-01
13.750  19.250  4.0717e-01
13.750  19.500  4.0995e-01
13.750  19.750  4.1136e-01
13.750  20.000  4.1094e-01
13.750  20.250  4.0805e-01
13.750  20.500  4.0183e-01
13.750  20.750  3.9091e-01
13.750  21.000  3.7327e-01
13.750  21.250  3.4466e-01
13.750  21.500  3.0105e-01
13.750  21.750  2.2843e-01
13.750  22.000  1.1618e-01
13.750  22.250  7.1181e-03
13.750  22.500  7.3109e-03
13.750  22.750  7.5522e-03
13.750  23.000  7.8118e-03
13.750  23.250  7.9313e-03
13.750  23.500  7.9472e-03
13.750  23.750  7.9616e-03
13.750  24.000  7.9728e-03
14.000  17.000  3.1147e-02
14.000  17.250  6.0286e-02
14.000  17.500  1.2393e-01
14.000  17.750  2.1754e-01
14.000  18.000  3.1877e-01
14.000  18.250  3.7810e-01
14.000  18.500  3.8169e-01
14.000  18.750  3.8695e-01
14.000  19.000  3.9276e-01
14.000  19.250  3.9817e-01
14.000  19.500  4.0288e-01
14.000  19.750  4.0622e-01
14.000  20.000  4.0786e-01
14.000  20.250  4.0743e-01
14.000  20.500  4.0418e-01
14.000  20.750  3.9723e-01
14.000  21.000  3.8526e-01
14.000  21.250  3.6557e-01
14.000  21.500  3.3574e-01
14.000  21.750  2.8596e-01
14.000  22.000  2.0571e-01
14.000  22.250  8.9038e-02
14.000  22.500  7.1198e-03
14.000  22.750  7.2950e-03
14.000  23.000  7.5366e-03
14.000  23.250  7.8202e-03
14.000  23.500  7.9258e-03
14.000  23.750  7.9429e-03
14.000  24.000  7.9586e-03
