nFnu 1585.12A  relative to Inci 1215.00A scaled to 1215A.
Hden   Phi(H)  Eq_Width (A)
7.000  17.000  3.4406e-02
7.000  17.250  2.2879e-02
7.000  17.500  1.6024e-02
7.000  17.750  1.2162e-02
7.000  18.000  1.0157e-02
7.000  18.250  9.0411e-03
7.000  18.500  8.4138e-03
7.000  18.750  8.1370e-03
7.000  19.000  7.9937e-03
7.000  19.250  7.9142e-03
7.000  19.500  7.8812e-03
7.000  19.750  7.8673e-03
7.000  20.000  7.8614e-03
7.000  20.250  7.8586e-03
7.000  20.500  7.8572e-03
7.000  20.750  7.8565e-03
7.000  21.000  7.8560e-03
7.000  21.250  7.8559e-03
7.000  21.500  7.8559e-03
7.000  21.750  7.8556e-03
7.000  22.000  7.8556e-03
7.000  22.250  7.8556e-03
7.000  22.500  7.8556e-03
7.000  22.750  7.8558e-03
7.000  23.000  7.8558e-03
7.000  23.250  7.8556e-03
7.000  23.500  7.8556e-03
7.000  23.750  7.8556e-03
7.000  24.000  7.8556e-03
7.250  17.000  5.3084e-02
7.250  17.250  3.4298e-02
7.250  17.500  2.2820e-02
7.250  17.750  1.5991e-02
7.250  18.000  1.2147e-02
7.250  18.250  1.0149e-02
7.250  18.500  9.0376e-03
7.250  18.750  8.4126e-03
7.250  19.000  8.1365e-03
7.250  19.250  7.9936e-03
7.250  19.500  7.9142e-03
7.250  19.750  7.8812e-03
7.250  20.000  7.8673e-03
7.250  20.250  7.8614e-03
7.250  20.500  7.8586e-03
7.250  20.750  7.8572e-03
7.250  21.000  7.8565e-03
7.250  21.250  7.8560e-03
7.250  21.500  7.8559e-03
7.250  21.750  7.8573e-03
7.250  22.000  7.8556e-03
7.250  22.250  7.8556e-03
7.250  22.500  7.8556e-03
7.250  22.750  7.8564e-03
7.250  23.000  7.8564e-03
7.250  23.250  7.8556e-03
7.250  23.500  7.8556e-03
7.250  23.750  7.8556e-03
7.250  24.000  7.8556e-03
7.500  17.000  6.1079e-02
7.500  17.250  5.3003e-02
7.500  17.500  3.4233e-02
7.500  17.750  2.2783e-02
7.500  18.000  1.5969e-02
7.500  18.250  1.2136e-02
7.500  18.500  1.0144e-02
7.500  18.750  9.0354e-03
7.500  19.000  8.4118e-03
7.500  19.250  8.1362e-03
7.500  19.500  7.9935e-03
7.500  19.750  7.9142e-03
7.500  20.000  7.8812e-03
7.500  20.250  7.8673e-03
7.500  20.500  7.8614e-03
7.500  20.750  7.8585e-03
7.500  21.000  7.8571e-03
7.500  21.250  7.8565e-03
7.500  21.500  7.8560e-03
7.500  21.750  7.8559e-03
7.500  22.000  7.8557e-03
7.500  22.250  7.8556e-03
7.500  22.500  7.8556e-03
7.500  22.750  7.8556e-03
7.500  23.000  7.8560e-03
7.500  23.250  7.8564e-03
7.500  23.500  7.8556e-03
7.500  23.750  7.8565e-03
7.500  24.000  7.8556e-03
7.750  17.000  7.2264e-02
7.750  17.250  6.0599e-02
7.750  17.500  5.2962e-02
7.750  17.750  3.4195e-02
7.750  18.000  2.2761e-02
7.750  18.250  1.5952e-02
7.750  18.500  1.2127e-02
7.750  18.750  1.0140e-02
7.750  19.000  9.0339e-03
7.750  19.250  8.4113e-03
7.750  19.500  8.1360e-03
7.750  19.750  7.9934e-03
7.750  20.000  7.9142e-03
7.750  20.250  7.8812e-03
7.750  20.500  7.8673e-03
7.750  20.750  7.8613e-03
7.750  21.000  7.8585e-03
7.750  21.250  7.8571e-03
7.750  21.500  7.8564e-03
7.750  21.750  7.8560e-03
7.750  22.000  7.8558e-03
7.750  22.250  7.8557e-03
7.750  22.500  7.8556e-03
7.750  22.750  7.8558e-03
7.750  23.000  7.8559e-03
7.750  23.250  7.8556e-03
7.750  23.500  7.8564e-03
7.750  23.750  7.8564e-03
7.750  24.000  7.8556e-03
8.000  17.000  6.7657e-02
8.000  17.250  7.0349e-02
8.000  17.500  5.9953e-02
8.000  17.750  5.2883e-02
8.000  18.000  3.4173e-02
8.000  18.250  2.2747e-02
8.000  18.500  1.5938e-02
8.000  18.750  1.2120e-02
8.000  19.000  1.0138e-02
8.000  19.250  9.0329e-03
8.000  19.500  8.4109e-03
8.000  19.750  8.1359e-03
8.000  20.000  7.9933e-03
8.000  20.250  7.9142e-03
8.000  20.500  7.8811e-03
8.000  20.750  7.8673e-03
8.000  21.000  7.8613e-03
8.000  21.250  7.8585e-03
8.000  21.500  7.8571e-03
8.000  21.750  7.8564e-03
8.000  22.000  7.8560e-03
8.000  22.250  7.8558e-03
8.000  22.500  7.8556e-03
8.000  22.750  7.8558e-03
8.000  23.000  7.8556e-03
8.000  23.250  7.8560e-03
8.000  23.500  7.8556e-03
8.000  23.750  7.8556e-03
8.000  24.000  7.8556e-03
8.250  17.000  6.3889e-02
8.250  17.250  6.6731e-02
8.250  17.500  6.9605e-02
8.250  17.750  5.9682e-02
8.250  18.000  5.2876e-02
8.250  18.250  3.4159e-02
8.250  18.500  2.2739e-02
8.250  18.750  1.5927e-02
8.250  19.000  1.2113e-02
8.250  19.250  1.0135e-02
8.250  19.500  9.0321e-03
8.250  19.750  8.4107e-03
8.250  20.000  8.1358e-03
8.250  20.250  7.9933e-03
8.250  20.500  7.9141e-03
8.250  20.750  7.8812e-03
8.250  21.000  7.8673e-03
8.250  21.250  7.8613e-03
8.250  21.500  7.8585e-03
8.250  21.750  7.8571e-03
8.250  22.000  7.8564e-03
8.250  22.250  7.8560e-03
8.250  22.500  7.8558e-03
8.250  22.750  7.8559e-03
8.250  23.000  7.8556e-03
8.250  23.250  7.8576e-03
8.250  23.500  7.8556e-03
8.250  23.750  7.8556e-03
8.250  24.000  7.8561e-03
8.500  17.000  6.0503e-02
8.500  17.250  6.3202e-02
8.500  17.500  6.6156e-02
8.500  17.750  6.9154e-02
8.500  18.000  5.9549e-02
8.500  18.250  5.2869e-02
8.500  18.500  3.4149e-02
8.500  18.750  2.2734e-02
8.500  19.000  1.5915e-02
8.500  19.250  1.2106e-02
8.500  19.500  1.0133e-02
8.500  19.750  9.0314e-03
8.500  20.000  8.4105e-03
8.500  20.250  8.1358e-03
8.500  20.500  7.9933e-03
8.500  20.750  7.9141e-03
8.500  21.000  7.8811e-03
8.500  21.250  7.8673e-03
8.500  21.500  7.8613e-03
8.500  21.750  7.8585e-03
8.500  22.000  7.8571e-03
8.500  22.250  7.8564e-03
8.500  22.500  7.8560e-03
8.500  22.750  7.8558e-03
8.500  23.000  7.8556e-03
8.500  23.250  7.8558e-03
8.500  23.500  7.8556e-03
8.500  23.750  7.8556e-03
8.500  24.000  7.8555e-03
8.750  17.000  5.7451e-02
8.750  17.250  6.0110e-02
8.750  17.500  6.2904e-02
8.750  17.750  6.5842e-02
8.750  18.000  6.8946e-02
8.750  18.250  5.9486e-02
8.750  18.500  5.2855e-02
8.750  18.750  3.4142e-02
8.750  19.000  2.2730e-02
8.750  19.250  1.5903e-02
8.750  19.500  1.2099e-02
8.750  19.750  1.0130e-02
8.750  20.000  9.0309e-03
8.750  20.250  8.4104e-03
8.750  20.500  8.1357e-03
8.750  20.750  7.9933e-03
8.750  21.000  7.9141e-03
8.750  21.250  7.8811e-03
8.750  21.500  7.8673e-03
8.750  21.750  7.8613e-03
8.750  22.000  7.8585e-03
8.750  22.250  7.8571e-03
8.750  22.500  7.8564e-03
8.750  22.750  7.8560e-03
8.750  23.000  7.8565e-03
8.750  23.250  7.8556e-03
8.750  23.500  7.8558e-03
8.750  23.750  7.8556e-03
8.750  24.000  7.8556e-03
9.000  17.000  5.4445e-02
9.000  17.250  5.7331e-02
9.000  17.500  6.0099e-02
9.000  17.750  6.2973e-02
9.000  18.000  6.5960e-02
9.000  18.250  6.9074e-02
9.000  18.500  5.9436e-02
9.000  18.750  5.2831e-02
9.000  19.000  3.4135e-02
9.000  19.250  2.2727e-02
9.000  19.500  1.5892e-02
9.000  19.750  1.2092e-02
9.000  20.000  1.0128e-02
9.000  20.250  9.0304e-03
9.000  20.500  8.4102e-03
9.000  20.750  8.1357e-03
9.000  21.000  7.9933e-03
9.000  21.250  7.9141e-03
9.000  21.500  7.8811e-03
9.000  21.750  7.8673e-03
9.000  22.000  7.8613e-03
9.000  22.250  7.8585e-03
9.000  22.500  7.8571e-03
9.000  22.750  7.8564e-03
9.000  23.000  7.8560e-03
9.000  23.250  7.8558e-03
9.000  23.500  7.8556e-03
9.000  23.750  7.8556e-03
9.000  24.000  7.8556e-03
9.250  17.000  5.1145e-02
9.250  17.250  5.4511e-02
9.250  17.500  5.7617e-02
9.250  17.750  6.0588e-02
9.250  18.000  6.3576e-02
9.250  18.250  6.6754e-02
9.250  18.500  6.9703e-02
9.250  18.750  5.9360e-02
9.250  19.000  5.2790e-02
9.250  19.250  3.4128e-02
9.250  19.500  2.2726e-02
9.250  19.750  1.5882e-02
9.250  20.000  1.2086e-02
9.250  20.250  1.0127e-02
9.250  20.500  9.0300e-03
9.250  20.750  8.4101e-03
9.250  21.000  8.1357e-03
9.250  21.250  7.9933e-03
9.250  21.500  7.9137e-03
9.250  21.750  7.8806e-03
9.250  22.000  7.8667e-03
9.250  22.250  7.8608e-03
9.250  22.500  7.8582e-03
9.250  22.750  7.8568e-03
9.250  23.000  7.8561e-03
9.250  23.250  7.8558e-03
9.250  23.500  7.8556e-03
9.250  23.750  7.8555e-03
9.250  24.000  7.8555e-03
9.500  17.000  4.7265e-02
9.500  17.250  5.1283e-02
9.500  17.500  5.5054e-02
9.500  17.750  5.8568e-02
9.500  18.000  6.1809e-02
9.500  18.250  6.5223e-02
9.500  18.500  6.9024e-02
9.500  18.750  7.0619e-02
9.500  19.000  5.9244e-02
9.500  19.250  5.2723e-02
9.500  19.500  3.4119e-02
9.500  19.750  2.2726e-02
9.500  20.000  1.5874e-02
9.500  20.250  1.2080e-02
9.500  20.500  1.0125e-02
9.500  20.750  9.0293e-03
9.500  21.000  8.4095e-03
9.500  21.250  8.1352e-03
9.500  21.500  7.9927e-03
9.500  21.750  7.9133e-03
9.500  22.000  7.8803e-03
9.500  22.250  7.8666e-03
9.500  22.500  7.8606e-03
9.500  22.750  7.8578e-03
9.500  23.000  7.8564e-03
9.500  23.250  7.8556e-03
9.500  23.500  7.8552e-03
9.500  23.750  7.8551e-03
9.500  24.000  7.8549e-03
9.750  17.000  4.2531e-02
9.750  17.250  4.7280e-02
9.750  17.500  5.1921e-02
9.750  17.750  5.6348e-02
9.750  18.000  6.0495e-02
9.750  18.250  6.4484e-02
9.750  18.500  6.8701e-02
9.750  18.750  7.3284e-02
9.750  19.000  6.9962e-02
9.750  19.250  5.9058e-02
9.750  19.500  5.2614e-02
9.750  19.750  3.4109e-02
9.750  20.000  2.2726e-02
9.750  20.250  1.5870e-02
9.750  20.500  1.2076e-02
9.750  20.750  1.0124e-02
9.750  21.000  9.0291e-03
9.750  21.250  8.4094e-03
9.750  21.500  8.1352e-03
9.750  21.750  7.9928e-03
9.750  22.000  7.9133e-03
9.750  22.250  7.8803e-03
9.750  22.500  7.8666e-03
9.750  22.750  7.8606e-03
9.750  23.000  7.8578e-03
9.750  23.250  7.8563e-03
9.750  23.500  7.8556e-03
9.750  23.750  7.8552e-03
9.750  24.000  7.8550e-03
10.000  17.000  3.6887e-02
10.000  17.250  4.2278e-02
10.000  17.500  4.7798e-02
10.000  17.750  5.3444e-02
10.000  18.000  5.8935e-02
10.000  18.250  6.4088e-02
10.000  18.500  6.8711e-02
10.000  18.750  7.3374e-02
10.000  19.000  7.7523e-02
10.000  19.250  6.8955e-02
10.000  19.500  5.8754e-02
10.000  19.750  5.2437e-02
10.000  20.000  3.4098e-02
10.000  20.250  2.2727e-02
10.000  20.500  1.5867e-02
10.000  20.750  1.2072e-02
10.000  21.000  1.0124e-02
10.000  21.250  9.0290e-03
10.000  21.500  8.4093e-03
10.000  21.750  8.1353e-03
10.000  22.000  7.9928e-03
10.000  22.250  7.9135e-03
10.000  22.500  7.8803e-03
10.000  22.750  7.8666e-03
10.000  23.000  7.8606e-03
10.000  23.250  7.8578e-03
10.000  23.500  7.8564e-03
10.000  23.750  7.8556e-03
10.000  24.000  7.8552e-03
10.250  17.000  3.1587e-02
10.250  17.250  3.6417e-02
10.250  17.500  4.2708e-02
10.250  17.750  4.9469e-02
10.250  18.000  5.6477e-02
10.250  18.250  6.2941e-02
10.250  18.500  6.8416e-02
10.250  18.750  7.3400e-02
10.250  19.000  7.8623e-02
10.250  19.250  8.2180e-02
10.250  19.500  6.8209e-02
10.250  19.750  5.8303e-02
10.250  20.000  5.2207e-02
10.250  20.250  3.4089e-02
10.250  20.500  2.2728e-02
10.250  20.750  1.5867e-02
10.250  21.000  1.2071e-02
10.250  21.250  1.0124e-02
10.250  21.500  9.0289e-03
10.250  21.750  8.4092e-03
10.250  22.000  8.1353e-03
10.250  22.250  7.9929e-03
10.250  22.500  7.9136e-03
10.250  22.750  7.8803e-03
10.250  23.000  7.8666e-03
10.250  23.250  7.8606e-03
10.250  23.500  7.8578e-03
10.250  23.750  7.8564e-03
10.250  24.000  7.8556e-03
10.500  17.000  2.7193e-02
10.500  17.250  3.1026e-02
10.500  17.500  3.6844e-02
10.500  17.750  4.4551e-02
10.500  18.000  5.2604e-02
10.500  18.250  6.0112e-02
10.500  18.500  6.6545e-02
10.500  18.750  7.1935e-02
10.500  19.000  7.7080e-02
10.500  19.250  8.3068e-02
10.500  19.500  8.4440e-02
10.500  19.750  6.8298e-02
10.500  20.000  5.8232e-02
10.500  20.250  5.1945e-02
10.500  20.500  3.4084e-02
10.500  20.750  2.2728e-02
10.500  21.000  1.5870e-02
10.500  21.250  1.2070e-02
10.500  21.500  1.0125e-02
10.500  21.750  9.0291e-03
10.500  22.000  8.4093e-03
10.500  22.250  8.1354e-03
10.500  22.500  7.9929e-03
10.500  22.750  7.9137e-03
10.500  23.000  7.8805e-03
10.500  23.250  7.8666e-03
10.500  23.500  7.8606e-03
10.500  23.750  7.8578e-03
10.500  24.000  7.8564e-03
10.750  17.000  2.3993e-02
10.750  17.250  2.6720e-02
10.750  17.500  3.1576e-02
10.750  17.750  3.8864e-02
10.750  18.000  4.7133e-02
10.750  18.250  5.5037e-02
10.750  18.500  6.2035e-02
10.750  18.750  6.8276e-02
10.750  19.000  7.4015e-02
10.750  19.250  7.9794e-02
10.750  19.500  8.6252e-02
10.750  19.750  8.3990e-02
10.750  20.000  6.8988e-02
10.750  20.250  5.8726e-02
10.750  20.500  5.1833e-02
10.750  20.750  3.4088e-02
10.750  21.000  2.2727e-02
10.750  21.250  1.5874e-02
10.750  21.500  1.2072e-02
10.750  21.750  1.0126e-02
10.750  22.000  9.0293e-03
10.750  22.250  8.4093e-03
10.750  22.500  8.1356e-03
10.750  22.750  7.9930e-03
10.750  23.000  7.9137e-03
10.750  23.250  7.8806e-03
10.750  23.500  7.8667e-03
10.750  23.750  7.8606e-03
10.750  24.000  7.8578e-03
11.000  17.000  2.1844e-02
11.000  17.250  2.3770e-02
11.000  17.500  2.7376e-02
11.000  17.750  3.3056e-02
11.000  18.000  4.0221e-02
11.000  18.250  4.7759e-02
11.000  18.500  5.5260e-02
11.000  18.750  6.2440e-02
11.000  19.000  6.9050e-02
11.000  19.250  7.5257e-02
11.000  19.500  8.1530e-02
11.000  19.750  8.8332e-02
11.000  20.000  8.5345e-02
11.000  20.250  7.1946e-02
11.000  20.500  5.9767e-02
11.000  20.750  5.1985e-02
11.000  21.000  3.4113e-02
11.000  21.250  2.2724e-02
11.000  21.500  1.5880e-02
11.000  21.750  1.2075e-02
11.000  22.000  1.0128e-02
11.000  22.250  9.0298e-03
11.000  22.500  8.4091e-03
11.000  22.750  8.1357e-03
11.000  23.000  7.9932e-03
11.000  23.250  7.9137e-03
11.000  23.500  7.8807e-03
11.000  23.750  7.8667e-03
11.000  24.000  7.8607e-03
11.250  17.000  2.0486e-02
11.250  17.250  2.1958e-02
11.250  17.500  2.4255e-02
11.250  17.750  2.7820e-02
11.250  18.000  3.2957e-02
11.250  18.250  3.9405e-02
11.250  18.500  4.6946e-02
11.250  18.750  5.4867e-02
11.250  19.000  6.2373e-02
11.250  19.250  6.9227e-02
11.250  19.500  7.5640e-02
11.250  19.750  8.2179e-02
11.250  20.000  8.9013e-02
11.250  20.250  8.6495e-02
11.250  20.500  7.3112e-02
11.250  20.750  6.1592e-02
11.250  21.000  5.2703e-02
11.250  21.250  3.4158e-02
11.250  21.500  2.2716e-02
11.250  21.750  1.5886e-02
11.250  22.000  1.2079e-02
11.250  22.250  1.0131e-02
11.250  22.500  9.0305e-03
11.250  22.750  8.4090e-03
11.250  23.000  8.1357e-03
11.250  23.250  7.9934e-03
11.250  23.500  7.9137e-03
11.250  23.750  7.8807e-03
11.250  24.000  7.8668e-03
11.500  17.000  1.9750e-02
11.500  17.250  2.0793e-02
11.500  17.500  2.1985e-02
11.500  17.750  2.3694e-02
11.500  18.000  2.6603e-02
11.500  18.250  3.1399e-02
11.500  18.500  3.8113e-02
11.500  18.750  4.6202e-02
11.500  19.000  5.4582e-02
11.500  19.250  6.2093e-02
11.500  19.500  6.8924e-02
11.500  19.750  7.5744e-02
11.500  20.000  8.2892e-02
11.500  20.250  8.9122e-02
11.500  20.500  8.9561e-02
11.500  20.750  7.6637e-02
11.500  21.000  6.4582e-02
11.500  21.250  5.3623e-02
11.500  21.500  3.4213e-02
11.500  21.750  2.2700e-02
11.500  22.000  1.5891e-02
11.500  22.250  1.2084e-02
11.500  22.500  1.0134e-02
11.500  22.750  9.0314e-03
11.500  23.000  8.4088e-03
11.500  23.250  8.1357e-03
11.500  23.500  7.9935e-03
11.500  23.750  7.9138e-03
11.500  24.000  7.8807e-03
11.750  17.000  1.9436e-02
11.750  17.250  1.9881e-02
11.750  17.500  2.0189e-02
11.750  17.750  2.0627e-02
11.750  18.000  2.1933e-02
11.750  18.250  2.4969e-02
11.750  18.500  3.0222e-02
11.750  18.750  3.7570e-02
11.750  19.000  4.6111e-02
11.750  19.250  5.4524e-02
11.750  19.500  6.1964e-02
11.750  19.750  6.9070e-02
11.750  20.000  7.6536e-02
11.750  20.250  8.4664e-02
11.750  20.500  9.2365e-02
11.750  20.750  9.3133e-02
11.750  21.000  8.1139e-02
11.750  21.250  6.9576e-02
11.750  21.500  5.4080e-02
11.750  21.750  3.4259e-02
11.750  22.000  2.2671e-02
11.750  22.250  1.5890e-02
11.750  22.500  1.2091e-02
11.750  22.750  1.0137e-02
11.750  23.000  9.0326e-03
11.750  23.250  8.4085e-03
11.750  23.500  8.1356e-03
11.750  23.750  7.9936e-03
11.750  24.000  7.9140e-03
12.000  17.000  1.9195e-02
12.000  17.250  1.8996e-02
12.000  17.500  1.8544e-02
12.000  17.750  1.8265e-02
12.000  18.000  1.8773e-02
12.000  18.250  2.0589e-02
12.000  18.500  2.4362e-02
12.000  18.750  3.0188e-02
12.000  19.000  3.7893e-02
12.000  19.250  4.6675e-02
12.000  19.500  5.5103e-02
12.000  19.750  6.2655e-02
12.000  20.000  7.0387e-02
12.000  20.250  7.8655e-02
12.000  20.500  8.7690e-02
12.000  20.750  9.5344e-02
12.000  21.000  9.8006e-02
12.000  21.250  8.9769e-02
12.000  21.500  7.7164e-02
12.000  21.750  5.4338e-02
12.000  22.000  3.4286e-02
12.000  22.250  2.2628e-02
12.000  22.500  1.5881e-02
12.000  22.750  1.2097e-02
12.000  23.000  1.0141e-02
12.000  23.250  9.0341e-03
12.000  23.500  8.4081e-03
12.000  23.750  8.1356e-03
12.000  24.000  7.9936e-03
12.250  17.000  1.8802e-02
12.250  17.250  1.7927e-02
12.250  17.500  1.6871e-02
12.250  17.750  1.6935e-02
12.250  18.000  1.8380e-02
12.250  18.250  2.1095e-02
12.250  18.500  2.4966e-02
12.250  18.750  2.9879e-02
12.250  19.000  3.5723e-02
12.250  19.250  4.2384e-02
12.250  19.500  4.9749e-02
12.250  19.750  5.7706e-02
12.250  20.000  6.6140e-02
12.250  20.250  7.4940e-02
12.250  20.500  8.3991e-02
12.250  20.750  9.3182e-02
12.250  21.000  1.0231e-01
12.250  21.250  1.0803e-01
12.250  21.500  1.0129e-01
12.250  21.750  8.5506e-02
12.250  22.000  5.4526e-02
12.250  22.250  3.4247e-02
12.250  22.500  2.2584e-02
12.250  22.750  1.5860e-02
12.250  23.000  1.2103e-02
12.250  23.250  1.0145e-02
12.250  23.500  9.0357e-03
12.250  23.750  8.4077e-03
12.250  24.000  8.1355e-03
12.500  17.000  1.7822e-02
12.500  17.250  1.6440e-02
12.500  17.500  1.6291e-02
12.500  17.750  1.7529e-02
12.500  18.000  2.0040e-02
12.500  18.250  2.3710e-02
12.500  18.500  2.8423e-02
12.500  18.750  3.4066e-02
12.500  19.000  4.0523e-02
12.500  19.250  4.7681e-02
12.500  19.500  5.5424e-02
12.500  19.750  6.3638e-02
12.500  20.000  7.2209e-02
12.500  20.250  8.1022e-02
12.500  20.500  8.9962e-02
12.500  20.750  9.8914e-02
12.500  21.000  1.0777e-01
12.500  21.250  1.1640e-01
12.500  21.500  1.2217e-01
12.500  21.750  1.1446e-01
12.500  22.000  8.9441e-02
12.500  22.250  5.4585e-02
12.500  22.500  3.4207e-02
12.500  22.750  2.2506e-02
12.500  23.000  1.5828e-02
12.500  23.250  1.2108e-02
12.500  23.500  1.0149e-02
12.500  23.750  9.0373e-03
12.500  24.000  8.4069e-03
12.750  17.000  1.4146e-02
12.750  17.250  1.4334e-02
12.750  17.500  1.3155e-02
12.750  17.750  1.2656e-02
12.750  18.000  1.3191e-02
12.750  18.250  1.4794e-02
12.750  18.500  1.7455e-02
12.750  18.750  2.1109e-02
12.750  19.000  2.5484e-02
12.750  19.250  3.0713e-02
12.750  19.500  3.9955e-02
12.750  19.750  5.3033e-02
12.750  20.000  6.8669e-02
12.750  20.250  8.5583e-02
12.750  20.500  1.0250e-01
12.750  20.750  1.1813e-01
12.750  21.000  1.3121e-01
12.750  21.250  1.4044e-01
12.750  21.500  1.4456e-01
12.750  21.750  1.4229e-01
12.750  22.000  1.2795e-01
12.750  22.250  9.0094e-02
12.750  22.500  5.4649e-02
12.750  22.750  3.4141e-02
12.750  23.000  2.2415e-02
12.750  23.250  1.5787e-02
12.750  23.500  1.2109e-02
12.750  23.750  1.0152e-02
12.750  24.000  9.0386e-03
13.000  17.000  8.6397e-03
13.000  17.250  1.0363e-02
13.000  17.500  1.1058e-02
13.000  17.750  1.1267e-02
13.000  18.000  1.1954e-02
13.000  18.250  1.3627e-02
13.000  18.500  1.6316e-02
13.000  18.750  1.9999e-02
13.000  19.000  2.4479e-02
13.000  19.250  2.9617e-02
13.000  19.500  3.5282e-02
13.000  19.750  4.2591e-02
13.000  20.000  5.1453e-02
13.000  20.250  6.1552e-02
13.000  20.500  7.3138e-02
13.000  20.750  8.4958e-02
13.000  21.000  1.0026e-01
13.000  21.250  1.2342e-01
13.000  21.500  1.4594e-01
13.000  21.750  1.6048e-01
13.000  22.000  1.6098e-01
13.000  22.250  1.3766e-01
13.000  22.500  9.0457e-02
13.000  22.750  5.4631e-02
13.000  23.000  3.4044e-02
13.000  23.250  2.2313e-02
13.000  23.500  1.5734e-02
13.000  23.750  1.2107e-02
13.000  24.000  1.0153e-02
13.250  17.000  5.8037e-03
13.250  17.250  7.1197e-03
13.250  17.500  9.3568e-03
13.250  17.750  1.0152e-02
13.250  18.000  1.0931e-02
13.250  18.250  1.2614e-02
13.250  18.500  1.5279e-02
13.250  18.750  1.8953e-02
13.250  19.000  2.3545e-02
13.250  19.250  2.8827e-02
13.250  19.500  3.4547e-02
13.250  19.750  4.1339e-02
13.250  20.000  4.9276e-02
13.250  20.250  5.8598e-02
13.250  20.500  7.0007e-02
13.250  20.750  8.3356e-02
13.250  21.000  9.9242e-02
13.250  21.250  1.1952e-01
13.250  21.500  1.4148e-01
13.250  21.750  1.6587e-01
13.250  22.000  1.7684e-01
13.250  22.250  1.7513e-01
13.250  22.500  1.4162e-01
13.250  22.750  9.0711e-02
13.250  23.000  5.4563e-02
13.250  23.250  3.3911e-02
13.250  23.500  2.2232e-02
13.250  23.750  1.5678e-02
13.250  24.000  1.2100e-02
13.500  17.000  3.9880e-03
13.500  17.250  4.9989e-03
13.500  17.500  6.8782e-03
13.500  17.750  8.7803e-03
13.500  18.000  1.0120e-02
13.500  18.250  1.1754e-02
13.500  18.500  1.4351e-02
13.500  18.750  1.7963e-02
13.500  19.000  2.2574e-02
13.500  19.250  2.8013e-02
13.500  19.500  3.4065e-02
13.500  19.750  4.0831e-02
13.500  20.000  4.8609e-02
13.500  20.250  5.7982e-02
13.500  20.500  6.8438e-02
13.500  20.750  8.0655e-02
13.500  21.000  9.4113e-02
13.500  21.250  1.1377e-01
13.500  21.500  1.2971e-01
13.500  21.750  1.5408e-01
13.500  22.000  1.7972e-01
13.500  22.250  1.8757e-01
13.500  22.500  1.7799e-01
13.500  22.750  1.4161e-01
13.500  23.000  9.0815e-02
13.500  23.250  5.4461e-02
13.500  23.500  3.3768e-02
13.500  23.750  2.2082e-02
13.500  24.000  1.5622e-02
13.750  17.000  2.8626e-03
13.750  17.250  3.5943e-03
13.750  17.500  5.1057e-03
13.750  17.750  7.0124e-03
13.750  18.000  9.3993e-03
13.750  18.250  1.1033e-02
13.750  18.500  1.3525e-02
13.750  18.750  1.7044e-02
13.750  19.000  2.1621e-02
13.750  19.250  2.7199e-02
13.750  19.500  3.3568e-02
13.750  19.750  4.0657e-02
13.750  20.000  4.8729e-02
13.750  20.250  5.8163e-02
13.750  20.500  6.9043e-02
13.750  20.750  8.1076e-02
13.750  21.000  9.4198e-02
13.750  21.250  1.0833e-01
13.750  21.500  1.2447e-01
13.750  21.750  1.4574e-01
13.750  22.000  1.7231e-01
13.750  22.250  2.0163e-01
13.750  22.500  1.9346e-01
13.750  22.750  1.8203e-01
13.750  23.000  1.4234e-01
13.750  23.250  9.0765e-02
13.750  23.500  5.4283e-02
13.750  23.750  3.3585e-02
13.750  24.000  2.1943e-02
14.000  17.000  2.1345e-03
14.000  17.250  2.7024e-03
14.000  17.500  3.8128e-03
14.000  17.750  5.5414e-03
14.000  18.000  7.9478e-03
14.000  18.250  1.0448e-02
14.000  18.500  1.2810e-02
14.000  18.750  1.6195e-02
14.000  19.000  2.0708e-02
14.000  19.250  2.6371e-02
14.000  19.500  3.3074e-02
14.000  19.750  4.0640e-02
14.000  20.000  4.9065e-02
14.000  20.250  5.8753e-02
14.000  20.500  7.0095e-02
14.000  20.750  8.2826e-02
14.000  21.000  9.6859e-02
14.000  21.250  1.1217e-01
14.000  21.500  1.2618e-01
14.000  21.750  1.4543e-01
14.000  22.000  1.7016e-01
14.000  22.250  2.0578e-01
14.000  22.500  2.3227e-01
14.000  22.750  2.0777e-01
14.000  23.000  1.8594e-01
14.000  23.250  1.4469e-01
14.000  23.500  9.0576e-02
14.000  23.750  5.4043e-02
14.000  24.000  3.3358e-02
