nFnu 608.160A  relative to Inci 1215.00A scaled to 1215A.
Hden   Phi(H)  Eq_Width (A)
7.000  17.000  8.5022e-02
7.000  17.250  6.1849e-02
7.000  17.500  3.8699e-02
7.000  17.750  2.2749e-02
7.000  18.000  1.5050e-02
7.000  18.250  1.0917e-02
7.000  18.500  8.8901e-03
7.000  18.750  8.2111e-03
7.000  19.000  7.8872e-03
7.000  19.250  7.7170e-03
7.000  19.500  7.6170e-03
7.000  19.750  7.5572e-03
7.000  20.000  7.5297e-03
7.000  20.250  7.5262e-03
7.000  20.500  7.5386e-03
7.000  20.750  7.5589e-03
7.000  21.000  7.5790e-03
7.000  21.250  7.5906e-03
7.000  21.500  7.5905e-03
7.000  21.750  7.5902e-03
7.000  22.000  7.5901e-03
7.000  22.250  7.5900e-03
7.000  22.500  7.5900e-03
7.000  22.750  7.5903e-03
7.000  23.000  7.5902e-03
7.000  23.250  7.5900e-03
7.000  23.500  7.5900e-03
7.000  23.750  7.5900e-03
7.000  24.000  7.5900e-03
7.250  17.000  1.0247e-01
7.250  17.250  8.4413e-02
7.250  17.500  6.1456e-02
7.250  17.750  3.8441e-02
7.250  18.000  2.2616e-02
7.250  18.250  1.4987e-02
7.250  18.500  1.0888e-02
7.250  18.750  8.8802e-03
7.250  19.000  8.2073e-03
7.250  19.250  7.8860e-03
7.250  19.500  7.7167e-03
7.250  19.750  7.6465e-03
7.250  20.000  7.6102e-03
7.250  20.250  7.5908e-03
7.250  20.500  7.5837e-03
7.250  20.750  7.5845e-03
7.250  21.000  7.5885e-03
7.250  21.250  7.5911e-03
7.250  21.500  7.5906e-03
7.250  21.750  7.5919e-03
7.250  22.000  7.5902e-03
7.250  22.250  7.5901e-03
7.250  22.500  7.5900e-03
7.250  22.750  7.5908e-03
7.250  23.000  7.5908e-03
7.250  23.250  7.5900e-03
7.250  23.500  7.5900e-03
7.250  23.750  7.5900e-03
7.250  24.000  7.5900e-03
7.500  17.000  7.3058e-02
7.500  17.250  1.0216e-01
7.500  17.500  8.4080e-02
7.500  17.750  6.1238e-02
7.500  18.000  3.8265e-02
7.500  18.250  2.2520e-02
7.500  18.500  1.4944e-02
7.500  18.750  1.0870e-02
7.500  19.000  8.8736e-03
7.500  19.250  8.2049e-03
7.500  19.500  7.8851e-03
7.500  19.750  7.7165e-03
7.500  20.000  7.6146e-03
7.500  20.250  7.5503e-03
7.500  20.500  7.5170e-03
7.500  20.750  7.5078e-03
7.500  21.000  7.5162e-03
7.500  21.250  7.5353e-03
7.500  21.500  7.5585e-03
7.500  21.750  7.5791e-03
7.500  22.000  7.5904e-03
7.500  22.250  7.5902e-03
7.500  22.500  7.5901e-03
7.500  22.750  7.5900e-03
7.500  23.000  7.5905e-03
7.500  23.250  7.5908e-03
7.500  23.500  7.5900e-03
7.500  23.750  7.5909e-03
7.500  24.000  7.5900e-03
7.750  17.000  3.3217e-02
7.750  17.250  7.3596e-02
7.750  17.500  1.0202e-01
7.750  17.750  8.3895e-02
7.750  18.000  6.1127e-02
7.750  18.250  3.8140e-02
7.750  18.500  2.2445e-02
7.750  18.750  1.4914e-02
7.750  19.000  1.0858e-02
7.750  19.250  8.8695e-03
7.750  19.500  8.2035e-03
7.750  19.750  7.8846e-03
7.750  20.000  7.7164e-03
7.750  20.250  7.6174e-03
7.750  20.500  7.5583e-03
7.750  20.750  7.5309e-03
7.750  21.000  7.5274e-03
7.750  21.250  7.5396e-03
7.750  21.500  7.5596e-03
7.750  21.750  7.5792e-03
7.750  22.000  7.5906e-03
7.750  22.250  7.5904e-03
7.750  22.500  7.5902e-03
7.750  22.750  7.5903e-03
7.750  23.000  7.5903e-03
7.750  23.250  7.5900e-03
7.750  23.500  7.5908e-03
7.750  23.750  7.5908e-03
7.750  24.000  7.5900e-03
8.000  17.000  2.6756e-02
8.000  17.250  3.3224e-02
8.000  17.500  7.3188e-02
8.000  17.750  1.0189e-01
8.000  18.000  8.3786e-02
8.000  18.250  6.1080e-02
8.000  18.500  3.8043e-02
8.000  18.750  2.2379e-02
8.000  19.000  1.4890e-02
8.000  19.250  1.0850e-02
8.000  19.500  8.8669e-03
8.000  19.750  8.2026e-03
8.000  20.000  7.8843e-03
8.000  20.250  7.7163e-03
8.000  20.500  7.6463e-03
8.000  20.750  7.6129e-03
8.000  21.000  7.5979e-03
8.000  21.250  7.5939e-03
8.000  21.500  7.5937e-03
8.000  21.750  7.5920e-03
8.000  22.000  7.5911e-03
8.000  22.250  7.5905e-03
8.000  22.500  7.5903e-03
8.000  22.750  7.5904e-03
8.000  23.000  7.5900e-03
8.000  23.250  7.5905e-03
8.000  23.500  7.5900e-03
8.000  23.750  7.5900e-03
8.000  24.000  7.5900e-03
8.250  17.000  2.1851e-02
8.250  17.250  2.6895e-02
8.250  17.500  3.3340e-02
8.250  17.750  7.3158e-02
8.250  18.000  1.0177e-01
8.250  18.250  8.3703e-02
8.250  18.500  6.1073e-02
8.250  18.750  3.7960e-02
8.250  19.000  2.2318e-02
8.250  19.250  1.4870e-02
8.250  19.500  1.0844e-02
8.250  19.750  8.8653e-03
8.250  20.000  8.2020e-03
8.250  20.250  7.8841e-03
8.250  20.500  7.7163e-03
8.250  20.750  7.6463e-03
8.250  21.000  7.6165e-03
8.250  21.250  7.6031e-03
8.250  21.500  7.5969e-03
8.250  21.750  7.5937e-03
8.250  22.000  7.5919e-03
8.250  22.250  7.5910e-03
8.250  22.500  7.5905e-03
8.250  22.750  7.5905e-03
8.250  23.000  7.5901e-03
8.250  23.250  7.5920e-03
8.250  23.500  7.5900e-03
8.250  23.750  7.5900e-03
8.250  24.000  7.5905e-03
8.500  17.000  1.8069e-02
8.500  17.250  2.1938e-02
8.500  17.500  2.6966e-02
8.500  17.750  3.3370e-02
8.500  18.000  7.3048e-02
8.500  18.250  1.0156e-01
8.500  18.500  8.3627e-02
8.500  18.750  6.1090e-02
8.500  19.000  3.7880e-02
8.500  19.250  2.2257e-02
8.500  19.500  1.4851e-02
8.500  19.750  1.0840e-02
8.500  20.000  8.8642e-03
8.500  20.250  8.2016e-03
8.500  20.500  7.8840e-03
8.500  20.750  7.7163e-03
8.500  21.000  7.6463e-03
8.500  21.250  7.6165e-03
8.500  21.500  7.6031e-03
8.500  21.750  7.5969e-03
8.500  22.000  7.5937e-03
8.500  22.250  7.5919e-03
8.500  22.500  7.5910e-03
8.500  22.750  7.5905e-03
8.500  23.000  7.5903e-03
8.500  23.250  7.5903e-03
8.500  23.500  7.5900e-03
8.500  23.750  7.5900e-03
8.500  24.000  7.5900e-03
8.750  17.000  1.5143e-02
8.750  17.250  1.8149e-02
8.750  17.500  2.2005e-02
8.750  17.750  2.7003e-02
8.750  18.000  3.3384e-02
8.750  18.250  7.2815e-02
8.750  18.500  1.0126e-01
8.750  18.750  8.3530e-02
8.750  19.000  6.1121e-02
8.750  19.250  3.7802e-02
8.750  19.500  2.2194e-02
8.750  19.750  1.4834e-02
8.750  20.000  1.0837e-02
8.750  20.250  8.8635e-03
8.750  20.500  8.2015e-03
8.750  20.750  7.8840e-03
8.750  21.000  7.7162e-03
8.750  21.250  7.6463e-03
8.750  21.500  7.6165e-03
8.750  21.750  7.6031e-03
8.750  22.000  7.5969e-03
8.750  22.250  7.5937e-03
8.750  22.500  7.5919e-03
8.750  22.750  7.5910e-03
8.750  23.000  7.5913e-03
8.750  23.250  7.5903e-03
8.750  23.500  7.5903e-03
8.750  23.750  7.5900e-03
8.750  24.000  7.5900e-03
9.000  17.000  1.2676e-02
9.000  17.250  1.5295e-02
9.000  17.500  1.8267e-02
9.000  17.750  2.2077e-02
9.000  18.000  2.7056e-02
9.000  18.250  3.3388e-02
9.000  18.500  7.2594e-02
9.000  18.750  1.0091e-01
9.000  19.000  8.3408e-02
9.000  19.250  6.1153e-02
9.000  19.500  3.7725e-02
9.000  19.750  2.2132e-02
9.000  20.000  1.4819e-02
9.000  20.250  1.0834e-02
9.000  20.500  8.8629e-03
9.000  20.750  8.2015e-03
9.000  21.000  7.8840e-03
9.000  21.250  7.7162e-03
9.000  21.500  7.6463e-03
9.000  21.750  7.6164e-03
9.000  22.000  7.6031e-03
9.000  22.250  7.5968e-03
9.000  22.500  7.5937e-03
9.000  22.750  7.5919e-03
9.000  23.000  7.5910e-03
9.000  23.250  7.5905e-03
9.000  23.500  7.5903e-03
9.000  23.750  7.5901e-03
9.000  24.000  7.5901e-03
9.250  17.000  1.0328e-02
9.250  17.250  1.2916e-02
9.250  17.500  1.5542e-02
9.250  17.750  1.8494e-02
9.250  18.000  2.2281e-02
9.250  18.250  2.7230e-02
9.250  18.500  3.3515e-02
9.250  18.750  7.2697e-02
9.250  19.000  1.0054e-01
9.250  19.250  8.3252e-02
9.250  19.500  6.1175e-02
9.250  19.750  3.7658e-02
9.250  20.000  2.2073e-02
9.250  20.250  1.4805e-02
9.250  20.500  1.0831e-02
9.250  20.750  8.8625e-03
9.250  21.000  8.2015e-03
9.250  21.250  7.8840e-03
9.250  21.500  7.7158e-03
9.250  21.750  7.6458e-03
9.250  22.000  7.6158e-03
9.250  22.250  7.6026e-03
9.250  22.500  7.5965e-03
9.250  22.750  7.5933e-03
9.250  23.000  7.5918e-03
9.250  23.250  7.5909e-03
9.250  23.500  7.5904e-03
9.250  23.750  7.5901e-03
9.250  24.000  7.5900e-03
9.500  17.000  7.9543e-03
9.500  17.250  1.0636e-02
9.500  17.500  1.3317e-02
9.500  17.750  1.5994e-02
9.500  18.000  1.8923e-02
9.500  18.250  2.2676e-02
9.500  18.500  2.7637e-02
9.500  18.750  3.4134e-02
9.500  19.000  7.3478e-02
9.500  19.250  1.0024e-01
9.500  19.500  8.3069e-02
9.500  19.750  6.1179e-02
9.500  20.000  3.7608e-02
9.500  20.250  2.2022e-02
9.500  20.500  1.4793e-02
9.500  20.750  1.0829e-02
9.500  21.000  8.8613e-03
9.500  21.250  8.2008e-03
9.500  21.500  7.8833e-03
9.500  21.750  7.7155e-03
9.500  22.000  7.6456e-03
9.500  22.250  7.6157e-03
9.500  22.500  7.6024e-03
9.500  22.750  7.5960e-03
9.500  23.000  7.5929e-03
9.500  23.250  7.5912e-03
9.500  23.500  7.5904e-03
9.500  23.750  7.5898e-03
9.500  24.000  7.5895e-03
9.750  17.000  5.5956e-03
9.750  17.250  8.2342e-03
9.750  17.500  1.1117e-02
9.750  17.750  1.3970e-02
9.750  18.000  1.6686e-02
9.750  18.250  1.9612e-02
9.750  18.500  2.3435e-02
9.750  18.750  2.8584e-02
9.750  19.000  3.7724e-02
9.750  19.250  7.5397e-02
9.750  19.500  1.0018e-01
9.750  19.750  8.2902e-02
9.750  20.000  6.1176e-02
9.750  20.250  3.7583e-02
9.750  20.500  2.1985e-02
9.750  20.750  1.4786e-02
9.750  21.000  1.0827e-02
9.750  21.250  8.8610e-03
9.750  21.500  8.2009e-03
9.750  21.750  7.8834e-03
9.750  22.000  7.7155e-03
9.750  22.250  7.6457e-03
9.750  22.500  7.6157e-03
9.750  22.750  7.6024e-03
9.750  23.000  7.5960e-03
9.750  23.250  7.5928e-03
9.750  23.500  7.5912e-03
9.750  23.750  7.5903e-03
9.750  24.000  7.5898e-03
10.000  17.000  3.3525e-03
10.000  17.250  5.7833e-03
10.000  17.500  8.6858e-03
10.000  17.750  1.1835e-02
10.000  18.000  1.4854e-02
10.000  18.250  1.7670e-02
10.000  18.500  2.0776e-02
10.000  18.750  2.4919e-02
10.000  19.000  3.0431e-02
10.000  19.250  5.0928e-02
10.000  19.500  7.9706e-02
10.000  19.750  1.0065e-01
10.000  20.000  8.2827e-02
10.000  20.250  6.1167e-02
10.000  20.500  3.7577e-02
10.000  20.750  2.1958e-02
10.000  21.000  1.4784e-02
10.000  21.250  1.0827e-02
10.000  21.500  8.8607e-03
10.000  21.750  8.2010e-03
10.000  22.000  7.8835e-03
10.000  22.250  7.7156e-03
10.000  22.500  7.6456e-03
10.000  22.750  7.6157e-03
10.000  23.000  7.6024e-03
10.000  23.250  7.5961e-03
10.000  23.500  7.5929e-03
10.000  23.750  7.5913e-03
10.000  24.000  7.5903e-03
10.250  17.000  1.9123e-03
10.250  17.250  3.4679e-03
10.250  17.500  6.1285e-03
10.250  17.750  9.3271e-03
10.250  18.000  1.2773e-02
10.250  18.250  1.6107e-02
10.250  18.500  1.9304e-02
10.250  18.750  2.2937e-02
10.250  19.000  2.7641e-02
10.250  19.250  3.3575e-02
10.250  19.500  6.7641e-02
10.250  19.750  8.7417e-02
10.250  20.000  1.0164e-01
10.250  20.250  8.2949e-02
10.250  20.500  6.1172e-02
10.250  20.750  3.7598e-02
10.250  21.000  2.1947e-02
10.250  21.250  1.4787e-02
10.250  21.500  1.0827e-02
10.250  21.750  8.8606e-03
10.250  22.000  8.2012e-03
10.250  22.250  7.8836e-03
10.250  22.500  7.7157e-03
10.250  22.750  7.6456e-03
10.250  23.000  7.6157e-03
10.250  23.250  7.6024e-03
10.250  23.500  7.5960e-03
10.250  23.750  7.5929e-03
10.250  24.000  7.5913e-03
10.500  17.000  1.0719e-03
10.500  17.250  1.9702e-03
10.500  17.500  3.6929e-03
10.500  17.750  6.6380e-03
10.500  18.000  1.0221e-02
10.500  18.250  1.4185e-02
10.500  18.500  1.8119e-02
10.500  18.750  2.1958e-02
10.500  19.000  2.6187e-02
10.500  19.250  3.1527e-02
10.500  19.500  4.1234e-02
10.500  19.750  8.0927e-02
10.500  20.000  9.4847e-02
10.500  20.250  1.0394e-01
10.500  20.500  8.3468e-02
10.500  20.750  6.1229e-02
10.500  21.000  3.7639e-02
10.500  21.250  2.1951e-02
10.500  21.500  1.4796e-02
10.500  21.750  1.0829e-02
10.500  22.000  8.8607e-03
10.500  22.250  8.2013e-03
10.500  22.500  7.8837e-03
10.500  22.750  7.7158e-03
10.500  23.000  7.6458e-03
10.500  23.250  7.6157e-03
10.500  23.500  7.6024e-03
10.500  23.750  7.5961e-03
10.500  24.000  7.5929e-03
10.750  17.000  6.4626e-04
10.750  17.250  1.1041e-03
10.750  17.500  2.1068e-03
10.750  17.750  4.1329e-03
10.750  18.000  7.4211e-03
10.750  18.250  1.1682e-02
10.750  18.500  1.6343e-02
10.750  18.750  2.0904e-02
10.750  19.000  2.5309e-02
10.750  19.250  3.0161e-02
10.750  19.500  3.6240e-02
10.750  19.750  7.3563e-02
10.750  20.000  9.4741e-02
10.750  20.250  1.0261e-01
10.750  20.500  1.0772e-01
10.750  20.750  8.4687e-02
10.750  21.000  6.1362e-02
10.750  21.250  3.7704e-02
10.750  21.500  2.1971e-02
10.750  21.750  1.4810e-02
10.750  22.000  1.0832e-02
10.750  22.250  8.8607e-03
10.750  22.500  8.2017e-03
10.750  22.750  7.8839e-03
10.750  23.000  7.7159e-03
10.750  23.250  7.6458e-03
10.750  23.500  7.6157e-03
10.750  23.750  7.6024e-03
10.750  24.000  7.5961e-03
11.000  17.000  4.3292e-04
11.000  17.250  6.6897e-04
11.000  17.500  1.1821e-03
11.000  17.750  2.3798e-03
11.000  18.000  4.7902e-03
11.000  18.250  8.6052e-03
11.000  18.500  1.3565e-02
11.000  18.750  1.8862e-02
11.000  19.000  2.3876e-02
11.000  19.250  2.8858e-02
11.000  19.500  3.4546e-02
11.000  19.750  4.1736e-02
11.000  20.000  8.8347e-02
11.000  20.250  1.0370e-01
11.000  20.500  1.1324e-01
11.000  20.750  1.1425e-01
11.000  21.000  8.6349e-02
11.000  21.250  6.1654e-02
11.000  21.500  3.7792e-02
11.000  21.750  2.2008e-02
11.000  22.000  1.4831e-02
11.000  22.250  1.0836e-02
11.000  22.500  8.8606e-03
11.000  22.750  8.2021e-03
11.000  23.000  7.8842e-03
11.000  23.250  7.7159e-03
11.000  23.500  7.6459e-03
11.000  23.750  7.6159e-03
11.000  24.000  7.6025e-03
11.250  17.000  3.0988e-04
11.250  17.250  4.4831e-04
11.250  17.500  7.1827e-04
11.250  17.750  1.3444e-03
11.250  18.000  2.7948e-03
11.250  18.250  5.5748e-03
11.250  18.500  9.9235e-03
11.250  18.750  1.5493e-02
11.250  19.000  2.1211e-02
11.250  19.250  2.6706e-02
11.250  19.500  3.2498e-02
11.250  19.750  3.9371e-02
11.250  20.000  4.7704e-02
11.250  20.250  1.0857e-01
11.250  20.500  1.2515e-01
11.250  20.750  1.2600e-01
11.250  21.000  1.2116e-01
11.250  21.250  8.8968e-02
11.250  21.500  6.2045e-02
11.250  21.750  3.7901e-02
11.250  22.000  2.2064e-02
11.250  22.250  1.4859e-02
11.250  22.500  1.0843e-02
11.250  22.750  8.8605e-03
11.250  23.000  8.2024e-03
11.250  23.250  7.8846e-03
11.250  23.500  7.7160e-03
11.250  23.750  7.6459e-03
11.250  24.000  7.6160e-03
11.500  17.000  2.3128e-04
11.500  17.250  3.2395e-04
11.500  17.500  4.8469e-04
11.500  17.750  8.1440e-04
11.500  18.000  1.5790e-03
11.500  18.250  3.2187e-03
11.500  18.500  6.2816e-03
11.500  18.750  1.1118e-02
11.500  19.000  1.7200e-02
11.500  19.250  2.3325e-02
11.500  19.500  2.9514e-02
11.500  19.750  3.6518e-02
11.500  20.000  4.4910e-02
11.500  20.250  7.8573e-02
11.500  20.500  1.2582e-01
11.500  20.750  1.4216e-01
11.500  21.000  1.4135e-01
11.500  21.250  1.2989e-01
11.500  21.500  9.1931e-02
11.500  21.750  6.2532e-02
11.500  22.000  3.8017e-02
11.500  22.250  2.2137e-02
11.500  22.500  1.4894e-02
11.500  22.750  1.0853e-02
11.500  23.000  8.8605e-03
11.500  23.250  8.2027e-03
11.500  23.500  7.8849e-03
11.500  23.750  7.7160e-03
11.500  24.000  7.6460e-03
11.750  17.000  1.7621e-04
11.750  17.250  2.4428e-04
11.750  17.500  3.5317e-04
11.750  17.750  5.4519e-04
11.750  18.000  9.4214e-04
11.750  18.250  1.7979e-03
11.750  18.500  3.5407e-03
11.750  18.750  6.8579e-03
11.750  19.000  1.2178e-02
11.750  19.250  1.8791e-02
11.750  19.500  2.5474e-02
11.750  19.750  3.2691e-02
11.750  20.000  4.1232e-02
11.750  20.250  5.1510e-02
11.750  20.500  9.3087e-02
11.750  20.750  1.4674e-01
11.750  21.000  1.6541e-01
11.750  21.250  1.6181e-01
11.750  21.500  1.3735e-01
11.750  21.750  9.5332e-02
11.750  22.000  6.3043e-02
11.750  22.250  3.8102e-02
11.750  22.500  2.2226e-02
11.750  22.750  1.4937e-02
11.750  23.000  1.0866e-02
11.750  23.250  8.8607e-03
11.750  23.500  8.2031e-03
11.750  23.750  7.8852e-03
11.750  24.000  7.7163e-03
12.000  17.000  1.3621e-04
12.000  17.250  1.8955e-04
12.000  17.500  2.6947e-04
12.000  17.750  3.9712e-04
12.000  18.000  6.2305e-04
12.000  18.250  1.0698e-03
12.000  18.500  1.9579e-03
12.000  18.750  3.7792e-03
12.000  19.000  7.3933e-03
12.000  19.250  1.3274e-02
12.000  19.500  2.0514e-02
12.000  19.750  2.7999e-02
12.000  20.000  3.6617e-02
12.000  20.250  4.6960e-02
12.000  20.500  5.9118e-02
12.000  20.750  1.1448e-01
12.000  21.000  1.7056e-01
12.000  21.250  1.9515e-01
12.000  21.500  1.8693e-01
12.000  21.750  1.4544e-01
12.000  22.000  9.8515e-02
12.000  22.250  6.3416e-02
12.000  22.500  3.8110e-02
12.000  22.750  2.2324e-02
12.000  23.000  1.4984e-02
12.000  23.250  1.0883e-02
12.000  23.500  8.8608e-03
12.000  23.750  8.2035e-03
12.000  24.000  7.8855e-03
12.250  17.000  1.0798e-04
12.250  17.250  1.5086e-04
12.250  17.500  2.1144e-04
12.250  17.750  3.0617e-04
12.250  18.000  4.5449e-04
12.250  18.250  7.1679e-04
12.250  18.500  1.1940e-03
12.250  18.750  2.1083e-03
12.250  19.000  4.0501e-03
12.250  19.250  8.0837e-03
12.250  19.500  1.4637e-02
12.250  19.750  2.2660e-02
12.250  20.000  3.1286e-02
12.250  20.250  4.1617e-02
12.250  20.500  5.4028e-02
12.250  20.750  6.8271e-02
12.250  21.000  1.3932e-01
12.250  21.250  2.0169e-01
12.250  21.500  2.3043e-01
12.250  21.750  2.1275e-01
12.250  22.000  1.5259e-01
12.250  22.250  1.0003e-01
12.250  22.500  6.3371e-02
12.250  22.750  3.8013e-02
12.250  23.000  2.2418e-02
12.250  23.250  1.5034e-02
12.250  23.500  1.0901e-02
12.250  23.750  8.8607e-03
12.250  24.000  8.2039e-03
12.500  17.000  8.5350e-05
12.500  17.250  1.2346e-04
12.500  17.500  1.7531e-04
12.500  17.750  2.4502e-04
12.500  18.000  3.5638e-04
12.500  18.250  5.3399e-04
12.500  18.500  8.3638e-04
12.500  18.750  1.3497e-03
12.500  19.000  2.3375e-03
12.500  19.250  4.5309e-03
12.500  19.500  9.1048e-03
12.500  19.750  1.6505e-02
12.500  20.000  2.5446e-02
12.500  20.250  3.5508e-02
12.500  20.500  4.7906e-02
12.500  20.750  6.2980e-02
12.500  21.000  8.0744e-02
12.500  21.250  1.7043e-01
12.500  21.500  2.4093e-01
12.500  21.750  2.6926e-01
12.500  22.000  2.3136e-01
12.500  22.250  1.5750e-01
12.500  22.500  1.0203e-01
12.500  22.750  6.3519e-02
12.500  23.000  3.7804e-02
12.500  23.250  2.2495e-02
12.500  23.500  1.5082e-02
12.500  23.750  1.0919e-02
12.500  24.000  8.8597e-03
12.750  17.000  6.6008e-05
12.750  17.250  9.8683e-05
12.750  17.500  1.4272e-04
12.750  17.750  2.0551e-04
12.750  18.000  2.9547e-04
12.750  18.250  4.3086e-04
12.750  18.500  6.4963e-04
12.750  18.750  1.0033e-03
12.750  19.000  1.5948e-03
12.750  19.250  2.7456e-03
12.750  19.500  5.3032e-03
12.750  19.750  1.0540e-02
12.750  20.000  1.8763e-02
12.750  20.250  2.9025e-02
12.750  20.500  4.0867e-02
12.750  20.750  5.6029e-02
12.750  21.000  7.5405e-02
12.750  21.250  9.7261e-02
12.750  21.500  2.0682e-01
12.750  21.750  2.9258e-01
12.750  22.000  3.0955e-01
12.750  22.250  2.4666e-01
12.750  22.500  1.6322e-01
12.750  22.750  1.0408e-01
12.750  23.000  6.3221e-02
12.750  23.250  3.7501e-02
12.750  23.500  2.2542e-02
12.750  23.750  1.5125e-02
12.750  24.000  1.0936e-02
13.000  17.000  5.1029e-05
13.000  17.250  7.9095e-05
13.000  17.500  1.1630e-04
13.000  17.750  1.7086e-04
13.000  18.000  2.4938e-04
13.000  18.250  3.6626e-04
13.000  18.500  5.4584e-04
13.000  18.750  8.2272e-04
13.000  19.000  1.2529e-03
13.000  19.250  1.9768e-03
13.000  19.500  3.3505e-03
13.000  19.750  6.3159e-03
13.000  20.000  1.2161e-02
13.000  20.250  2.1251e-02
13.000  20.500  3.3390e-02
13.000  20.750  4.7555e-02
13.000  21.000  6.5952e-02
13.000  21.250  9.0421e-02
13.000  21.500  1.1568e-01
13.000  21.750  2.6306e-01
13.000  22.000  3.4275e-01
13.000  22.250  3.4355e-01
13.000  22.500  2.5924e-01
13.000  22.750  1.6726e-01
13.000  23.000  1.0468e-01
13.000  23.250  6.2663e-02
13.000  23.500  3.7083e-02
13.000  23.750  2.2552e-02
13.000  24.000  1.5158e-02
13.250  17.000  3.8765e-05
13.250  17.250  6.1317e-05
13.250  17.500  9.5556e-05
13.250  17.750  1.4288e-04
13.250  18.000  2.1210e-04
13.250  18.250  3.1868e-04
13.250  18.500  4.8033e-04
13.250  18.750  7.2329e-04
13.250  19.000  1.0825e-03
13.250  19.250  1.6372e-03
13.250  19.500  2.5439e-03
13.250  19.750  4.2217e-03
13.250  20.000  7.5945e-03
13.250  20.250  1.3843e-02
13.250  20.500  2.3951e-02
13.250  20.750  3.7650e-02
13.250  21.000  5.5189e-02
13.250  21.250  7.7542e-02
13.250  21.500  1.0361e-01
13.250  21.750  1.4557e-01
13.250  22.000  3.0906e-01
13.250  22.250  3.9055e-01
13.250  22.500  3.7054e-01
13.250  22.750  2.7038e-01
13.250  23.000  1.7078e-01
13.250  23.250  1.0344e-01
13.250  23.500  6.1827e-02
13.250  23.750  3.6598e-02
13.250  24.000  2.2504e-02
13.500  17.000  2.8807e-05
13.500  17.250  4.7160e-05
13.500  17.500  7.7037e-05
13.500  17.750  1.1893e-04
13.500  18.000  1.8156e-04
13.500  18.250  2.7860e-04
13.500  18.500  4.3136e-04
13.500  18.750  6.6173e-04
13.500  19.000  9.9753e-04
13.500  19.250  1.4835e-03
13.500  19.500  2.2235e-03
13.500  19.750  3.4280e-03
13.500  20.000  5.5053e-03
13.500  20.250  9.3646e-03
13.500  20.500  1.6216e-02
13.500  20.750  2.6941e-02
13.500  21.000  4.1130e-02
13.500  21.250  6.1406e-02
13.500  21.500  8.3392e-02
13.500  21.750  1.1192e-01
13.500  22.000  1.7785e-01
13.500  22.250  3.4737e-01
13.500  22.500  4.2715e-01
13.500  22.750  3.9548e-01
13.500  23.000  2.8007e-01
13.500  23.250  1.7434e-01
13.500  23.500  1.0434e-01
13.500  23.750  6.1026e-02
13.500  24.000  3.6080e-02
13.750  17.000  2.1811e-05
13.750  17.250  3.5720e-05
13.750  17.500  6.1399e-05
13.750  17.750  9.8683e-05
13.750  18.000  1.5580e-04
13.750  18.250  2.4551e-04
13.750  18.500  3.8741e-04
13.750  18.750  6.0955e-04
13.750  19.000  9.4296e-04
13.750  19.250  1.4183e-03
13.750  19.500  2.1001e-03
13.750  19.750  3.1306e-03
13.750  20.000  4.7769e-03
13.750  20.250  7.5035e-03
13.750  20.500  1.2126e-02
13.750  20.750  1.9781e-02
13.750  21.000  3.1262e-02
13.750  21.250  4.6442e-02
13.750  21.500  6.6319e-02
13.750  21.750  9.1803e-02
13.750  22.000  1.2234e-01
13.750  22.250  2.2351e-01
13.750  22.500  3.9525e-01
13.750  22.750  4.7031e-01
13.750  23.000  4.1988e-01
13.750  23.250  2.8787e-01
13.750  23.500  1.7560e-01
13.750  23.750  1.0351e-01
13.750  24.000  5.9984e-02
14.000  17.000  1.6626e-05
14.000  17.250  2.7737e-05
14.000  17.500  4.6255e-05
14.000  17.750  8.1317e-05
14.000  18.000  1.3358e-04
14.000  18.250  2.1728e-04
14.000  18.500  3.5160e-04
14.000  18.750  5.6321e-04
14.000  19.000  8.8864e-04
14.000  19.250  1.3713e-03
14.000  19.500  2.0582e-03
14.000  19.750  3.0352e-03
14.000  20.000  4.4954e-03
14.000  20.250  6.7714e-03
14.000  20.500  1.0407e-02
14.000  20.750  1.6173e-02
14.000  21.000  2.5169e-02
14.000  21.250  3.8327e-02
14.000  21.500  5.4752e-02
14.000  21.750  7.6367e-02
14.000  22.000  1.0365e-01
14.000  22.250  1.4079e-01
14.000  22.500  2.9410e-01
14.000  22.750  4.5495e-01
14.000  23.000  5.1396e-01
14.000  23.250  4.4335e-01
14.000  23.500  2.9465e-01
14.000  23.750  1.7587e-01
14.000  24.000  1.0234e-01
