InwC 1218.08A  relative to Inci 1215.00A scaled to 1215A.
Hden   Phi(H)  Eq_Width (A)
7.000  17.000  8.9604e-03
7.000  17.250  8.3886e-03
7.000  17.500  8.1529e-03
7.000  17.750  8.0682e-03
7.000  18.000  8.0345e-03
7.000  18.250  8.0157e-03
7.000  18.500  8.0076e-03
7.000  18.750  8.0065e-03
7.000  19.000  8.0067e-03
7.000  19.250  8.0071e-03
7.000  19.500  8.0072e-03
7.000  19.750  8.0074e-03
7.000  20.000  8.0075e-03
7.000  20.250  8.0076e-03
7.000  20.500  8.0076e-03
7.000  20.750  8.0076e-03
7.000  21.000  8.0076e-03
7.000  21.250  8.0076e-03
7.000  21.500  8.0077e-03
7.000  21.750  8.0076e-03
7.000  22.000  8.0076e-03
7.000  22.250  8.0076e-03
7.000  22.500  8.0076e-03
7.000  22.750  8.0078e-03
7.000  23.000  8.0078e-03
7.000  23.250  8.0076e-03
7.000  23.500  8.0076e-03
7.000  23.750  8.0076e-03
7.000  24.000  8.0076e-03
7.250  17.000  9.9942e-03
7.250  17.250  8.9552e-03
7.250  17.500  8.3855e-03
7.250  17.750  8.1515e-03
7.250  18.000  8.0679e-03
7.250  18.250  8.0344e-03
7.250  18.500  8.0157e-03
7.250  18.750  8.0076e-03
7.250  19.000  8.0044e-03
7.250  19.250  8.0038e-03
7.250  19.500  8.0048e-03
7.250  19.750  8.0063e-03
7.250  20.000  8.0074e-03
7.250  20.250  8.0075e-03
7.250  20.500  8.0075e-03
7.250  20.750  8.0076e-03
7.250  21.000  8.0076e-03
7.250  21.250  8.0076e-03
7.250  21.500  8.0076e-03
7.250  21.750  8.0091e-03
7.250  22.000  8.0076e-03
7.250  22.250  8.0076e-03
7.250  22.500  8.0076e-03
7.250  22.750  8.0084e-03
7.250  23.000  8.0084e-03
7.250  23.250  8.0076e-03
7.250  23.500  8.0076e-03
7.250  23.750  8.0076e-03
7.250  24.000  8.0076e-03
7.500  17.000  1.3930e-02
7.500  17.250  9.9882e-03
7.500  17.500  8.9510e-03
7.500  17.750  8.3825e-03
7.500  18.000  8.1500e-03
7.500  18.250  8.0674e-03
7.500  18.500  8.0342e-03
7.500  18.750  8.0156e-03
7.500  19.000  8.0076e-03
7.500  19.250  8.0064e-03
7.500  19.500  8.0067e-03
7.500  19.750  8.0071e-03
7.500  20.000  8.0072e-03
7.500  20.250  8.0074e-03
7.500  20.500  8.0074e-03
7.500  20.750  8.0075e-03
7.500  21.000  8.0075e-03
7.500  21.250  8.0075e-03
7.500  21.500  8.0076e-03
7.500  21.750  8.0076e-03
7.500  22.000  8.0076e-03
7.500  22.250  8.0076e-03
7.500  22.500  8.0076e-03
7.500  22.750  8.0076e-03
7.500  23.000  8.0080e-03
7.500  23.250  8.0084e-03
7.500  23.500  8.0076e-03
7.500  23.750  8.0086e-03
7.500  24.000  8.0076e-03
7.750  17.000  9.8217e-01
7.750  17.250  1.3894e-02
7.750  17.500  9.9856e-03
7.750  17.750  8.9479e-03
7.750  18.000  -4.5819e-02
7.750  18.250  -8.8942e-02
7.750  18.500  -1.2140e-01
7.750  18.750  -1.4418e-01
7.750  19.000  -1.5827e-01
7.750  19.250  -1.6464e-01
7.750  19.500  -1.6427e-01
7.750  19.750  -1.5815e-01
7.750  20.000  -1.4726e-01
7.750  20.250  -1.3258e-01
7.750  20.500  -1.1510e-01
7.750  20.750  -9.5785e-02
7.750  21.000  -7.5631e-02
7.750  21.250  -5.5617e-02
7.750  21.500  -3.6723e-02
7.750  21.750  -1.9932e-02
7.750  22.000  -6.2250e-03
7.750  22.250  3.4154e-03
7.750  22.500  8.0076e-03
7.750  22.750  8.0077e-03
7.750  23.000  8.0078e-03
7.750  23.250  8.0077e-03
7.750  23.500  8.0084e-03
7.750  23.750  8.0084e-03
7.750  24.000  8.0076e-03
8.000  17.000  9.8809e-01
8.000  17.250  9.8296e-01
8.000  17.500  1.3984e-02
8.000  17.750  9.9853e-03
8.000  18.000  8.9458e-03
8.000  18.250  -6.2937e-02
8.000  18.500  -1.1771e-01
8.000  18.750  -1.5701e-01
8.000  19.000  -1.8245e-01
8.000  19.250  -1.9566e-01
8.000  19.500  -1.9827e-01
8.000  19.750  -1.9190e-01
8.000  20.000  -1.7817e-01
8.000  20.250  -1.5872e-01
8.000  20.500  -1.3517e-01
8.000  20.750  -1.0914e-01
8.000  21.000  -8.2259e-02
8.000  21.250  -5.6154e-02
8.000  21.500  -3.2449e-02
8.000  21.750  -1.2770e-02
8.000  22.000  1.2572e-03
8.000  22.250  8.0075e-03
8.000  22.500  8.0075e-03
8.000  22.750  8.0077e-03
8.000  23.000  8.0075e-03
8.000  23.250  8.0081e-03
8.000  23.500  8.0076e-03
8.000  23.750  8.0076e-03
8.000  24.000  8.0076e-03
8.250  17.000  9.9138e-01
8.250  17.250  9.8796e-01
8.250  17.500  9.8270e-01
8.250  17.750  1.4041e-02
8.250  18.000  9.9894e-03
8.250  18.250  8.9447e-03
8.250  18.500  8.3735e-03
8.250  18.750  8.1438e-03
8.250  19.000  8.0652e-03
8.250  19.250  8.0335e-03
8.250  19.500  8.0155e-03
8.250  19.750  8.0076e-03
8.250  20.000  8.0064e-03
8.250  20.250  8.0067e-03
8.250  20.500  8.0071e-03
8.250  20.750  8.0072e-03
8.250  21.000  8.0074e-03
8.250  21.250  8.0074e-03
8.250  21.500  8.0075e-03
8.250  21.750  8.0075e-03
8.250  22.000  8.0075e-03
8.250  22.250  8.0075e-03
8.250  22.500  8.0075e-03
8.250  22.750  8.0077e-03
8.250  23.000  8.0075e-03
8.250  23.250  8.0096e-03
8.250  23.500  8.0075e-03
8.250  23.750  8.0075e-03
8.250  24.000  8.0081e-03
8.500  17.000  9.9385e-01
8.500  17.250  9.9123e-01
8.500  17.500  9.8775e-01
8.500  17.750  9.8223e-01
8.500  18.000  1.4093e-02
8.500  18.250  9.9968e-03
8.500  18.500  8.9444e-03
8.500  18.750  -6.3413e-02
8.500  19.000  -1.1746e-01
8.500  19.250  -1.5506e-01
8.500  19.500  -1.7807e-01
8.500  19.750  -1.8833e-01
8.500  20.000  -1.8773e-01
8.500  20.250  -1.7810e-01
8.500  20.500  -1.6130e-01
8.500  20.750  -1.3920e-01
8.500  21.000  -1.1366e-01
8.500  21.250  -8.6521e-02
8.500  21.500  -5.9651e-02
8.500  21.750  -3.4905e-02
8.500  22.000  -1.4142e-02
8.500  22.250  7.8139e-04
8.500  22.500  8.0075e-03
8.500  22.750  8.0075e-03
8.500  23.000  8.0075e-03
8.500  23.250  8.0077e-03
8.500  23.500  8.0075e-03
8.500  23.750  8.0075e-03
8.500  24.000  8.0075e-03
8.750  17.000  9.9554e-01
8.750  17.250  9.9365e-01
8.750  17.500  9.9096e-01
8.750  17.750  9.8738e-01
8.750  18.000  9.8141e-01
8.750  18.250  1.4150e-02
8.750  18.500  1.0007e-02
8.750  18.750  8.9454e-03
8.750  19.000  -6.3341e-02
8.750  19.250  -1.1734e-01
8.750  19.500  -1.5490e-01
8.750  19.750  -1.7788e-01
8.750  20.000  -1.8814e-01
8.750  20.250  -1.8753e-01
8.750  20.500  -1.7791e-01
8.750  20.750  -1.6114e-01
8.750  21.000  -1.3906e-01
8.750  21.250  -1.1354e-01
8.750  21.500  -8.6430e-02
8.750  21.750  -5.9586e-02
8.750  22.000  -3.4865e-02
8.750  22.250  -1.4122e-02
8.750  22.500  7.8748e-04
8.750  22.750  8.0075e-03
8.750  23.000  8.0083e-03
8.750  23.250  8.0075e-03
8.750  23.500  8.0077e-03
8.750  23.750  8.0075e-03
8.750  24.000  8.0075e-03
9.000  17.000  9.9661e-01
9.000  17.250  9.9528e-01
9.000  17.500  9.9330e-01
9.000  17.750  9.9046e-01
9.000  18.000  9.8668e-01
9.000  18.250  9.7827e-01
9.000  18.500  1.4192e-02
9.000  18.750  1.0016e-02
9.000  19.000  8.9470e-03
9.000  19.250  8.3642e-03
9.000  19.500  8.1357e-03
9.000  19.750  8.0621e-03
9.000  20.000  8.0324e-03
9.000  20.250  8.0151e-03
9.000  20.500  8.0075e-03
9.000  20.750  8.0064e-03
9.000  21.000  8.0067e-03
9.000  21.250  8.0071e-03
9.000  21.500  8.0072e-03
9.000  21.750  8.0074e-03
9.000  22.000  8.0074e-03
9.000  22.250  8.0074e-03
9.000  22.500  8.0075e-03
9.000  22.750  8.0075e-03
9.000  23.000  8.0075e-03
9.000  23.250  8.0075e-03
9.000  23.500  8.0075e-03
9.000  23.750  8.0075e-03
9.000  24.000  8.0076e-03
9.250  17.000  9.9721e-01
9.250  17.250  9.9627e-01
9.250  17.500  9.9484e-01
9.250  17.750  9.9267e-01
9.250  18.000  9.8955e-01
9.250  18.250  9.8518e-01
9.250  18.500  9.5659e-01
9.250  18.750  1.4151e-02
9.250  19.000  1.0021e-02
9.250  19.250  8.9488e-03
9.250  19.500  8.3619e-03
9.250  19.750  8.1331e-03
9.250  20.000  8.0609e-03
9.250  20.250  8.0320e-03
9.250  20.500  8.0150e-03
9.250  20.750  8.0074e-03
9.250  21.000  8.0064e-03
9.250  21.250  8.0067e-03
9.250  21.500  8.0067e-03
9.250  21.750  8.0067e-03
9.250  22.000  8.0067e-03
9.250  22.250  8.0069e-03
9.250  22.500  8.0071e-03
9.250  22.750  8.0071e-03
9.250  23.000  8.0072e-03
9.250  23.250  8.0073e-03
9.250  23.500  8.0073e-03
9.250  23.750  8.0073e-03
9.250  24.000  8.0074e-03
9.500  17.000  9.9754e-01
9.500  17.250  9.9681e-01
9.500  17.500  9.9572e-01
9.500  17.750  9.9407e-01
9.500  18.000  9.9158e-01
9.500  18.250  9.8784e-01
9.500  18.500  9.8243e-01
9.500  18.750  7.7244e-02
9.500  19.000  1.3966e-02
9.500  19.250  1.0016e-02
9.500  19.500  8.9504e-03
9.500  19.750  8.3610e-03
9.500  20.000  8.1307e-03
9.500  20.250  8.0598e-03
9.500  20.500  8.0316e-03
9.500  20.750  8.0144e-03
9.500  21.000  8.0069e-03
9.500  21.250  8.0059e-03
9.500  21.500  8.0061e-03
9.500  21.750  8.0063e-03
9.500  22.000  8.0065e-03
9.500  22.250  8.0066e-03
9.500  22.500  8.0067e-03
9.500  22.750  8.0067e-03
9.500  23.000  8.0067e-03
9.500  23.250  8.0067e-03
9.500  23.500  8.0067e-03
9.500  23.750  8.0067e-03
9.500  24.000  8.0067e-03
9.750  17.000  9.9766e-01
9.750  17.250  9.9705e-01
9.750  17.500  9.9615e-01
9.750  17.750  9.9486e-01
9.750  18.000  9.9289e-01
9.750  18.250  9.8984e-01
9.750  18.500  9.8506e-01
9.750  18.750  9.7795e-01
9.750  19.000  3.6494e-02
9.750  19.250  1.3560e-02
9.750  19.500  9.9831e-03
9.750  19.750  8.9475e-03
9.750  20.000  8.3597e-03
9.750  20.250  8.1288e-03
9.750  20.500  8.0588e-03
9.750  20.750  8.0311e-03
9.750  21.000  8.0143e-03
9.750  21.250  8.0069e-03
9.750  21.500  8.0059e-03
9.750  21.750  8.0062e-03
9.750  22.000  8.0063e-03
9.750  22.250  8.0065e-03
9.750  22.500  8.0066e-03
9.750  22.750  8.0067e-03
9.750  23.000  8.0067e-03
9.750  23.250  8.0067e-03
9.750  23.500  8.0067e-03
9.750  23.750  8.0067e-03
9.750  24.000  8.0067e-03
10.000  17.000  9.9768e-01
10.000  17.250  9.9712e-01
10.000  17.500  9.9635e-01
10.000  17.750  9.9524e-01
10.000  18.000  9.9371e-01
10.000  18.250  9.9129e-01
10.000  18.500  9.8732e-01
10.000  18.750  9.8120e-01
10.000  19.000  9.7274e-01
10.000  19.250  2.1595e-02
10.000  19.500  1.2738e-02
10.000  19.750  9.8969e-03
10.000  20.000  8.9355e-03
10.000  20.250  8.3580e-03
10.000  20.500  8.1269e-03
10.000  20.750  8.0578e-03
10.000  21.000  8.0308e-03
10.000  21.250  8.0144e-03
10.000  21.500  8.0069e-03
10.000  21.750  8.0059e-03
10.000  22.000  8.0062e-03
10.000  22.250  8.0064e-03
10.000  22.500  8.0065e-03
10.000  22.750  8.0066e-03
10.000  23.000  8.0067e-03
10.000  23.250  8.0067e-03
10.000  23.500  8.0067e-03
10.000  23.750  8.0067e-03
10.000  24.000  8.0067e-03
10.250  17.000  9.9767e-01
10.250  17.250  9.9711e-01
10.250  17.500  9.9641e-01
10.250  17.750  9.9552e-01
10.250  18.000  9.9425e-01
10.250  18.250  9.9232e-01
10.250  18.500  9.8917e-01
10.250  18.750  9.8433e-01
10.250  19.000  9.7730e-01
10.250  19.250  3.3207e-01
10.250  19.500  1.5743e-02
10.250  19.750  1.1461e-02
10.250  20.000  9.7956e-03
10.250  20.250  8.9132e-03
10.250  20.500  8.3547e-03
10.250  20.750  7.4341e-03
10.250  21.000  7.0158e-03
10.250  21.250  6.9726e-03
10.250  21.500  7.1772e-03
10.250  21.750  7.5025e-03
10.250  22.000  7.8212e-03
10.250  22.250  8.0062e-03
10.250  22.500  8.0065e-03
10.250  22.750  8.0065e-03
10.250  23.000  8.0067e-03
10.250  23.250  8.0067e-03
10.250  23.500  8.0067e-03
10.250  23.750  8.0067e-03
10.250  24.000  8.0067e-03
10.500  17.000  9.9767e-01
10.500  17.250  9.9710e-01
10.500  17.500  9.9646e-01
10.500  17.750  9.9572e-01
10.500  18.000  9.9469e-01
10.500  18.250  9.9318e-01
10.500  18.500  9.9078e-01
10.500  18.750  9.8708e-01
10.500  19.000  9.8152e-01
10.500  19.250  9.7396e-01
10.500  19.500  3.3106e-02
10.500  19.750  1.3363e-02
10.500  20.000  1.0637e-02
10.500  20.250  9.6030e-03
10.500  20.500  8.8654e-03
10.500  20.750  8.3460e-03
10.500  21.000  8.1225e-03
10.500  21.250  8.0559e-03
10.500  21.500  8.0299e-03
10.500  21.750  8.0141e-03
10.500  22.000  8.0071e-03
10.500  22.250  8.0060e-03
10.500  22.500  8.0062e-03
10.500  22.750  8.0066e-03
10.500  23.000  8.0066e-03
10.500  23.250  8.0066e-03
10.500  23.500  8.0067e-03
10.500  23.750  8.0067e-03
10.500  24.000  8.0067e-03
10.750  17.000  9.9768e-01
10.750  17.250  9.9711e-01
10.750  17.500  9.9649e-01
10.750  17.750  9.9578e-01
10.750  18.000  9.9498e-01
10.750  18.250  9.9383e-01
10.750  18.500  9.9196e-01
10.750  18.750  9.8905e-01
10.750  19.000  9.8460e-01
10.750  19.250  9.7778e-01
10.750  19.500  9.6850e-01
10.750  19.750  1.6547e-02
10.750  20.000  1.1839e-02
10.750  20.250  1.0169e-02
10.750  20.500  9.3921e-03
10.750  20.750  8.7695e-03
10.750  21.000  8.3316e-03
10.750  21.250  8.1200e-03
10.750  21.500  8.0548e-03
10.750  21.750  8.0294e-03
10.750  22.000  8.0138e-03
10.750  22.250  8.0071e-03
10.750  22.500  8.0062e-03
10.750  22.750  8.0063e-03
10.750  23.000  8.0066e-03
10.750  23.250  8.0067e-03
10.750  23.500  8.0067e-03
10.750  23.750  8.0067e-03
10.750  24.000  8.0067e-03
11.000  17.000  9.9766e-01
11.000  17.250  9.9711e-01
11.000  17.500  9.9638e-01
11.000  17.750  9.9562e-01
11.000  18.000  9.9493e-01
11.000  18.250  9.9405e-01
11.000  18.500  9.9259e-01
11.000  18.750  9.9031e-01
11.000  19.000  9.8678e-01
11.000  19.250  9.8129e-01
11.000  19.500  9.7324e-01
11.000  19.750  9.0980e-01
11.000  20.000  1.4712e-02
11.000  20.250  1.2090e-02
11.000  20.500  9.7002e-03
11.000  20.750  9.0557e-03
11.000  21.000  8.7033e-03
11.000  21.250  8.3031e-03
11.000  21.500  8.1164e-03
11.000  21.750  8.0535e-03
11.000  22.000  8.0287e-03
11.000  22.250  8.0135e-03
11.000  22.500  8.0070e-03
11.000  22.750  8.0063e-03
11.000  23.000  8.0064e-03
11.000  23.250  8.0067e-03
11.000  23.500  8.0067e-03
11.000  23.750  8.0067e-03
11.000  24.000  8.0067e-03
11.250  17.000  9.9758e-01
11.250  17.250  9.9702e-01
11.250  17.500  9.9615e-01
11.250  17.750  9.9528e-01
11.250  18.000  9.9458e-01
11.250  18.250  9.9384e-01
11.250  18.500  9.9274e-01
11.250  18.750  9.9096e-01
11.250  19.000  9.8814e-01
11.250  19.250  9.8378e-01
11.250  19.500  9.7696e-01
11.250  19.750  9.6628e-01
11.250  20.000  5.2501e-01
11.250  20.250  1.2678e-02
11.250  20.500  1.0428e-02
11.250  20.750  9.3941e-03
11.250  21.000  8.9782e-03
11.250  21.250  8.5980e-03
11.250  21.500  8.2735e-03
11.250  21.750  8.1108e-03
11.250  22.000  8.0515e-03
11.250  22.250  8.0278e-03
11.250  22.500  8.0131e-03
11.250  22.750  8.0069e-03
11.250  23.000  8.0063e-03
11.250  23.250  8.0065e-03
11.250  23.500  8.0067e-03
11.250  23.750  8.0068e-03
11.250  24.000  8.0068e-03
11.500  17.000  9.9744e-01
11.500  17.250  9.9680e-01
11.500  17.500  9.9584e-01
11.500  17.750  9.9490e-01
11.500  18.000  9.9411e-01
11.500  18.250  9.9338e-01
11.500  18.500  9.9253e-01
11.500  18.750  9.9119e-01
11.500  19.000  9.8900e-01
11.500  19.250  9.8552e-01
11.500  19.500  9.7991e-01
11.500  19.750  9.7124e-01
11.500  20.000  9.5808e-01
11.500  20.250  1.6758e-02
11.500  20.500  1.2015e-02
11.500  20.750  1.0219e-02
11.500  21.000  9.2193e-03
11.500  21.250  8.8463e-03
11.500  21.500  8.5263e-03
11.500  21.750  8.2382e-03
11.500  22.000  8.1026e-03
11.500  22.250  8.0490e-03
11.500  22.500  8.0265e-03
11.500  22.750  8.0126e-03
11.500  23.000  8.0067e-03
11.500  23.250  8.0062e-03
11.500  23.500  8.0066e-03
11.500  23.750  8.0067e-03
11.500  24.000  8.0068e-03
11.750  17.000  9.9711e-01
11.750  17.250  9.9646e-01
11.750  17.500  9.9553e-01
11.750  17.750  9.9457e-01
11.750  18.000  9.9368e-01
11.750  18.250  9.9289e-01
11.750  18.500  9.9214e-01
11.750  18.750  9.9115e-01
11.750  19.000  9.8951e-01
11.750  19.250  9.8681e-01
11.750  19.500  9.8249e-01
11.750  19.750  9.7570e-01
11.750  20.000  9.6520e-01
11.750  20.250  9.4929e-01
11.750  20.500  1.5758e-02
11.750  20.750  1.1269e-02
11.750  21.000  9.6958e-03
11.750  21.250  8.9895e-03
11.750  21.500  8.8067e-03
11.750  21.750  8.4327e-03
11.750  22.000  8.2059e-03
11.750  22.250  8.0926e-03
11.750  22.500  8.0454e-03
11.750  22.750  8.0246e-03
11.750  23.000  8.0118e-03
11.750  23.250  8.0066e-03
11.750  23.500  8.0061e-03
11.750  23.750  8.0066e-03
11.750  24.000  8.0069e-03
12.000  17.000  9.9660e-01
12.000  17.250  9.9609e-01
12.000  17.500  9.9524e-01
12.000  17.750  9.9426e-01
12.000  18.000  9.9334e-01
12.000  18.250  9.9250e-01
12.000  18.500  9.9173e-01
12.000  18.750  9.9093e-01
12.000  19.000  9.8977e-01
12.000  19.250  9.8780e-01
12.000  19.500  9.8459e-01
12.000  19.750  9.7947e-01
12.000  20.000  9.7149e-01
12.000  20.250  9.5920e-01
12.000  20.500  9.4045e-01
12.000  20.750  1.3969e-02
12.000  21.000  1.0659e-02
12.000  21.250  9.4030e-03
12.000  21.500  8.8594e-03
12.000  21.750  8.6610e-03
12.000  22.000  8.3662e-03
12.000  22.250  8.1833e-03
12.000  22.500  8.0831e-03
12.000  22.750  8.0413e-03
12.000  23.000  8.0226e-03
12.000  23.250  8.0108e-03
12.000  23.500  8.0063e-03
12.000  23.750  8.0060e-03
12.000  24.000  8.0065e-03
12.250  17.000  9.9601e-01
12.250  17.250  9.9570e-01
12.250  17.500  9.9493e-01
12.250  17.750  9.9393e-01
12.250  18.000  9.9299e-01
12.250  18.250  9.9217e-01
12.250  18.500  9.9145e-01
12.250  18.750  9.9073e-01
12.250  19.000  9.8986e-01
12.250  19.250  9.8849e-01
12.250  19.500  9.8621e-01
12.250  19.750  9.8252e-01
12.250  20.000  9.7670e-01
12.250  20.250  9.6767e-01
12.250  20.500  9.5371e-01
12.250  20.750  9.3164e-01
12.250  21.000  1.2939e-02
12.250  21.250  1.0321e-02
12.250  21.500  9.2101e-03
12.250  21.750  8.8270e-03
12.250  22.000  8.5758e-03
12.250  22.250  8.3275e-03
12.250  22.500  8.1660e-03
12.250  22.750  8.0742e-03
12.250  23.000  8.0369e-03
12.250  23.250  8.0202e-03
12.250  23.500  8.0096e-03
12.250  23.750  8.0059e-03
12.250  24.000  8.0058e-03
12.500  17.000  9.9540e-01
12.500  17.250  9.9523e-01
12.500  17.500  9.9455e-01
12.500  17.750  9.9354e-01
12.500  18.000  9.9255e-01
12.500  18.250  9.9175e-01
12.500  18.500  9.9116e-01
12.500  18.750  9.9062e-01
12.500  19.000  9.8996e-01
12.500  19.250  9.8901e-01
12.500  19.500  9.8746e-01
12.500  19.750  9.8487e-01
12.500  20.000  9.8077e-01
12.500  20.250  9.7437e-01
12.500  20.500  9.6444e-01
12.500  20.750  9.4896e-01
12.500  21.000  9.2382e-01
12.500  21.250  1.2482e-02
12.500  21.500  1.0048e-02
12.500  21.750  9.0960e-03
12.500  22.000  8.7704e-03
12.500  22.250  8.5143e-03
12.500  22.500  8.2834e-03
12.500  22.750  8.1312e-03
12.500  23.000  8.0660e-03
12.500  23.250  8.0333e-03
12.500  23.500  8.0179e-03
12.500  23.750  8.0086e-03
12.500  24.000  8.0056e-03
12.750  17.000  9.9464e-01
12.750  17.250  9.9463e-01
12.750  17.500  9.9405e-01
12.750  17.750  9.9305e-01
12.750  18.000  9.9199e-01
12.750  18.250  9.9116e-01
12.750  18.500  9.9065e-01
12.750  18.750  9.9034e-01
12.750  19.000  9.8999e-01
12.750  19.250  9.8940e-01
12.750  19.500  9.8839e-01
12.750  19.750  9.8664e-01
12.750  20.000  9.8378e-01
12.750  20.250  9.7936e-01
12.750  20.500  9.7248e-01
12.750  20.750  9.6171e-01
12.750  21.000  9.4487e-01
12.750  21.250  8.7643e-01
12.750  21.500  1.2211e-02
12.750  21.750  9.8569e-03
12.750  22.000  1.4015e-01
12.750  22.250  1.3351e-01
12.750  22.500  6.4637e-02
12.750  22.750  8.2235e-03
12.750  23.000  8.1125e-03
12.750  23.250  8.0589e-03
12.750  23.500  8.0300e-03
12.750  23.750  8.0156e-03
12.750  24.000  8.0075e-03
13.000  17.000  9.9369e-01
13.000  17.250  9.9382e-01
13.000  17.500  9.9336e-01
13.000  17.750  9.9241e-01
13.000  18.000  9.9131e-01
13.000  18.250  9.9040e-01
13.000  18.500  9.8990e-01
13.000  18.750  9.8974e-01
13.000  19.000  9.8970e-01
13.000  19.250  9.8949e-01
13.000  19.500  9.8897e-01
13.000  19.750  9.8790e-01
13.000  20.000  9.8601e-01
13.000  20.250  9.8293e-01
13.000  20.500  9.7813e-01
13.000  20.750  9.7085e-01
13.000  21.000  9.5928e-01
13.000  21.250  9.4123e-01
13.000  21.500  2.1104e-01
13.000  21.750  1.1585e-02
13.000  22.000  9.7316e-03
13.000  22.250  9.1637e-03
13.000  22.500  8.7291e-03
13.000  22.750  8.4119e-03
13.000  23.000  8.2023e-03
13.000  23.250  8.0998e-03
13.000  23.500  8.0537e-03
13.000  23.750  8.0268e-03
13.000  24.000  8.0137e-03
13.250  17.000  9.9255e-01
13.250  17.250  9.9279e-01
13.250  17.500  9.9244e-01
13.250  17.750  9.9157e-01
13.250  18.000  9.9046e-01
13.250  18.250  9.8949e-01
13.250  18.500  9.8895e-01
13.250  18.750  9.8888e-01
13.250  19.000  9.8904e-01
13.250  19.250  9.8917e-01
13.250  19.500  9.8906e-01
13.250  19.750  9.8851e-01
13.250  20.000  9.8734e-01
13.250  20.250  9.8532e-01
13.250  20.500  9.8208e-01
13.250  20.750  9.7707e-01
13.250  21.000  9.6935e-01
13.250  21.250  9.5724e-01
13.250  21.500  9.3845e-01
13.250  21.750  2.4572e-02
13.250  22.000  1.1232e-02
13.250  22.250  9.5392e-03
13.250  22.500  8.9259e-03
13.250  22.750  8.5759e-03
13.250  23.000  8.3649e-03
13.250  23.250  8.2281e-03
13.250  23.500  8.1119e-03
13.250  23.750  8.0485e-03
13.250  24.000  8.0241e-03
13.500  17.000  9.9125e-01
13.500  17.250  9.9151e-01
13.500  17.500  9.9125e-01
13.500  17.750  9.9045e-01
13.500  18.000  9.8938e-01
13.500  18.250  9.8838e-01
13.500  18.500  9.8778e-01
13.500  18.750  9.8774e-01
13.500  19.000  9.8806e-01
13.500  19.250  9.8847e-01
13.500  19.500  9.8871e-01
13.500  19.750  9.8857e-01
13.500  20.000  9.8792e-01
13.500  20.250  9.8660e-01
13.500  20.500  9.8440e-01
13.500  20.750  9.8101e-01
13.500  21.000  9.7583e-01
13.500  21.250  9.6781e-01
13.500  21.500  9.5554e-01
13.500  21.750  9.3619e-01
13.500  22.000  2.0426e-02
13.500  22.250  1.1043e-02
13.500  22.500  9.4665e-03
13.500  22.750  8.8300e-03
13.500  23.000  8.5276e-03
13.500  23.250  8.3058e-03
13.500  23.500  8.1720e-03
13.500  23.750  8.0863e-03
13.500  24.000  8.0447e-03
13.750  17.000  9.8986e-01
13.750  17.250  9.9007e-01
13.750  17.500  9.8977e-01
13.750  17.750  9.8901e-01
13.750  18.000  9.8798e-01
13.750  18.250  9.8700e-01
13.750  18.500  9.8640e-01
13.750  18.750  9.8637e-01
13.750  19.000  9.8683e-01
13.750  19.250  9.8745e-01
13.750  19.500  9.8799e-01
13.750  19.750  9.8820e-01
13.750  20.000  9.8794e-01
13.750  20.250  9.8710e-01
13.750  20.500  9.8555e-01
13.750  20.750  9.8308e-01
13.750  21.000  9.7940e-01
13.750  21.250  9.7395e-01
13.750  21.500  9.6580e-01
13.750  21.750  9.5291e-01
13.750  22.000  9.3274e-01
13.750  22.250  1.8203e-02
13.750  22.500  1.0913e-02
13.750  22.750  9.3602e-03
13.750  23.000  8.7462e-03
13.750  23.250  8.4875e-03
13.750  23.500  8.2795e-03
13.750  23.750  8.1612e-03
13.750  24.000  8.0788e-03
14.000  17.000  9.8761e-01
14.000  17.250  9.8855e-01
14.000  17.500  9.8810e-01
14.000  17.750  9.8725e-01
14.000  18.000  9.8623e-01
14.000  18.250  9.8529e-01
14.000  18.500  9.8470e-01
14.000  18.750  9.8475e-01
14.000  19.000  9.8533e-01
14.000  19.250  9.8618e-01
14.000  19.500  9.8698e-01
14.000  19.750  9.8749e-01
14.000  20.000  9.8754e-01
14.000  20.250  9.8705e-01
14.000  20.500  9.8593e-01
14.000  20.750  9.8403e-01
14.000  21.000  9.8115e-01
14.000  21.250  9.7700e-01
14.000  21.500  9.7116e-01
14.000  21.750  9.6217e-01
14.000  22.000  9.4817e-01
14.000  22.250  9.2557e-01
14.000  22.500  1.6458e-02
14.000  22.750  1.0837e-02
14.000  23.000  9.2816e-03
14.000  23.250  8.6831e-03
14.000  23.500  8.4236e-03
14.000  23.750  8.2582e-03
14.000  24.000  8.1440e-03
