InwC 1.10000m  relative to Inci 1215.00A scaled to 1215A.
Hden   Phi(H)  Eq_Width (A)
 7.000	17.000	5.6509e-03
 7.000	17.250	5.9081e-03
 7.000	17.500	6.0582e-03
 7.000	17.750	6.0608e-03
 7.000	18.000	6.0636e-03
 7.000	18.250	6.0671e-03
 7.000	18.500	6.0687e-03
 7.000	18.750	6.0695e-03
 7.000	19.000	6.0702e-03
 7.000	19.250	6.0707e-03
 7.000	19.500	6.0709e-03
 7.000	19.750	6.0710e-03
 7.000	20.000	6.0710e-03
 7.000	20.250	6.0710e-03
 7.000	20.500	6.0710e-03
 7.000	20.750	6.0711e-03
 7.000	21.000	6.0711e-03
 7.000	21.250	6.0711e-03
 7.000	21.500	6.0712e-03
 7.000	21.750	6.0712e-03
 7.000	22.000	6.0713e-03
 7.000	22.250	6.0714e-03
 7.000	22.500	6.0714e-03
 7.000	22.750	6.0714e-03
 7.000	23.000	6.0714e-03
 7.000	23.250	6.0714e-03
 7.000	23.500	6.0714e-03
 7.000	23.750	6.0714e-03
 7.000	24.000	6.0714e-03
 7.250	17.000	4.2047e-03
 7.250	17.250	5.6713e-03
 7.250	17.500	5.9093e-03
 7.250	17.750	6.0582e-03
 7.250	18.000	6.0608e-03
 7.250	18.250	6.0636e-03
 7.250	18.500	6.0669e-03
 7.250	18.750	6.0687e-03
 7.250	19.000	6.0695e-03
 7.250	19.250	6.0702e-03
 7.250	19.500	6.0707e-03
 7.250	19.750	6.0709e-03
 7.250	20.000	6.0709e-03
 7.250	20.250	6.0710e-03
 7.250	20.500	6.0710e-03
 7.250	20.750	6.0710e-03
 7.250	21.000	6.0711e-03
 7.250	21.250	6.0710e-03
 7.250	21.500	6.0711e-03
 7.250	21.750	6.0711e-03
 7.250	22.000	6.0711e-03
 7.250	22.250	6.0711e-03
 7.250	22.500	6.0712e-03
 7.250	22.750	6.0712e-03
 7.250	23.000	6.0713e-03
 7.250	23.250	6.0713e-03
 7.250	23.500	6.0713e-03
 7.250	23.750	6.0713e-03
 7.250	24.000	6.0713e-03
 7.500	17.000	3.0951e-03
 7.500	17.250	4.2583e-03
 7.500	17.500	5.6865e-03
 7.500	17.750	5.9104e-03
 7.500	18.000	6.0582e-03
 7.500	18.250	6.0608e-03
 7.500	18.500	6.0637e-03
 7.500	18.750	6.0670e-03
 7.500	19.000	6.0687e-03
 7.500	19.250	6.0695e-03
 7.500	19.500	6.0702e-03
 7.500	19.750	6.0707e-03
 7.500	20.000	6.0709e-03
 7.500	20.250	6.0709e-03
 7.500	20.500	6.0710e-03
 7.500	20.750	6.0710e-03
 7.500	21.000	6.0710e-03
 7.500	21.250	6.0710e-03
 7.500	21.500	6.0710e-03
 7.500	21.750	6.0710e-03
 7.500	22.000	6.0710e-03
 7.500	22.250	6.0711e-03
 7.500	22.500	6.0711e-03
 7.500	22.750	6.0711e-03
 7.500	23.000	6.0711e-03
 7.500	23.250	6.0711e-03
 7.500	23.500	6.0714e-03
 7.500	23.750	6.0711e-03
 7.500	24.000	6.0711e-03
 7.750	17.000	2.1747e-03
 7.750	17.250	3.1594e-03
 7.750	17.500	4.3019e-03
 7.750	17.750	5.6979e-03
 7.750	18.000	5.9114e-03
 7.750	18.250	6.0582e-03
 7.750	18.500	6.0609e-03
 7.750	18.750	6.0637e-03
 7.750	19.000	6.0670e-03
 7.750	19.250	6.0687e-03
 7.750	19.500	6.0695e-03
 7.750	19.750	6.0702e-03
 7.750	20.000	6.0707e-03
 7.750	20.250	6.0709e-03
 7.750	20.500	6.0710e-03
 7.750	20.750	6.0710e-03
 7.750	21.000	6.0710e-03
 7.750	21.250	6.0710e-03
 7.750	21.500	6.0710e-03
 7.750	21.750	6.0710e-03
 7.750	22.000	6.0710e-03
 7.750	22.250	6.0710e-03
 7.750	22.500	6.0710e-03
 7.750	22.750	6.0710e-03
 7.750	23.000	6.0711e-03
 7.750	23.250	6.0711e-03
 7.750	23.500	6.0711e-03
 7.750	23.750	6.0711e-03
 7.750	24.000	6.0711e-03
 8.000	17.000	1.4843e-03
 8.000	17.250	2.2151e-03
 8.000	17.500	3.2117e-03
 8.000	17.750	4.3220e-03
 8.000	18.000	5.6830e-03
 8.000	18.250	5.9110e-03
 8.000	18.500	6.0582e-03
 8.000	18.750	6.0609e-03
 8.000	19.000	6.0637e-03
 8.000	19.250	6.0671e-03
 8.000	19.500	6.0687e-03
 8.000	19.750	6.0695e-03
 8.000	20.000	6.0702e-03
 8.000	20.250	6.0707e-03
 8.000	20.500	6.0709e-03
 8.000	20.750	6.0709e-03
 8.000	21.000	6.0710e-03
 8.000	21.250	6.0710e-03
 8.000	21.500	6.0710e-03
 8.000	21.750	6.0710e-03
 8.000	22.000	6.0710e-03
 8.000	22.250	6.0710e-03
 8.000	22.500	6.0710e-03
 8.000	22.750	6.0711e-03
 8.000	23.000	6.0710e-03
 8.000	23.250	6.0712e-03
 8.000	23.500	6.0710e-03
 8.000	23.750	6.0710e-03
 8.000	24.000	6.0711e-03
 8.250	17.000	1.0266e-03
 8.250	17.250	1.5205e-03
 8.250	17.500	2.2767e-03
 8.250	17.750	3.2877e-03
 8.250	18.000	4.3895e-03
 8.250	18.250	5.6958e-03
 8.250	18.500	5.9119e-03
 8.250	18.750	6.0582e-03
 8.250	19.000	6.0609e-03
 8.250	19.250	6.0637e-03
 8.250	19.500	6.0669e-03
 8.250	19.750	6.0687e-03
 8.250	20.000	6.0695e-03
 8.250	20.250	6.0702e-03
 8.250	20.500	6.0707e-03
 8.250	20.750	6.0709e-03
 8.250	21.000	6.0709e-03
 8.250	21.250	6.0710e-03
 8.250	21.500	6.0710e-03
 8.250	21.750	6.0710e-03
 8.250	22.000	6.0710e-03
 8.250	22.250	6.0710e-03
 8.250	22.500	6.0710e-03
 8.250	22.750	6.0710e-03
 8.250	23.000	6.0710e-03
 8.250	23.250	6.0710e-03
 8.250	23.500	6.0710e-03
 8.250	23.750	6.0710e-03
 8.250	24.000	6.0710e-03
 8.500	17.000	7.2049e-04
 8.500	17.250	1.0533e-03
 8.500	17.500	1.5687e-03
 8.500	17.750	2.3643e-03
 8.500	18.000	3.4160e-03
 8.500	18.250	4.4881e-03
 8.500	18.500	5.7189e-03
 8.500	18.750	5.9126e-03
 8.500	19.000	6.0582e-03
 8.500	19.250	6.0609e-03
 8.500	19.500	6.0637e-03
 8.500	19.750	6.0670e-03
 8.500	20.000	6.0687e-03
 8.500	20.250	6.0695e-03
 8.500	20.500	6.0702e-03
 8.500	20.750	6.0707e-03
 8.500	21.000	6.0709e-03
 8.500	21.250	6.0709e-03
 8.500	21.500	6.0710e-03
 8.500	21.750	6.0710e-03
 8.500	22.000	6.0710e-03
 8.500	22.250	6.0710e-03
 8.500	22.500	6.0710e-03
 8.500	22.750	6.0710e-03
 8.500	23.000	6.0710e-03
 8.500	23.250	6.0711e-03
 8.500	23.500	6.0710e-03
 8.500	23.750	6.0710e-03
 8.500	24.000	6.0710e-03
 8.750	17.000	5.0922e-04
 8.750	17.250	7.3967e-04
 8.750	17.500	1.0908e-03
 8.750	17.750	1.6491e-03
 8.750	18.000	2.5111e-03
 8.750	18.250	3.6140e-03
 8.750	18.500	4.6798e-03
 8.750	18.750	5.7305e-03
 8.750	19.000	5.9133e-03
 8.750	19.250	6.0582e-03
 8.750	19.500	6.0610e-03
 8.750	19.750	6.0637e-03
 8.750	20.000	6.0671e-03
 8.750	20.250	6.0687e-03
 8.750	20.500	6.0695e-03
 8.750	20.750	6.0702e-03
 8.750	21.000	6.0707e-03
 8.750	21.250	6.0709e-03
 8.750	21.500	6.0709e-03
 8.750	21.750	6.0710e-03
 8.750	22.000	6.0710e-03
 8.750	22.250	6.0710e-03
 8.750	22.500	6.0710e-03
 8.750	22.750	6.0710e-03
 8.750	23.000	6.0710e-03
 8.750	23.250	6.0710e-03
 8.750	23.500	6.0711e-03
 8.750	23.750	6.0711e-03
 8.750	24.000	6.0710e-03
 9.000	17.000	3.6115e-04
 9.000	17.250	5.2337e-04
 9.000	17.500	7.6930e-04
 9.000	17.750	1.1551e-03
 9.000	18.000	1.7855e-03
 9.000	18.250	2.7528e-03
 9.000	18.500	3.8867e-03
 9.000	18.750	4.8307e-03
 9.000	19.000	5.7297e-03
 9.000	19.250	5.9134e-03
 9.000	19.500	6.0581e-03
 9.000	19.750	6.0610e-03
 9.000	20.000	6.0637e-03
 9.000	20.250	6.0670e-03
 9.000	20.500	6.0687e-03
 9.000	20.750	6.0695e-03
 9.000	21.000	6.0702e-03
 9.000	21.250	6.0707e-03
 9.000	21.500	6.0709e-03
 9.000	21.750	6.0709e-03
 9.000	22.000	6.0710e-03
 9.000	22.250	6.0710e-03
 9.000	22.500	6.0710e-03
 9.000	22.750	6.0710e-03
 9.000	23.000	6.0710e-03
 9.000	23.250	6.0710e-03
 9.000	23.500	6.0710e-03
 9.000	23.750	6.0710e-03
 9.000	24.000	6.0711e-03
 9.250	17.000	2.5654e-04
 9.250	17.250	3.7136e-04
 9.250	17.500	5.4642e-04
 9.250	17.750	8.2272e-04
 9.250	18.000	1.2812e-03
 9.250	18.250	2.0221e-03
 9.250	18.500	3.0724e-03
 9.250	18.750	4.1951e-03
 9.250	19.000	5.1138e-03
 9.250	19.250	5.7267e-03
 9.250	19.500	5.9128e-03
 9.250	19.750	6.0580e-03
 9.250	20.000	6.0609e-03
 9.250	20.250	6.0637e-03
 9.250	20.500	6.0669e-03
 9.250	20.750	6.0686e-03
 9.250	21.000	6.0695e-03
 9.250	21.250	6.0701e-03
 9.250	21.500	6.0695e-03
 9.250	21.750	6.0691e-03
 9.250	22.000	6.0691e-03
 9.250	22.250	6.0692e-03
 9.250	22.500	6.0709e-03
 9.250	22.750	6.0709e-03
 9.250	23.000	6.0710e-03
 9.250	23.250	6.0710e-03
 9.250	23.500	6.0710e-03
 9.250	23.750	6.0710e-03
 9.250	24.000	6.0710e-03
 9.500	17.000	1.8230e-04
 9.500	17.250	2.6412e-04
 9.500	17.500	3.8947e-04
 9.500	17.750	5.9086e-04
 9.500	18.000	9.3317e-04
 9.500	18.250	1.4899e-03
 9.500	18.500	2.3267e-03
 9.500	18.750	3.4071e-03
 9.500	19.000	4.4425e-03
 9.500	19.250	5.3514e-03
 9.500	19.500	5.7221e-03
 9.500	19.750	5.9108e-03
 9.500	20.000	6.0578e-03
 9.500	20.250	6.0608e-03
 9.500	20.500	6.0637e-03
 9.500	20.750	6.0667e-03
 9.500	21.000	6.0673e-03
 9.500	21.250	6.0677e-03
 9.500	21.500	6.0683e-03
 9.500	21.750	6.0684e-03
 9.500	22.000	6.0677e-03
 9.500	22.250	6.0678e-03
 9.500	22.500	6.0678e-03
 9.500	22.750	6.0677e-03
 9.500	23.000	6.0677e-03
 9.500	23.250	6.0678e-03
 9.500	23.500	6.0686e-03
 9.500	23.750	6.0686e-03
 9.500	24.000	6.0686e-03
 9.750	17.000	1.2955e-04
 9.750	17.250	1.8774e-04
 9.750	17.500	2.7778e-04
 9.750	17.750	4.2576e-04
 9.750	18.000	6.8132e-04
 9.750	18.250	1.1086e-03
 9.750	18.500	1.7483e-03
 9.750	18.750	2.6320e-03
 9.750	19.000	3.7065e-03
 9.750	19.250	4.7267e-03
 9.750	19.500	5.6073e-03
 9.750	19.750	5.7160e-03
 9.750	20.000	5.9075e-03
 9.750	20.250	6.0574e-03
 9.750	20.500	6.0607e-03
 9.750	20.750	6.0636e-03
 9.750	21.000	6.0667e-03
 9.750	21.250	6.0681e-03
 9.750	21.500	6.0680e-03
 9.750	21.750	6.0683e-03
 9.750	22.000	6.0686e-03
 9.750	22.250	6.0681e-03
 9.750	22.500	6.0677e-03
 9.750	22.750	6.0678e-03
 9.750	23.000	6.0679e-03
 9.750	23.250	6.0679e-03
 9.750	23.500	6.0678e-03
 9.750	23.750	6.0678e-03
 9.750	24.000	6.0677e-03
10.000	17.000	9.1852e-05
10.000	17.250	1.3358e-04
10.000	17.500	1.9844e-04
10.000	17.750	3.0749e-04
10.000	18.000	5.0173e-04
10.000	18.250	8.2667e-04
10.000	18.500	1.3123e-03
10.000	18.750	1.9927e-03
10.000	19.000	2.9177e-03
10.000	19.250	3.9702e-03
10.000	19.500	5.0351e-03
10.000	19.750	5.6089e-03
10.000	20.000	5.7098e-03
10.000	20.250	5.9021e-03
10.000	20.500	6.0564e-03
10.000	20.750	6.0603e-03
10.000	21.000	6.0634e-03
10.000	21.250	6.0667e-03
10.000	21.500	6.0684e-03
10.000	21.750	6.0688e-03
10.000	22.000	6.0685e-03
10.000	22.250	6.0688e-03
10.000	22.500	6.0686e-03
10.000	22.750	6.0680e-03
10.000	23.000	6.0677e-03
10.000	23.250	6.0678e-03
10.000	23.500	6.0678e-03
10.000	23.750	6.0679e-03
10.000	24.000	6.0679e-03
10.250	17.000	6.5103e-05
10.250	17.250	9.5062e-05
10.250	17.500	1.4206e-04
10.250	17.750	2.2288e-04
10.250	18.000	3.6922e-04
10.250	18.250	6.1399e-04
10.250	18.500	9.7465e-04
10.250	18.750	1.4914e-03
10.250	19.000	2.2026e-03
10.250	19.250	3.1335e-03
10.250	19.500	4.2142e-03
10.250	19.750	5.2504e-03
10.250	20.000	5.6003e-03
10.250	20.250	5.7034e-03
10.250	20.500	5.8985e-03
10.250	20.750	6.0548e-03
10.250	21.000	6.0598e-03
10.250	21.250	6.0630e-03
10.250	21.500	6.0666e-03
10.250	21.750	6.0685e-03
10.250	22.000	6.0691e-03
10.250	22.250	6.0691e-03
10.250	22.500	6.0689e-03
10.250	22.750	6.0688e-03
10.250	23.000	6.0685e-03
10.250	23.250	6.0681e-03
10.250	23.500	6.0678e-03
10.250	23.750	6.0677e-03
10.250	24.000	6.0677e-03
10.500	17.000	4.6255e-05
10.500	17.250	6.7654e-05
10.500	17.500	1.0206e-04
10.500	17.750	1.6239e-04
10.500	18.000	2.7185e-04
10.500	18.250	4.5366e-04
10.500	18.500	7.1745e-04
10.500	18.750	1.0996e-03
10.500	19.000	1.6303e-03
10.500	19.250	2.3547e-03
10.500	19.500	3.2929e-03
10.500	19.750	4.4109e-03
10.500	20.000	5.4340e-03
10.500	20.250	5.5932e-03
10.500	20.500	5.6976e-03
10.500	20.750	5.8956e-03
10.500	21.000	6.0518e-03
10.500	21.250	6.0587e-03
10.500	21.500	6.0628e-03
10.500	21.750	6.0663e-03
10.500	22.000	6.0684e-03
10.500	22.250	6.0692e-03
10.500	22.500	6.0698e-03
10.500	22.750	6.0689e-03
10.500	23.000	6.0690e-03
10.500	23.250	6.0688e-03
10.500	23.500	6.0685e-03
10.500	23.750	6.0683e-03
10.500	24.000	6.0681e-03
10.750	17.000	3.2840e-05
10.750	17.250	4.8230e-05
10.750	17.500	7.3416e-05
10.750	17.750	1.1844e-04
10.750	18.000	1.9959e-04
10.750	18.250	3.3103e-04
10.750	18.500	5.2272e-04
10.750	18.750	8.0016e-04
10.750	19.000	1.1902e-03
10.750	19.250	1.7315e-03
10.750	19.500	2.4734e-03
10.750	19.750	3.4453e-03
10.750	20.000	4.6128e-03
10.750	20.250	5.5207e-03
10.750	20.500	5.5848e-03
10.750	20.750	5.6928e-03
10.750	21.000	5.8973e-03
10.750	21.250	6.0474e-03
10.750	21.500	6.0577e-03
10.750	21.750	6.0619e-03
10.750	22.000	6.0657e-03
10.750	22.250	6.0681e-03
10.750	22.500	6.0691e-03
10.750	22.750	6.0699e-03
10.750	23.000	6.0692e-03
10.750	23.250	6.0691e-03
10.750	23.500	6.0690e-03
10.750	23.750	6.0688e-03
10.750	24.000	6.0687e-03
11.000	17.000	2.3374e-05
11.000	17.250	3.4403e-05
11.000	17.500	5.2840e-05
11.000	17.750	8.6091e-05
11.000	18.000	1.4535e-04
11.000	18.250	2.3918e-04
11.000	18.500	3.7770e-04
11.000	18.750	5.8165e-04
11.000	19.000	8.6477e-04
11.000	19.250	1.2556e-03
11.000	19.500	1.8113e-03
11.000	19.750	2.5819e-03
11.000	20.000	3.5900e-03
11.000	20.250	4.7988e-03
11.000	20.500	5.5063e-03
11.000	20.750	5.5750e-03
11.000	21.000	5.6913e-03
11.000	21.250	5.9088e-03
11.000	21.500	6.0447e-03
11.000	21.750	6.0551e-03
11.000	22.000	6.0604e-03
11.000	22.250	6.0649e-03
11.000	22.500	6.0678e-03
11.000	22.750	6.0690e-03
11.000	23.000	6.0699e-03
11.000	23.250	6.0700e-03
11.000	23.500	6.0691e-03
11.000	23.750	6.0691e-03
11.000	24.000	6.0691e-03
11.250	17.000	1.6626e-05
11.250	17.250	2.4444e-05
11.250	17.500	3.7778e-05
11.250	17.750	6.2140e-05
11.250	18.000	1.0477e-04
11.250	18.250	1.7128e-04
11.250	18.500	2.6881e-04
11.250	18.750	4.1366e-04
11.250	19.000	6.1654e-04
11.250	19.250	9.0412e-04
11.250	19.500	1.3060e-03
11.250	19.750	1.8798e-03
11.250	20.000	2.6705e-03
11.250	20.250	3.7179e-03
11.250	20.500	4.9685e-03
11.250	20.750	5.4806e-03
11.250	21.000	5.5627e-03
11.250	21.250	5.6960e-03
11.250	21.500	5.9436e-03
11.250	21.750	6.0392e-03
11.250	22.000	6.0513e-03
11.250	22.250	6.0578e-03
11.250	22.500	6.0633e-03
11.250	22.750	6.0673e-03
11.250	23.000	6.0686e-03
11.250	23.250	6.0697e-03
11.250	23.500	6.0704e-03
11.250	23.750	6.0694e-03
11.250	24.000	6.0691e-03
11.500	17.000	1.2016e-05
11.500	17.250	1.7449e-05
11.500	17.500	2.6996e-05
11.500	17.750	4.4444e-05
11.500	18.000	7.4568e-05
11.500	18.250	1.2140e-04
11.500	18.500	1.8988e-04
11.500	18.750	2.9243e-04
11.500	19.000	4.3580e-04
11.500	19.250	6.4173e-04
11.500	19.500	9.3210e-04
11.500	19.750	1.3467e-03
11.500	20.000	1.9354e-03
11.500	20.250	2.7515e-03
11.500	20.500	3.8299e-03
11.500	20.750	5.0746e-03
11.500	21.000	5.4437e-03
11.500	21.250	5.5495e-03
11.500	21.500	5.7309e-03
11.500	21.750	5.9823e-03
11.500	22.000	6.0309e-03
11.500	22.250	6.0458e-03
11.500	22.500	6.0538e-03
11.500	22.750	6.0608e-03
11.500	23.000	6.0664e-03
11.500	23.250	6.0681e-03
11.500	23.500	6.0695e-03
11.500	23.750	6.0705e-03
11.500	24.000	6.0702e-03
11.750	17.000	8.7243e-06
11.750	17.250	1.2593e-05
11.750	17.500	1.9259e-05
11.750	17.750	3.1523e-05
11.750	18.000	5.2428e-05
11.750	18.250	8.4774e-05
11.750	18.500	1.3267e-04
11.750	18.750	2.0329e-04
11.750	19.000	3.0667e-04
11.750	19.250	4.5243e-04
11.750	19.500	6.6239e-04
11.750	19.750	9.5959e-04
11.750	20.000	1.3814e-03
11.750	20.250	1.9808e-03
11.750	20.500	2.8191e-03
11.750	20.750	3.9163e-03
11.750	21.000	5.1517e-03
11.750	21.250	5.3887e-03
11.750	21.500	5.5661e-03
11.750	21.750	5.7687e-03
11.750	22.000	5.9928e-03
11.750	22.250	6.0188e-03
11.750	22.500	6.0378e-03
11.750	22.750	6.0479e-03
11.750	23.000	6.0570e-03
11.750	23.250	6.0650e-03
11.750	23.500	6.0673e-03
11.750	23.750	6.0691e-03
11.750	24.000	6.0704e-03
12.000	17.000	6.3374e-06
12.000	17.250	9.1358e-06
12.000	17.500	1.3827e-05
12.000	17.750	2.2140e-05
12.000	18.000	3.6214e-05
12.000	18.250	5.8189e-05
12.000	18.500	9.1687e-05
12.000	18.750	1.4148e-04
12.000	19.000	2.1457e-04
12.000	19.250	3.1835e-04
12.000	19.500	4.6691e-04
12.000	19.750	6.7811e-04
12.000	20.000	9.7761e-04
12.000	20.250	1.4066e-03
12.000	20.500	2.0146e-03
12.000	20.750	2.8612e-03
12.000	21.000	3.9616e-03
12.000	21.250	5.0058e-03
12.000	21.500	5.3676e-03
12.000	21.750	5.5580e-03
12.000	22.000	5.8005e-03
12.000	22.250	5.9692e-03
12.000	22.500	6.0012e-03
12.000	22.750	6.0257e-03
12.000	23.000	6.0388e-03
12.000	23.250	6.0514e-03
12.000	23.500	6.0629e-03
12.000	23.750	6.0661e-03
12.000	24.000	6.0684e-03
12.250	17.000	4.6914e-06
12.250	17.250	6.5844e-06
12.250	17.500	9.7942e-06
12.250	17.750	1.5391e-05
12.250	18.000	2.4774e-05
12.250	18.250	3.9835e-05
12.250	18.500	6.3128e-05
12.250	18.750	9.8189e-05
12.250	19.000	1.4955e-04
12.250	19.250	2.2362e-04
12.250	19.500	3.2831e-04
12.250	19.750	4.7737e-04
12.250	20.000	6.9021e-04
12.250	20.250	9.9259e-04
12.250	20.500	1.4202e-03
12.250	20.750	2.0289e-03
12.250	21.000	2.8714e-03
12.250	21.250	3.9463e-03
12.250	21.500	4.9677e-03
12.250	21.750	5.2819e-03
12.250	22.000	5.5391e-03
12.250	22.250	5.8128e-03
12.250	22.500	5.9333e-03
12.250	22.750	5.9751e-03
12.250	23.000	6.0070e-03
12.250	23.250	6.0244e-03
12.250	23.500	6.0426e-03
12.250	23.750	6.0597e-03
12.250	24.000	6.0642e-03
12.500	17.000	2.9630e-06
12.500	17.250	4.8560e-06
12.500	17.500	6.9959e-06
12.500	17.750	1.0617e-05
12.500	18.000	1.6790e-05
12.500	18.250	2.6914e-05
12.500	18.500	4.3128e-05
12.500	18.750	6.7819e-05
12.500	19.000	1.0395e-04
12.500	19.250	1.5613e-04
12.500	19.500	2.3062e-04
12.500	19.750	3.3613e-04
12.500	20.000	4.8593e-04
12.500	20.250	7.0000e-04
12.500	20.500	9.9778e-04
12.500	20.750	1.4239e-03
12.500	21.000	2.0240e-03
12.500	21.250	2.8394e-03
12.500	21.500	3.9267e-03
12.500	21.750	4.7696e-03
12.500	22.000	5.1663e-03
12.500	22.250	5.4931e-03
12.500	22.500	5.7752e-03
12.500	22.750	5.8807e-03
12.500	23.000	5.9365e-03
12.500	23.250	5.9775e-03
12.500	23.500	6.0012e-03
12.500	23.750	6.0283e-03
12.500	24.000	6.0547e-03
12.750	17.000	1.5638e-06
12.750	17.250	3.2099e-06
12.750	17.500	4.9383e-06
12.750	17.750	7.4074e-06
12.750	18.000	1.1440e-05
12.750	18.250	1.8354e-05
12.750	18.500	2.9383e-05
12.750	18.750	4.6502e-05
12.750	19.000	7.1770e-05
12.750	19.250	1.0881e-04
12.750	19.500	1.6115e-04
12.750	19.750	2.3572e-04
12.750	20.000	3.4041e-04
12.750	20.250	4.9103e-04
12.750	20.500	7.0074e-04
12.750	20.750	9.9325e-04
12.750	21.000	1.4116e-03
12.750	21.250	1.9865e-03
12.750	21.500	2.8092e-03
12.750	21.750	3.7836e-03
12.750	22.000	4.5213e-03
12.750	22.250	5.0075e-03
12.750	22.500	5.3979e-03
12.750	22.750	5.6837e-03
12.750	23.000	5.8028e-03
12.750	23.250	5.8788e-03
12.750	23.500	5.9323e-03
12.750	23.750	5.9644e-03
12.750	24.000	6.0053e-03
13.000	17.000	1.0000e-07
13.000	17.250	9.8765e-07
13.000	17.500	2.7160e-06
13.000	17.750	5.1029e-06
13.000	18.000	7.9835e-06
13.000	18.250	1.2675e-05
13.000	18.500	2.0082e-05
13.000	18.750	3.1770e-05
13.000	19.000	4.9383e-05
13.000	19.250	7.5144e-05
13.000	19.500	1.1210e-04
13.000	19.750	1.6461e-04
13.000	20.000	2.3901e-04
13.000	20.250	3.4321e-04
13.000	20.500	4.9218e-04
13.000	20.750	7.0041e-04
13.000	21.000	9.8823e-04
13.000	21.250	1.3835e-03
13.000	21.500	1.9677e-03
13.000	21.750	2.6844e-03
13.000	22.000	3.5292e-03
13.000	22.250	4.2202e-03
13.000	22.500	4.7796e-03
13.000	22.750	5.2158e-03
13.000	23.000	5.5344e-03
13.000	23.250	5.6896e-03
13.000	23.500	5.7928e-03
13.000	23.750	5.8621e-03
13.000	24.000	5.9066e-03
13.250	17.000	1.0000e-07
13.250	17.250	1.0000e-07
13.250	17.500	1.1523e-06
13.250	17.750	2.6337e-06
13.250	18.000	5.0206e-06
13.250	18.250	8.8066e-06
13.250	18.500	1.3909e-05
13.250	18.750	2.1728e-05
13.250	19.000	3.3663e-05
13.250	19.250	5.1605e-05
13.250	19.500	7.7531e-05
13.250	19.750	1.1440e-04
13.250	20.000	1.6667e-04
13.250	20.250	2.4074e-04
13.250	20.500	3.4444e-04
13.250	20.750	4.8955e-04
13.250	21.000	6.9300e-04
13.250	21.250	9.6428e-04
13.250	21.500	1.3607e-03
13.250	21.750	1.8557e-03
13.250	22.000	2.4623e-03
13.250	22.250	3.1758e-03
13.250	22.500	3.8229e-03
13.250	22.750	4.4262e-03
13.250	23.000	4.9286e-03
13.250	23.250	5.3184e-03
13.250	23.500	5.5251e-03
13.250	23.750	5.6641e-03
13.250	24.000	5.7543e-03
13.500	17.000	1.0000e-07
13.500	17.250	1.0000e-07
13.500	17.500	1.0000e-07
13.500	17.750	1.3992e-06
13.500	18.000	3.1276e-06
13.500	18.250	5.6790e-06
13.500	18.500	9.6296e-06
13.500	18.750	1.4897e-05
13.500	19.000	2.3045e-05
13.500	19.250	3.5062e-05
13.500	19.500	5.3086e-05
13.500	19.750	7.8848e-05
13.500	20.000	1.1572e-04
13.500	20.250	1.6765e-04
13.500	20.500	2.4132e-04
13.500	20.750	3.4305e-04
13.500	21.000	4.8370e-04
13.500	21.250	6.7399e-04
13.500	21.500	9.4708e-04
13.500	21.750	1.2807e-03
13.500	22.000	1.6725e-03
13.500	22.250	2.1324e-03
13.500	22.500	2.7410e-03
13.500	22.750	3.3554e-03
13.500	23.000	4.0047e-03
13.500	23.250	4.5612e-03
13.500	23.500	5.0228e-03
13.500	23.750	5.2895e-03
13.500	24.000	5.4747e-03
13.750	17.000	1.0000e-07
13.750	17.250	1.0000e-07
13.750	17.500	1.0000e-07
13.750	17.750	1.0000e-07
13.750	18.000	1.7284e-06
13.750	18.250	3.7037e-06
13.750	18.500	6.1728e-06
13.750	18.750	1.0288e-05
13.750	19.000	1.5720e-05
13.750	19.250	2.3951e-05
13.750	19.500	3.6214e-05
13.750	19.750	5.4074e-05
13.750	20.000	7.9835e-05
13.750	20.250	1.1646e-04
13.750	20.500	1.6807e-04
13.750	20.750	2.4008e-04
13.750	21.000	3.3835e-04
13.750	21.250	4.7070e-04
13.750	21.500	6.6313e-04
13.750	21.750	8.8872e-04
13.750	22.000	1.1301e-03
13.750	22.250	1.3779e-03
13.750	22.500	1.7514e-03
13.750	22.750	2.3007e-03
13.750	23.000	2.8756e-03
13.750	23.250	3.5188e-03
13.750	23.500	4.1091e-03
13.750	23.750	4.6285e-03
13.750	24.000	4.9638e-03
14.000	17.000	1.0000e-07
14.000	17.250	1.0000e-07
14.000	17.500	1.0000e-07
14.000	17.750	1.0000e-07
14.000	18.000	9.0535e-07
14.000	18.250	2.0576e-06
14.000	18.500	4.0329e-06
14.000	18.750	6.8313e-06
14.000	19.000	1.0782e-05
14.000	19.250	1.6296e-05
14.000	19.500	2.4609e-05
14.000	19.750	3.6872e-05
14.000	20.000	5.4815e-05
14.000	20.250	8.0412e-05
14.000	20.500	1.1679e-04
14.000	20.750	1.6765e-04
14.000	21.000	2.3753e-04
14.000	21.250	3.3078e-04
14.000	21.500	4.6527e-04
14.000	21.750	6.2230e-04
14.000	22.000	7.7728e-04
14.000	22.250	8.9564e-04
14.000	22.500	1.0595e-03
14.000	22.750	1.4098e-03
14.000	23.000	1.8709e-03
14.000	23.250	2.3917e-03
14.000	23.500	2.9826e-03
14.000	23.750	3.5644e-03
14.000	24.000	4.1204e-03
