InwT 9000.00A  relative to Inci 1215.00A scaled to 1215A.
Hden   Phi(H)  Eq_Width (A)
 7.000	17.000	3.0604e-02
 7.000	17.250	2.2397e-02
 7.000	17.500	1.6791e-02
 7.000	17.750	1.3331e-02
 7.000	18.000	1.1582e-02
 7.000	18.250	1.0692e-02
 7.000	18.500	1.0193e-02
 7.000	18.750	9.9831e-03
 7.000	19.000	9.8776e-03
 7.000	19.250	9.8189e-03
 7.000	19.500	9.7962e-03
 7.000	19.750	9.7872e-03
 7.000	20.000	9.7834e-03
 7.000	20.250	9.7816e-03
 7.000	20.500	9.7808e-03
 7.000	20.750	9.7803e-03
 7.000	21.000	9.7802e-03
 7.000	21.250	9.7801e-03
 7.000	21.500	9.7800e-03
 7.000	21.750	9.7800e-03
 7.000	22.000	9.7802e-03
 7.000	22.250	9.7802e-03
 7.000	22.500	9.7802e-03
 7.000	22.750	9.7804e-03
 7.000	23.000	9.7804e-03
 7.000	23.250	9.7803e-03
 7.000	23.500	9.7803e-03
 7.000	23.750	9.7803e-03
 7.000	24.000	9.7803e-03
 7.250	17.000	3.1238e-02
 7.250	17.250	3.0713e-02
 7.250	17.500	2.2387e-02
 7.250	17.750	1.6782e-02
 7.250	18.000	1.3326e-02
 7.250	18.250	1.1581e-02
 7.250	18.500	1.0692e-02
 7.250	18.750	1.0193e-02
 7.250	19.000	9.9831e-03
 7.250	19.250	9.8777e-03
 7.250	19.500	9.8189e-03
 7.250	19.750	9.7962e-03
 7.250	20.000	9.7872e-03
 7.250	20.250	9.7834e-03
 7.250	20.500	9.7816e-03
 7.250	20.750	9.7807e-03
 7.250	21.000	9.7803e-03
 7.250	21.250	9.7801e-03
 7.250	21.500	9.7800e-03
 7.250	21.750	9.7799e-03
 7.250	22.000	9.7799e-03
 7.250	22.250	9.7799e-03
 7.250	22.500	9.7799e-03
 7.250	22.750	9.7800e-03
 7.250	23.000	9.7801e-03
 7.250	23.250	9.7801e-03
 7.250	23.500	9.7801e-03
 7.250	23.750	9.7801e-03
 7.250	24.000	9.7802e-03
 7.500	17.000	3.2032e-02
 7.500	17.250	3.1658e-02
 7.500	17.500	3.0792e-02
 7.500	17.750	2.2380e-02
 7.500	18.000	1.6775e-02
 7.500	18.250	1.3322e-02
 7.500	18.500	1.1579e-02
 7.500	18.750	1.0692e-02
 7.500	19.000	1.0193e-02
 7.500	19.250	9.9831e-03
 7.500	19.500	9.8776e-03
 7.500	19.750	9.8189e-03
 7.500	20.000	9.7962e-03
 7.500	20.250	9.7872e-03
 7.500	20.500	9.7834e-03
 7.500	20.750	9.7816e-03
 7.500	21.000	9.7807e-03
 7.500	21.250	9.7803e-03
 7.500	21.500	9.7801e-03
 7.500	21.750	9.7799e-03
 7.500	22.000	9.7798e-03
 7.500	22.250	9.7798e-03
 7.500	22.500	9.7798e-03
 7.500	22.750	9.7798e-03
 7.500	23.000	9.7798e-03
 7.500	23.250	9.7799e-03
 7.500	23.500	9.7804e-03
 7.500	23.750	9.7799e-03
 7.500	24.000	9.7799e-03
 7.750	17.000	3.1829e-02
 7.750	17.250	3.2722e-02
 7.750	17.500	3.2009e-02
 7.750	17.750	3.0850e-02
 7.750	18.000	2.2374e-02
 7.750	18.250	1.6768e-02
 7.750	18.500	1.3316e-02
 7.750	18.750	1.1578e-02
 7.750	19.000	1.0692e-02
 7.750	19.250	1.0193e-02
 7.750	19.500	9.9831e-03
 7.750	19.750	9.8776e-03
 7.750	20.000	9.8189e-03
 7.750	20.250	9.7962e-03
 7.750	20.500	9.7872e-03
 7.750	20.750	9.7834e-03
 7.750	21.000	9.7816e-03
 7.750	21.250	9.7807e-03
 7.750	21.500	9.7803e-03
 7.750	21.750	9.7801e-03
 7.750	22.000	9.7799e-03
 7.750	22.250	9.7798e-03
 7.750	22.500	9.7798e-03
 7.750	22.750	9.7798e-03
 7.750	23.000	9.7798e-03
 7.750	23.250	9.7798e-03
 7.750	23.500	9.7798e-03
 7.750	23.750	9.7798e-03
 7.750	24.000	9.7798e-03
 8.000	17.000	3.0982e-02
 8.000	17.250	3.2269e-02
 8.000	17.500	3.3196e-02
 8.000	17.750	3.2112e-02
 8.000	18.000	3.0715e-02
 8.000	18.250	2.2361e-02
 8.000	18.500	1.6762e-02
 8.000	18.750	1.3310e-02
 8.000	19.000	1.1575e-02
 8.000	19.250	1.0691e-02
 8.000	19.500	1.0193e-02
 8.000	19.750	9.9831e-03
 8.000	20.000	9.8776e-03
 8.000	20.250	9.8189e-03
 8.000	20.500	9.7962e-03
 8.000	20.750	9.7872e-03
 8.000	21.000	9.7834e-03
 8.000	21.250	9.7816e-03
 8.000	21.500	9.7807e-03
 8.000	21.750	9.7803e-03
 8.000	22.000	9.7801e-03
 8.000	22.250	9.7799e-03
 8.000	22.500	9.7798e-03
 8.000	22.750	9.7798e-03
 8.000	23.000	9.7798e-03
 8.000	23.250	9.7800e-03
 8.000	23.500	9.7798e-03
 8.000	23.750	9.7798e-03
 8.000	24.000	9.7798e-03
 8.250	17.000	3.0844e-02
 8.250	17.250	3.1699e-02
 8.250	17.500	3.3196e-02
 8.250	17.750	3.4110e-02
 8.250	18.000	3.2693e-02
 8.250	18.250	3.0795e-02
 8.250	18.500	2.2361e-02
 8.250	18.750	1.6755e-02
 8.250	19.000	1.3303e-02
 8.250	19.250	1.1573e-02
 8.250	19.500	1.0691e-02
 8.250	19.750	1.0193e-02
 8.250	20.000	9.9830e-03
 8.250	20.250	9.8776e-03
 8.250	20.500	9.8189e-03
 8.250	20.750	9.7962e-03
 8.250	21.000	9.7872e-03
 8.250	21.250	9.7834e-03
 8.250	21.500	9.7816e-03
 8.250	21.750	9.7807e-03
 8.250	22.000	9.7803e-03
 8.250	22.250	9.7801e-03
 8.250	22.500	9.7799e-03
 8.250	22.750	9.7798e-03
 8.250	23.000	9.7798e-03
 8.250	23.250	9.7798e-03
 8.250	23.500	9.7798e-03
 8.250	23.750	9.7798e-03
 8.250	24.000	9.7798e-03
 8.500	17.000	3.1106e-02
 8.500	17.250	3.1573e-02
 8.500	17.500	3.2697e-02
 8.500	17.750	3.4612e-02
 8.500	18.000	3.5732e-02
 8.500	18.250	3.3616e-02
 8.500	18.500	3.0958e-02
 8.500	18.750	2.2362e-02
 8.500	19.000	1.6748e-02
 8.500	19.250	1.3295e-02
 8.500	19.500	1.1569e-02
 8.500	19.750	1.0691e-02
 8.500	20.000	1.0193e-02
 8.500	20.250	9.9830e-03
 8.500	20.500	9.8776e-03
 8.500	20.750	9.8189e-03
 8.500	21.000	9.7962e-03
 8.500	21.250	9.7872e-03
 8.500	21.500	9.7834e-03
 8.500	21.750	9.7816e-03
 8.500	22.000	9.7807e-03
 8.500	22.250	9.7803e-03
 8.500	22.500	9.7801e-03
 8.500	22.750	9.7799e-03
 8.500	23.000	9.7798e-03
 8.500	23.250	9.7798e-03
 8.500	23.500	9.7798e-03
 8.500	23.750	9.7798e-03
 8.500	24.000	9.7798e-03
 8.750	17.000	3.1573e-02
 8.750	17.250	3.1881e-02
 8.750	17.500	3.2690e-02
 8.750	17.750	3.4457e-02
 8.750	18.000	3.7185e-02
 8.750	18.250	3.8465e-02
 8.750	18.500	3.5500e-02
 8.750	18.750	3.1038e-02
 8.750	19.000	2.2364e-02
 8.750	19.250	1.6741e-02
 8.750	19.500	1.3287e-02
 8.750	19.750	1.1566e-02
 8.750	20.000	1.0690e-02
 8.750	20.250	1.0193e-02
 8.750	20.500	9.9830e-03
 8.750	20.750	9.8777e-03
 8.750	21.000	9.8189e-03
 8.750	21.250	9.7962e-03
 8.750	21.500	9.7872e-03
 8.750	21.750	9.7834e-03
 8.750	22.000	9.7816e-03
 8.750	22.250	9.7807e-03
 8.750	22.500	9.7803e-03
 8.750	22.750	9.7801e-03
 8.750	23.000	9.7799e-03
 8.750	23.250	9.7798e-03
 8.750	23.500	9.7798e-03
 8.750	23.750	9.7798e-03
 8.750	24.000	9.7798e-03
 9.000	17.000	3.2138e-02
 9.000	17.250	3.2419e-02
 9.000	17.500	3.3182e-02
 9.000	17.750	3.4767e-02
 9.000	18.000	3.7806e-02
 9.000	18.250	4.1874e-02
 9.000	18.500	4.2623e-02
 9.000	18.750	3.7266e-02
 9.000	19.000	3.1048e-02
 9.000	19.250	2.2365e-02
 9.000	19.500	1.6735e-02
 9.000	19.750	1.3278e-02
 9.000	20.000	1.1563e-02
 9.000	20.250	1.0690e-02
 9.000	20.500	1.0193e-02
 9.000	20.750	9.9830e-03
 9.000	21.000	9.8776e-03
 9.000	21.250	9.8189e-03
 9.000	21.500	9.7962e-03
 9.000	21.750	9.7872e-03
 9.000	22.000	9.7834e-03
 9.000	22.250	9.7816e-03
 9.000	22.500	9.7807e-03
 9.000	22.750	9.7803e-03
 9.000	23.000	9.7801e-03
 9.000	23.250	9.7799e-03
 9.000	23.500	9.7798e-03
 9.000	23.750	9.7798e-03
 9.000	24.000	9.7798e-03
 9.250	17.000	3.2779e-02
 9.250	17.250	3.3080e-02
 9.250	17.500	3.3990e-02
 9.250	17.750	3.5811e-02
 9.250	18.000	3.9219e-02
 9.250	18.250	4.4306e-02
 9.250	18.500	4.8887e-02
 9.250	18.750	4.7857e-02
 9.250	19.000	4.0586e-02
 9.250	19.250	3.1066e-02
 9.250	19.500	2.2362e-02
 9.250	19.750	1.6730e-02
 9.250	20.000	1.3269e-02
 9.250	20.250	1.1559e-02
 9.250	20.500	1.0689e-02
 9.250	20.750	1.0192e-02
 9.250	21.000	9.9830e-03
 9.250	21.250	9.8776e-03
 9.250	21.500	9.8171e-03
 9.250	21.750	9.7933e-03
 9.250	22.000	9.7841e-03
 9.250	22.250	9.7805e-03
 9.250	22.500	9.7815e-03
 9.250	22.750	9.7807e-03
 9.250	23.000	9.7802e-03
 9.250	23.250	9.7800e-03
 9.250	23.500	9.7799e-03
 9.250	23.750	9.7798e-03
 9.250	24.000	9.7798e-03
 9.500	17.000	3.3591e-02
 9.500	17.250	3.3923e-02
 9.500	17.500	3.5037e-02
 9.500	17.750	3.7352e-02
 9.500	18.000	4.1625e-02
 9.500	18.250	4.7611e-02
 9.500	18.500	5.3830e-02
 9.500	18.750	5.7188e-02
 9.500	19.000	5.2597e-02
 9.500	19.250	4.3525e-02
 9.500	19.500	3.1084e-02
 9.500	19.750	2.2355e-02
 9.500	20.000	1.6728e-02
 9.500	20.250	1.3262e-02
 9.500	20.500	1.1556e-02
 9.500	20.750	1.0688e-02
 9.500	21.000	1.0190e-02
 9.500	21.250	9.9802e-03
 9.500	21.500	9.8747e-03
 9.500	21.750	9.8151e-03
 9.500	22.000	9.7910e-03
 9.500	22.250	9.7821e-03
 9.500	22.500	9.7782e-03
 9.500	22.750	9.7763e-03
 9.500	23.000	9.7755e-03
 9.500	23.250	9.7751e-03
 9.500	23.500	9.7760e-03
 9.500	23.750	9.7760e-03
 9.500	24.000	9.7759e-03
 9.750	17.000	3.4563e-02
 9.750	17.250	3.4898e-02
 9.750	17.500	3.6269e-02
 9.750	17.750	3.9279e-02
 9.750	18.000	4.4795e-02
 9.750	18.250	5.2260e-02
 9.750	18.500	5.9427e-02
 9.750	18.750	6.4707e-02
 9.750	19.000	6.5520e-02
 9.750	19.250	5.8209e-02
 9.750	19.500	4.6843e-02
 9.750	19.750	3.1076e-02
 9.750	20.000	2.2342e-02
 9.750	20.250	1.6727e-02
 9.750	20.500	1.3256e-02
 9.750	20.750	1.1553e-02
 9.750	21.000	1.0688e-02
 9.750	21.250	1.0191e-02
 9.750	21.500	9.9807e-03
 9.750	21.750	9.8747e-03
 9.750	22.000	9.8156e-03
 9.750	22.250	9.7918e-03
 9.750	22.500	9.7819e-03
 9.750	22.750	9.7783e-03
 9.750	23.000	9.7765e-03
 9.750	23.250	9.7756e-03
 9.750	23.500	9.7751e-03
 9.750	23.750	9.7748e-03
 9.750	24.000	9.7747e-03
10.000	17.000	3.5722e-02
10.000	17.250	3.6170e-02
10.000	17.500	3.7862e-02
10.000	17.750	4.1774e-02
10.000	18.000	4.8999e-02
10.000	18.250	5.7972e-02
10.000	18.500	6.5989e-02
10.000	18.750	7.2029e-02
10.000	19.000	7.5889e-02
10.000	19.250	7.3547e-02
10.000	19.500	6.4470e-02
10.000	19.750	4.6776e-02
10.000	20.000	3.1023e-02
10.000	20.250	2.2328e-02
10.000	20.500	1.6728e-02
10.000	20.750	1.3252e-02
10.000	21.000	1.1551e-02
10.000	21.250	1.0687e-02
10.000	21.500	1.0192e-02
10.000	21.750	9.9820e-03
10.000	22.000	9.8750e-03
10.000	22.250	9.8159e-03
10.000	22.500	9.7924e-03
10.000	22.750	9.7824e-03
10.000	23.000	9.7780e-03
10.000	23.250	9.7765e-03
10.000	23.500	9.7756e-03
10.000	23.750	9.7752e-03
10.000	24.000	9.7750e-03
10.250	17.000	3.7588e-02
10.250	17.250	3.7814e-02
10.250	17.500	4.0055e-02
10.250	17.750	4.5152e-02
10.250	18.000	5.4006e-02
10.250	18.250	6.4314e-02
10.250	18.500	7.2884e-02
10.250	18.750	7.9545e-02
10.250	19.000	8.4002e-02
10.250	19.250	8.5384e-02
10.250	19.500	8.1083e-02
10.250	19.750	6.9195e-02
10.250	20.000	4.6762e-02
10.250	20.250	3.0941e-02
10.250	20.500	2.2301e-02
10.250	20.750	1.6727e-02
10.250	21.000	1.3249e-02
10.250	21.250	1.1549e-02
10.250	21.500	1.0687e-02
10.250	21.750	1.0192e-02
10.250	22.000	9.9826e-03
10.250	22.250	9.8760e-03
10.250	22.500	9.8160e-03
10.250	22.750	9.7928e-03
10.250	23.000	9.7831e-03
10.250	23.250	9.7786e-03
10.250	23.500	9.7765e-03
10.250	23.750	9.7754e-03
10.250	24.000	9.7750e-03
10.500	17.000	4.0454e-02
10.500	17.250	4.0423e-02
10.500	17.500	4.3147e-02
10.500	17.750	4.9829e-02
10.500	18.000	6.0045e-02
10.500	18.250	7.1181e-02
10.500	18.500	7.9897e-02
10.500	18.750	8.6782e-02
10.500	19.000	9.1561e-02
10.500	19.250	9.4230e-02
10.500	19.500	9.3583e-02
10.500	19.750	8.7931e-02
10.500	20.000	7.3283e-02
10.500	20.250	4.6558e-02
10.500	20.500	3.0806e-02
10.500	20.750	2.2270e-02
10.500	21.000	1.6720e-02
10.500	21.250	1.3246e-02
10.500	21.500	1.1548e-02
10.500	21.750	1.0687e-02
10.500	22.000	1.0191e-02
10.500	22.250	9.9828e-03
10.500	22.500	9.8771e-03
10.500	22.750	9.8160e-03
10.500	23.000	9.7932e-03
10.500	23.250	9.7836e-03
10.500	23.500	9.7793e-03
10.500	23.750	9.7772e-03
10.500	24.000	9.7760e-03
10.750	17.000	4.4594e-02
10.750	17.250	4.4233e-02
10.750	17.500	4.7739e-02
10.750	17.750	5.5808e-02
10.750	18.000	6.7079e-02
10.750	18.250	7.8178e-02
10.750	18.500	8.6955e-02
10.750	18.750	9.3938e-02
10.750	19.000	9.9008e-02
10.750	19.250	1.0217e-01
10.750	19.500	1.0349e-01
10.750	19.750	1.0188e-01
10.750	20.000	9.5272e-02
10.750	20.250	7.5533e-02
10.750	20.500	4.6357e-02
10.750	20.750	3.0696e-02
10.750	21.000	2.2260e-02
10.750	21.250	1.6702e-02
10.750	21.500	1.3244e-02
10.750	21.750	1.1548e-02
10.750	22.000	1.0687e-02
10.750	22.250	1.0191e-02
10.750	22.500	9.9827e-03
10.750	22.750	9.8774e-03
10.750	23.000	9.8165e-03
10.750	23.250	9.7933e-03
10.750	23.500	9.7840e-03
10.750	23.750	9.7798e-03
10.750	24.000	9.7779e-03
11.000	17.000	5.0272e-02
11.000	17.250	4.9377e-02
11.000	17.500	5.3646e-02
11.000	17.750	6.2959e-02
11.000	18.000	7.4657e-02
11.000	18.250	8.5418e-02
11.000	18.500	9.4185e-02
11.000	18.750	1.0153e-01
11.000	19.000	1.0661e-01
11.000	19.250	1.0968e-01
11.000	19.500	1.1173e-01
11.000	19.750	1.1241e-01
11.000	20.000	1.1012e-01
11.000	20.250	1.0240e-01
11.000	20.500	7.5170e-02
11.000	20.750	4.6172e-02
11.000	21.000	3.0587e-02
11.000	21.250	2.2297e-02
11.000	21.500	1.6674e-02
11.000	21.750	1.3239e-02
11.000	22.000	1.1547e-02
11.000	22.250	1.0686e-02
11.000	22.500	1.0191e-02
11.000	22.750	9.9826e-03
11.000	23.000	9.8774e-03
11.000	23.250	9.8179e-03
11.000	23.500	9.7933e-03
11.000	23.750	9.7842e-03
11.000	24.000	9.7802e-03
11.250	17.000	5.7815e-02
11.250	17.250	5.5922e-02
11.250	17.500	6.0557e-02
11.250	17.750	7.0752e-02
11.250	18.000	8.2655e-02
11.250	18.250	9.2952e-02
11.250	18.500	1.0125e-01
11.250	18.750	1.0833e-01
11.250	19.000	1.1339e-01
11.250	19.250	1.1705e-01
11.250	19.500	1.1915e-01
11.250	19.750	1.2054e-01
11.250	20.000	1.2055e-01
11.250	20.250	1.1795e-01
11.250	20.500	1.0939e-01
11.250	20.750	7.5011e-02
11.250	21.000	4.6007e-02
11.250	21.250	3.0616e-02
11.250	21.500	2.2474e-02
11.250	21.750	1.6622e-02
11.250	22.000	1.3231e-02
11.250	22.250	1.1546e-02
11.250	22.500	1.0685e-02
11.250	22.750	1.0190e-02
11.250	23.000	9.9822e-03
11.250	23.250	9.8774e-03
11.250	23.500	9.8185e-03
11.250	23.750	9.7937e-03
11.250	24.000	9.7843e-03
11.500	17.000	6.7984e-02
11.500	17.250	6.4434e-02
11.500	17.500	6.8629e-02
11.500	17.750	7.8996e-02
11.500	18.000	9.0815e-02
11.500	18.250	1.0072e-01
11.500	18.500	1.0841e-01
11.500	18.750	1.1520e-01
11.500	19.000	1.2001e-01
11.500	19.250	1.2369e-01
11.500	19.500	1.2599e-01
11.500	19.750	1.2754e-01
11.500	20.000	1.2857e-01
11.500	20.250	1.2857e-01
11.500	20.500	1.2576e-01
11.500	20.750	1.1499e-01
11.500	21.000	7.4648e-02
11.500	21.250	4.5877e-02
11.500	21.500	3.0913e-02
11.500	21.750	2.2697e-02
11.500	22.000	1.6552e-02
11.500	22.250	1.3216e-02
11.500	22.500	1.1543e-02
11.500	22.750	1.0683e-02
11.500	23.000	1.0189e-02
11.500	23.250	9.9816e-03
11.500	23.500	9.8771e-03
11.500	23.750	9.8187e-03
11.500	24.000	9.7951e-03
11.750	17.000	8.1870e-02
11.750	17.250	7.5509e-02
11.750	17.500	7.8236e-02
11.750	17.750	8.7842e-02
11.750	18.000	9.9092e-02
11.750	18.250	1.0844e-01
11.750	18.500	1.1581e-01
11.750	18.750	1.2191e-01
11.750	19.000	1.2703e-01
11.750	19.250	1.3040e-01
11.750	19.500	1.3287e-01
11.750	19.750	1.3434e-01
11.750	20.000	1.3526e-01
11.750	20.250	1.3612e-01
11.750	20.500	1.3645e-01
11.750	20.750	1.3349e-01
11.750	21.000	1.2071e-01
11.750	21.250	7.4306e-02
11.750	21.500	4.6117e-02
11.750	21.750	3.1477e-02
11.750	22.000	2.2671e-02
11.750	22.250	1.6470e-02
11.750	22.500	1.3192e-02
11.750	22.750	1.1539e-02
11.750	23.000	1.0679e-02
11.750	23.250	1.0187e-02
11.750	23.500	9.9807e-03
11.750	23.750	9.8767e-03
11.750	24.000	9.8186e-03
12.000	17.000	9.9077e-02
12.000	17.250	8.9714e-02
12.000	17.500	8.9828e-02
12.000	17.750	9.7397e-02
12.000	18.000	1.0729e-01
12.000	18.250	1.1604e-01
12.000	18.500	1.2356e-01
12.000	18.750	1.2979e-01
12.000	19.000	1.3456e-01
12.000	19.250	1.3781e-01
12.000	19.500	1.3971e-01
12.000	19.750	1.4074e-01
12.000	20.000	1.4132e-01
12.000	20.250	1.4214e-01
12.000	20.500	1.4324e-01
12.000	20.750	1.4414e-01
12.000	21.000	1.4118e-01
12.000	21.250	1.1932e-01
12.000	21.500	7.4326e-02
12.000	21.750	4.6389e-02
12.000	22.000	3.2082e-02
12.000	22.250	2.2406e-02
12.000	22.500	1.6366e-02
12.000	22.750	1.3157e-02
12.000	23.000	1.1530e-02
12.000	23.250	1.0674e-02
12.000	23.500	1.0184e-02
12.000	23.750	9.9793e-03
12.000	24.000	9.8760e-03
12.250	17.000	1.2109e-01
12.250	17.250	1.0747e-01
12.250	17.500	1.0331e-01
12.250	17.750	1.0735e-01
12.250	18.000	1.1547e-01
12.250	18.250	1.2425e-01
12.250	18.500	1.3216e-01
12.250	18.750	1.3853e-01
12.250	19.000	1.4293e-01
12.250	19.250	1.4572e-01
12.250	19.500	1.4693e-01
12.250	19.750	1.4731e-01
12.250	20.000	1.4733e-01
12.250	20.250	1.4758e-01
12.250	20.500	1.4827e-01
12.250	20.750	1.5009e-01
12.250	21.000	1.5203e-01
12.250	21.250	1.4852e-01
12.250	21.500	1.2046e-01
12.250	21.750	7.3914e-02
12.250	22.000	4.6854e-02
12.250	22.250	3.2563e-02
12.250	22.500	2.2123e-02
12.250	22.750	1.6239e-02
12.250	23.000	1.3110e-02
12.250	23.250	1.1513e-02
12.250	23.500	1.0665e-02
12.250	23.750	1.0180e-02
12.250	24.000	9.9771e-03
12.500	17.000	1.3265e-01
12.500	17.250	1.2927e-01
12.500	17.500	1.1991e-01
12.500	17.750	1.1890e-01
12.500	18.000	1.2417e-01
12.500	18.250	1.3244e-01
12.500	18.500	1.4102e-01
12.500	18.750	1.4788e-01
12.500	19.000	1.5212e-01
12.500	19.250	1.5407e-01
12.500	19.500	1.5466e-01
12.500	19.750	1.5434e-01
12.500	20.000	1.5360e-01
12.500	20.250	1.5314e-01
12.500	20.500	1.5288e-01
12.500	20.750	1.5435e-01
12.500	21.000	1.5753e-01
12.500	21.250	1.6050e-01
12.500	21.500	1.5374e-01
12.500	21.750	1.1838e-01
12.500	22.000	7.3320e-02
12.500	22.250	4.7363e-02
12.500	22.500	3.2508e-02
12.500	22.750	2.1795e-02
12.500	23.000	1.6079e-02
12.500	23.250	1.3045e-02
12.500	23.500	1.1485e-02
12.500	23.750	1.0649e-02
12.500	24.000	1.0174e-02
12.750	17.000	1.2224e-01
12.750	17.250	1.4164e-01
12.750	17.500	1.3762e-01
12.750	17.750	1.3306e-01
12.750	18.000	1.3511e-01
12.750	18.250	1.4231e-01
12.750	18.500	1.5023e-01
12.750	18.750	1.5726e-01
12.750	19.000	1.6154e-01
12.750	19.250	1.6342e-01
12.750	19.500	1.6280e-01
12.750	19.750	1.6149e-01
12.750	20.000	1.5978e-01
12.750	20.250	1.5871e-01
12.750	20.500	1.5778e-01
12.750	20.750	1.5791e-01
12.750	21.000	1.6076e-01
12.750	21.250	1.6544e-01
12.750	21.500	1.6633e-01
12.750	21.750	1.5855e-01
12.750	22.000	1.1541e-01
12.750	22.250	7.2455e-02
12.750	22.500	4.7739e-02
12.750	22.750	3.1944e-02
12.750	23.000	2.1428e-02
12.750	23.250	1.5882e-02
12.750	23.500	1.2949e-02
12.750	23.750	1.1436e-02
12.750	24.000	1.0622e-02
13.000	17.000	6.9218e-02
13.000	17.250	8.8340e-02
13.000	17.500	1.3027e-01
13.000	17.750	1.4749e-01
13.000	18.000	1.5007e-01
13.000	18.250	1.5498e-01
13.000	18.500	1.6110e-01
13.000	18.750	1.6711e-01
13.000	19.000	1.7110e-01
13.000	19.250	1.7248e-01
13.000	19.500	1.7118e-01
13.000	19.750	1.6899e-01
13.000	20.000	1.6657e-01
13.000	20.250	1.6426e-01
13.000	20.500	1.6320e-01
13.000	20.750	1.6310e-01
13.000	21.000	1.6460e-01
13.000	21.250	1.6903e-01
13.000	21.500	1.7279e-01
13.000	21.750	1.7415e-01
13.000	22.000	1.5893e-01
13.000	22.250	1.1112e-01
13.000	22.500	7.1074e-02
13.000	22.750	4.7197e-02
13.000	23.000	3.1065e-02
13.000	23.250	2.0951e-02
13.000	23.500	1.5620e-02
13.000	23.750	1.2819e-02
13.000	24.000	1.1357e-02
13.250	17.000	6.8967e-02
13.250	17.250	7.8644e-02
13.250	17.500	1.0152e-01
13.250	17.750	1.3464e-01
13.250	18.000	1.5602e-01
13.250	18.250	1.7131e-01
13.250	18.500	1.7497e-01
13.250	18.750	1.7873e-01
13.250	19.000	1.8103e-01
13.250	19.250	1.8194e-01
13.250	19.500	1.8010e-01
13.250	19.750	1.7724e-01
13.250	20.000	1.7388e-01
13.250	20.250	1.7067e-01
13.250	20.500	1.6826e-01
13.250	20.750	1.6757e-01
13.250	21.000	1.6860e-01
13.250	21.250	1.7153e-01
13.250	21.500	1.7355e-01
13.250	21.750	1.7953e-01
13.250	22.000	1.7912e-01
13.250	22.250	1.5448e-01
13.250	22.500	1.0453e-01
13.250	22.750	6.7478e-02
13.250	23.000	4.4842e-02
13.250	23.250	2.9875e-02
13.250	23.500	2.0370e-02
13.250	23.750	1.5307e-02
13.250	24.000	1.2645e-02
13.500	17.000	6.8829e-02
13.500	17.250	7.9476e-02
13.500	17.500	9.8886e-02
13.500	17.750	1.2604e-01
13.500	18.000	1.6370e-01
13.500	18.250	1.8162e-01
13.500	18.500	1.9241e-01
13.500	18.750	1.9290e-01
13.500	19.000	1.9348e-01
13.500	19.250	1.9218e-01
13.500	19.500	1.8981e-01
13.500	19.750	1.8577e-01
13.500	20.000	1.8167e-01
13.500	20.250	1.7795e-01
13.500	20.500	1.7453e-01
13.500	20.750	1.7219e-01
13.500	21.000	1.7143e-01
13.500	21.250	1.7346e-01
13.500	21.500	1.7435e-01
13.500	21.750	1.8086e-01
13.500	22.000	1.8740e-01
13.500	22.250	1.7860e-01
13.500	22.500	1.4333e-01
13.500	22.750	9.5727e-02
13.500	23.000	6.2241e-02
13.500	23.250	4.2113e-02
13.500	23.500	2.8410e-02
13.500	23.750	1.9626e-02
13.500	24.000	1.4894e-02
13.750	17.000	6.9421e-02
13.750	17.250	8.0299e-02
13.750	17.500	9.8363e-02
13.750	17.750	1.1907e-01
13.750	18.000	1.5687e-01
13.750	18.250	1.9394e-01
13.750	18.500	2.0370e-01
13.750	18.750	2.1134e-01
13.750	19.000	2.0853e-01
13.750	19.250	2.0577e-01
13.750	19.500	2.0170e-01
13.750	19.750	1.9667e-01
13.750	20.000	1.9131e-01
13.750	20.250	1.8640e-01
13.750	20.500	1.8223e-01
13.750	20.750	1.7873e-01
13.750	21.000	1.7633e-01
13.750	21.250	1.7581e-01
13.750	21.500	1.7636e-01
13.750	21.750	1.8152e-01
13.750	22.000	1.8802e-01
13.750	22.250	1.8829e-01
13.750	22.500	1.6909e-01
13.750	22.750	1.2885e-01
13.750	23.000	8.5126e-02
13.750	23.250	5.6508e-02
13.750	23.500	3.8680e-02
13.750	23.750	2.6603e-02
13.750	24.000	1.8681e-02
14.000	17.000	6.9980e-02
14.000	17.250	7.9423e-02
14.000	17.500	9.8260e-02
14.000	17.750	1.1871e-01
14.000	18.000	1.4674e-01
14.000	18.250	1.8748e-01
14.000	18.500	2.1839e-01
14.000	18.750	2.2847e-01
14.000	19.000	2.2713e-01
14.000	19.250	2.2149e-01
14.000	19.500	2.1603e-01
14.000	19.750	2.0983e-01
14.000	20.000	2.0357e-01
14.000	20.250	1.9708e-01
14.000	20.500	1.9171e-01
14.000	20.750	1.8731e-01
14.000	21.000	1.8398e-01
14.000	21.250	1.8230e-01
14.000	21.500	1.8095e-01
14.000	21.750	1.8525e-01
14.000	22.000	1.9181e-01
14.000	22.250	1.9283e-01
14.000	22.500	1.7887e-01
14.000	22.750	1.5146e-01
14.000	23.000	1.1147e-01
14.000	23.250	7.4599e-02
14.000	23.500	5.0492e-02
14.000	23.750	3.5245e-02
14.000	24.000	2.4420e-02
