nFnu 608.160A  relative to Inci 1215.00A scaled to 1215A.
Hden   Phi(H)  Eq_Width (A)
 7.000	17.000	7.2304e-02
 7.000	17.250	1.6194e-01
 7.000	17.500	1.8495e-01
 7.000	17.750	1.2822e-01
 7.000	18.000	8.3835e-02
 7.000	18.250	6.0271e-02
 7.000	18.500	4.8857e-02
 7.000	18.750	4.5229e-02
 7.000	19.000	4.3514e-02
 7.000	19.250	4.2584e-02
 7.000	19.500	4.2195e-02
 7.000	19.750	4.2027e-02
 7.000	20.000	4.1953e-02
 7.000	20.250	4.1918e-02
 7.000	20.500	4.1900e-02
 7.000	20.750	4.1891e-02
 7.000	21.000	4.1886e-02
 7.000	21.250	4.1883e-02
 7.000	21.500	4.1882e-02
 7.000	21.750	4.1881e-02
 7.000	22.000	4.1882e-02
 7.000	22.250	4.1882e-02
 7.000	22.500	4.1882e-02
 7.000	22.750	4.1882e-02
 7.000	23.000	4.1882e-02
 7.000	23.250	4.1882e-02
 7.000	23.500	4.1882e-02
 7.000	23.750	4.1882e-02
 7.000	24.000	4.1882e-02
 7.250	17.000	5.3648e-02
 7.250	17.250	7.2235e-02
 7.250	17.500	1.6199e-01
 7.250	17.750	1.8404e-01
 7.250	18.000	1.2754e-01
 7.250	18.250	8.3478e-02
 7.250	18.500	6.0123e-02
 7.250	18.750	4.8803e-02
 7.250	19.000	4.5207e-02
 7.250	19.250	4.3507e-02
 7.250	19.500	4.2583e-02
 7.250	19.750	4.2194e-02
 7.250	20.000	4.2027e-02
 7.250	20.250	4.1953e-02
 7.250	20.500	4.1918e-02
 7.250	20.750	4.1900e-02
 7.250	21.000	4.1891e-02
 7.250	21.250	4.1886e-02
 7.250	21.500	4.1883e-02
 7.250	21.750	4.1882e-02
 7.250	22.000	4.1881e-02
 7.250	22.250	4.1881e-02
 7.250	22.500	4.1880e-02
 7.250	22.750	4.1881e-02
 7.250	23.000	4.1881e-02
 7.250	23.250	4.1881e-02
 7.250	23.500	4.1881e-02
 7.250	23.750	4.1881e-02
 7.250	24.000	4.1881e-02
 7.500	17.000	4.1597e-02
 7.500	17.250	5.3728e-02
 7.500	17.500	7.2316e-02
 7.500	17.750	1.6244e-01
 7.500	18.000	1.8359e-01
 7.500	18.250	1.2710e-01
 7.500	18.500	8.3223e-02
 7.500	18.750	6.0026e-02
 7.500	19.000	4.8768e-02
 7.500	19.250	4.5193e-02
 7.500	19.500	4.3502e-02
 7.500	19.750	4.2581e-02
 7.500	20.000	4.2194e-02
 7.500	20.250	4.2027e-02
 7.500	20.500	4.1953e-02
 7.500	20.750	4.1918e-02
 7.500	21.000	4.1900e-02
 7.500	21.250	4.1891e-02
 7.500	21.500	4.1886e-02
 7.500	21.750	4.1883e-02
 7.500	22.000	4.1881e-02
 7.500	22.250	4.1881e-02
 7.500	22.500	4.1880e-02
 7.500	22.750	4.1880e-02
 7.500	23.000	4.1880e-02
 7.500	23.250	4.1880e-02
 7.500	23.500	4.1882e-02
 7.500	23.750	4.1880e-02
 7.500	24.000	4.1880e-02
 7.750	17.000	3.3224e-02
 7.750	17.250	4.1786e-02
 7.750	17.500	5.3843e-02
 7.750	17.750	7.2452e-02
 7.750	18.000	1.6297e-01
 7.750	18.250	1.8343e-01
 7.750	18.500	1.2681e-01
 7.750	18.750	8.3029e-02
 7.750	19.000	5.9964e-02
 7.750	19.250	4.8746e-02
 7.750	19.500	4.5184e-02
 7.750	19.750	4.3498e-02
 7.750	20.000	4.2581e-02
 7.750	20.250	4.2194e-02
 7.750	20.500	4.2027e-02
 7.750	20.750	4.1953e-02
 7.750	21.000	4.1918e-02
 7.750	21.250	4.1900e-02
 7.750	21.500	4.1891e-02
 7.750	21.750	4.1886e-02
 7.750	22.000	4.1883e-02
 7.750	22.250	4.1881e-02
 7.750	22.500	4.1881e-02
 7.750	22.750	4.1880e-02
 7.750	23.000	4.1880e-02
 7.750	23.250	4.1880e-02
 7.750	23.500	4.1880e-02
 7.750	23.750	4.1880e-02
 7.750	24.000	4.1880e-02
 8.000	17.000	2.6764e-02
 8.000	17.250	3.3235e-02
 8.000	17.500	4.1717e-02
 8.000	17.750	5.3760e-02
 8.000	18.000	7.2405e-02
 8.000	18.250	1.6299e-01
 8.000	18.500	1.8346e-01
 8.000	18.750	1.2661e-01
 8.000	19.000	8.2866e-02
 8.000	19.250	5.9926e-02
 8.000	19.500	4.8733e-02
 8.000	19.750	4.5179e-02
 8.000	20.000	4.3497e-02
 8.000	20.250	4.2580e-02
 8.000	20.500	4.2194e-02
 8.000	20.750	4.2027e-02
 8.000	21.000	4.1953e-02
 8.000	21.250	4.1918e-02
 8.000	21.500	4.1900e-02
 8.000	21.750	4.1891e-02
 8.000	22.000	4.1886e-02
 8.000	22.250	4.1883e-02
 8.000	22.500	4.1881e-02
 8.000	22.750	4.1881e-02
 8.000	23.000	4.1880e-02
 8.000	23.250	4.1881e-02
 8.000	23.500	4.1880e-02
 8.000	23.750	4.1880e-02
 8.000	24.000	4.1880e-02
 8.250	17.000	2.1862e-02
 8.250	17.250	2.6907e-02
 8.250	17.500	3.3351e-02
 8.250	17.750	4.1796e-02
 8.250	18.000	5.3821e-02
 8.250	18.250	7.2502e-02
 8.250	18.500	1.6332e-01
 8.250	18.750	1.8362e-01
 8.250	19.000	1.2645e-01
 8.250	19.250	8.2716e-02
 8.250	19.500	5.9904e-02
 8.250	19.750	4.8726e-02
 8.250	20.000	4.5176e-02
 8.250	20.250	4.3495e-02
 8.250	20.500	4.2580e-02
 8.250	20.750	4.2194e-02
 8.250	21.000	4.2027e-02
 8.250	21.250	4.1953e-02
 8.250	21.500	4.1918e-02
 8.250	21.750	4.1900e-02
 8.250	22.000	4.1891e-02
 8.250	22.250	4.1886e-02
 8.250	22.500	4.1883e-02
 8.250	22.750	4.1881e-02
 8.250	23.000	4.1880e-02
 8.250	23.250	4.1880e-02
 8.250	23.500	4.1880e-02
 8.250	23.750	4.1880e-02
 8.250	24.000	4.1880e-02
 8.500	17.000	1.8082e-02
 8.500	17.250	2.1956e-02
 8.500	17.500	2.6990e-02
 8.500	17.750	3.3412e-02
 8.500	18.000	4.1855e-02
 8.500	18.250	5.3845e-02
 8.500	18.500	7.2583e-02
 8.500	18.750	1.6361e-01
 8.500	19.000	1.8381e-01
 8.500	19.250	1.2631e-01
 8.500	19.500	8.2565e-02
 8.500	19.750	5.9878e-02
 8.500	20.000	4.8722e-02
 8.500	20.250	4.5175e-02
 8.500	20.500	4.3495e-02
 8.500	20.750	4.2580e-02
 8.500	21.000	4.2194e-02
 8.500	21.250	4.2027e-02
 8.500	21.500	4.1953e-02
 8.500	21.750	4.1918e-02
 8.500	22.000	4.1900e-02
 8.500	22.250	4.1891e-02
 8.500	22.500	4.1886e-02
 8.500	22.750	4.1883e-02
 8.500	23.000	4.1881e-02
 8.500	23.250	4.1881e-02
 8.500	23.500	4.1880e-02
 8.500	23.750	4.1880e-02
 8.500	24.000	4.1880e-02
 8.750	17.000	1.5161e-02
 8.750	17.250	1.8168e-02
 8.750	17.500	2.2030e-02
 8.750	17.750	2.7051e-02
 8.750	18.000	3.3477e-02
 8.750	18.250	4.1915e-02
 8.750	18.500	5.3904e-02
 8.750	18.750	7.2755e-02
 8.750	19.000	1.6394e-01
 8.750	19.250	1.8402e-01
 8.750	19.500	1.2617e-01
 8.750	19.750	8.2412e-02
 8.750	20.000	5.9861e-02
 8.750	20.250	4.8720e-02
 8.750	20.500	4.5175e-02
 8.750	20.750	4.3495e-02
 8.750	21.000	4.2580e-02
 8.750	21.250	4.2194e-02
 8.750	21.500	4.2027e-02
 8.750	21.750	4.1953e-02
 8.750	22.000	4.1918e-02
 8.750	22.250	4.1900e-02
 8.750	22.500	4.1891e-02
 8.750	22.750	4.1886e-02
 8.750	23.000	4.1883e-02
 8.750	23.250	4.1881e-02
 8.750	23.500	4.1881e-02
 8.750	23.750	4.1880e-02
 8.750	24.000	4.1880e-02
 9.000	17.000	1.2694e-02
 9.000	17.250	1.5315e-02
 9.000	17.500	1.8303e-02
 9.000	17.750	2.2150e-02
 9.000	18.000	2.7167e-02
 9.000	18.250	3.3586e-02
 9.000	18.500	4.2016e-02
 9.000	18.750	5.4069e-02
 9.000	19.000	7.3597e-02
 9.000	19.250	1.6443e-01
 9.000	19.500	1.8422e-01
 9.000	19.750	1.2605e-01
 9.000	20.000	8.2261e-02
 9.000	20.250	5.9847e-02
 9.000	20.500	4.8719e-02
 9.000	20.750	4.5176e-02
 9.000	21.000	4.3495e-02
 9.000	21.250	4.2580e-02
 9.000	21.500	4.2194e-02
 9.000	21.750	4.2027e-02
 9.000	22.000	4.1953e-02
 9.000	22.250	4.1918e-02
 9.000	22.500	4.1900e-02
 9.000	22.750	4.1891e-02
 9.000	23.000	4.1886e-02
 9.000	23.250	4.1883e-02
 9.000	23.500	4.1881e-02
 9.000	23.750	4.1880e-02
 9.000	24.000	4.1880e-02
 9.250	17.000	1.0349e-02
 9.250	17.250	1.2942e-02
 9.250	17.500	1.5596e-02
 9.250	17.750	1.8582e-02
 9.250	18.000	2.2392e-02
 9.250	18.250	2.7376e-02
 9.250	18.500	3.3799e-02
 9.250	18.750	4.2330e-02
 9.250	19.000	5.4600e-02
 9.250	19.250	7.7616e-02
 9.250	19.500	1.6543e-01
 9.250	19.750	1.8440e-01
 9.250	20.000	1.2593e-01
 9.250	20.250	8.2117e-02
 9.250	20.500	5.9840e-02
 9.250	20.750	4.8720e-02
 9.250	21.000	4.5177e-02
 9.250	21.250	4.3496e-02
 9.250	21.500	4.2572e-02
 9.250	21.750	4.2181e-02
 9.250	22.000	4.2014e-02
 9.250	22.250	4.1941e-02
 9.250	22.500	4.1917e-02
 9.250	22.750	4.1900e-02
 9.250	23.000	4.1891e-02
 9.250	23.250	4.1886e-02
 9.250	23.500	4.1883e-02
 9.250	23.750	4.1881e-02
 9.250	24.000	4.1881e-02
 9.500	17.000	7.9788e-03
 9.500	17.250	1.0674e-02
 9.500	17.500	1.3390e-02
 9.500	17.750	1.6091e-02
 9.500	18.000	1.9041e-02
 9.500	18.250	2.2797e-02
 9.500	18.500	2.7792e-02
 9.500	18.750	3.4369e-02
 9.500	19.000	4.3146e-02
 9.500	19.250	5.5884e-02
 9.500	19.500	9.2032e-02
 9.500	19.750	1.6774e-01
 9.500	20.000	1.8458e-01
 9.500	20.250	1.2582e-01
 9.500	20.500	8.1991e-02
 9.500	20.750	5.9829e-02
 9.500	21.000	4.8706e-02
 9.500	21.250	4.5163e-02
 9.500	21.500	4.3482e-02
 9.500	21.750	4.2564e-02
 9.500	22.000	4.2171e-02
 9.500	22.250	4.2005e-02
 9.500	22.500	4.1931e-02
 9.500	22.750	4.1895e-02
 9.500	23.000	4.1878e-02
 9.500	23.250	4.1868e-02
 9.500	23.500	4.1869e-02
 9.500	23.750	4.1866e-02
 9.500	24.000	4.1864e-02
 9.750	17.000	5.6240e-03
 9.750	17.250	8.2828e-03
 9.750	17.500	1.1205e-02
 9.750	17.750	1.4077e-02
 9.750	18.000	1.6791e-02
 9.750	18.250	1.9723e-02
 9.750	18.500	2.3554e-02
 9.750	18.750	2.8757e-02
 9.750	19.000	3.5710e-02
 9.750	19.250	4.5043e-02
 9.750	19.500	5.8571e-02
 9.750	19.750	1.1231e-01
 9.750	20.000	1.7171e-01
 9.750	20.250	1.8482e-01
 9.750	20.500	1.2576e-01
 9.750	20.750	8.1897e-02
 9.750	21.000	5.9826e-02
 9.750	21.250	4.8718e-02
 9.750	21.500	4.5167e-02
 9.750	21.750	4.3483e-02
 9.750	22.000	4.2566e-02
 9.750	22.250	4.2174e-02
 9.750	22.500	4.2004e-02
 9.750	22.750	4.1931e-02
 9.750	23.000	4.1896e-02
 9.750	23.250	4.1878e-02
 9.750	23.500	4.1868e-02
 9.750	23.750	4.1863e-02
 9.750	24.000	4.1860e-02
10.000	17.000	3.3760e-03
10.000	17.250	5.8381e-03
10.000	17.500	8.7733e-03
10.000	17.750	1.1937e-02
10.000	18.000	1.4958e-02
10.000	18.250	1.7772e-02
10.000	18.500	2.0882e-02
10.000	18.750	2.5047e-02
10.000	19.000	3.0757e-02
10.000	19.250	3.8306e-02
10.000	19.500	4.8435e-02
10.000	19.750	6.5337e-02
10.000	20.000	1.3003e-01
10.000	20.250	1.7987e-01
10.000	20.500	1.8545e-01
10.000	20.750	1.2575e-01
10.000	21.000	8.1833e-02
10.000	21.250	5.9830e-02
10.000	21.500	4.8724e-02
10.000	21.750	4.5177e-02
10.000	22.000	4.3485e-02
10.000	22.250	4.2567e-02
10.000	22.500	4.2177e-02
10.000	22.750	4.2007e-02
10.000	23.000	4.1930e-02
10.000	23.250	4.1896e-02
10.000	23.500	4.1878e-02
10.000	23.750	4.1869e-02
10.000	24.000	4.1864e-02
10.250	17.000	1.9295e-03
10.250	17.250	3.5123e-03
10.250	17.500	6.2061e-03
10.250	17.750	9.4151e-03
10.250	18.000	1.2867e-02
10.250	18.250	1.6208e-02
10.250	18.500	1.9401e-02
10.250	18.750	2.3043e-02
10.250	19.000	2.7776e-02
10.250	19.250	3.4123e-02
10.250	19.500	4.2450e-02
10.250	19.750	5.3712e-02
10.250	20.000	1.0408e-01
10.250	20.250	1.4649e-01
10.250	20.500	1.8681e-01
10.250	20.750	1.8638e-01
10.250	21.000	1.2583e-01
10.250	21.250	8.1823e-02
10.250	21.500	5.9840e-02
10.250	21.750	4.8728e-02
10.250	22.000	4.5183e-02
10.250	22.250	4.3491e-02
10.250	22.500	4.2568e-02
10.250	22.750	4.2179e-02
10.250	23.000	4.2010e-02
10.250	23.250	4.1933e-02
10.250	23.500	4.1896e-02
10.250	23.750	4.1877e-02
10.250	24.000	4.1868e-02
10.500	17.000	1.0815e-03
10.500	17.250	1.9968e-03
10.500	17.500	3.7433e-03
10.500	17.750	6.7118e-03
10.500	18.000	1.0308e-02
10.500	18.250	1.4278e-02
10.500	18.500	1.8213e-02
10.500	18.750	2.2055e-02
10.500	19.000	2.6292e-02
10.500	19.250	3.1683e-02
10.500	19.500	3.8800e-02
10.500	19.750	4.8057e-02
10.500	20.000	6.0779e-02
10.500	20.250	1.2379e-01
10.500	20.500	1.6036e-01
10.500	20.750	1.9505e-01
10.500	21.000	1.8811e-01
10.500	21.250	1.2603e-01
10.500	21.500	8.1858e-02
10.500	21.750	5.9867e-02
10.500	22.000	4.8733e-02
10.500	22.250	4.5187e-02
10.500	22.500	4.3498e-02
10.500	22.750	4.2568e-02
10.500	23.000	4.2181e-02
10.500	23.250	4.2012e-02
10.500	23.500	4.1936e-02
10.500	23.750	4.1899e-02
10.500	24.000	4.1880e-02
10.750	17.000	6.5160e-04
10.750	17.250	1.1177e-03
10.750	17.500	2.1346e-03
10.750	17.750	4.1835e-03
10.750	18.000	7.4927e-03
10.750	18.250	1.1768e-02
10.750	18.500	1.6437e-02
10.750	18.750	2.1007e-02
10.750	19.000	2.5405e-02
10.750	19.250	3.0283e-02
10.750	19.500	3.6457e-02
10.750	19.750	4.4492e-02
10.750	20.000	5.4839e-02
10.750	20.250	9.0160e-02
10.750	20.500	1.4475e-01
10.750	20.750	1.7973e-01
10.750	21.000	2.0614e-01
10.750	21.250	1.9050e-01
10.750	21.500	1.2635e-01
10.750	21.750	8.1965e-02
10.750	22.000	5.9922e-02
10.750	22.250	4.8740e-02
10.750	22.500	4.5192e-02
10.750	22.750	4.3502e-02
10.750	23.000	4.2571e-02
10.750	23.250	4.2181e-02
10.750	23.500	4.2013e-02
10.750	23.750	4.1938e-02
10.750	24.000	4.1902e-02
11.000	17.000	4.3588e-04
11.000	17.250	6.7523e-04
11.000	17.500	1.1951e-03
11.000	17.750	2.4084e-03
11.000	18.000	4.8424e-03
11.000	18.250	8.6826e-03
11.000	18.500	1.3659e-02
11.000	18.750	1.8963e-02
11.000	19.000	2.3979e-02
11.000	19.250	2.8955e-02
11.000	19.500	3.4654e-02
11.000	19.750	4.1883e-02
11.000	20.000	5.1032e-02
11.000	20.250	6.2593e-02
11.000	20.500	1.0976e-01
11.000	20.750	1.7212e-01
11.000	21.000	1.9990e-01
11.000	21.250	2.1945e-01
11.000	21.500	1.9326e-01
11.000	21.750	1.2679e-01
11.000	22.000	8.2160e-02
11.000	22.250	5.9990e-02
11.000	22.500	4.8749e-02
11.000	22.750	4.5198e-02
11.000	23.000	4.3505e-02
11.000	23.250	4.2578e-02
11.000	23.500	4.2182e-02
11.000	23.750	4.2014e-02
11.000	24.000	4.1940e-02
11.250	17.000	3.1152e-04
11.250	17.250	4.5152e-04
11.250	17.500	7.2444e-04
11.250	17.750	1.3592e-03
11.250	18.000	2.8273e-03
11.250	18.250	5.6343e-03
11.250	18.500	1.0007e-02
11.250	18.750	1.5586e-02
11.250	19.000	2.1308e-02
11.250	19.250	2.6804e-02
11.250	19.500	3.2599e-02
11.250	19.750	3.9487e-02
11.250	20.000	4.8049e-02
11.250	20.250	5.8546e-02
11.250	20.500	7.1545e-02
11.250	20.750	1.4317e-01
11.250	21.000	2.0044e-01
11.250	21.250	2.2760e-01
11.250	21.500	2.3802e-01
11.250	21.750	1.9584e-01
11.250	22.000	1.2722e-01
11.250	22.250	8.2462e-02
11.250	22.500	6.0083e-02
11.250	22.750	4.8764e-02
11.250	23.000	4.5206e-02
11.250	23.250	4.3509e-02
11.250	23.500	4.2581e-02
11.250	23.750	4.2184e-02
11.250	24.000	4.2015e-02
11.500	17.000	2.3259e-04
11.500	17.250	3.2601e-04
11.500	17.500	4.8807e-04
11.500	17.750	8.2239e-04
11.500	18.000	1.5980e-03
11.500	18.250	3.2574e-03
11.500	18.500	6.3437e-03
11.500	18.750	1.1199e-02
11.500	19.000	1.7299e-02
11.500	19.250	2.3435e-02
11.500	19.500	2.9614e-02
11.500	19.750	3.6622e-02
11.500	20.000	4.5048e-02
11.500	20.250	5.5126e-02
11.500	20.500	6.7063e-02
11.500	20.750	8.1686e-02
11.500	21.000	1.6595e-01
11.500	21.250	2.3268e-01
11.500	21.500	2.5903e-01
11.500	21.750	2.6113e-01
11.500	22.000	1.9878e-01
11.500	22.250	1.2753e-01
11.500	22.500	8.2810e-02
11.500	22.750	6.0226e-02
11.500	23.000	4.8785e-02
11.500	23.250	4.5217e-02
11.500	23.500	4.3515e-02
11.500	23.750	4.2583e-02
11.500	24.000	4.2190e-02
11.750	17.000	1.7712e-04
11.750	17.250	2.4576e-04
11.750	17.500	3.5539e-04
11.750	17.750	5.4979e-04
11.750	18.000	9.5325e-04
11.750	18.250	1.8209e-03
11.750	18.500	3.5840e-03
11.750	18.750	6.9178e-03
11.750	19.000	1.2257e-02
11.750	19.250	1.8872e-02
11.750	19.500	2.5595e-02
11.750	19.750	3.2794e-02
11.750	20.000	4.1353e-02
11.750	20.250	5.1526e-02
11.750	20.500	6.3274e-02
11.750	20.750	7.6888e-02
11.750	21.000	9.3460e-02
11.750	21.250	1.9706e-01
11.750	21.500	2.7150e-01
11.750	21.750	2.9696e-01
11.750	22.000	2.8261e-01
11.750	22.250	2.0056e-01
11.750	22.500	1.2767e-01
11.750	22.750	8.3158e-02
11.750	23.000	6.0393e-02
11.750	23.250	4.8814e-02
11.750	23.500	4.5232e-02
11.750	23.750	4.3521e-02
11.750	24.000	4.2585e-02
12.000	17.000	1.3695e-04
12.000	17.250	1.9070e-04
12.000	17.500	2.7111e-04
12.000	17.750	4.0033e-04
12.000	18.000	6.2996e-04
12.000	18.250	1.0844e-03
12.000	18.500	1.9809e-03
12.000	18.750	3.8243e-03
12.000	19.000	7.4540e-03
12.000	19.250	1.3356e-02
12.000	19.500	2.0595e-02
12.000	19.750	2.8108e-02
12.000	20.000	3.6716e-02
12.000	20.250	4.7146e-02
12.000	20.500	5.9220e-02
12.000	20.750	7.2799e-02
12.000	21.000	8.9323e-02
12.000	21.250	1.0911e-01
12.000	21.500	2.3018e-01
12.000	21.750	3.1836e-01
12.000	22.000	3.3488e-01
12.000	22.250	2.9436e-01
12.000	22.500	2.0126e-01
12.000	22.750	1.2749e-01
12.000	23.000	8.3497e-02
12.000	23.250	6.0571e-02
12.000	23.500	4.8848e-02
12.000	23.750	4.5247e-02
12.000	24.000	4.3528e-02
12.250	17.000	1.0872e-04
12.250	17.250	1.5193e-04
12.250	17.500	2.1292e-04
12.250	17.750	3.0872e-04
12.250	18.000	4.5942e-04
12.250	18.250	7.2650e-04
12.250	18.500	1.2101e-03
12.250	18.750	2.1339e-03
12.250	19.000	4.0910e-03
12.250	19.250	8.1420e-03
12.250	19.500	1.4710e-02
12.250	19.750	2.2727e-02
12.250	20.000	3.1365e-02
12.250	20.250	4.1727e-02
12.250	20.500	5.4147e-02
12.250	20.750	6.8435e-02
12.250	21.000	8.5235e-02
12.250	21.250	1.0553e-01
12.250	21.500	1.5202e-01
12.250	21.750	2.7882e-01
12.250	22.000	3.7286e-01
12.250	22.250	3.7251e-01
12.250	22.500	3.0323e-01
12.250	22.750	2.0140e-01
12.250	23.000	1.2697e-01
12.250	23.250	8.3760e-02
12.250	23.500	6.0735e-02
12.250	23.750	4.8880e-02
12.250	24.000	4.5262e-02
12.500	17.000	8.5761e-05
12.500	17.250	1.2477e-04
12.500	17.500	1.7399e-04
12.500	17.750	2.4733e-04
12.500	18.000	3.6016e-04
12.500	18.250	5.4074e-04
12.500	18.500	8.4733e-04
12.500	18.750	1.3695e-03
12.500	19.000	2.3667e-03
12.500	19.250	4.5698e-03
12.500	19.500	9.1856e-03
12.500	19.750	1.6593e-02
12.500	20.000	2.5557e-02
12.500	20.250	3.5637e-02
12.500	20.500	4.8058e-02
12.500	20.750	6.3126e-02
12.500	21.000	8.1280e-02
12.500	21.250	1.0275e-01
12.500	21.500	1.2584e-01
12.500	21.750	2.0947e-01
12.500	22.000	3.3700e-01
12.500	22.250	4.2865e-01
12.500	22.500	4.0509e-01
12.500	22.750	3.0933e-01
12.500	23.000	2.0073e-01
12.500	23.250	1.2619e-01
12.500	23.500	8.3905e-02
12.500	23.750	6.0876e-02
12.500	24.000	4.8903e-02
12.750	17.000	6.6502e-05
12.750	17.250	9.9835e-05
12.750	17.500	1.4560e-04
12.750	17.750	2.0765e-04
12.750	18.000	2.9860e-04
12.750	18.250	4.3613e-04
12.750	18.500	6.5844e-04
12.750	18.750	1.0165e-03
12.750	19.000	1.6137e-03
12.750	19.250	2.7765e-03
12.750	19.500	5.3528e-03
12.750	19.750	1.0609e-02
12.750	20.000	1.8837e-02
12.750	20.250	2.9178e-02
12.750	20.500	4.1143e-02
12.750	20.750	5.5873e-02
12.750	21.000	7.4811e-02
12.750	21.250	9.7819e-02
12.750	21.500	1.2172e-01
12.750	21.750	1.5058e-01
12.750	22.000	2.6785e-01
12.750	22.250	4.0449e-01
12.750	22.500	4.8471e-01
12.750	22.750	4.3337e-01
12.750	23.000	3.1246e-01
12.750	23.250	1.9928e-01
12.750	23.500	1.2509e-01
12.750	23.750	8.3884e-02
12.750	24.000	6.0956e-02
13.000	17.000	5.0947e-05
13.000	17.250	7.8683e-05
13.000	17.500	1.1852e-04
13.000	17.750	1.7235e-04
13.000	18.000	2.5218e-04
13.000	18.250	3.7070e-04
13.000	18.500	5.5300e-04
13.000	18.750	8.3358e-04
13.000	19.000	1.2723e-03
13.000	19.250	2.0024e-03
13.000	19.500	3.3756e-03
13.000	19.750	6.3396e-03
13.000	20.000	1.2268e-02
13.000	20.250	2.1422e-02
13.000	20.500	3.3416e-02
13.000	20.750	4.8112e-02
13.000	21.000	6.6579e-02
13.000	21.250	9.1269e-02
13.000	21.500	1.1895e-01
13.000	21.750	1.4470e-01
13.000	22.000	1.7448e-01
13.000	22.250	3.3971e-01
13.000	22.500	4.7848e-01
13.000	22.750	5.2617e-01
13.000	23.000	4.5581e-01
13.000	23.250	3.1479e-01
13.000	23.500	1.9798e-01
13.000	23.750	1.2373e-01
13.000	24.000	8.3689e-02
13.250	17.000	3.8683e-05
13.250	17.250	6.1235e-05
13.250	17.500	9.5391e-05
13.250	17.750	1.4403e-04
13.250	18.000	2.1449e-04
13.250	18.250	3.2272e-04
13.250	18.500	4.8667e-04
13.250	18.750	7.3259e-04
13.250	19.000	1.0965e-03
13.250	19.250	1.6574e-03
13.250	19.500	2.5770e-03
13.250	19.750	4.2662e-03
13.250	20.000	7.6683e-03
13.250	20.250	1.3995e-02
13.250	20.500	2.3881e-02
13.250	20.750	3.7993e-02
13.250	21.000	5.5497e-02
13.250	21.250	7.8397e-02
13.250	21.500	1.0191e-01
13.250	21.750	1.3212e-01
13.250	22.000	1.6679e-01
13.250	22.250	2.0147e-01
13.250	22.500	4.1464e-01
13.250	22.750	5.4117e-01
13.250	23.000	5.6548e-01
13.250	23.250	4.7518e-01
13.250	23.500	3.1566e-01
13.250	23.750	1.9513e-01
13.250	24.000	1.2259e-01
13.500	17.000	2.8724e-05
13.500	17.250	4.7160e-05
13.500	17.500	7.7119e-05
13.500	17.750	1.1951e-04
13.500	18.000	1.8354e-04
13.500	18.250	2.8189e-04
13.500	18.500	4.3695e-04
13.500	18.750	6.7053e-04
13.500	19.000	1.0102e-03
13.500	19.250	1.5000e-03
13.500	19.500	2.2480e-03
13.500	19.750	3.4621e-03
13.500	20.000	5.5541e-03
13.500	20.250	9.4503e-03
13.500	20.500	1.6213e-02
13.500	20.750	2.7009e-02
13.500	21.000	4.1441e-02
13.500	21.250	6.1624e-02
13.500	21.500	8.3395e-02
13.500	21.750	1.1353e-01
13.500	22.000	1.5148e-01
13.500	22.250	1.8779e-01
13.500	22.500	2.3023e-01
13.500	22.750	5.0684e-01
13.500	23.000	6.1845e-01
13.500	23.250	6.1179e-01
13.500	23.500	4.9217e-01
13.500	23.750	3.1488e-01
13.500	24.000	1.9204e-01
13.750	17.000	2.1811e-05
13.750	17.250	3.5720e-05
13.750	17.500	6.1399e-05
13.750	17.750	9.8765e-05
13.750	18.000	1.5679e-04
13.750	18.250	2.4831e-04
13.750	18.500	3.9218e-04
13.750	18.750	6.1770e-04
13.750	19.000	9.5481e-04
13.750	19.250	1.4351e-03
13.750	19.500	2.1230e-03
13.750	19.750	3.1630e-03
13.750	20.000	4.8193e-03
13.750	20.250	7.5552e-03
13.750	20.500	1.2195e-02
13.750	20.750	1.9848e-02
13.750	21.000	3.1345e-02
13.750	21.250	4.6500e-02
13.750	21.500	6.6416e-02
13.750	21.750	9.1512e-02
13.750	22.000	1.2294e-01
13.750	22.250	1.6435e-01
13.750	22.500	2.1484e-01
13.750	22.750	2.7409e-01
13.750	23.000	6.2322e-01
13.750	23.250	7.0924e-01
13.750	23.500	6.5922e-01
13.750	23.750	5.0535e-01
13.750	24.000	3.1247e-01
14.000	17.000	1.6626e-05
14.000	17.250	2.7737e-05
14.000	17.500	4.6337e-05
14.000	17.750	8.1317e-05
14.000	18.000	1.3374e-04
14.000	18.250	2.1893e-04
14.000	18.500	3.5572e-04
14.000	18.750	5.7062e-04
14.000	19.000	8.9951e-04
14.000	19.250	1.3877e-03
14.000	19.500	2.0788e-03
14.000	19.750	3.0635e-03
14.000	20.000	4.5323e-03
14.000	20.250	6.8187e-03
14.000	20.500	1.0459e-02
14.000	20.750	1.6251e-02
14.000	21.000	2.5259e-02
14.000	21.250	3.8429e-02
14.000	21.500	5.4898e-02
14.000	21.750	7.6377e-02
14.000	22.000	1.0363e-01
14.000	22.250	1.4087e-01
14.000	22.500	1.9160e-01
14.000	22.750	2.5943e-01
14.000	23.000	3.7915e-01
14.000	23.250	7.9242e-01
14.000	23.500	8.3006e-01
14.000	23.750	7.1228e-01
14.000	24.000	5.1158e-01
