InwC 3645.00A  relative to Inci 1215.00A scaled to 1215A.
Hden   Phi(H)  Eq_Width (A)
 7.000	17.000	2.9647e-02
 7.000	17.250	3.1013e-02
 7.000	17.500	3.1803e-02
 7.000	17.750	3.1817e-02
 7.000	18.000	3.1832e-02
 7.000	18.250	3.1850e-02
 7.000	18.500	3.1859e-02
 7.000	18.750	3.1863e-02
 7.000	19.000	3.1867e-02
 7.000	19.250	3.1870e-02
 7.000	19.500	3.1871e-02
 7.000	19.750	3.1871e-02
 7.000	20.000	3.1872e-02
 7.000	20.250	3.1872e-02
 7.000	20.500	3.1872e-02
 7.000	20.750	3.1872e-02
 7.000	21.000	3.1872e-02
 7.000	21.250	3.1872e-02
 7.000	21.500	3.1872e-02
 7.000	21.750	3.1873e-02
 7.000	22.000	3.1873e-02
 7.000	22.250	3.1873e-02
 7.000	22.500	3.1873e-02
 7.000	22.750	3.1874e-02
 7.000	23.000	3.1874e-02
 7.000	23.250	3.1874e-02
 7.000	23.500	3.1874e-02
 7.000	23.750	3.1874e-02
 7.000	24.000	3.1874e-02
 7.250	17.000	2.2050e-02
 7.250	17.250	2.9740e-02
 7.250	17.500	3.1018e-02
 7.250	17.750	3.1802e-02
 7.250	18.000	3.1817e-02
 7.250	18.250	3.1832e-02
 7.250	18.500	3.1849e-02
 7.250	18.750	3.1859e-02
 7.250	19.000	3.1863e-02
 7.250	19.250	3.1867e-02
 7.250	19.500	3.1870e-02
 7.250	19.750	3.1871e-02
 7.250	20.000	3.1871e-02
 7.250	20.250	3.1872e-02
 7.250	20.500	3.1872e-02
 7.250	20.750	3.1872e-02
 7.250	21.000	3.1872e-02
 7.250	21.250	3.1872e-02
 7.250	21.500	3.1872e-02
 7.250	21.750	3.1872e-02
 7.250	22.000	3.1872e-02
 7.250	22.250	3.1872e-02
 7.250	22.500	3.1872e-02
 7.250	22.750	3.1873e-02
 7.250	23.000	3.1873e-02
 7.250	23.250	3.1873e-02
 7.250	23.500	3.1873e-02
 7.250	23.750	3.1873e-02
 7.250	24.000	3.1873e-02
 7.500	17.000	1.6222e-02
 7.500	17.250	2.2285e-02
 7.500	17.500	2.9799e-02
 7.500	17.750	3.1020e-02
 7.500	18.000	3.1802e-02
 7.500	18.250	3.1817e-02
 7.500	18.500	3.1832e-02
 7.500	18.750	3.1850e-02
 7.500	19.000	3.1859e-02
 7.500	19.250	3.1863e-02
 7.500	19.500	3.1867e-02
 7.500	19.750	3.1870e-02
 7.500	20.000	3.1871e-02
 7.500	20.250	3.1871e-02
 7.500	20.500	3.1872e-02
 7.500	20.750	3.1872e-02
 7.500	21.000	3.1872e-02
 7.500	21.250	3.1872e-02
 7.500	21.500	3.1872e-02
 7.500	21.750	3.1872e-02
 7.500	22.000	3.1872e-02
 7.500	22.250	3.1872e-02
 7.500	22.500	3.1872e-02
 7.500	22.750	3.1872e-02
 7.500	23.000	3.1872e-02
 7.500	23.250	3.1872e-02
 7.500	23.500	3.1874e-02
 7.500	23.750	3.1872e-02
 7.500	24.000	3.1872e-02
 7.750	17.000	1.1409e-02
 7.750	17.250	1.6485e-02
 7.750	17.500	2.2437e-02
 7.750	17.750	2.9823e-02
 7.750	18.000	3.1021e-02
 7.750	18.250	3.1801e-02
 7.750	18.500	3.1817e-02
 7.750	18.750	3.1832e-02
 7.750	19.000	3.1850e-02
 7.750	19.250	3.1859e-02
 7.750	19.500	3.1863e-02
 7.750	19.750	3.1867e-02
 7.750	20.000	3.1870e-02
 7.750	20.250	3.1871e-02
 7.750	20.500	3.1871e-02
 7.750	20.750	3.1872e-02
 7.750	21.000	3.1872e-02
 7.750	21.250	3.1872e-02
 7.750	21.500	3.1872e-02
 7.750	21.750	3.1872e-02
 7.750	22.000	3.1872e-02
 7.750	22.250	3.1872e-02
 7.750	22.500	3.1872e-02
 7.750	22.750	3.1872e-02
 7.750	23.000	3.1872e-02
 7.750	23.250	3.1872e-02
 7.750	23.500	3.1872e-02
 7.750	23.750	3.1872e-02
 7.750	24.000	3.1872e-02
 8.000	17.000	7.8114e-03
 8.000	17.250	1.1540e-02
 8.000	17.500	1.6629e-02
 8.000	17.750	2.2415e-02
 8.000	18.000	2.9685e-02
 8.000	18.250	3.1012e-02
 8.000	18.500	3.1800e-02
 8.000	18.750	3.1817e-02
 8.000	19.000	3.1832e-02
 8.000	19.250	3.1850e-02
 8.000	19.500	3.1859e-02
 8.000	19.750	3.1863e-02
 8.000	20.000	3.1867e-02
 8.000	20.250	3.1870e-02
 8.000	20.500	3.1871e-02
 8.000	20.750	3.1871e-02
 8.000	21.000	3.1872e-02
 8.000	21.250	3.1872e-02
 8.000	21.500	3.1872e-02
 8.000	21.750	3.1872e-02
 8.000	22.000	3.1872e-02
 8.000	22.250	3.1872e-02
 8.000	22.500	3.1872e-02
 8.000	22.750	3.1872e-02
 8.000	23.000	3.1872e-02
 8.000	23.250	3.1873e-02
 8.000	23.500	3.1872e-02
 8.000	23.750	3.1872e-02
 8.000	24.000	3.1872e-02
 8.250	17.000	5.4302e-03
 8.250	17.250	7.9252e-03
 8.250	17.500	1.1720e-02
 8.250	17.750	1.6808e-02
 8.250	18.000	2.2550e-02
 8.250	18.250	2.9657e-02
 8.250	18.500	3.1003e-02
 8.250	18.750	3.1798e-02
 8.250	19.000	3.1816e-02
 8.250	19.250	3.1832e-02
 8.250	19.500	3.1849e-02
 8.250	19.750	3.1859e-02
 8.250	20.000	3.1863e-02
 8.250	20.250	3.1867e-02
 8.250	20.500	3.1870e-02
 8.250	20.750	3.1871e-02
 8.250	21.000	3.1871e-02
 8.250	21.250	3.1872e-02
 8.250	21.500	3.1872e-02
 8.250	21.750	3.1872e-02
 8.250	22.000	3.1872e-02
 8.250	22.250	3.1872e-02
 8.250	22.500	3.1872e-02
 8.250	22.750	3.1872e-02
 8.250	23.000	3.1872e-02
 8.250	23.250	3.1872e-02
 8.250	23.500	3.1872e-02
 8.250	23.750	3.1872e-02
 8.250	24.000	3.1872e-02
 8.500	17.000	3.8404e-03
 8.500	17.250	5.5004e-03
 8.500	17.500	8.0438e-03
 8.500	17.750	1.1924e-02
 8.500	18.000	1.7090e-02
 8.500	18.250	2.2716e-02
 8.500	18.500	2.9629e-02
 8.500	18.750	3.0986e-02
 8.500	19.000	3.1794e-02
 8.500	19.250	3.1816e-02
 8.500	19.500	3.1832e-02
 8.500	19.750	3.1850e-02
 8.500	20.000	3.1859e-02
 8.500	20.250	3.1863e-02
 8.500	20.500	3.1867e-02
 8.500	20.750	3.1870e-02
 8.500	21.000	3.1871e-02
 8.500	21.250	3.1871e-02
 8.500	21.500	3.1872e-02
 8.500	21.750	3.1872e-02
 8.500	22.000	3.1872e-02
 8.500	22.250	3.1872e-02
 8.500	22.500	3.1872e-02
 8.500	22.750	3.1872e-02
 8.500	23.000	3.1872e-02
 8.500	23.250	3.1872e-02
 8.500	23.500	3.1872e-02
 8.500	23.750	3.1872e-02
 8.500	24.000	3.1872e-02
 8.750	17.000	2.7466e-03
 8.750	17.250	3.8786e-03
 8.750	17.500	5.5756e-03
 8.750	17.750	8.2215e-03
 8.750	18.000	1.2236e-02
 8.750	18.250	1.7482e-02
 8.750	18.500	2.3156e-02
 8.750	18.750	2.9519e-02
 8.750	19.000	3.0954e-02
 8.750	19.250	3.1789e-02
 8.750	19.500	3.1815e-02
 8.750	19.750	3.1832e-02
 8.750	20.000	3.1850e-02
 8.750	20.250	3.1859e-02
 8.750	20.500	3.1863e-02
 8.750	20.750	3.1867e-02
 8.750	21.000	3.1870e-02
 8.750	21.250	3.1871e-02
 8.750	21.500	3.1871e-02
 8.750	21.750	3.1872e-02
 8.750	22.000	3.1872e-02
 8.750	22.250	3.1872e-02
 8.750	22.500	3.1872e-02
 8.750	22.750	3.1872e-02
 8.750	23.000	3.1872e-02
 8.750	23.250	3.1872e-02
 8.750	23.500	3.1872e-02
 8.750	23.750	3.1872e-02
 8.750	24.000	3.1872e-02
 9.000	17.000	1.9831e-03
 9.000	17.250	2.7658e-03
 9.000	17.500	3.9255e-03
 9.000	17.750	5.6949e-03
 9.000	18.000	8.4985e-03
 9.000	18.250	1.2746e-02
 9.000	18.500	1.8051e-02
 9.000	18.750	2.3442e-02
 9.000	19.000	2.9309e-02
 9.000	19.250	3.0899e-02
 9.000	19.500	3.1779e-02
 9.000	19.750	3.1813e-02
 9.000	20.000	3.1831e-02
 9.000	20.250	3.1850e-02
 9.000	20.500	3.1859e-02
 9.000	20.750	3.1863e-02
 9.000	21.000	3.1867e-02
 9.000	21.250	3.1870e-02
 9.000	21.500	3.1871e-02
 9.000	21.750	3.1871e-02
 9.000	22.000	3.1872e-02
 9.000	22.250	3.1872e-02
 9.000	22.500	3.1872e-02
 9.000	22.750	3.1872e-02
 9.000	23.000	3.1872e-02
 9.000	23.250	3.1872e-02
 9.000	23.500	3.1872e-02
 9.000	23.750	3.1872e-02
 9.000	24.000	3.1872e-02
 9.250	17.000	1.4465e-03
 9.250	17.250	1.9900e-03
 9.250	17.500	2.7940e-03
 9.250	17.750	4.0158e-03
 9.250	18.000	5.9626e-03
 9.250	18.250	9.0319e-03
 9.250	18.500	1.3442e-02
 9.250	18.750	1.8802e-02
 9.250	19.000	2.4422e-02
 9.250	19.250	2.9084e-02
 9.250	19.500	3.0810e-02
 9.250	19.750	3.1763e-02
 9.250	20.000	3.1810e-02
 9.250	20.250	3.1830e-02
 9.250	20.500	3.1849e-02
 9.250	20.750	3.1859e-02
 9.250	21.000	3.1863e-02
 9.250	21.250	3.1867e-02
 9.250	21.500	3.1864e-02
 9.250	21.750	3.1862e-02
 9.250	22.000	3.1861e-02
 9.250	22.250	3.1862e-02
 9.250	22.500	3.1871e-02
 9.250	22.750	3.1871e-02
 9.250	23.000	3.1872e-02
 9.250	23.250	3.1872e-02
 9.250	23.500	3.1872e-02
 9.250	23.750	3.1872e-02
 9.250	24.000	3.1872e-02
 9.500	17.000	1.0682e-03
 9.500	17.250	1.4481e-03
 9.500	17.500	2.0076e-03
 9.500	17.750	2.8667e-03
 9.500	18.000	4.2595e-03
 9.500	18.250	6.4421e-03
 9.500	18.500	9.6441e-03
 9.500	18.750	1.3992e-02
 9.500	19.000	1.9291e-02
 9.500	19.250	2.5202e-02
 9.500	19.500	2.8869e-02
 9.500	19.750	3.0686e-02
 9.500	20.000	3.1737e-02
 9.500	20.250	3.1804e-02
 9.500	20.500	3.1828e-02
 9.500	20.750	3.1847e-02
 9.500	21.000	3.1852e-02
 9.500	21.250	3.1854e-02
 9.500	21.500	3.1857e-02
 9.500	21.750	3.1858e-02
 9.500	22.000	3.1854e-02
 9.500	22.250	3.1855e-02
 9.500	22.500	3.1855e-02
 9.500	22.750	3.1854e-02
 9.500	23.000	3.1855e-02
 9.500	23.250	3.1855e-02
 9.500	23.500	3.1859e-02
 9.500	23.750	3.1859e-02
 9.500	24.000	3.1859e-02
 9.750	17.000	8.0140e-04
 9.750	17.250	1.0659e-03
 9.750	17.500	1.4574e-03
 9.750	17.750	2.0672e-03
 9.750	18.000	3.0679e-03
 9.750	18.250	4.6342e-03
 9.750	18.500	6.8480e-03
 9.750	18.750	9.9105e-03
 9.750	19.000	1.4165e-02
 9.750	19.250	2.0068e-02
 9.750	19.500	2.6445e-02
 9.750	19.750	2.8640e-02
 9.750	20.000	3.0524e-02
 9.750	20.250	3.1697e-02
 9.750	20.500	3.1795e-02
 9.750	20.750	3.1826e-02
 9.750	21.000	3.1847e-02
 9.750	21.250	3.1856e-02
 9.750	21.500	3.1855e-02
 9.750	21.750	3.1857e-02
 9.750	22.000	3.1859e-02
 9.750	22.250	3.1856e-02
 9.750	22.500	3.1854e-02
 9.750	22.750	3.1855e-02
 9.750	23.000	3.1855e-02
 9.750	23.250	3.1855e-02
 9.750	23.500	3.1855e-02
 9.750	23.750	3.1855e-02
 9.750	24.000	3.1854e-02
10.000	17.000	6.1243e-04
10.000	17.250	7.9844e-04
10.000	17.500	1.0740e-03
10.000	17.750	1.5100e-03
10.000	18.000	2.2388e-03
10.000	18.250	3.3458e-03
10.000	18.500	4.8442e-03
10.000	18.750	6.8692e-03
10.000	19.000	9.8018e-03
10.000	19.250	1.4210e-02
10.000	19.500	2.1004e-02
10.000	19.750	2.6455e-02
10.000	20.000	2.8426e-02
10.000	20.250	3.0364e-02
10.000	20.500	3.1636e-02
10.000	20.750	3.1781e-02
10.000	21.000	3.1821e-02
10.000	21.250	3.1846e-02
10.000	21.500	3.1858e-02
10.000	21.750	3.1860e-02
10.000	22.000	3.1858e-02
10.000	22.250	3.1860e-02
10.000	22.500	3.1859e-02
10.000	22.750	3.1856e-02
10.000	23.000	3.1854e-02
10.000	23.250	3.1855e-02
10.000	23.500	3.1855e-02
10.000	23.750	3.1855e-02
10.000	24.000	3.1855e-02
10.250	17.000	4.7918e-04
10.250	17.250	6.1021e-04
10.250	17.500	8.0551e-04
10.250	17.750	1.1202e-03
10.250	18.000	1.6435e-03
10.250	18.250	2.4212e-03
10.250	18.500	3.4226e-03
10.250	18.750	4.7408e-03
10.250	19.000	6.6086e-03
10.250	19.250	9.7186e-03
10.250	19.500	1.4903e-02
10.250	19.750	2.2061e-02
10.250	20.000	2.6014e-02
10.250	20.250	2.8165e-02
10.250	20.500	3.0197e-02
10.250	20.750	3.1555e-02
10.250	21.000	3.1759e-02
10.250	21.250	3.1812e-02
10.250	21.500	3.1843e-02
10.250	21.750	3.1858e-02
10.250	22.000	3.1862e-02
10.250	22.250	3.1861e-02
10.250	22.500	3.1860e-02
10.250	22.750	3.1860e-02
10.250	23.000	3.1858e-02
10.250	23.250	3.1856e-02
10.250	23.500	3.1855e-02
10.250	23.750	3.1854e-02
10.250	24.000	3.1854e-02
10.500	17.000	3.8543e-04
10.500	17.250	4.7770e-04
10.500	17.500	6.1712e-04
10.500	17.750	8.4584e-04
10.500	18.000	1.2216e-03
10.500	18.250	1.7691e-03
10.500	18.500	2.4668e-03
10.500	18.750	3.4202e-03
10.500	19.000	4.8412e-03
10.500	19.250	7.0454e-03
10.500	19.500	1.0483e-02
10.500	19.750	1.5965e-02
10.500	20.000	2.2702e-02
10.500	20.250	2.5951e-02
10.500	20.500	2.7828e-02
10.500	20.750	3.0039e-02
10.500	21.000	3.1466e-02
10.500	21.250	3.1727e-02
10.500	21.500	3.1800e-02
10.500	21.750	3.1839e-02
10.500	22.000	3.1857e-02
10.500	22.250	3.1862e-02
10.500	22.500	3.1865e-02
10.500	22.750	3.1860e-02
10.500	23.000	3.1861e-02
10.500	23.250	3.1860e-02
10.500	23.500	3.1858e-02
10.500	23.750	3.1857e-02
10.500	24.000	3.1856e-02
10.750	17.000	3.1885e-04
10.750	17.250	3.8370e-04
10.750	17.500	4.8346e-04
10.750	17.750	6.4914e-04
10.750	18.000	9.2354e-04
10.750	18.250	1.3207e-03
10.750	18.500	1.8463e-03
10.750	18.750	2.5874e-03
10.750	19.000	3.6550e-03
10.750	19.250	5.1998e-03
10.750	19.500	7.5080e-03
10.750	19.750	1.1090e-02
10.750	20.000	1.6683e-02
10.750	20.250	2.2681e-02
10.750	20.500	2.5545e-02
10.750	20.750	2.7604e-02
10.750	21.000	2.9907e-02
10.750	21.250	3.1373e-02
10.750	21.500	3.1685e-02
10.750	21.750	3.1782e-02
10.750	22.000	3.1833e-02
10.750	22.250	3.1856e-02
10.750	22.500	3.1862e-02
10.750	22.750	3.1866e-02
10.750	23.000	3.1862e-02
10.750	23.250	3.1861e-02
10.750	23.500	3.1861e-02
10.750	23.750	3.1860e-02
10.750	24.000	3.1859e-02
11.000	17.000	2.7128e-04
11.000	17.250	3.1613e-04
11.000	17.500	3.8667e-04
11.000	17.750	5.0774e-04
11.000	18.000	7.1004e-04
11.000	18.250	1.0056e-03
11.000	18.500	1.4155e-03
11.000	18.750	2.0008e-03
11.000	19.000	2.7952e-03
11.000	19.250	3.8856e-03
11.000	19.500	5.4634e-03
11.000	19.750	7.8044e-03
11.000	20.000	1.1405e-02
11.000	20.250	1.6955e-02
11.000	20.500	2.2446e-02
11.000	20.750	2.5151e-02
11.000	21.000	2.7439e-02
11.000	21.250	2.9852e-02
11.000	21.500	3.1277e-02
11.000	21.750	3.1637e-02
11.000	22.000	3.1757e-02
11.000	22.250	3.1824e-02
11.000	22.500	3.1854e-02
11.000	22.750	3.1861e-02
11.000	23.000	3.1866e-02
11.000	23.250	3.1867e-02
11.000	23.500	3.1862e-02
11.000	23.750	3.1862e-02
11.000	24.000	3.1861e-02
11.250	17.000	2.3712e-04
11.250	17.250	2.6708e-04
11.250	17.500	3.1638e-04
11.250	17.750	4.0453e-04
11.250	18.000	5.5424e-04
11.250	18.250	7.7753e-04
11.250	18.500	1.0933e-03
11.250	18.750	1.5395e-03
11.250	19.000	2.1337e-03
11.250	19.250	2.9370e-03
11.250	19.500	4.0347e-03
11.250	19.750	5.6061e-03
11.250	20.000	7.9077e-03
11.250	20.250	1.1469e-02
11.250	20.500	1.6964e-02
11.250	20.750	2.1769e-02
11.250	21.000	2.4915e-02
11.250	21.250	2.7337e-02
11.250	21.500	2.9891e-02
11.250	21.750	3.1153e-02
11.250	22.000	3.1587e-02
11.250	22.250	3.1731e-02
11.250	22.500	3.1812e-02
11.250	22.750	3.1851e-02
11.250	23.000	3.1859e-02
11.250	23.250	3.1866e-02
11.250	23.500	3.1869e-02
11.250	23.750	3.1863e-02
11.250	24.000	3.1862e-02
11.500	17.000	2.1284e-04
11.500	17.250	2.3210e-04
11.500	17.500	2.6584e-04
11.500	17.750	3.2897e-04
11.500	18.000	4.3901e-04
11.500	18.250	6.0807e-04
11.500	18.500	8.4807e-04
11.500	18.750	1.1872e-03
11.500	19.000	1.6304e-03
11.500	19.250	2.2267e-03
11.500	19.500	3.0213e-03
11.500	19.750	4.1104e-03
11.500	20.000	5.6481e-03
11.500	20.250	7.8975e-03
11.500	20.500	1.1401e-02
11.500	20.750	1.6744e-02
11.500	21.000	2.1487e-02
11.500	21.250	2.4807e-02
11.500	21.500	2.7429e-02
11.500	21.750	3.0018e-02
11.500	22.000	3.1047e-02
11.500	22.250	3.1536e-02
11.500	22.500	3.1702e-02
11.500	22.750	3.1799e-02
11.500	23.000	3.1847e-02
11.500	23.250	3.1858e-02
11.500	23.500	3.1865e-02
11.500	23.750	3.1869e-02
11.500	24.000	3.1867e-02
11.750	17.000	1.9597e-04
11.750	17.250	2.0741e-04
11.750	17.500	2.2979e-04
11.750	17.750	2.7407e-04
11.750	18.000	3.5374e-04
11.750	18.250	4.7885e-04
11.750	18.500	6.5877e-04
11.750	18.750	9.0955e-04
11.750	19.000	1.2512e-03
11.750	19.250	1.6963e-03
11.750	19.500	2.2914e-03
11.750	19.750	3.0773e-03
11.750	20.000	4.1405e-03
11.750	20.250	5.6332e-03
11.750	20.500	7.8374e-03
11.750	20.750	1.1294e-02
11.750	21.000	1.6246e-02
11.750	21.250	2.1242e-02
11.750	21.500	2.4875e-02
11.750	21.750	2.7660e-02
11.750	22.000	3.0057e-02
11.750	22.250	3.0973e-02
11.750	22.500	3.1481e-02
11.750	22.750	3.1676e-02
11.750	23.000	3.1786e-02
11.750	23.250	3.1842e-02
11.750	23.500	3.1855e-02
11.750	23.750	3.1864e-02
11.750	24.000	3.1869e-02
12.000	17.000	1.8387e-04
12.000	17.250	1.9029e-04
12.000	17.500	2.0436e-04
12.000	17.750	2.3449e-04
12.000	18.000	2.9045e-04
12.000	18.250	3.8041e-04
12.000	18.500	5.1432e-04
12.000	18.750	7.0346e-04
12.000	19.000	9.6214e-04
12.000	19.250	1.3009e-03
12.000	19.500	1.7466e-03
12.000	19.750	2.3321e-03
12.000	20.000	3.1021e-03
12.000	20.250	4.1445e-03
12.000	20.500	5.6005e-03
12.000	20.750	7.7689e-03
12.000	21.000	1.1231e-02
12.000	21.250	1.5858e-02
12.000	21.500	2.1133e-02
12.000	21.750	2.5100e-02
12.000	22.000	2.7952e-02
12.000	22.250	2.9977e-02
12.000	22.500	3.0901e-02
12.000	22.750	3.1424e-02
12.000	23.000	3.1644e-02
12.000	23.250	3.1773e-02
12.000	23.500	3.1837e-02
12.000	23.750	3.1853e-02
12.000	24.000	3.1863e-02
12.250	17.000	1.7588e-04
12.250	17.250	1.7893e-04
12.250	17.500	1.8700e-04
12.250	17.750	2.0634e-04
12.250	18.000	2.4477e-04
12.250	18.250	3.0955e-04
12.250	18.500	4.0790e-04
12.250	18.750	5.4872e-04
12.250	19.000	7.4296e-04
12.250	19.250	1.0021e-03
12.250	19.500	1.3394e-03
12.250	19.750	1.7799e-03
12.250	20.000	2.3588e-03
12.250	20.250	3.1183e-03
12.250	20.500	4.1360e-03
12.250	20.750	5.5705e-03
12.250	21.000	7.7429e-03
12.250	21.250	1.1284e-02
12.250	21.500	1.5863e-02
12.250	21.750	2.1328e-02
12.250	22.000	2.5452e-02
12.250	22.250	2.8263e-02
12.250	22.500	2.9909e-02
12.250	22.750	3.0820e-02
12.250	23.000	3.1372e-02
12.250	23.250	3.1614e-02
12.250	23.500	3.1759e-02
12.250	23.750	3.1831e-02
12.250	24.000	3.1851e-02
12.500	17.000	1.3473e-04
12.500	17.250	1.7210e-04
12.500	17.500	1.7671e-04
12.500	17.750	1.8872e-04
12.500	18.000	2.1391e-04
12.500	18.250	2.5852e-04
12.500	18.500	3.2947e-04
12.500	18.750	4.3333e-04
12.500	19.000	5.7770e-04
12.500	19.250	7.7300e-04
12.500	19.500	1.0310e-03
12.500	19.750	1.3666e-03
12.500	20.000	1.8036e-03
12.500	20.250	2.3772e-03
12.500	20.500	3.1203e-03
12.500	20.750	4.1316e-03
12.500	21.000	5.5742e-03
12.500	21.250	7.8126e-03
12.500	21.500	1.1302e-02
12.500	21.750	1.6208e-02
12.500	22.000	2.1729e-02
12.500	22.250	2.5834e-02
12.500	22.500	2.8473e-02
12.500	22.750	2.9882e-02
12.500	23.000	3.0763e-02
12.500	23.250	3.1314e-02
12.500	23.500	3.1580e-02
12.500	23.750	3.1742e-02
12.500	24.000	3.1825e-02
12.750	17.000	7.5144e-05
12.750	17.250	1.4658e-04
12.750	17.500	1.7111e-04
12.750	17.750	1.7868e-04
12.750	18.000	1.9449e-04
12.750	18.250	2.2444e-04
12.750	18.500	2.7317e-04
12.750	18.750	3.4790e-04
12.750	19.000	4.5391e-04
12.750	19.250	6.0066e-04
12.750	19.500	7.9440e-04
12.750	19.750	1.0498e-03
12.750	20.000	1.3788e-03
12.750	20.250	1.8137e-03
12.750	20.500	2.3742e-03
12.750	20.750	3.1067e-03
12.750	21.000	4.1218e-03
12.750	21.250	5.5984e-03
12.750	21.500	7.8082e-03
12.750	21.750	1.1598e-02
12.750	22.000	1.6670e-02
12.750	22.250	2.2256e-02
12.750	22.500	2.6174e-02
12.750	22.750	2.8602e-02
12.750	23.000	2.9865e-02
12.750	23.250	3.0722e-02
12.750	23.500	3.1261e-02
12.750	23.750	3.1542e-02
12.750	24.000	3.1721e-02
13.000	17.000	1.3580e-05
13.000	17.250	3.2016e-05
13.000	17.500	1.1136e-04
13.000	17.750	1.6979e-04
13.000	18.000	1.8280e-04
13.000	18.250	2.0222e-04
13.000	18.500	2.3465e-04
13.000	18.750	2.8642e-04
13.000	19.000	3.6272e-04
13.000	19.250	4.7021e-04
13.000	19.500	6.1490e-04
13.000	19.750	8.0691e-04
13.000	20.000	1.0583e-03
13.000	20.250	1.3816e-03
13.000	20.500	1.8077e-03
13.000	20.750	2.3619e-03
13.000	21.000	3.0914e-03
13.000	21.250	4.1110e-03
13.000	21.500	5.5747e-03
13.000	21.750	7.9532e-03
13.000	22.000	1.1940e-02
13.000	22.250	1.7304e-02
13.000	22.500	2.2753e-02
13.000	22.750	2.6354e-02
13.000	23.000	2.8653e-02
13.000	23.250	2.9857e-02
13.000	23.500	3.0672e-02
13.000	23.750	3.1201e-02
13.000	24.000	3.1494e-02
13.250	17.000	8.0658e-06
13.250	17.250	1.5309e-05
13.250	17.500	3.7284e-05
13.250	17.750	8.7490e-05
13.250	18.000	1.3811e-04
13.250	18.250	1.8831e-04
13.250	18.500	2.0947e-04
13.250	18.750	2.4379e-04
13.250	19.000	2.9613e-04
13.250	19.250	3.7366e-04
13.250	19.500	4.8016e-04
13.250	19.750	6.2288e-04
13.250	20.000	8.1062e-04
13.250	20.250	1.0565e-03
13.250	20.500	1.3720e-03
13.250	20.750	1.7805e-03
13.250	21.000	2.3182e-03
13.250	21.250	3.0249e-03
13.250	21.500	3.9778e-03
13.250	21.750	5.4719e-03
13.250	22.000	8.0320e-03
13.250	22.250	1.2288e-02
13.250	22.500	1.7616e-02
13.250	22.750	2.2733e-02
13.250	23.000	2.6316e-02
13.250	23.250	2.8638e-02
13.250	23.500	2.9813e-02
13.250	23.750	3.0614e-02
13.250	24.000	3.1128e-02
13.500	17.000	4.8560e-06
13.500	17.250	9.5473e-06
13.500	17.500	2.1399e-05
13.500	17.750	4.7737e-05
13.500	18.000	1.0403e-04
13.500	18.250	1.4905e-04
13.500	18.500	1.9317e-04
13.500	18.750	2.1506e-04
13.500	19.000	2.5029e-04
13.500	19.250	3.0288e-04
13.500	19.500	3.7959e-04
13.500	19.750	4.8379e-04
13.500	20.000	6.2337e-04
13.500	20.250	8.0560e-04
13.500	20.500	1.0423e-03
13.500	20.750	1.3414e-03
13.500	21.000	1.7238e-03
13.500	21.250	2.2179e-03
13.500	21.500	2.8442e-03
13.500	21.750	3.7706e-03
13.500	22.000	5.3034e-03
13.500	22.250	8.0110e-03
13.500	22.500	1.2480e-02
13.500	22.750	1.7685e-02
13.500	23.000	2.2650e-02
13.500	23.250	2.6189e-02
13.500	23.500	2.8545e-02
13.500	23.750	2.9709e-02
13.500	24.000	3.0513e-02
13.750	17.000	2.9630e-06
13.750	17.250	5.9259e-06
13.750	17.500	1.2840e-05
13.750	17.750	2.5432e-05
13.750	18.000	6.0412e-05
13.750	18.250	1.2033e-04
13.750	18.500	1.5498e-04
13.750	18.750	1.9695e-04
13.750	19.000	2.1934e-04
13.750	19.250	2.5465e-04
13.750	19.500	3.0724e-04
13.750	19.750	3.8181e-04
13.750	20.000	4.8337e-04
13.750	20.250	6.1737e-04
13.750	20.500	7.9078e-04
13.750	20.750	1.0104e-03
13.750	21.000	1.2822e-03
13.750	21.250	1.6187e-03
13.750	21.500	2.0333e-03
13.750	21.750	2.5856e-03
13.750	22.000	3.4420e-03
13.750	22.250	5.0264e-03
13.750	22.500	8.0010e-03
13.750	22.750	1.2764e-02
13.750	23.000	1.7680e-02
13.750	23.250	2.2442e-02
13.750	23.500	2.5928e-02
13.750	23.750	2.8328e-02
13.750	24.000	2.9521e-02
14.000	17.000	1.8107e-06
14.000	17.250	3.4568e-06
14.000	17.500	7.7366e-06
14.000	17.750	1.5556e-05
14.000	18.000	3.1605e-05
14.000	18.250	7.2181e-05
14.000	18.500	1.2897e-04
14.000	18.750	1.7235e-04
14.000	19.000	1.9942e-04
14.000	19.250	2.2173e-04
14.000	19.500	2.5663e-04
14.000	19.750	3.0790e-04
14.000	20.000	3.8066e-04
14.000	20.250	4.7728e-04
14.000	20.500	6.0337e-04
14.000	20.750	7.6272e-04
14.000	21.000	9.5770e-04
14.000	21.250	1.1879e-03
14.000	21.500	1.4543e-03
14.000	21.750	1.7802e-03
14.000	22.000	2.2483e-03
14.000	22.250	3.1356e-03
14.000	22.500	4.8854e-03
14.000	22.750	8.1356e-03
14.000	23.000	1.2869e-02
14.000	23.250	1.7669e-02
14.000	23.500	2.2114e-02
14.000	23.750	2.5527e-02
14.000	24.000	2.7921e-02
