nFnu 9500.00A  relative to Inci 1215.00A scaled to 1215A.
Hden   Phi(H)  Eq_Width (A)
 7.000	17.000	5.0151e-02
 7.000	17.250	3.3399e-02
 7.000	17.500	2.2109e-02
 7.000	17.750	1.5452e-02
 7.000	18.000	1.2105e-02
 7.000	18.250	1.0405e-02
 7.000	18.500	9.4537e-03
 7.000	18.750	9.0543e-03
 7.000	19.000	8.8534e-03
 7.000	19.250	8.7415e-03
 7.000	19.500	8.6983e-03
 7.000	19.750	8.6812e-03
 7.000	20.000	8.6739e-03
 7.000	20.250	8.6705e-03
 7.000	20.500	8.6690e-03
 7.000	20.750	8.6681e-03
 7.000	21.000	8.6677e-03
 7.000	21.250	8.6674e-03
 7.000	21.500	8.6673e-03
 7.000	21.750	8.6673e-03
 7.000	22.000	8.6674e-03
 7.000	22.250	8.6674e-03
 7.000	22.500	8.6675e-03
 7.000	22.750	8.6676e-03
 7.000	23.000	8.6676e-03
 7.000	23.250	8.6675e-03
 7.000	23.500	8.6675e-03
 7.000	23.750	8.6675e-03
 7.000	24.000	8.6675e-03
 7.250	17.000	5.4317e-02
 7.250	17.250	5.0312e-02
 7.250	17.500	3.3373e-02
 7.250	17.750	2.2093e-02
 7.250	18.000	1.5443e-02
 7.250	18.250	1.2102e-02
 7.250	18.500	1.0404e-02
 7.250	18.750	9.4537e-03
 7.250	19.000	9.0542e-03
 7.250	19.250	8.8534e-03
 7.250	19.500	8.7415e-03
 7.250	19.750	8.6983e-03
 7.250	20.000	8.6812e-03
 7.250	20.250	8.6739e-03
 7.250	20.500	8.6705e-03
 7.250	20.750	8.6689e-03
 7.250	21.000	8.6681e-03
 7.250	21.250	8.6676e-03
 7.250	21.500	8.6673e-03
 7.250	21.750	8.6672e-03
 7.250	22.000	8.6672e-03
 7.250	22.250	8.6672e-03
 7.250	22.500	8.6672e-03
 7.250	22.750	8.6672e-03
 7.250	23.000	8.6672e-03
 7.250	23.250	8.6673e-03
 7.250	23.500	8.6673e-03
 7.250	23.750	8.6673e-03
 7.250	24.000	8.6673e-03
 7.500	17.000	5.8186e-02
 7.500	17.250	5.5048e-02
 7.500	17.500	5.0424e-02
 7.500	17.750	3.3351e-02
 7.500	18.000	2.2078e-02
 7.500	18.250	1.5434e-02
 7.500	18.500	1.2099e-02
 7.500	18.750	1.0404e-02
 7.500	19.000	9.4535e-03
 7.500	19.250	9.0542e-03
 7.500	19.500	8.8534e-03
 7.500	19.750	8.7415e-03
 7.500	20.000	8.6983e-03
 7.500	20.250	8.6812e-03
 7.500	20.500	8.6739e-03
 7.500	20.750	8.6705e-03
 7.500	21.000	8.6689e-03
 7.500	21.250	8.6681e-03
 7.500	21.500	8.6676e-03
 7.500	21.750	8.6673e-03
 7.500	22.000	8.6672e-03
 7.500	22.250	8.6672e-03
 7.500	22.500	8.6671e-03
 7.500	22.750	8.6671e-03
 7.500	23.000	8.6671e-03
 7.500	23.250	8.6671e-03
 7.500	23.500	8.6676e-03
 7.500	23.750	8.6671e-03
 7.500	24.000	8.6671e-03
 7.750	17.000	5.9640e-02
 7.750	17.250	5.9452e-02
 7.750	17.500	5.5661e-02
 7.750	17.750	5.0506e-02
 7.750	18.000	3.3335e-02
 7.750	18.250	2.2065e-02
 7.750	18.500	1.5423e-02
 7.750	18.750	1.2096e-02
 7.750	19.000	1.0404e-02
 7.750	19.250	9.4534e-03
 7.750	19.500	9.0542e-03
 7.750	19.750	8.8534e-03
 7.750	20.000	8.7415e-03
 7.750	20.250	8.6983e-03
 7.750	20.500	8.6812e-03
 7.750	20.750	8.6739e-03
 7.750	21.000	8.6705e-03
 7.750	21.250	8.6689e-03
 7.750	21.500	8.6681e-03
 7.750	21.750	8.6676e-03
 7.750	22.000	8.6673e-03
 7.750	22.250	8.6672e-03
 7.750	22.500	8.6671e-03
 7.750	22.750	8.6671e-03
 7.750	23.000	8.6671e-03
 7.750	23.250	8.6671e-03
 7.750	23.500	8.6670e-03
 7.750	23.750	8.6671e-03
 7.750	24.000	8.6670e-03
 8.000	17.000	5.9332e-02
 8.000	17.250	6.0467e-02
 8.000	17.500	6.0322e-02
 8.000	17.750	5.5838e-02
 8.000	18.000	5.0264e-02
 8.000	18.250	3.3308e-02
 8.000	18.500	2.2052e-02
 8.000	18.750	1.5412e-02
 8.000	19.000	1.2091e-02
 8.000	19.250	1.0403e-02
 8.000	19.500	9.4533e-03
 8.000	19.750	9.0542e-03
 8.000	20.000	8.8534e-03
 8.000	20.250	8.7415e-03
 8.000	20.500	8.6983e-03
 8.000	20.750	8.6812e-03
 8.000	21.000	8.6739e-03
 8.000	21.250	8.6705e-03
 8.000	21.500	8.6689e-03
 8.000	21.750	8.6681e-03
 8.000	22.000	8.6676e-03
 8.000	22.250	8.6673e-03
 8.000	22.500	8.6672e-03
 8.000	22.750	8.6672e-03
 8.000	23.000	8.6671e-03
 8.000	23.250	8.6672e-03
 8.000	23.500	8.6670e-03
 8.000	23.750	8.6670e-03
 8.000	24.000	8.6670e-03
 8.250	17.000	5.9985e-02
 8.250	17.250	6.0715e-02
 8.250	17.500	6.2230e-02
 8.250	17.750	6.2028e-02
 8.250	18.000	5.6877e-02
 8.250	18.250	5.0391e-02
 8.250	18.500	3.3303e-02
 8.250	18.750	2.2039e-02
 8.250	19.000	1.5398e-02
 8.250	19.250	1.2086e-02
 8.250	19.500	1.0402e-02
 8.250	19.750	9.4531e-03
 8.250	20.000	9.0542e-03
 8.250	20.250	8.8534e-03
 8.250	20.500	8.7415e-03
 8.250	20.750	8.6983e-03
 8.250	21.000	8.6812e-03
 8.250	21.250	8.6739e-03
 8.250	21.500	8.6705e-03
 8.250	21.750	8.6689e-03
 8.250	22.000	8.6681e-03
 8.250	22.250	8.6676e-03
 8.250	22.500	8.6673e-03
 8.250	22.750	8.6672e-03
 8.250	23.000	8.6671e-03
 8.250	23.250	8.6671e-03
 8.250	23.500	8.6670e-03
 8.250	23.750	8.6670e-03
 8.250	24.000	8.6670e-03
 8.500	17.000	6.1135e-02
 8.500	17.250	6.1413e-02
 8.500	17.500	6.2654e-02
 8.500	17.750	6.4943e-02
 8.500	18.000	6.5072e-02
 8.500	18.250	5.8546e-02
 8.500	18.500	5.0663e-02
 8.500	18.750	3.3301e-02
 8.500	19.000	2.2025e-02
 8.500	19.250	1.5382e-02
 8.500	19.500	1.2080e-02
 8.500	19.750	1.0402e-02
 8.500	20.000	9.4529e-03
 8.500	20.250	9.0542e-03
 8.500	20.500	8.8534e-03
 8.500	20.750	8.7415e-03
 8.500	21.000	8.6983e-03
 8.500	21.250	8.6812e-03
 8.500	21.500	8.6739e-03
 8.500	21.750	8.6705e-03
 8.500	22.000	8.6689e-03
 8.500	22.250	8.6680e-03
 8.500	22.500	8.6676e-03
 8.500	22.750	8.6673e-03
 8.500	23.000	8.6672e-03
 8.500	23.250	8.6672e-03
 8.500	23.500	8.6671e-03
 8.500	23.750	8.6670e-03
 8.500	24.000	8.6670e-03
 8.750	17.000	6.2484e-02
 8.750	17.250	6.2670e-02
 8.750	17.500	6.3617e-02
 8.750	17.750	6.6094e-02
 8.750	18.000	6.9908e-02
 8.750	18.250	7.0241e-02
 8.750	18.500	6.1972e-02
 8.750	18.750	5.0791e-02
 8.750	19.000	3.3301e-02
 8.750	19.250	2.2011e-02
 8.750	19.500	1.5365e-02
 8.750	19.750	1.2073e-02
 8.750	20.000	1.0401e-02
 8.750	20.250	9.4528e-03
 8.750	20.500	9.0542e-03
 8.750	20.750	8.8534e-03
 8.750	21.000	8.7415e-03
 8.750	21.250	8.6983e-03
 8.750	21.500	8.6812e-03
 8.750	21.750	8.6739e-03
 8.750	22.000	8.6705e-03
 8.750	22.250	8.6689e-03
 8.750	22.500	8.6681e-03
 8.750	22.750	8.6676e-03
 8.750	23.000	8.6673e-03
 8.750	23.250	8.6672e-03
 8.750	23.500	8.6672e-03
 8.750	23.750	8.6671e-03
 8.750	24.000	8.6670e-03
 9.000	17.000	6.3862e-02
 9.000	17.250	6.4169e-02
 9.000	17.500	6.5264e-02
 9.000	17.750	6.7736e-02
 9.000	18.000	7.2682e-02
 9.000	18.250	7.9030e-02
 9.000	18.500	7.8165e-02
 9.000	18.750	6.5212e-02
 9.000	19.000	5.0817e-02
 9.000	19.250	3.3300e-02
 9.000	19.500	2.1999e-02
 9.000	19.750	1.5348e-02
 9.000	20.000	1.2067e-02
 9.000	20.250	1.0400e-02
 9.000	20.500	9.4525e-03
 9.000	20.750	9.0542e-03
 9.000	21.000	8.8534e-03
 9.000	21.250	8.7415e-03
 9.000	21.500	8.6983e-03
 9.000	21.750	8.6812e-03
 9.000	22.000	8.6738e-03
 9.000	22.250	8.6705e-03
 9.000	22.500	8.6689e-03
 9.000	22.750	8.6680e-03
 9.000	23.000	8.6676e-03
 9.000	23.250	8.6673e-03
 9.000	23.500	8.6672e-03
 9.000	23.750	8.6671e-03
 9.000	24.000	8.6671e-03
 9.250	17.000	6.5258e-02
 9.250	17.250	6.5743e-02
 9.250	17.500	6.7317e-02
 9.250	17.750	7.0531e-02
 9.250	18.000	7.6623e-02
 9.250	18.250	8.5572e-02
 9.250	18.500	9.2772e-02
 9.250	18.750	8.8190e-02
 9.250	19.000	7.1280e-02
 9.250	19.250	5.0872e-02
 9.250	19.500	3.3295e-02
 9.250	19.750	2.1990e-02
 9.250	20.000	1.5331e-02
 9.250	20.250	1.2060e-02
 9.250	20.500	1.0399e-02
 9.250	20.750	9.4523e-03
 9.250	21.000	9.0542e-03
 9.250	21.250	8.8534e-03
 9.250	21.500	8.7398e-03
 9.250	21.750	8.6957e-03
 9.250	22.000	8.6784e-03
 9.250	22.250	8.6714e-03
 9.250	22.500	8.6705e-03
 9.250	22.750	8.6688e-03
 9.250	23.000	8.6680e-03
 9.250	23.250	8.6675e-03
 9.250	23.500	8.6672e-03
 9.250	23.750	8.6672e-03
 9.250	24.000	8.6671e-03
 9.500	17.000	6.6886e-02
 9.500	17.250	6.7547e-02
 9.500	17.500	6.9680e-02
 9.500	17.750	7.4099e-02
 9.500	18.000	8.2260e-02
 9.500	18.250	9.3502e-02
 9.500	18.500	1.0458e-01
 9.500	18.750	1.0912e-01
 9.500	19.000	9.7276e-02
 9.500	19.250	7.6590e-02
 9.500	19.500	5.0939e-02
 9.500	19.750	3.3284e-02
 9.500	20.000	2.1985e-02
 9.500	20.250	1.5317e-02
 9.500	20.500	1.2054e-02
 9.500	20.750	1.0398e-02
 9.500	21.000	9.4500e-03
 9.500	21.250	9.0515e-03
 9.500	21.500	8.8507e-03
 9.500	21.750	8.7381e-03
 9.500	22.000	8.6937e-03
 9.500	22.250	8.6766e-03
 9.500	22.500	8.6693e-03
 9.500	22.750	8.6658e-03
 9.500	23.000	8.6642e-03
 9.500	23.250	8.6634e-03
 9.500	23.500	8.6640e-03
 9.500	23.750	8.6639e-03
 9.500	24.000	8.6636e-03
 9.750	17.000	6.8727e-02
 9.750	17.250	6.9504e-02
 9.750	17.500	7.2278e-02
 9.750	17.750	7.8274e-02
 9.750	18.000	8.9232e-02
 9.750	18.250	1.0387e-01
 9.750	18.500	1.1741e-01
 9.750	18.750	1.2643e-01
 9.750	19.000	1.2563e-01
 9.750	19.250	1.0806e-01
 9.750	19.500	8.2562e-02
 9.750	19.750	5.0946e-02
 9.750	20.000	3.3261e-02
 9.750	20.250	2.1985e-02
 9.750	20.500	1.5306e-02
 9.750	20.750	1.2049e-02
 9.750	21.000	1.0397e-02
 9.750	21.250	9.4510e-03
 9.750	21.500	9.0519e-03
 9.750	21.750	8.8508e-03
 9.750	22.000	8.7385e-03
 9.750	22.250	8.6943e-03
 9.750	22.500	8.6764e-03
 9.750	22.750	8.6694e-03
 9.750	23.000	8.6661e-03
 9.750	23.250	8.6644e-03
 9.750	23.500	8.6635e-03
 9.750	23.750	8.6629e-03
 9.750	24.000	8.6626e-03
10.000	17.000	7.0837e-02
10.000	17.250	7.1952e-02
10.000	17.500	7.5492e-02
10.000	17.750	8.3472e-02
10.000	18.000	9.8139e-02
10.000	18.250	1.1620e-01
10.000	18.500	1.3195e-01
10.000	18.750	1.4311e-01
10.000	19.000	1.4915e-01
10.000	19.250	1.4183e-01
10.000	19.500	1.2018e-01
10.000	19.750	8.2348e-02
10.000	20.000	5.0844e-02
10.000	20.250	3.3244e-02
10.000	20.500	2.1987e-02
10.000	20.750	1.5298e-02
10.000	21.000	1.2045e-02
10.000	21.250	1.0396e-02
10.000	21.500	9.4512e-03
10.000	21.750	9.0532e-03
10.000	22.000	8.8509e-03
10.000	22.250	8.7388e-03
10.000	22.500	8.6949e-03
10.000	22.750	8.6769e-03
10.000	23.000	8.6691e-03
10.000	23.250	8.6659e-03
10.000	23.500	8.6644e-03
10.000	23.750	8.6635e-03
10.000	24.000	8.6630e-03
10.250	17.000	7.4242e-02
10.250	17.250	7.5045e-02
10.250	17.500	7.9823e-02
10.250	17.750	9.0365e-02
10.250	18.000	1.0857e-01
10.250	18.250	1.2967e-01
10.250	18.500	1.4697e-01
10.250	18.750	1.5997e-01
10.250	19.000	1.6794e-01
10.250	19.250	1.6884e-01
10.250	19.500	1.5698e-01
10.250	19.750	1.2882e-01
10.250	20.000	8.2374e-02
10.250	20.250	5.0668e-02
10.250	20.500	3.3190e-02
10.250	20.750	2.1988e-02
10.250	21.000	1.5292e-02
10.250	21.250	1.2041e-02
10.250	21.500	1.0395e-02
10.250	21.750	9.4509e-03
10.250	22.000	9.0537e-03
10.250	22.250	8.8519e-03
10.250	22.500	8.7388e-03
10.250	22.750	8.6953e-03
10.250	23.000	8.6775e-03
10.250	23.250	8.6696e-03
10.250	23.500	8.6660e-03
10.250	23.750	8.6641e-03
10.250	24.000	8.6633e-03
10.500	17.000	7.9514e-02
10.500	17.250	7.9959e-02
10.500	17.500	8.5885e-02
10.500	17.750	9.9820e-02
10.500	18.000	1.2101e-01
10.500	18.250	1.4409e-01
10.500	18.500	1.6204e-01
10.500	18.750	1.7592e-01
10.500	19.000	1.8498e-01
10.500	19.250	1.8900e-01
10.500	19.500	1.8535e-01
10.500	19.750	1.7038e-01
10.500	20.000	1.3626e-01
10.500	20.250	8.1908e-02
10.500	20.500	5.0356e-02
10.500	20.750	3.3116e-02
10.500	21.000	2.1979e-02
10.500	21.250	1.5288e-02
10.500	21.500	1.2040e-02
10.500	21.750	1.0395e-02
10.500	22.000	9.4506e-03
10.500	22.250	9.0538e-03
10.500	22.500	8.8529e-03
10.500	22.750	8.7389e-03
10.500	23.000	8.6956e-03
10.500	23.250	8.6779e-03
10.500	23.500	8.6703e-03
10.500	23.750	8.6667e-03
10.500	24.000	8.6648e-03
10.750	17.000	8.7188e-02
10.750	17.250	8.7153e-02
10.750	17.500	9.4876e-02
10.750	17.750	1.1185e-01
10.750	18.000	1.3539e-01
10.750	18.250	1.5860e-01
10.750	18.500	1.7695e-01
10.750	18.750	1.9131e-01
10.750	19.000	2.0134e-01
10.750	19.250	2.0688e-01
10.750	19.500	2.0796e-01
10.750	19.750	2.0214e-01
10.750	20.000	1.8495e-01
10.750	20.250	1.4072e-01
10.750	20.500	8.1463e-02
10.750	20.750	5.0100e-02
10.750	21.000	3.3070e-02
10.750	21.250	2.1949e-02
10.750	21.500	1.5286e-02
10.750	21.750	1.2039e-02
10.750	22.000	1.0395e-02
10.750	22.250	9.4501e-03
10.750	22.500	9.0538e-03
10.750	22.750	8.8533e-03
10.750	23.000	8.7393e-03
10.750	23.250	8.6957e-03
10.750	23.500	8.6783e-03
10.750	23.750	8.6708e-03
10.750	24.000	8.6672e-03
11.000	17.000	9.7836e-02
11.000	17.250	9.6879e-02
11.000	17.500	1.0639e-01
11.000	17.750	1.2613e-01
11.000	18.000	1.5073e-01
11.000	18.250	1.7342e-01
11.000	18.500	1.9194e-01
11.000	18.750	2.0732e-01
11.000	19.000	2.1775e-01
11.000	19.250	2.2355e-01
11.000	19.500	2.2673e-01
11.000	19.750	2.2645e-01
11.000	20.000	2.1908e-01
11.000	20.250	1.9945e-01
11.000	20.500	1.3982e-01
11.000	20.750	8.1061e-02
11.000	21.000	4.9821e-02
11.000	21.250	3.3091e-02
11.000	21.500	2.1896e-02
11.000	21.750	1.5280e-02
11.000	22.000	1.2040e-02
11.000	22.250	1.0395e-02
11.000	22.500	9.4495e-03
11.000	22.750	9.0536e-03
11.000	23.000	8.8533e-03
11.000	23.250	8.7406e-03
11.000	23.500	8.6957e-03
11.000	23.750	8.6784e-03
11.000	24.000	8.6710e-03
11.250	17.000	1.1222e-01
11.250	17.250	1.0931e-01
11.250	17.500	1.1975e-01
11.250	17.750	1.4152e-01
11.250	18.000	1.6672e-01
11.250	18.250	1.8860e-01
11.250	18.500	2.0631e-01
11.250	18.750	2.2141e-01
11.250	19.000	2.3214e-01
11.250	19.250	2.3962e-01
11.250	19.500	2.4341e-01
11.250	19.750	2.4525e-01
11.250	20.000	2.4356e-01
11.250	20.250	2.3551e-01
11.250	20.500	2.1395e-01
11.250	20.750	1.3980e-01
11.250	21.000	8.0703e-02
11.250	21.250	4.9809e-02
11.250	21.500	3.3338e-02
11.250	21.750	2.1800e-02
11.250	22.000	1.5267e-02
11.250	22.250	1.2040e-02
11.250	22.500	1.0394e-02
11.250	22.750	9.4486e-03
11.250	23.000	9.0533e-03
11.250	23.250	8.8533e-03
11.250	23.500	8.7412e-03
11.250	23.750	8.6961e-03
11.250	24.000	8.6785e-03
11.500	17.000	1.3189e-01
11.500	17.250	1.2567e-01
11.500	17.500	1.3528e-01
11.500	17.750	1.5755e-01
11.500	18.000	1.8274e-01
11.500	18.250	2.0394e-01
11.500	18.500	2.2061e-01
11.500	18.750	2.3539e-01
11.500	19.000	2.4590e-01
11.500	19.250	2.5382e-01
11.500	19.500	2.5850e-01
11.500	19.750	2.6118e-01
11.500	20.000	2.6227e-01
11.500	20.250	2.6057e-01
11.500	20.500	2.5204e-01
11.500	20.750	2.2559e-01
11.500	21.000	1.3920e-01
11.500	21.250	8.0357e-02
11.500	21.500	5.0244e-02
11.500	21.750	3.3662e-02
11.500	22.000	2.1673e-02
11.500	22.250	1.5245e-02
11.500	22.500	1.2040e-02
11.500	22.750	1.0393e-02
11.500	23.000	9.4472e-03
11.500	23.250	9.0527e-03
11.500	23.500	8.8530e-03
11.500	23.750	8.7412e-03
11.500	24.000	8.6973e-03
11.750	17.000	1.5897e-01
11.750	17.250	1.4719e-01
11.750	17.500	1.5383e-01
11.750	17.750	1.7456e-01
11.750	18.000	1.9868e-01
11.750	18.250	2.1889e-01
11.750	18.500	2.3511e-01
11.750	18.750	2.4868e-01
11.750	19.000	2.6013e-01
11.750	19.250	2.6773e-01
11.750	19.500	2.7319e-01
11.750	19.750	2.7619e-01
11.750	20.000	2.7759e-01
11.750	20.250	2.7836e-01
11.750	20.500	2.7739e-01
11.750	20.750	2.6851e-01
11.750	21.000	2.3809e-01
11.750	21.250	1.3870e-01
11.750	21.500	8.0693e-02
11.750	21.750	5.1204e-02
11.750	22.000	3.3556e-02
11.750	22.250	2.1528e-02
11.750	22.500	1.5208e-02
11.750	22.750	1.2037e-02
11.750	23.000	1.0390e-02
11.750	23.250	9.4453e-03
11.750	23.500	9.0518e-03
11.750	23.750	8.8527e-03
11.750	24.000	8.7412e-03
12.000	17.000	1.9251e-01
12.000	17.250	1.7495e-01
12.000	17.500	1.7637e-01
12.000	17.750	1.9290e-01
12.000	18.000	2.1422e-01
12.000	18.250	2.3334e-01
12.000	18.500	2.5003e-01
12.000	18.750	2.6408e-01
12.000	19.000	2.7503e-01
12.000	19.250	2.8261e-01
12.000	19.500	2.8723e-01
12.000	19.750	2.8974e-01
12.000	20.000	2.9095e-01
12.000	20.250	2.9221e-01
12.000	20.500	2.9356e-01
12.000	20.750	2.9385e-01
12.000	21.000	2.8491e-01
12.000	21.250	2.3528e-01
12.000	21.500	1.3883e-01
12.000	21.750	8.1117e-02
12.000	22.000	5.2274e-02
12.000	22.250	3.3061e-02
12.000	22.500	2.1347e-02
12.000	22.750	1.5155e-02
12.000	23.000	1.2031e-02
12.000	23.250	1.0386e-02
12.000	23.500	9.4423e-03
12.000	23.750	9.0503e-03
12.000	24.000	8.8521e-03
12.250	17.000	2.3553e-01
12.250	17.250	2.0957e-01
12.250	17.500	2.0265e-01
12.250	17.750	2.1213e-01
12.250	18.000	2.2976e-01
12.250	18.250	2.4886e-01
12.250	18.500	2.6639e-01
12.250	18.750	2.8082e-01
12.250	19.000	2.9115e-01
12.250	19.250	2.9800e-01
12.250	19.500	3.0148e-01
12.250	19.750	3.0302e-01
12.250	20.000	3.0350e-01
12.250	20.250	3.0408e-01
12.250	20.500	3.0518e-01
12.250	20.750	3.0819e-01
12.250	21.000	3.1075e-01
12.250	21.250	3.0066e-01
12.250	21.500	2.3786e-01
12.250	21.750	1.3808e-01
12.250	22.000	8.1970e-02
12.250	22.250	5.3158e-02
12.250	22.500	3.2559e-02
12.250	22.750	2.1136e-02
12.250	23.000	1.5086e-02
12.250	23.250	1.2016e-02
12.250	23.500	1.0378e-02
12.250	23.750	9.4379e-03
12.250	24.000	9.0480e-03
12.500	17.000	2.5793e-01
12.500	17.250	2.5199e-01
12.500	17.500	2.3491e-01
12.500	17.750	2.3458e-01
12.500	18.000	2.4655e-01
12.500	18.250	2.6444e-01
12.500	18.500	2.8301e-01
12.500	18.750	2.9833e-01
12.500	19.000	3.0840e-01
12.500	19.250	3.1378e-01
12.500	19.500	3.1619e-01
12.500	19.750	3.1659e-01
12.500	20.000	3.1589e-01
12.500	20.250	3.1546e-01
12.500	20.500	3.1512e-01
12.500	20.750	3.1801e-01
12.500	21.000	3.2405e-01
12.500	21.250	3.2895e-01
12.500	21.500	3.1179e-01
12.500	21.750	2.3363e-01
12.500	22.000	1.3687e-01
12.500	22.250	8.3014e-02
12.500	22.500	5.3107e-02
12.500	22.750	3.1998e-02
12.500	23.000	2.0878e-02
12.500	23.250	1.4998e-02
12.500	23.500	1.1987e-02
12.500	23.750	1.0363e-02
12.500	24.000	9.4310e-03
12.750	17.000	2.3780e-01
12.750	17.250	2.7646e-01
12.750	17.500	2.6957e-01
12.750	17.750	2.6223e-01
12.750	18.000	2.6807e-01
12.750	18.250	2.8351e-01
12.750	18.500	3.0028e-01
12.750	18.750	3.1559e-01
12.750	19.000	3.2570e-01
12.750	19.250	3.3102e-01
12.750	19.500	3.3119e-01
12.750	19.750	3.2980e-01
12.750	20.000	3.2742e-01
12.750	20.250	3.2616e-01
12.750	20.500	3.2491e-01
12.750	20.750	3.2555e-01
12.750	21.000	3.3155e-01
12.750	21.250	3.4102e-01
12.750	21.500	3.4140e-01
12.750	21.750	3.2247e-01
12.750	22.000	2.2758e-01
12.750	22.250	1.3518e-01
12.750	22.500	8.3998e-02
12.750	22.750	5.2169e-02
12.750	23.000	3.1413e-02
12.750	23.250	2.0576e-02
12.750	23.500	1.4870e-02
12.750	23.750	1.1935e-02
12.750	24.000	1.0337e-02
13.000	17.000	1.3449e-01
13.000	17.250	1.7232e-01
13.000	17.500	2.5555e-01
13.000	17.750	2.9058e-01
13.000	18.000	2.9692e-01
13.000	18.250	3.0796e-01
13.000	18.500	3.2097e-01
13.000	18.750	3.3379e-01
13.000	19.000	3.4292e-01
13.000	19.250	3.4724e-01
13.000	19.500	3.4618e-01
13.000	19.750	3.4321e-01
13.000	20.000	3.3966e-01
13.000	20.250	3.3617e-01
13.000	20.500	3.3504e-01
13.000	20.750	3.3571e-01
13.000	21.000	3.3946e-01
13.000	21.250	3.4907e-01
13.000	21.500	3.5634e-01
13.000	21.750	3.5859e-01
13.000	22.000	3.2436e-01
13.000	22.250	2.1885e-01
13.000	22.500	1.3283e-01
13.000	22.750	8.3433e-02
13.000	23.000	5.0742e-02
13.000	23.250	3.0671e-02
13.000	23.500	2.0188e-02
13.000	23.750	1.4706e-02
13.000	24.000	1.1851e-02
13.250	17.000	1.3366e-01
13.250	17.250	1.5290e-01
13.250	17.500	1.9822e-01
13.250	17.750	2.6398e-01
13.250	18.000	3.0747e-01
13.250	18.250	3.3928e-01
13.250	18.500	3.4773e-01
13.250	18.750	3.5584e-01
13.250	19.000	3.6116e-01
13.250	19.250	3.6406e-01
13.250	19.500	3.6188e-01
13.250	19.750	3.5770e-01
13.250	20.000	3.5248e-01
13.250	20.250	3.4746e-01
13.250	20.500	3.4391e-01
13.250	20.750	3.4373e-01
13.250	21.000	3.4704e-01
13.250	21.250	3.5412e-01
13.250	21.500	3.5855e-01
13.250	21.750	3.7173e-01
13.250	22.000	3.7036e-01
13.250	22.250	3.1650e-01
13.250	22.500	2.0631e-01
13.250	22.750	1.2664e-01
13.250	23.000	7.9452e-02
13.250	23.250	4.8849e-02
13.250	23.500	2.9813e-02
13.250	23.750	1.9764e-02
13.250	24.000	1.4507e-02
13.500	17.000	1.3304e-01
13.500	17.250	1.5407e-01
13.500	17.500	1.9236e-01
13.500	17.750	2.4604e-01
13.500	18.000	3.2110e-01
13.500	18.250	3.5807e-01
13.500	18.500	3.8118e-01
13.500	18.750	3.8319e-01
13.500	19.000	3.8473e-01
13.500	19.250	3.8266e-01
13.500	19.500	3.7912e-01
13.500	19.750	3.7255e-01
13.500	20.000	3.6597e-01
13.500	20.250	3.6011e-01
13.500	20.500	3.5481e-01
13.500	20.750	3.5162e-01
13.500	21.000	3.5167e-01
13.500	21.250	3.5746e-01
13.500	21.500	3.6013e-01
13.500	21.750	3.7522e-01
13.500	22.000	3.8998e-01
13.500	22.250	3.7033e-01
13.500	22.500	2.9533e-01
13.500	22.750	1.8980e-01
13.500	23.000	1.1727e-01
13.500	23.250	7.4904e-02
13.500	23.500	4.6592e-02
13.500	23.750	2.8760e-02
13.500	24.000	1.9235e-02
13.750	17.000	1.3382e-01
13.750	17.250	1.5520e-01
13.750	17.500	1.9067e-01
13.750	17.750	2.3138e-01
13.750	18.000	3.0615e-01
13.750	18.250	3.8059e-01
13.750	18.500	4.0171e-01
13.750	18.750	4.1865e-01
13.750	19.000	4.1393e-01
13.750	19.250	4.0857e-01
13.750	19.500	4.0092e-01
13.750	19.750	3.9209e-01
13.750	20.000	3.8298e-01
13.750	20.250	3.7489e-01
13.750	20.500	3.6827e-01
13.750	20.750	3.6306e-01
13.750	21.000	3.6008e-01
13.750	21.250	3.6114e-01
13.750	21.500	3.6360e-01
13.750	21.750	3.7664e-01
13.750	22.000	3.9242e-01
13.750	22.250	3.9286e-01
13.750	22.500	3.4812e-01
13.750	22.750	2.6763e-01
13.750	23.000	1.6960e-01
13.750	23.250	1.0710e-01
13.750	23.500	6.9159e-02
13.750	23.750	4.3881e-02
13.750	24.000	2.7467e-02
14.000	17.000	1.3449e-01
14.000	17.250	1.5302e-01
14.000	17.500	1.8982e-01
14.000	17.750	2.2979e-01
14.000	18.000	2.8496e-01
14.000	18.250	3.6598e-01
14.000	18.500	4.2877e-01
14.000	18.750	4.5087e-01
14.000	19.000	4.4988e-01
14.000	19.250	4.3930e-01
14.000	19.500	4.2828e-01
14.000	19.750	4.1635e-01
14.000	20.000	4.0517e-01
14.000	20.250	3.9396e-01
14.000	20.500	3.8513e-01
14.000	20.750	3.7836e-01
14.000	21.000	3.7388e-01
14.000	21.250	3.7297e-01
14.000	21.500	3.7193e-01
14.000	21.750	3.8380e-01
14.000	22.000	4.0059e-01
14.000	22.250	4.0302e-01
14.000	22.500	3.6685e-01
14.000	22.750	2.9598e-01
14.000	23.000	2.3387e-01
14.000	23.250	1.4981e-01
14.000	23.500	9.6599e-02
14.000	23.750	6.3657e-02
14.000	24.000	4.0668e-02
