InwC 4885.36A  relative to Inci 1215.00A scaled to 1215A.
Hden   Phi(H)  Eq_Width (A)
 7.000	17.000	2.3081e-02
 7.000	17.250	2.4131e-02
 7.000	17.500	2.4744e-02
 7.000	17.750	2.4755e-02
 7.000	18.000	2.4767e-02
 7.000	18.250	2.4780e-02
 7.000	18.500	2.4787e-02
 7.000	18.750	2.4790e-02
 7.000	19.000	2.4793e-02
 7.000	19.250	2.4795e-02
 7.000	19.500	2.4796e-02
 7.000	19.750	2.4796e-02
 7.000	20.000	2.4797e-02
 7.000	20.250	2.4797e-02
 7.000	20.500	2.4797e-02
 7.000	20.750	2.4797e-02
 7.000	21.000	2.4797e-02
 7.000	21.250	2.4797e-02
 7.000	21.500	2.4797e-02
 7.000	21.750	2.4797e-02
 7.000	22.000	2.4798e-02
 7.000	22.250	2.4798e-02
 7.000	22.500	2.4798e-02
 7.000	22.750	2.4798e-02
 7.000	23.000	2.4798e-02
 7.000	23.250	2.4798e-02
 7.000	23.500	2.4798e-02
 7.000	23.750	2.4798e-02
 7.000	24.000	2.4798e-02
 7.250	17.000	1.7182e-02
 7.250	17.250	2.3164e-02
 7.250	17.500	2.4136e-02
 7.250	17.750	2.4744e-02
 7.250	18.000	2.4755e-02
 7.250	18.250	2.4766e-02
 7.250	18.500	2.4780e-02
 7.250	18.750	2.4787e-02
 7.250	19.000	2.4790e-02
 7.250	19.250	2.4793e-02
 7.250	19.500	2.4795e-02
 7.250	19.750	2.4796e-02
 7.250	20.000	2.4796e-02
 7.250	20.250	2.4797e-02
 7.250	20.500	2.4797e-02
 7.250	20.750	2.4797e-02
 7.250	21.000	2.4797e-02
 7.250	21.250	2.4797e-02
 7.250	21.500	2.4797e-02
 7.250	21.750	2.4797e-02
 7.250	22.000	2.4797e-02
 7.250	22.250	2.4797e-02
 7.250	22.500	2.4797e-02
 7.250	22.750	2.4797e-02
 7.250	23.000	2.4797e-02
 7.250	23.250	2.4798e-02
 7.250	23.500	2.4798e-02
 7.250	23.750	2.4798e-02
 7.250	24.000	2.4798e-02
 7.500	17.000	1.2657e-02
 7.500	17.250	1.7401e-02
 7.500	17.500	2.3226e-02
 7.500	17.750	2.4140e-02
 7.500	18.000	2.4744e-02
 7.500	18.250	2.4755e-02
 7.500	18.500	2.4767e-02
 7.500	18.750	2.4780e-02
 7.500	19.000	2.4787e-02
 7.500	19.250	2.4790e-02
 7.500	19.500	2.4793e-02
 7.500	19.750	2.4795e-02
 7.500	20.000	2.4796e-02
 7.500	20.250	2.4796e-02
 7.500	20.500	2.4797e-02
 7.500	20.750	2.4797e-02
 7.500	21.000	2.4797e-02
 7.500	21.250	2.4797e-02
 7.500	21.500	2.4797e-02
 7.500	21.750	2.4797e-02
 7.500	22.000	2.4797e-02
 7.500	22.250	2.4797e-02
 7.500	22.500	2.4797e-02
 7.500	22.750	2.4797e-02
 7.500	23.000	2.4797e-02
 7.500	23.250	2.4797e-02
 7.500	23.500	2.4798e-02
 7.500	23.750	2.4797e-02
 7.500	24.000	2.4797e-02
 7.750	17.000	8.9035e-03
 7.750	17.250	1.2919e-02
 7.750	17.500	1.7578e-02
 7.750	17.750	2.3273e-02
 7.750	18.000	2.4144e-02
 7.750	18.250	2.4744e-02
 7.750	18.500	2.4755e-02
 7.750	18.750	2.4767e-02
 7.750	19.000	2.4780e-02
 7.750	19.250	2.4787e-02
 7.750	19.500	2.4790e-02
 7.750	19.750	2.4793e-02
 7.750	20.000	2.4795e-02
 7.750	20.250	2.4796e-02
 7.750	20.500	2.4796e-02
 7.750	20.750	2.4797e-02
 7.750	21.000	2.4797e-02
 7.750	21.250	2.4797e-02
 7.750	21.500	2.4797e-02
 7.750	21.750	2.4797e-02
 7.750	22.000	2.4797e-02
 7.750	22.250	2.4797e-02
 7.750	22.500	2.4797e-02
 7.750	22.750	2.4797e-02
 7.750	23.000	2.4797e-02
 7.750	23.250	2.4797e-02
 7.750	23.500	2.4797e-02
 7.750	23.750	2.4797e-02
 7.750	24.000	2.4797e-02
 8.000	17.000	6.0878e-03
 8.000	17.250	9.0677e-03
 8.000	17.500	1.3132e-02
 8.000	17.750	1.7660e-02
 8.000	18.000	2.3212e-02
 8.000	18.250	2.4143e-02
 8.000	18.500	2.4744e-02
 8.000	18.750	2.4755e-02
 8.000	19.000	2.4767e-02
 8.000	19.250	2.4780e-02
 8.000	19.500	2.4787e-02
 8.000	19.750	2.4790e-02
 8.000	20.000	2.4793e-02
 8.000	20.250	2.4795e-02
 8.000	20.500	2.4796e-02
 8.000	20.750	2.4796e-02
 8.000	21.000	2.4797e-02
 8.000	21.250	2.4797e-02
 8.000	21.500	2.4797e-02
 8.000	21.750	2.4797e-02
 8.000	22.000	2.4797e-02
 8.000	22.250	2.4797e-02
 8.000	22.500	2.4797e-02
 8.000	22.750	2.4797e-02
 8.000	23.000	2.4797e-02
 8.000	23.250	2.4797e-02
 8.000	23.500	2.4797e-02
 8.000	23.750	2.4797e-02
 8.000	24.000	2.4797e-02
 8.250	17.000	4.2215e-03
 8.250	17.250	6.2356e-03
 8.250	17.500	9.3188e-03
 8.250	17.750	1.3440e-02
 8.250	18.000	1.7934e-02
 8.250	18.250	2.3263e-02
 8.250	18.500	2.4147e-02
 8.250	18.750	2.4744e-02
 8.250	19.000	2.4755e-02
 8.250	19.250	2.4767e-02
 8.250	19.500	2.4780e-02
 8.250	19.750	2.4787e-02
 8.250	20.000	2.4790e-02
 8.250	20.250	2.4793e-02
 8.250	20.500	2.4795e-02
 8.250	20.750	2.4796e-02
 8.250	21.000	2.4796e-02
 8.250	21.250	2.4797e-02
 8.250	21.500	2.4797e-02
 8.250	21.750	2.4797e-02
 8.250	22.000	2.4797e-02
 8.250	22.250	2.4797e-02
 8.250	22.500	2.4797e-02
 8.250	22.750	2.4797e-02
 8.250	23.000	2.4797e-02
 8.250	23.250	2.4797e-02
 8.250	23.500	2.4797e-02
 8.250	23.750	2.4797e-02
 8.250	24.000	2.4797e-02
 8.500	17.000	2.9733e-03
 8.500	17.250	4.3301e-03
 8.500	17.500	6.4314e-03
 8.500	17.750	9.6739e-03
 8.500	18.000	1.3960e-02
 8.500	18.250	1.8332e-02
 8.500	18.500	2.3355e-02
 8.500	18.750	2.4150e-02
 8.500	19.000	2.4744e-02
 8.500	19.250	2.4755e-02
 8.500	19.500	2.4767e-02
 8.500	19.750	2.4780e-02
 8.500	20.000	2.4787e-02
 8.500	20.250	2.4790e-02
 8.500	20.500	2.4793e-02
 8.500	20.750	2.4795e-02
 8.500	21.000	2.4796e-02
 8.500	21.250	2.4796e-02
 8.500	21.500	2.4797e-02
 8.500	21.750	2.4797e-02
 8.500	22.000	2.4797e-02
 8.500	22.250	2.4797e-02
 8.500	22.500	2.4797e-02
 8.500	22.750	2.4797e-02
 8.500	23.000	2.4797e-02
 8.500	23.250	2.4797e-02
 8.500	23.500	2.4797e-02
 8.500	23.750	2.4797e-02
 8.500	24.000	2.4797e-02
 8.750	17.000	2.1119e-03
 8.750	17.250	3.0514e-03
 8.750	17.500	4.4827e-03
 8.750	17.750	6.7573e-03
 8.750	18.000	1.0268e-02
 8.750	18.250	1.4760e-02
 8.750	18.500	1.9107e-02
 8.750	18.750	2.3401e-02
 8.750	19.000	2.4152e-02
 8.750	19.250	2.4744e-02
 8.750	19.500	2.4756e-02
 8.750	19.750	2.4767e-02
 8.750	20.000	2.4780e-02
 8.750	20.250	2.4787e-02
 8.750	20.500	2.4790e-02
 8.750	20.750	2.4793e-02
 8.750	21.000	2.4795e-02
 8.750	21.250	2.4796e-02
 8.750	21.500	2.4796e-02
 8.750	21.750	2.4797e-02
 8.750	22.000	2.4797e-02
 8.750	22.250	2.4797e-02
 8.750	22.500	2.4797e-02
 8.750	22.750	2.4797e-02
 8.750	23.000	2.4797e-02
 8.750	23.250	2.4797e-02
 8.750	23.500	2.4797e-02
 8.750	23.750	2.4797e-02
 8.750	24.000	2.4797e-02
 9.000	17.000	1.5082e-03
 9.000	17.250	2.1694e-03
 9.000	17.500	3.1717e-03
 9.000	17.750	4.7433e-03
 9.000	18.000	7.3093e-03
 9.000	18.250	1.1245e-02
 9.000	18.500	1.5862e-02
 9.000	18.750	1.9715e-02
 9.000	19.000	2.3391e-02
 9.000	19.250	2.4153e-02
 9.000	19.500	2.4744e-02
 9.000	19.750	2.4756e-02
 9.000	20.000	2.4767e-02
 9.000	20.250	2.4780e-02
 9.000	20.500	2.4787e-02
 9.000	20.750	2.4790e-02
 9.000	21.000	2.4793e-02
 9.000	21.250	2.4795e-02
 9.000	21.500	2.4796e-02
 9.000	21.750	2.4796e-02
 9.000	22.000	2.4797e-02
 9.000	22.250	2.4797e-02
 9.000	22.500	2.4797e-02
 9.000	22.750	2.4797e-02
 9.000	23.000	2.4797e-02
 9.000	23.250	2.4797e-02
 9.000	23.500	2.4797e-02
 9.000	23.750	2.4797e-02
 9.000	24.000	2.4797e-02
 9.250	17.000	1.0815e-03
 9.250	17.250	1.5495e-03
 9.250	17.500	2.2632e-03
 9.250	17.750	3.3881e-03
 9.250	18.000	5.2537e-03
 9.250	18.250	8.2672e-03
 9.250	18.500	1.2537e-02
 9.250	18.750	1.7112e-02
 9.250	19.000	2.0861e-02
 9.250	19.250	2.3374e-02
 9.250	19.500	2.4149e-02
 9.250	19.750	2.4744e-02
 9.250	20.000	2.4756e-02
 9.250	20.250	2.4767e-02
 9.250	20.500	2.4780e-02
 9.250	20.750	2.4787e-02
 9.250	21.000	2.4790e-02
 9.250	21.250	2.4793e-02
 9.250	21.500	2.4791e-02
 9.250	21.750	2.4789e-02
 9.250	22.000	2.4789e-02
 9.250	22.250	2.4789e-02
 9.250	22.500	2.4796e-02
 9.250	22.750	2.4796e-02
 9.250	23.000	2.4797e-02
 9.250	23.250	2.4797e-02
 9.250	23.500	2.4797e-02
 9.250	23.750	2.4797e-02
 9.250	24.000	2.4797e-02
 9.500	17.000	7.7868e-04
 9.500	17.250	1.1124e-03
 9.500	17.500	1.6230e-03
 9.500	17.750	2.4433e-03
 9.500	18.000	3.8357e-03
 9.500	18.250	6.0991e-03
 9.500	18.500	9.4984e-03
 9.500	18.750	1.3884e-02
 9.500	19.000	1.8099e-02
 9.500	19.250	2.1795e-02
 9.500	19.500	2.3348e-02
 9.500	19.750	2.4139e-02
 9.500	20.000	2.4744e-02
 9.500	20.250	2.4756e-02
 9.500	20.500	2.4767e-02
 9.500	20.750	2.4779e-02
 9.500	21.000	2.4782e-02
 9.500	21.250	2.4783e-02
 9.500	21.500	2.4786e-02
 9.500	21.750	2.4786e-02
 9.500	22.000	2.4783e-02
 9.500	22.250	2.4783e-02
 9.500	22.500	2.4783e-02
 9.500	22.750	2.4783e-02
 9.500	23.000	2.4783e-02
 9.500	23.250	2.4783e-02
 9.500	23.500	2.4787e-02
 9.500	23.750	2.4787e-02
 9.500	24.000	2.4787e-02
 9.750	17.000	5.6354e-04
 9.750	17.250	8.0082e-04
 9.750	17.500	1.1678e-03
 9.750	17.750	1.7702e-03
 9.750	18.000	2.8103e-03
 9.750	18.250	4.5470e-03
 9.750	18.500	7.1426e-03
 9.750	18.750	1.0722e-02
 9.750	19.000	1.5073e-02
 9.750	19.250	1.9226e-02
 9.750	19.500	2.2831e-02
 9.750	19.750	2.3316e-02
 9.750	20.000	2.4123e-02
 9.750	20.250	2.4742e-02
 9.750	20.500	2.4756e-02
 9.750	20.750	2.4767e-02
 9.750	21.000	2.4780e-02
 9.750	21.250	2.4785e-02
 9.750	21.500	2.4784e-02
 9.750	21.750	2.4786e-02
 9.750	22.000	2.4787e-02
 9.750	22.250	2.4785e-02
 9.750	22.500	2.4783e-02
 9.750	22.750	2.4784e-02
 9.750	23.000	2.4784e-02
 9.750	23.250	2.4784e-02
 9.750	23.500	2.4783e-02
 9.750	23.750	2.4783e-02
 9.750	24.000	2.4783e-02
10.000	17.000	4.0996e-04
10.000	17.250	5.8000e-04
10.000	17.500	8.4428e-04
10.000	17.750	1.2884e-03
10.000	18.000	2.0788e-03
10.000	18.250	3.3994e-03
10.000	18.500	5.3689e-03
10.000	18.750	8.1198e-03
10.000	19.000	1.1850e-02
10.000	19.250	1.6102e-02
10.000	19.500	2.0443e-02
10.000	19.750	2.2823e-02
10.000	20.000	2.3282e-02
10.000	20.250	2.4095e-02
10.000	20.500	2.4738e-02
10.000	20.750	2.4755e-02
10.000	21.000	2.4767e-02
10.000	21.250	2.4780e-02
10.000	21.500	2.4786e-02
10.000	21.750	2.4788e-02
10.000	22.000	2.4786e-02
10.000	22.250	2.4787e-02
10.000	22.500	2.4786e-02
10.000	22.750	2.4784e-02
10.000	23.000	2.4783e-02
10.000	23.250	2.4783e-02
10.000	23.500	2.4784e-02
10.000	23.750	2.4784e-02
10.000	24.000	2.4784e-02
10.250	17.000	3.0082e-04
10.250	17.250	4.2280e-04
10.250	17.500	6.1449e-04
10.250	17.750	9.4370e-04
10.250	18.000	1.5394e-03
10.250	18.250	2.5347e-03
10.250	18.500	3.9971e-03
10.250	18.750	6.0847e-03
10.250	19.000	8.9466e-03
10.250	19.250	1.2687e-02
10.250	19.500	1.7054e-02
10.250	19.750	2.1285e-02
10.250	20.000	2.2776e-02
10.250	20.250	2.3243e-02
10.250	20.500	2.4071e-02
10.250	20.750	2.4733e-02
10.250	21.000	2.4754e-02
10.250	21.250	2.4767e-02
10.250	21.500	2.4780e-02
10.250	21.750	2.4787e-02
10.250	22.000	2.4789e-02
10.250	22.250	2.4789e-02
10.250	22.500	2.4788e-02
10.250	22.750	2.4787e-02
10.250	23.000	2.4786e-02
10.250	23.250	2.4784e-02
10.250	23.500	2.4784e-02
10.250	23.750	2.4783e-02
10.250	24.000	2.4783e-02
10.500	17.000	2.2370e-04
10.500	17.250	3.1128e-04
10.500	17.500	4.5119e-04
10.500	17.750	6.9712e-04
10.500	18.000	1.1432e-03
10.500	18.250	1.8835e-03
10.500	18.500	2.9539e-03
10.500	18.750	4.4996e-03
10.500	19.000	6.6369e-03
10.500	19.250	9.5459e-03
10.500	19.500	1.3314e-02
10.500	19.750	1.7837e-02
10.500	20.000	2.2040e-02
10.500	20.250	2.2744e-02
10.500	20.500	2.3231e-02
10.500	20.750	2.4066e-02
10.500	21.000	2.4722e-02
10.500	21.250	2.4752e-02
10.500	21.500	2.4766e-02
10.500	21.750	2.4779e-02
10.500	22.000	2.4787e-02
10.500	22.250	2.4790e-02
10.500	22.500	2.4792e-02
10.500	22.750	2.4788e-02
10.500	23.000	2.4788e-02
10.500	23.250	2.4787e-02
10.500	23.500	2.4786e-02
10.500	23.750	2.4785e-02
10.500	24.000	2.4785e-02
10.750	17.000	1.6889e-04
10.750	17.250	2.3193e-04
10.750	17.500	3.3465e-04
10.750	17.750	5.1811e-04
10.750	18.000	8.4905e-04
10.750	18.250	1.3850e-03
10.750	18.500	2.1647e-03
10.750	18.750	3.2892e-03
10.750	19.000	4.8636e-03
10.750	19.250	7.0402e-03
10.750	19.500	1.0017e-02
10.750	19.750	1.3921e-02
10.750	20.000	1.8652e-02
10.750	20.250	2.2386e-02
10.750	20.500	2.2720e-02
10.750	20.750	2.3208e-02
10.750	21.000	2.4080e-02
10.750	21.250	2.4708e-02
10.750	21.500	2.4748e-02
10.750	21.750	2.4765e-02
10.750	22.000	2.4779e-02
10.750	22.250	2.4787e-02
10.750	22.500	2.4790e-02
10.750	22.750	2.4793e-02
10.750	23.000	2.4789e-02
10.750	23.250	2.4789e-02
10.750	23.500	2.4788e-02
10.750	23.750	2.4788e-02
10.750	24.000	2.4787e-02
11.000	17.000	1.2996e-04
11.000	17.250	1.7506e-04
11.000	17.500	2.5045e-04
11.000	17.750	3.8626e-04
11.000	18.000	6.2840e-04
11.000	18.250	1.0117e-03
11.000	18.500	1.5763e-03
11.000	18.750	2.4053e-03
11.000	19.000	3.5510e-03
11.000	19.250	5.1267e-03
11.000	19.500	7.3602e-03
11.000	19.750	1.0454e-02
11.000	20.000	1.4513e-02
11.000	20.250	1.9424e-02
11.000	20.500	2.2361e-02
11.000	20.750	2.2701e-02
11.000	21.000	2.3223e-02
11.000	21.250	2.4142e-02
11.000	21.500	2.4696e-02
11.000	21.750	2.4741e-02
11.000	22.000	2.4762e-02
11.000	22.250	2.4777e-02
11.000	22.500	2.4786e-02
11.000	22.750	2.4790e-02
11.000	23.000	2.4793e-02
11.000	23.250	2.4793e-02
11.000	23.500	2.4789e-02
11.000	23.750	2.4789e-02
11.000	24.000	2.4788e-02
11.250	17.000	1.0230e-04
11.250	17.250	1.3424e-04
11.250	17.500	1.8881e-04
11.250	17.750	2.8848e-04
11.250	18.000	4.6288e-04
11.250	18.250	7.3481e-04
11.250	18.500	1.1336e-03
11.250	18.750	1.7240e-03
11.250	19.000	2.5477e-03
11.250	19.250	3.7110e-03
11.250	19.500	5.3317e-03
11.250	19.750	7.6424e-03
11.250	20.000	1.0827e-02
11.250	20.250	1.5068e-02
11.250	20.500	2.0179e-02
11.250	20.750	2.2317e-02
11.250	21.000	2.2698e-02
11.250	21.250	2.3279e-02
11.250	21.500	2.4280e-02
11.250	21.750	2.4684e-02
11.250	22.000	2.4733e-02
11.250	22.250	2.4756e-02
11.250	22.500	2.4775e-02
11.250	22.750	2.4785e-02
11.250	23.000	2.4789e-02
11.250	23.250	2.4793e-02
11.250	23.500	2.4794e-02
11.250	23.750	2.4790e-02
11.250	24.000	2.4789e-02
11.500	17.000	8.2963e-05
11.500	17.250	1.0543e-04
11.500	17.500	1.4436e-04
11.500	17.750	2.1580e-04
11.500	18.000	3.3926e-04
11.500	18.250	5.3103e-04
11.500	18.500	8.1160e-04
11.500	18.750	1.2305e-03
11.500	19.000	1.8147e-03
11.500	19.250	2.6514e-03
11.500	19.500	3.8275e-03
11.500	19.750	5.5041e-03
11.500	20.000	7.8865e-03
11.500	20.250	1.1202e-02
11.500	20.500	1.5621e-02
11.500	20.750	2.0749e-02
11.500	21.000	2.2287e-02
11.500	21.250	2.2731e-02
11.500	21.500	2.3422e-02
11.500	21.750	2.4466e-02
11.500	22.000	2.4669e-02
11.500	22.250	2.4723e-02
11.500	22.500	2.4750e-02
11.500	22.750	2.4771e-02
11.500	23.000	2.4784e-02
11.500	23.250	2.4789e-02
11.500	23.500	2.4792e-02
11.500	23.750	2.4795e-02
11.500	24.000	2.4793e-02
11.750	17.000	6.9630e-05
11.750	17.250	8.5103e-05
11.750	17.500	1.1251e-04
11.750	17.750	1.6255e-04
11.750	18.000	2.4815e-04
11.750	18.250	3.8107e-04
11.750	18.500	5.7770e-04
11.750	18.750	8.6683e-04
11.750	19.000	1.2898e-03
11.750	19.250	1.8843e-03
11.750	19.500	2.7384e-03
11.750	19.750	3.9467e-03
11.750	20.000	5.6635e-03
11.750	20.250	8.1157e-03
11.750	20.500	1.1579e-02
11.750	20.750	1.6171e-02
11.750	21.000	2.1362e-02
11.750	21.250	2.2261e-02
11.750	21.500	2.2813e-02
11.750	21.750	2.3643e-02
11.750	22.000	2.4553e-02
11.750	22.250	2.4649e-02
11.750	22.500	2.4710e-02
11.750	22.750	2.4741e-02
11.750	23.000	2.4766e-02
11.750	23.250	2.4782e-02
11.750	23.500	2.4788e-02
11.750	23.750	2.4792e-02
11.750	24.000	2.4795e-02
12.000	17.000	5.9918e-05
12.000	17.250	7.0782e-05
12.000	17.500	8.9794e-05
12.000	17.750	1.2387e-04
12.000	18.000	1.8165e-04
12.000	18.250	2.7202e-04
12.000	18.500	4.0971e-04
12.000	18.750	6.1416e-04
12.000	19.000	9.1383e-04
12.000	19.250	1.3390e-03
12.000	19.500	1.9461e-03
12.000	19.750	2.8091e-03
12.000	20.000	4.0356e-03
12.000	20.250	5.8040e-03
12.000	20.500	8.3408e-03
12.000	20.750	1.1941e-02
12.000	21.000	1.6711e-02
12.000	21.250	2.1180e-02
12.000	21.500	2.2243e-02
12.000	21.750	2.2919e-02
12.000	22.000	2.3879e-02
12.000	22.250	2.4529e-02
12.000	22.500	2.4628e-02
12.000	22.750	2.4694e-02
12.000	23.000	2.4729e-02
12.000	23.250	2.4759e-02
12.000	23.500	2.4780e-02
12.000	23.750	2.4786e-02
12.000	24.000	2.4791e-02
12.250	17.000	5.3169e-05
12.250	17.250	6.0741e-05
12.250	17.500	7.3416e-05
12.250	17.750	9.5802e-05
12.250	18.000	1.3416e-04
12.250	18.250	1.9621e-04
12.250	18.500	2.9226e-04
12.250	18.750	4.3654e-04
12.250	19.000	6.4790e-04
12.250	19.250	9.5243e-04
12.250	19.500	1.3820e-03
12.250	19.750	1.9939e-03
12.250	20.000	2.8705e-03
12.250	20.250	4.1262e-03
12.250	20.500	5.9275e-03
12.250	20.750	8.5528e-03
12.250	21.000	1.2305e-02
12.250	21.250	1.7220e-02
12.250	21.500	2.1262e-02
12.250	21.750	2.2214e-02
12.250	22.000	2.3053e-02
12.250	22.250	2.4094e-02
12.250	22.500	2.4495e-02
12.250	22.750	2.4600e-02
12.250	23.000	2.4672e-02
12.250	23.250	2.4712e-02
12.250	23.500	2.4749e-02
12.250	23.750	2.4776e-02
12.250	24.000	2.4784e-02
12.500	17.000	3.9012e-05
12.500	17.250	5.3745e-05
12.500	17.500	6.2305e-05
12.500	17.750	7.6708e-05
12.500	18.000	1.0148e-04
12.500	18.250	1.4313e-04
12.500	18.500	2.0988e-04
12.500	18.750	3.1152e-04
12.500	19.000	4.6066e-04
12.500	19.250	6.7564e-04
12.500	19.500	9.8288e-04
12.500	19.750	1.4179e-03
12.500	20.000	2.0381e-03
12.500	20.250	2.9323e-03
12.500	20.500	4.1974e-03
12.500	20.750	6.0570e-03
12.500	21.000	8.7842e-03
12.500	21.250	1.2685e-02
12.500	21.500	1.7473e-02
12.500	21.750	2.1077e-02
12.500	22.000	2.2175e-02
12.500	22.250	2.3185e-02
12.500	22.500	2.4180e-02
12.500	22.750	2.4447e-02
12.500	23.000	2.4562e-02
12.500	23.250	2.4641e-02
12.500	23.500	2.4688e-02
12.500	23.750	2.4734e-02
12.500	24.000	2.4771e-02
12.750	17.000	2.1317e-05
12.750	17.250	4.2716e-05
12.750	17.500	5.4403e-05
12.750	17.750	6.4033e-05
12.750	18.000	8.0082e-05
12.750	18.250	1.0790e-04
12.750	18.500	1.5292e-04
12.750	18.750	2.2354e-04
12.750	19.000	3.2815e-04
12.750	19.250	4.8115e-04
12.750	19.500	6.9761e-04
12.750	19.750	1.0066e-03
12.750	20.000	1.4420e-03
12.750	20.250	2.0742e-03
12.750	20.500	2.9709e-03
12.750	20.750	4.2595e-03
12.750	21.000	6.1890e-03
12.750	21.250	9.0220e-03
12.750	21.500	1.2855e-02
12.750	21.750	1.7776e-02
12.750	22.000	2.0826e-02
12.750	22.250	2.2102e-02
12.750	22.500	2.3278e-02
12.750	22.750	2.4147e-02
12.750	23.000	2.4376e-02
12.750	23.250	2.4509e-02
12.750	23.500	2.4597e-02
12.750	23.750	2.4652e-02
12.750	24.000	2.4711e-02
13.000	17.000	4.2798e-06
13.000	17.250	1.0041e-05
13.000	17.500	3.3251e-05
13.000	17.750	5.4321e-05
13.000	18.000	6.6173e-05
13.000	18.250	8.4691e-05
13.000	18.500	1.1473e-04
13.000	18.750	1.6272e-04
13.000	19.000	2.3531e-04
13.000	19.250	3.4239e-04
13.000	19.500	4.9556e-04
13.000	19.750	7.1391e-04
13.000	20.000	1.0245e-03
13.000	20.250	1.4639e-03
13.000	20.500	2.1040e-03
13.000	20.750	3.0272e-03
13.000	21.000	4.3698e-03
13.000	21.250	6.3591e-03
13.000	21.500	9.1700e-03
13.000	21.750	1.3171e-02
13.000	22.000	1.7818e-02
13.000	22.250	2.0477e-02
13.000	22.500	2.1946e-02
13.000	22.750	2.3202e-02
13.000	23.000	2.4017e-02
13.000	23.250	2.4270e-02
13.000	23.500	2.4428e-02
13.000	23.750	2.4531e-02
13.000	24.000	2.4597e-02
13.250	17.000	2.5514e-06
13.250	17.250	4.8560e-06
13.250	17.500	1.1523e-05
13.250	17.750	2.7325e-05
13.250	18.000	4.6091e-05
13.250	18.250	6.9300e-05
13.250	18.500	8.9383e-05
13.250	18.750	1.2132e-04
13.250	19.000	1.7029e-04
13.250	19.250	2.4494e-04
13.250	19.500	3.5251e-04
13.250	19.750	5.0642e-04
13.250	20.000	7.2510e-04
13.250	20.250	1.0388e-03
13.250	20.500	1.4858e-03
13.250	20.750	2.1326e-03
13.250	21.000	3.0877e-03
13.250	21.250	4.4730e-03
13.250	21.500	6.4165e-03
13.250	21.750	9.3649e-03
13.250	22.000	1.3345e-02
13.250	22.250	1.7569e-02
13.250	22.500	1.9910e-02
13.250	22.750	2.1500e-02
13.250	23.000	2.2849e-02
13.250	23.250	2.3791e-02
13.250	23.500	2.4107e-02
13.250	23.750	2.4305e-02
13.250	24.000	2.4428e-02
13.500	17.000	1.4815e-06
13.500	17.250	2.9630e-06
13.500	17.500	6.5021e-06
13.500	17.750	1.4650e-05
13.500	18.000	3.2428e-05
13.500	18.250	5.0288e-05
13.500	18.500	7.2346e-05
13.500	18.750	9.3333e-05
13.500	19.000	1.2650e-04
13.500	19.250	1.7630e-04
13.500	19.500	2.5119e-04
13.500	19.750	3.5885e-04
13.500	20.000	5.1366e-04
13.500	20.250	7.3432e-04
13.500	20.500	1.0527e-03
13.500	20.750	1.5073e-03
13.500	21.000	2.1708e-03
13.500	21.250	3.1498e-03
13.500	21.500	4.5062e-03
13.500	21.750	6.5790e-03
13.500	22.000	9.5300e-03
13.500	22.250	1.3208e-02
13.500	22.500	1.6928e-02
13.500	22.750	1.9124e-02
13.500	23.000	2.0874e-02
13.500	23.250	2.2377e-02
13.500	23.500	2.3460e-02
13.500	23.750	2.3860e-02
13.500	24.000	2.4115e-02
13.750	17.000	9.0535e-07
13.750	17.250	1.8107e-06
13.750	17.500	3.8683e-06
13.750	17.750	7.7366e-06
13.750	18.000	1.8354e-05
13.750	18.250	3.7531e-05
13.750	18.500	5.3004e-05
13.750	18.750	7.4979e-05
13.750	19.000	9.6708e-05
13.750	19.250	1.3037e-04
13.750	19.500	1.8107e-04
13.750	19.750	2.5588e-04
13.750	20.000	3.6436e-04
13.750	20.250	5.2000e-04
13.750	20.500	7.4387e-04
13.750	20.750	1.0665e-03
13.750	21.000	1.5317e-03
13.750	21.250	2.2156e-03
13.750	21.500	3.1791e-03
13.750	21.750	4.6258e-03
13.750	22.000	6.6493e-03
13.750	22.250	9.2942e-03
13.750	22.500	1.2618e-02
13.750	22.750	1.6075e-02
13.750	23.000	1.8197e-02
13.750	23.250	2.0091e-02
13.750	23.500	2.1730e-02
13.750	23.750	2.2980e-02
13.750	24.000	2.3495e-02
14.000	17.000	1.0000e-07
14.000	17.250	1.0700e-06
14.000	17.500	2.3045e-06
14.000	17.750	4.6091e-06
14.000	18.000	9.5473e-06
14.000	18.250	2.1811e-05
14.000	18.500	4.0494e-05
14.000	18.750	5.8765e-05
14.000	19.000	7.6872e-05
14.000	19.250	9.9012e-05
14.000	19.500	1.3309e-04
14.000	19.750	1.8403e-04
14.000	20.000	2.5984e-04
14.000	20.250	3.6897e-04
14.000	20.500	5.2700e-04
14.000	20.750	7.5556e-04
14.000	21.000	1.0876e-03
14.000	21.250	1.5725e-03
14.000	21.500	2.2508e-03
14.000	21.750	3.2806e-03
14.000	22.000	4.7035e-03
14.000	22.250	6.4251e-03
14.000	22.500	8.5361e-03
14.000	22.750	1.1720e-02
14.000	23.000	1.4979e-02
14.000	23.250	1.7150e-02
14.000	23.500	1.9141e-02
14.000	23.750	2.0928e-02
14.000	24.000	2.2289e-02
