InwC 6500.00A  relative to Inci 1215.00A scaled to 1215A.
Hden   Phi(H)  Eq_Width (A)
 7.000	17.000	1.6230e-02
 7.000	17.250	1.6969e-02
 7.000	17.500	1.7400e-02
 7.000	17.750	1.7407e-02
 7.000	18.000	1.7416e-02
 7.000	18.250	1.7425e-02
 7.000	18.500	1.7430e-02
 7.000	18.750	1.7432e-02
 7.000	19.000	1.7434e-02
 7.000	19.250	1.7436e-02
 7.000	19.500	1.7436e-02
 7.000	19.750	1.7437e-02
 7.000	20.000	1.7437e-02
 7.000	20.250	1.7437e-02
 7.000	20.500	1.7437e-02
 7.000	20.750	1.7437e-02
 7.000	21.000	1.7437e-02
 7.000	21.250	1.7437e-02
 7.000	21.500	1.7437e-02
 7.000	21.750	1.7437e-02
 7.000	22.000	1.7437e-02
 7.000	22.250	1.7438e-02
 7.000	22.500	1.7438e-02
 7.000	22.750	1.7438e-02
 7.000	23.000	1.7438e-02
 7.000	23.250	1.7438e-02
 7.000	23.500	1.7438e-02
 7.000	23.750	1.7438e-02
 7.000	24.000	1.7438e-02
 7.250	17.000	1.2078e-02
 7.250	17.250	1.6289e-02
 7.250	17.500	1.6972e-02
 7.250	17.750	1.7400e-02
 7.250	18.000	1.7407e-02
 7.250	18.250	1.7416e-02
 7.250	18.500	1.7425e-02
 7.250	18.750	1.7430e-02
 7.250	19.000	1.7432e-02
 7.250	19.250	1.7434e-02
 7.250	19.500	1.7436e-02
 7.250	19.750	1.7436e-02
 7.250	20.000	1.7437e-02
 7.250	20.250	1.7437e-02
 7.250	20.500	1.7437e-02
 7.250	20.750	1.7437e-02
 7.250	21.000	1.7437e-02
 7.250	21.250	1.7437e-02
 7.250	21.500	1.7437e-02
 7.250	21.750	1.7437e-02
 7.250	22.000	1.7437e-02
 7.250	22.250	1.7437e-02
 7.250	22.500	1.7437e-02
 7.250	22.750	1.7437e-02
 7.250	23.000	1.7437e-02
 7.250	23.250	1.7437e-02
 7.250	23.500	1.7437e-02
 7.250	23.750	1.7437e-02
 7.250	24.000	1.7438e-02
 7.500	17.000	8.8922e-03
 7.500	17.250	1.2232e-02
 7.500	17.500	1.6332e-02
 7.500	17.750	1.6975e-02
 7.500	18.000	1.7400e-02
 7.500	18.250	1.7408e-02
 7.500	18.500	1.7416e-02
 7.500	18.750	1.7425e-02
 7.500	19.000	1.7430e-02
 7.500	19.250	1.7432e-02
 7.500	19.500	1.7434e-02
 7.500	19.750	1.7436e-02
 7.500	20.000	1.7436e-02
 7.500	20.250	1.7437e-02
 7.500	20.500	1.7437e-02
 7.500	20.750	1.7437e-02
 7.500	21.000	1.7437e-02
 7.500	21.250	1.7437e-02
 7.500	21.500	1.7437e-02
 7.500	21.750	1.7437e-02
 7.500	22.000	1.7437e-02
 7.500	22.250	1.7437e-02
 7.500	22.500	1.7437e-02
 7.500	22.750	1.7437e-02
 7.500	23.000	1.7437e-02
 7.500	23.250	1.7437e-02
 7.500	23.500	1.7438e-02
 7.500	23.750	1.7437e-02
 7.500	24.000	1.7437e-02
 7.750	17.000	6.2500e-03
 7.750	17.250	9.0769e-03
 7.750	17.500	1.2357e-02
 7.750	17.750	1.6365e-02
 7.750	18.000	1.6978e-02
 7.750	18.250	1.7400e-02
 7.750	18.500	1.7408e-02
 7.750	18.750	1.7416e-02
 7.750	19.000	1.7425e-02
 7.750	19.250	1.7430e-02
 7.750	19.500	1.7432e-02
 7.750	19.750	1.7434e-02
 7.750	20.000	1.7436e-02
 7.750	20.250	1.7436e-02
 7.750	20.500	1.7437e-02
 7.750	20.750	1.7437e-02
 7.750	21.000	1.7437e-02
 7.750	21.250	1.7437e-02
 7.750	21.500	1.7437e-02
 7.750	21.750	1.7437e-02
 7.750	22.000	1.7437e-02
 7.750	22.250	1.7437e-02
 7.750	22.500	1.7437e-02
 7.750	22.750	1.7437e-02
 7.750	23.000	1.7437e-02
 7.750	23.250	1.7437e-02
 7.750	23.500	1.7437e-02
 7.750	23.750	1.7437e-02
 7.750	24.000	1.7437e-02
 8.000	17.000	4.2678e-03
 8.000	17.250	6.3655e-03
 8.000	17.500	9.2260e-03
 8.000	17.750	1.2414e-02
 8.000	18.000	1.6322e-02
 8.000	18.250	1.6977e-02
 8.000	18.500	1.7400e-02
 8.000	18.750	1.7408e-02
 8.000	19.000	1.7416e-02
 8.000	19.250	1.7425e-02
 8.000	19.500	1.7430e-02
 8.000	19.750	1.7432e-02
 8.000	20.000	1.7434e-02
 8.000	20.250	1.7436e-02
 8.000	20.500	1.7436e-02
 8.000	20.750	1.7437e-02
 8.000	21.000	1.7437e-02
 8.000	21.250	1.7437e-02
 8.000	21.500	1.7437e-02
 8.000	21.750	1.7437e-02
 8.000	22.000	1.7437e-02
 8.000	22.250	1.7437e-02
 8.000	22.500	1.7437e-02
 8.000	22.750	1.7437e-02
 8.000	23.000	1.7437e-02
 8.000	23.250	1.7437e-02
 8.000	23.500	1.7437e-02
 8.000	23.750	1.7437e-02
 8.000	24.000	1.7437e-02
 8.250	17.000	2.9538e-03
 8.250	17.250	4.3716e-03
 8.250	17.500	6.5416e-03
 8.250	17.750	9.4420e-03
 8.250	18.000	1.2605e-02
 8.250	18.250	1.6357e-02
 8.250	18.500	1.6980e-02
 8.250	18.750	1.7400e-02
 8.250	19.000	1.7408e-02
 8.250	19.250	1.7416e-02
 8.250	19.500	1.7425e-02
 8.250	19.750	1.7430e-02
 8.250	20.000	1.7432e-02
 8.250	20.250	1.7434e-02
 8.250	20.500	1.7436e-02
 8.250	20.750	1.7436e-02
 8.250	21.000	1.7437e-02
 8.250	21.250	1.7437e-02
 8.250	21.500	1.7437e-02
 8.250	21.750	1.7437e-02
 8.250	22.000	1.7437e-02
 8.250	22.250	1.7437e-02
 8.250	22.500	1.7437e-02
 8.250	22.750	1.7437e-02
 8.250	23.000	1.7437e-02
 8.250	23.250	1.7437e-02
 8.250	23.500	1.7437e-02
 8.250	23.750	1.7437e-02
 8.250	24.000	1.7437e-02
 8.500	17.000	2.0751e-03
 8.500	17.250	3.0300e-03
 8.500	17.500	4.5088e-03
 8.500	17.750	6.7895e-03
 8.500	18.000	9.8034e-03
 8.500	18.250	1.2881e-02
 8.500	18.500	1.6420e-02
 8.500	18.750	1.6982e-02
 8.500	19.000	1.7400e-02
 8.500	19.250	1.7408e-02
 8.500	19.500	1.7416e-02
 8.500	19.750	1.7425e-02
 8.500	20.000	1.7430e-02
 8.500	20.250	1.7432e-02
 8.500	20.500	1.7434e-02
 8.500	20.750	1.7436e-02
 8.500	21.000	1.7436e-02
 8.500	21.250	1.7437e-02
 8.500	21.500	1.7437e-02
 8.500	21.750	1.7437e-02
 8.500	22.000	1.7437e-02
 8.500	22.250	1.7437e-02
 8.500	22.500	1.7437e-02
 8.500	22.750	1.7437e-02
 8.500	23.000	1.7437e-02
 8.500	23.250	1.7437e-02
 8.500	23.500	1.7437e-02
 8.500	23.750	1.7437e-02
 8.500	24.000	1.7437e-02
 8.750	17.000	1.4686e-03
 8.750	17.250	2.1299e-03
 8.750	17.500	3.1369e-03
 8.750	17.750	4.7360e-03
 8.750	18.000	7.2018e-03
 8.750	18.250	1.0356e-02
 8.750	18.500	1.3417e-02
 8.750	18.750	1.6448e-02
 8.750	19.000	1.6983e-02
 8.750	19.250	1.7400e-02
 8.750	19.500	1.7408e-02
 8.750	19.750	1.7416e-02
 8.750	20.000	1.7425e-02
 8.750	20.250	1.7430e-02
 8.750	20.500	1.7432e-02
 8.750	20.750	1.7434e-02
 8.750	21.000	1.7436e-02
 8.750	21.250	1.7436e-02
 8.750	21.500	1.7437e-02
 8.750	21.750	1.7437e-02
 8.750	22.000	1.7437e-02
 8.750	22.250	1.7437e-02
 8.750	22.500	1.7437e-02
 8.750	22.750	1.7437e-02
 8.750	23.000	1.7437e-02
 8.750	23.250	1.7437e-02
 8.750	23.500	1.7437e-02
 8.750	23.750	1.7437e-02
 8.750	24.000	1.7437e-02
 9.000	17.000	1.0435e-03
 9.000	17.250	1.5088e-03
 9.000	17.500	2.2138e-03
 9.000	17.750	3.3183e-03
 9.000	18.000	5.1187e-03
 9.000	18.250	7.8757e-03
 9.000	18.500	1.1113e-02
 9.000	18.750	1.3830e-02
 9.000	19.000	1.6433e-02
 9.000	19.250	1.6982e-02
 9.000	19.500	1.7400e-02
 9.000	19.750	1.7408e-02
 9.000	20.000	1.7416e-02
 9.000	20.250	1.7425e-02
 9.000	20.500	1.7430e-02
 9.000	20.750	1.7432e-02
 9.000	21.000	1.7434e-02
 9.000	21.250	1.7436e-02
 9.000	21.500	1.7436e-02
 9.000	21.750	1.7437e-02
 9.000	22.000	1.7437e-02
 9.000	22.250	1.7437e-02
 9.000	22.500	1.7437e-02
 9.000	22.750	1.7437e-02
 9.000	23.000	1.7437e-02
 9.000	23.250	1.7437e-02
 9.000	23.500	1.7437e-02
 9.000	23.750	1.7437e-02
 9.000	24.000	1.7437e-02
 9.250	17.000	7.4321e-04
 9.250	17.250	1.0725e-03
 9.250	17.500	1.5742e-03
 9.250	17.750	2.3643e-03
 9.250	18.000	3.6719e-03
 9.250	18.250	5.7797e-03
 9.250	18.500	8.7621e-03
 9.250	18.750	1.1967e-02
 9.250	19.000	1.4615e-02
 9.250	19.250	1.6408e-02
 9.250	19.500	1.6978e-02
 9.250	19.750	1.7400e-02
 9.250	20.000	1.7408e-02
 9.250	20.250	1.7416e-02
 9.250	20.500	1.7425e-02
 9.250	20.750	1.7430e-02
 9.250	21.000	1.7432e-02
 9.250	21.250	1.7434e-02
 9.250	21.500	1.7433e-02
 9.250	21.750	1.7431e-02
 9.250	22.000	1.7431e-02
 9.250	22.250	1.7432e-02
 9.250	22.500	1.7436e-02
 9.250	22.750	1.7437e-02
 9.250	23.000	1.7437e-02
 9.250	23.250	1.7437e-02
 9.250	23.500	1.7437e-02
 9.250	23.750	1.7437e-02
 9.250	24.000	1.7437e-02
 9.500	17.000	5.3004e-04
 9.500	17.250	7.6477e-04
 9.500	17.500	1.1236e-03
 9.500	17.750	1.6993e-03
 9.500	18.000	2.6744e-03
 9.500	18.250	4.2557e-03
 9.500	18.500	6.6240e-03
 9.500	18.750	9.6748e-03
 9.500	19.000	1.2627e-02
 9.500	19.250	1.5234e-02
 9.500	19.500	1.6373e-02
 9.500	19.750	1.6966e-02
 9.500	20.000	1.7399e-02
 9.500	20.250	1.7408e-02
 9.500	20.500	1.7416e-02
 9.500	20.750	1.7425e-02
 9.500	21.000	1.7426e-02
 9.500	21.250	1.7427e-02
 9.500	21.500	1.7429e-02
 9.500	21.750	1.7429e-02
 9.500	22.000	1.7427e-02
 9.500	22.250	1.7427e-02
 9.500	22.500	1.7427e-02
 9.500	22.750	1.7427e-02
 9.500	23.000	1.7427e-02
 9.500	23.250	1.7427e-02
 9.500	23.500	1.7430e-02
 9.500	23.750	1.7430e-02
 9.500	24.000	1.7430e-02
 9.750	17.000	3.7860e-04
 9.750	17.250	5.4543e-04
 9.750	17.500	8.0321e-04
 9.750	17.750	1.2258e-03
 9.750	18.000	1.9538e-03
 9.750	18.250	3.1655e-03
 9.750	18.500	4.9702e-03
 9.750	18.750	7.4499e-03
 9.750	19.000	1.0465e-02
 9.750	19.250	1.3375e-02
 9.750	19.500	1.5931e-02
 9.750	19.750	1.6330e-02
 9.750	20.000	1.6947e-02
 9.750	20.250	1.7397e-02
 9.750	20.500	1.7408e-02
 9.750	20.750	1.7416e-02
 9.750	21.000	1.7425e-02
 9.750	21.250	1.7429e-02
 9.750	21.500	1.7428e-02
 9.750	21.750	1.7429e-02
 9.750	22.000	1.7430e-02
 9.750	22.250	1.7428e-02
 9.750	22.500	1.7427e-02
 9.750	22.750	1.7428e-02
 9.750	23.000	1.7428e-02
 9.750	23.250	1.7428e-02
 9.750	23.500	1.7427e-02
 9.750	23.750	1.7427e-02
 9.750	24.000	1.7427e-02
10.000	17.000	2.7045e-04
10.000	17.250	3.9004e-04
10.000	17.500	5.7564e-04
10.000	17.750	8.8691e-04
10.000	18.000	1.4398e-03
10.000	18.250	2.3602e-03
10.000	18.500	3.7267e-03
10.000	18.750	5.6262e-03
10.000	19.000	8.1923e-03
10.000	19.250	1.1129e-02
10.000	19.500	1.4176e-02
10.000	19.750	1.5899e-02
10.000	20.000	1.6286e-02
10.000	20.250	1.6910e-02
10.000	20.500	1.7391e-02
10.000	20.750	1.7407e-02
10.000	21.000	1.7415e-02
10.000	21.250	1.7425e-02
10.000	21.500	1.7429e-02
10.000	21.750	1.7430e-02
10.000	22.000	1.7430e-02
10.000	22.250	1.7430e-02
10.000	22.500	1.7430e-02
10.000	22.750	1.7428e-02
10.000	23.000	1.7427e-02
10.000	23.250	1.7427e-02
10.000	23.500	1.7428e-02
10.000	23.750	1.7428e-02
10.000	24.000	1.7428e-02
10.250	17.000	1.9374e-04
10.250	17.250	2.7942e-04
10.250	17.500	4.1399e-04
10.250	17.750	6.4469e-04
10.250	18.000	1.0611e-03
10.250	18.250	1.7540e-03
10.250	18.500	2.7669e-03
10.250	18.750	4.2045e-03
10.250	19.000	6.1644e-03
10.250	19.250	8.7253e-03
10.250	19.500	1.1744e-02
10.250	19.750	1.4723e-02
10.250	20.000	1.5835e-02
10.250	20.250	1.6232e-02
10.250	20.500	1.6877e-02
10.250	20.750	1.7382e-02
10.250	21.000	1.7405e-02
10.250	21.250	1.7415e-02
10.250	21.500	1.7424e-02
10.250	21.750	1.7430e-02
10.250	22.000	1.7432e-02
10.250	22.250	1.7431e-02
10.250	22.500	1.7431e-02
10.250	22.750	1.7430e-02
10.250	23.000	1.7429e-02
10.250	23.250	1.7428e-02
10.250	23.500	1.7428e-02
10.250	23.750	1.7427e-02
10.250	24.000	1.7427e-02
10.500	17.000	1.3942e-04
10.500	17.250	2.0099e-04
10.500	17.500	2.9909e-04
10.500	17.750	4.7136e-04
10.500	18.000	7.8288e-04
10.500	18.250	1.2978e-03
10.500	18.500	2.0384e-03
10.500	18.750	3.1026e-03
10.500	19.000	4.5677e-03
10.500	19.250	6.5560e-03
10.500	19.500	9.1332e-03
10.500	19.750	1.2259e-02
10.500	20.000	1.5228e-02
10.500	20.250	1.5793e-02
10.500	20.500	1.6215e-02
10.500	20.750	1.6862e-02
10.500	21.000	1.7367e-02
10.500	21.250	1.7401e-02
10.500	21.500	1.7414e-02
10.500	21.750	1.7424e-02
10.500	22.000	1.7430e-02
10.500	22.250	1.7432e-02
10.500	22.500	1.7433e-02
10.500	22.750	1.7431e-02
10.500	23.000	1.7431e-02
10.500	23.250	1.7430e-02
10.500	23.500	1.7430e-02
10.500	23.750	1.7429e-02
10.500	24.000	1.7428e-02
10.750	17.000	1.0099e-04
10.750	17.250	1.4519e-04
10.750	17.500	2.1720e-04
10.750	17.750	3.4560e-04
10.750	18.000	5.7654e-04
10.750	18.250	9.4897e-04
10.750	18.500	1.4885e-03
10.750	18.750	2.2637e-03
10.750	19.000	3.3450e-03
10.750	19.250	4.8337e-03
10.750	19.500	6.8625e-03
10.750	19.750	9.5262e-03
10.750	20.000	1.2788e-02
10.750	20.250	1.5428e-02
10.750	20.500	1.5758e-02
10.750	20.750	1.6174e-02
10.750	21.000	1.6858e-02
10.750	21.250	1.7348e-02
10.750	21.500	1.7396e-02
10.750	21.750	1.7412e-02
10.750	22.000	1.7423e-02
10.750	22.250	1.7429e-02
10.750	22.500	1.7432e-02
10.750	22.750	1.7434e-02
10.750	23.000	1.7432e-02
10.750	23.250	1.7431e-02
10.750	23.500	1.7431e-02
10.750	23.750	1.7430e-02
10.750	24.000	1.7430e-02
11.000	17.000	7.3663e-05
11.000	17.250	1.0527e-04
11.000	17.500	1.5811e-04
11.000	17.750	2.5309e-04
11.000	18.000	4.2181e-04
11.000	18.250	6.8798e-04
11.000	18.500	1.0789e-03
11.000	18.750	1.6512e-03
11.000	19.000	2.4396e-03
11.000	19.250	3.5193e-03
11.000	19.500	5.0425e-03
11.000	19.750	7.1437e-03
11.000	20.000	9.9008e-03
11.000	20.250	1.3276e-02
11.000	20.500	1.5390e-02
11.000	20.750	1.5728e-02
11.000	21.000	1.6176e-02
11.000	21.250	1.6892e-02
11.000	21.500	1.7330e-02
11.000	21.750	1.7386e-02
11.000	22.000	1.7408e-02
11.000	22.250	1.7421e-02
11.000	22.500	1.7429e-02
11.000	22.750	1.7431e-02
11.000	23.000	1.7434e-02
11.000	23.250	1.7434e-02
11.000	23.500	1.7431e-02
11.000	23.750	1.7431e-02
11.000	24.000	1.7431e-02
11.250	17.000	5.4403e-05
11.250	17.250	7.6708e-05
11.250	17.500	1.1481e-04
11.250	17.750	1.8444e-04
11.250	18.000	3.0601e-04
11.250	18.250	4.9473e-04
11.250	18.500	7.7095e-04
11.250	18.750	1.1790e-03
11.250	19.000	1.7468e-03
11.250	19.250	2.5458e-03
11.250	19.500	3.6533e-03
11.250	19.750	5.2232e-03
11.250	20.000	7.3753e-03
11.250	20.250	1.0239e-02
11.250	20.500	1.3736e-02
11.250	20.750	1.5328e-02
11.250	21.000	1.5710e-02
11.250	21.250	1.6207e-02
11.250	21.500	1.6986e-02
11.250	21.750	1.7315e-02
11.250	22.000	1.7374e-02
11.250	22.250	1.7400e-02
11.250	22.500	1.7418e-02
11.250	22.750	1.7428e-02
11.250	23.000	1.7431e-02
11.250	23.250	1.7434e-02
11.250	23.500	1.7435e-02
11.250	23.750	1.7432e-02
11.250	24.000	1.7431e-02
11.500	17.000	4.0905e-05
11.500	17.250	5.6543e-05
11.500	17.500	8.3786e-05
11.500	17.750	1.3366e-04
11.500	18.000	2.1959e-04
11.500	18.250	3.5267e-04
11.500	18.500	5.4716e-04
11.500	18.750	8.3695e-04
11.500	19.000	1.2401e-03
11.500	19.250	1.8159e-03
11.500	19.500	2.6216e-03
11.500	19.750	3.7633e-03
11.500	20.000	5.3738e-03
11.500	20.250	7.5983e-03
11.500	20.500	1.0558e-02
11.500	20.750	1.4048e-02
11.500	21.000	1.5280e-02
11.500	21.250	1.5727e-02
11.500	21.500	1.6314e-02
11.500	21.750	1.7114e-02
11.500	22.000	1.7295e-02
11.500	22.250	1.7361e-02
11.500	22.500	1.7391e-02
11.500	22.750	1.7412e-02
11.500	23.000	1.7426e-02
11.500	23.250	1.7430e-02
11.500	23.500	1.7433e-02
11.500	23.750	1.7435e-02
11.500	24.000	1.7434e-02
11.750	17.000	3.1605e-05
11.750	17.250	4.2469e-05
11.750	17.500	6.1646e-05
11.750	17.750	9.6543e-05
11.750	18.000	1.5605e-04
11.750	18.250	2.4831e-04
11.750	18.500	3.8461e-04
11.750	18.750	5.8469e-04
11.750	19.000	8.7687e-04
11.750	19.250	1.2865e-03
11.750	19.500	1.8730e-03
11.750	19.750	2.6981e-03
11.750	20.000	3.8615e-03
11.750	20.250	5.5069e-03
11.750	20.500	7.8066e-03
11.750	20.750	1.0849e-02
11.750	21.000	1.4353e-02
11.750	21.250	1.5228e-02
11.750	21.500	1.5794e-02
11.750	21.750	1.6472e-02
11.750	22.000	1.7169e-02
11.750	22.250	1.7274e-02
11.750	22.500	1.7345e-02
11.750	22.750	1.7379e-02
11.750	23.000	1.7405e-02
11.750	23.250	1.7424e-02
11.750	23.500	1.7429e-02
11.750	23.750	1.7433e-02
11.750	24.000	1.7435e-02
12.000	17.000	2.4774e-05
12.000	17.250	3.2510e-05
12.000	17.500	4.5844e-05
12.000	17.750	6.9712e-05
12.000	18.000	1.0988e-04
12.000	18.250	1.7259e-04
12.000	18.500	2.6798e-04
12.000	18.750	4.0947e-04
12.000	19.000	6.1646e-04
12.000	19.250	9.0971e-04
12.000	19.500	1.3272e-03
12.000	19.750	1.9179e-03
12.000	20.000	2.7516e-03
12.000	20.250	3.9411e-03
12.000	20.500	5.6245e-03
12.000	20.750	7.9800e-03
12.000	21.000	1.1093e-02
12.000	21.250	1.4131e-02
12.000	21.500	1.5197e-02
12.000	21.750	1.5866e-02
12.000	22.000	1.6634e-02
12.000	22.250	1.7146e-02
12.000	22.500	1.7252e-02
12.000	22.750	1.7326e-02
12.000	23.000	1.7364e-02
12.000	23.250	1.7396e-02
12.000	23.500	1.7420e-02
12.000	23.750	1.7427e-02
12.000	24.000	1.7432e-02
12.250	17.000	2.0000e-05
12.250	17.250	2.5432e-05
12.250	17.500	3.4486e-05
12.250	17.750	5.0206e-05
12.250	18.000	7.6955e-05
12.250	18.250	1.2000e-04
12.250	18.500	1.8650e-04
12.250	18.750	2.8626e-04
12.250	19.000	4.3226e-04
12.250	19.250	6.4222e-04
12.250	19.500	9.3794e-04
12.250	19.750	1.3575e-03
12.250	20.000	1.9550e-03
12.250	20.250	2.8020e-03
12.250	20.500	3.9999e-03
12.250	20.750	5.7137e-03
12.250	21.000	8.1170e-03
12.250	21.250	1.1265e-02
12.250	21.500	1.4100e-02
12.250	21.750	1.5135e-02
12.250	22.000	1.5950e-02
12.250	22.250	1.6773e-02
12.250	22.500	1.7110e-02
12.250	22.750	1.7222e-02
12.250	23.000	1.7302e-02
12.250	23.250	1.7344e-02
12.250	23.500	1.7384e-02
12.250	23.750	1.7416e-02
12.250	24.000	1.7425e-02
12.500	17.000	1.3827e-05
12.500	17.250	2.0412e-05
12.500	17.500	2.6584e-05
12.500	17.750	3.6790e-05
12.500	18.000	5.4239e-05
12.500	18.250	8.3128e-05
12.500	18.500	1.2938e-04
12.500	18.750	1.9967e-04
12.500	19.000	3.0263e-04
12.500	19.250	4.5078e-04
12.500	19.500	6.6222e-04
12.500	19.750	9.6091e-04
12.500	20.000	1.3842e-03
12.500	20.250	1.9891e-03
12.500	20.500	2.8328e-03
12.500	20.750	4.0484e-03
12.500	21.000	5.7863e-03
12.500	21.250	8.2124e-03
12.500	21.500	1.1283e-02
12.500	21.750	1.3849e-02
12.500	22.000	1.5055e-02
12.500	22.250	1.6014e-02
12.500	22.500	1.6808e-02
12.500	22.750	1.7057e-02
12.500	23.000	1.7181e-02
12.500	23.250	1.7267e-02
12.500	23.500	1.7316e-02
12.500	23.750	1.7366e-02
12.500	24.000	1.7410e-02
12.750	17.000	7.4074e-06
12.750	17.250	1.4897e-05
12.750	17.500	2.0823e-05
12.750	17.750	2.7737e-05
12.750	18.000	3.9177e-05
12.750	18.250	5.8683e-05
12.750	18.500	9.0041e-05
12.750	18.750	1.3885e-04
12.750	19.000	2.1095e-04
12.750	19.250	3.1638e-04
12.750	19.500	4.6527e-04
12.750	19.750	6.7737e-04
12.750	20.000	9.7490e-04
12.750	20.250	1.4033e-03
12.750	20.500	2.0031e-03
12.750	20.750	2.8476e-03
12.750	21.000	4.0772e-03
12.750	21.250	5.8207e-03
12.750	21.500	8.1822e-03
12.750	21.750	1.1234e-02
12.750	22.000	1.3534e-02
12.750	22.250	1.4932e-02
12.750	22.500	1.6018e-02
12.750	22.750	1.6742e-02
12.750	23.000	1.6977e-02
12.750	23.250	1.7120e-02
12.750	23.500	1.7217e-02
12.750	23.750	1.7275e-02
12.750	24.000	1.7340e-02
13.000	17.000	1.8107e-06
13.000	17.250	4.0329e-06
13.000	17.500	1.2099e-05
13.000	17.750	2.1070e-05
13.000	18.000	2.9300e-05
13.000	18.250	4.2469e-05
13.000	18.500	6.3539e-05
13.000	18.750	9.6790e-05
13.000	19.000	1.4691e-04
13.000	19.250	2.2058e-04
13.000	19.500	3.2584e-04
13.000	19.750	4.7564e-04
13.000	20.000	6.8798e-04
13.000	20.250	9.8609e-04
13.000	20.500	1.4150e-03
13.000	20.750	2.0216e-03
13.000	21.000	2.8784e-03
13.000	21.250	4.0987e-03
13.000	21.500	5.8043e-03
13.000	21.750	8.1254e-03
13.000	22.000	1.0972e-02
13.000	22.250	1.3151e-02
13.000	22.500	1.4719e-02
13.000	22.750	1.5863e-02
13.000	23.000	1.6583e-02
13.000	23.250	1.6854e-02
13.000	23.500	1.7027e-02
13.000	23.750	1.7140e-02
13.000	24.000	1.7211e-02
13.250	17.000	1.0700e-06
13.250	17.250	1.9753e-06
13.250	17.500	4.6091e-06
13.250	17.750	1.0700e-05
13.250	18.000	1.9259e-05
13.250	18.250	3.1605e-05
13.250	18.500	4.5844e-05
13.250	18.750	6.8148e-05
13.250	19.000	1.0206e-04
13.250	19.250	1.5342e-04
13.250	19.500	2.2733e-04
13.250	19.750	3.3284e-04
13.250	20.000	4.8222e-04
13.250	20.250	6.9523e-04
13.250	20.500	9.9514e-04
13.250	20.750	1.4210e-03
13.250	21.000	2.0319e-03
13.250	21.250	2.8807e-03
13.250	21.500	4.0525e-03
13.250	21.750	5.7018e-03
13.250	22.000	7.8858e-03
13.250	22.250	1.0500e-02
13.250	22.500	1.2560e-02
13.250	22.750	1.4220e-02
13.250	23.000	1.5480e-02
13.250	23.250	1.6326e-02
13.250	23.500	1.6667e-02
13.250	23.750	1.6884e-02
13.250	24.000	1.7020e-02
13.500	17.000	1.0000e-07
13.500	17.250	1.1523e-06
13.500	17.500	2.6337e-06
13.500	17.750	5.7613e-06
13.500	18.000	1.2840e-05
13.500	18.250	2.1481e-05
13.500	18.500	3.3827e-05
13.500	18.750	4.8724e-05
13.500	19.000	7.1770e-05
13.500	19.250	1.0617e-04
13.500	19.500	1.5761e-04
13.500	19.750	2.3136e-04
13.500	20.000	3.3704e-04
13.500	20.250	4.8675e-04
13.500	20.500	7.0049e-04
13.500	20.750	1.0002e-03
13.500	21.000	1.4253e-03
13.500	21.250	2.0257e-03
13.500	21.500	2.8405e-03
13.500	21.750	3.9754e-03
13.500	22.000	5.4705e-03
13.500	22.250	7.3792e-03
13.500	22.500	9.7747e-03
13.500	22.750	1.1777e-02
13.500	23.000	1.3567e-02
13.500	23.250	1.4966e-02
13.500	23.500	1.5953e-02
13.500	23.750	1.6383e-02
13.500	24.000	1.6664e-02
13.750	17.000	1.0000e-07
13.750	17.250	1.0000e-07
13.750	17.500	1.4815e-06
13.750	17.750	3.0453e-06
13.750	18.000	7.1605e-06
13.750	18.250	1.4897e-05
13.750	18.500	2.3045e-05
13.750	18.750	3.5720e-05
13.750	19.000	5.1029e-05
13.750	19.250	7.4486e-05
13.750	19.500	1.0938e-04
13.750	19.750	1.6058e-04
13.750	20.000	2.3457e-04
13.750	20.250	3.4016e-04
13.750	20.500	4.9037e-04
13.750	20.750	7.0321e-04
13.750	21.000	1.0015e-03
13.750	21.250	1.4210e-03
13.750	21.500	1.9988e-03
13.750	21.750	2.7779e-03
13.750	22.000	3.7440e-03
13.750	22.250	4.9174e-03
13.750	22.500	6.6425e-03
13.750	22.750	8.9662e-03
13.750	23.000	1.0895e-02
13.750	23.250	1.2766e-02
13.750	23.500	1.4284e-02
13.750	23.750	1.5419e-02
13.750	24.000	1.5969e-02
14.000	17.000	1.0000e-07
14.000	17.250	1.0000e-07
14.000	17.500	9.0535e-07
14.000	17.750	1.8107e-06
14.000	18.000	3.7860e-06
14.000	18.250	8.4774e-06
14.000	18.500	1.6214e-05
14.000	18.750	2.5514e-05
14.000	19.000	3.7037e-05
14.000	19.250	5.2675e-05
14.000	19.500	7.6296e-05
14.000	19.750	1.1128e-04
14.000	20.000	1.6296e-04
14.000	20.250	2.3687e-04
14.000	20.500	3.4288e-04
14.000	20.750	4.9358e-04
14.000	21.000	7.0642e-04
14.000	21.250	1.0035e-03
14.000	21.500	1.4090e-03
14.000	21.750	1.9564e-03
14.000	22.000	2.6021e-03
14.000	22.250	3.2658e-03
14.000	22.500	4.1635e-03
14.000	22.750	5.8840e-03
14.000	23.000	8.0408e-03
14.000	23.250	9.9503e-03
14.000	23.500	1.1820e-02
14.000	23.750	1.3421e-02
14.000	24.000	1.4671e-02
