InwT 1262.79A  relative to Inci 1215.00A scaled to 1215A.
Hden   Phi(H)  Eq_Width (A)
 7.000	17.000	8.0741e-02
 7.000	17.250	6.5879e-02
 7.000	17.500	6.3499e-02
 7.000	17.750	5.6284e-02
 7.000	18.000	5.1150e-02
 7.000	18.250	4.7945e-02
 7.000	18.500	4.5983e-02
 7.000	18.750	4.5075e-02
 7.000	19.000	4.4606e-02
 7.000	19.250	4.4339e-02
 7.000	19.500	4.4227e-02
 7.000	19.750	4.4180e-02
 7.000	20.000	4.4159e-02
 7.000	20.250	4.4150e-02
 7.000	20.500	4.4145e-02
 7.000	20.750	4.4142e-02
 7.000	21.000	4.4141e-02
 7.000	21.250	4.4141e-02
 7.000	21.500	4.4140e-02
 7.000	21.750	4.4140e-02
 7.000	22.000	4.4141e-02
 7.000	22.250	4.4141e-02
 7.000	22.500	4.4142e-02
 7.000	22.750	4.4142e-02
 7.000	23.000	4.4142e-02
 7.000	23.250	4.4142e-02
 7.000	23.500	4.4142e-02
 7.000	23.750	4.4142e-02
 7.000	24.000	4.4142e-02
 7.250	17.000	3.0521e-01
 7.250	17.250	7.6350e-02
 7.250	17.500	6.5589e-02
 7.250	17.750	6.3378e-02
 7.250	18.000	5.6220e-02
 7.250	18.250	5.1117e-02
 7.250	18.500	4.7929e-02
 7.250	18.750	4.5977e-02
 7.250	19.000	4.5073e-02
 7.250	19.250	4.4605e-02
 7.250	19.500	4.4338e-02
 7.250	19.750	4.4227e-02
 7.250	20.000	4.4180e-02
 7.250	20.250	4.4159e-02
 7.250	20.500	4.4150e-02
 7.250	20.750	4.4145e-02
 7.250	21.000	4.4142e-02
 7.250	21.250	4.4141e-02
 7.250	21.500	4.4140e-02
 7.250	21.750	4.4140e-02
 7.250	22.000	4.4140e-02
 7.250	22.250	4.4140e-02
 7.250	22.500	4.4140e-02
 7.250	22.750	4.4140e-02
 7.250	23.000	4.4141e-02
 7.250	23.250	4.4141e-02
 7.250	23.500	4.4141e-02
 7.250	23.750	4.4141e-02
 7.250	24.000	4.4141e-02
 7.500	17.000	4.4805e-01
 7.500	17.250	2.9529e-01
 7.500	17.500	7.2899e-02
 7.500	17.750	6.5381e-02
 7.500	18.000	6.3314e-02
 7.500	18.250	5.6185e-02
 7.500	18.500	5.1096e-02
 7.500	18.750	4.7919e-02
 7.500	19.000	4.5974e-02
 7.500	19.250	4.5071e-02
 7.500	19.500	4.4604e-02
 7.500	19.750	4.4338e-02
 7.500	20.000	4.4227e-02
 7.500	20.250	4.4180e-02
 7.500	20.500	4.4159e-02
 7.500	20.750	4.4150e-02
 7.500	21.000	4.4145e-02
 7.500	21.250	4.4142e-02
 7.500	21.500	4.4141e-02
 7.500	21.750	4.4140e-02
 7.500	22.000	4.4140e-02
 7.500	22.250	4.4140e-02
 7.500	22.500	4.4140e-02
 7.500	22.750	4.4140e-02
 7.500	23.000	4.4140e-02
 7.500	23.250	4.4140e-02
 7.500	23.500	4.4142e-02
 7.500	23.750	4.4140e-02
 7.500	24.000	4.4140e-02
 7.750	17.000	5.4912e-01
 7.750	17.250	4.3803e-01
 7.750	17.500	2.8696e-01
 7.750	17.750	7.0261e-02
 7.750	18.000	6.5227e-02
 7.750	18.250	6.3284e-02
 7.750	18.500	5.6169e-02
 7.750	18.750	5.1083e-02
 7.750	19.000	4.7913e-02
 7.750	19.250	4.5971e-02
 7.750	19.500	4.5070e-02
 7.750	19.750	4.4604e-02
 7.750	20.000	4.4338e-02
 7.750	20.250	4.4227e-02
 7.750	20.500	4.4180e-02
 7.750	20.750	4.4159e-02
 7.750	21.000	4.4150e-02
 7.750	21.250	4.4145e-02
 7.750	21.500	4.4142e-02
 7.750	21.750	4.4141e-02
 7.750	22.000	4.4140e-02
 7.750	22.250	4.4140e-02
 7.750	22.500	4.4140e-02
 7.750	22.750	4.4139e-02
 7.750	23.000	4.4140e-02
 7.750	23.250	4.4139e-02
 7.750	23.500	4.4139e-02
 7.750	23.750	4.4140e-02
 7.750	24.000	4.4139e-02
 8.000	17.000	6.1438e-01
 8.000	17.250	5.4304e-01
 8.000	17.500	4.2912e-01
 8.000	17.750	2.8186e-01
 8.000	18.000	7.2101e-02
 8.000	18.250	6.5090e-02
 8.000	18.500	6.3277e-02
 8.000	18.750	5.6165e-02
 8.000	19.000	5.1076e-02
 8.000	19.250	4.7909e-02
 8.000	19.500	4.5970e-02
 8.000	19.750	4.5070e-02
 8.000	20.000	4.4604e-02
 8.000	20.250	4.4338e-02
 8.000	20.500	4.4226e-02
 8.000	20.750	4.4180e-02
 8.000	21.000	4.4159e-02
 8.000	21.250	4.4150e-02
 8.000	21.500	4.4145e-02
 8.000	21.750	4.4142e-02
 8.000	22.000	4.4141e-02
 8.000	22.250	4.4140e-02
 8.000	22.500	4.4140e-02
 8.000	22.750	4.4140e-02
 8.000	23.000	4.4139e-02
 8.000	23.250	4.4140e-02
 8.000	23.500	4.4139e-02
 8.000	23.750	4.4139e-02
 8.000	24.000	4.4139e-02
 8.250	17.000	6.5275e-01
 8.250	17.250	6.0955e-01
 8.250	17.500	5.3490e-01
 8.250	17.750	4.1727e-01
 8.250	18.000	2.6933e-01
 8.250	18.250	6.9490e-02
 8.250	18.500	6.5044e-02
 8.250	18.750	6.3282e-02
 8.250	19.000	5.6169e-02
 8.250	19.250	5.1071e-02
 8.250	19.500	4.7906e-02
 8.250	19.750	4.5969e-02
 8.250	20.000	4.5069e-02
 8.250	20.250	4.4604e-02
 8.250	20.500	4.4338e-02
 8.250	20.750	4.4227e-02
 8.250	21.000	4.4180e-02
 8.250	21.250	4.4159e-02
 8.250	21.500	4.4150e-02
 8.250	21.750	4.4145e-02
 8.250	22.000	4.4142e-02
 8.250	22.250	4.4141e-02
 8.250	22.500	4.4140e-02
 8.250	22.750	4.4140e-02
 8.250	23.000	4.4139e-02
 8.250	23.250	4.4139e-02
 8.250	23.500	4.4139e-02
 8.250	23.750	4.4139e-02
 8.250	24.000	4.4139e-02
 8.500	17.000	6.7634e-01
 8.500	17.250	6.4915e-01
 8.500	17.500	6.0358e-01
 8.500	17.750	5.2334e-01
 8.500	18.000	3.9775e-01
 8.500	18.250	2.5109e-01
 8.500	18.500	6.5173e-02
 8.500	18.750	6.5029e-02
 8.500	19.000	6.3295e-02
 8.500	19.250	5.6179e-02
 8.500	19.500	5.1068e-02
 8.500	19.750	4.7904e-02
 8.500	20.000	4.5968e-02
 8.500	20.250	4.5069e-02
 8.500	20.500	4.4603e-02
 8.500	20.750	4.4338e-02
 8.500	21.000	4.4226e-02
 8.500	21.250	4.4180e-02
 8.500	21.500	4.4159e-02
 8.500	21.750	4.4150e-02
 8.500	22.000	4.4145e-02
 8.500	22.250	4.4142e-02
 8.500	22.500	4.4141e-02
 8.500	22.750	4.4140e-02
 8.500	23.000	4.4140e-02
 8.500	23.250	4.4140e-02
 8.500	23.500	4.4139e-02
 8.500	23.750	4.4139e-02
 8.500	24.000	4.4139e-02
 8.750	17.000	6.9149e-01
 8.750	17.250	6.7349e-01
 8.750	17.500	6.4441e-01
 8.750	17.750	5.9395e-01
 8.750	18.000	5.0423e-01
 8.750	18.250	3.6663e-01
 8.750	18.500	2.1499e-01
 8.750	18.750	6.2753e-02
 8.750	19.000	6.5031e-02
 8.750	19.250	6.3311e-02
 8.750	19.500	5.6192e-02
 8.750	19.750	5.1065e-02
 8.750	20.000	4.7903e-02
 8.750	20.250	4.5967e-02
 8.750	20.500	4.5069e-02
 8.750	20.750	4.4603e-02
 8.750	21.000	4.4338e-02
 8.750	21.250	4.4226e-02
 8.750	21.500	4.4180e-02
 8.750	21.750	4.4159e-02
 8.750	22.000	4.4150e-02
 8.750	22.250	4.4145e-02
 8.750	22.500	4.4142e-02
 8.750	22.750	4.4141e-02
 8.750	23.000	4.4140e-02
 8.750	23.250	4.4140e-02
 8.750	23.500	4.4140e-02
 8.750	23.750	4.4140e-02
 8.750	24.000	4.4139e-02
 9.000	17.000	7.0144e-01
 9.000	17.250	6.8908e-01
 9.000	17.500	6.6942e-01
 9.000	17.750	6.3663e-01
 9.000	18.000	5.7760e-01
 9.000	18.250	4.7143e-01
 9.000	18.500	3.2192e-01
 9.000	18.750	1.8813e-01
 9.000	19.000	6.2464e-02
 9.000	19.250	6.5022e-02
 9.000	19.500	6.3325e-02
 9.000	19.750	5.6206e-02
 9.000	20.000	5.1063e-02
 9.000	20.250	4.7902e-02
 9.000	20.500	4.5967e-02
 9.000	20.750	4.5069e-02
 9.000	21.000	4.4603e-02
 9.000	21.250	4.4338e-02
 9.000	21.500	4.4227e-02
 9.000	21.750	4.4180e-02
 9.000	22.000	4.4159e-02
 9.000	22.250	4.4150e-02
 9.000	22.500	4.4145e-02
 9.000	22.750	4.4142e-02
 9.000	23.000	4.4141e-02
 9.000	23.250	4.4140e-02
 9.000	23.500	4.4140e-02
 9.000	23.750	4.4139e-02
 9.000	24.000	4.4140e-02
 9.250	17.000	7.0793e-01
 9.250	17.250	6.9921e-01
 9.250	17.500	6.8543e-01
 9.250	17.750	6.6245e-01
 9.250	18.000	6.2198e-01
 9.250	18.250	5.4940e-01
 9.250	18.500	4.2673e-01
 9.250	18.750	2.6954e-01
 9.250	19.000	1.3825e-01
 9.250	19.250	6.2185e-02
 9.250	19.500	6.4990e-02
 9.250	19.750	6.3333e-02
 9.250	20.000	5.6218e-02
 9.250	20.250	5.1061e-02
 9.250	20.500	4.7900e-02
 9.250	20.750	4.5966e-02
 9.250	21.000	4.5069e-02
 9.250	21.250	4.4603e-02
 9.250	21.500	4.4330e-02
 9.250	21.750	4.4213e-02
 9.250	22.000	4.4166e-02
 9.250	22.250	4.4146e-02
 9.250	22.500	4.4149e-02
 9.250	22.750	4.4144e-02
 9.250	23.000	4.4142e-02
 9.250	23.250	4.4141e-02
 9.250	23.500	4.4140e-02
 9.250	23.750	4.4140e-02
 9.250	24.000	4.4140e-02
 9.500	17.000	7.1196e-01
 9.500	17.250	7.0574e-01
 9.500	17.500	6.9577e-01
 9.500	17.750	6.7906e-01
 9.500	18.000	6.4976e-01
 9.500	18.250	5.9862e-01
 9.500	18.500	5.1094e-01
 9.500	18.750	3.7577e-01
 9.500	19.000	2.2810e-01
 9.500	19.250	9.9669e-02
 9.500	19.500	6.1886e-02
 9.500	19.750	6.4913e-02
 9.500	20.000	6.3332e-02
 9.500	20.250	5.6228e-02
 9.500	20.500	5.1059e-02
 9.500	20.750	4.7898e-02
 9.500	21.000	4.5956e-02
 9.500	21.250	4.5056e-02
 9.500	21.500	4.4590e-02
 9.500	21.750	4.4321e-02
 9.500	22.000	4.4203e-02
 9.500	22.250	4.4157e-02
 9.500	22.500	4.4136e-02
 9.500	22.750	4.4125e-02
 9.500	23.000	4.4121e-02
 9.500	23.250	4.4119e-02
 9.500	23.500	4.4123e-02
 9.500	23.750	4.4122e-02
 9.500	24.000	4.4122e-02
 9.750	17.000	7.1438e-01
 9.750	17.250	7.0980e-01
 9.750	17.500	7.0237e-01
 9.750	17.750	6.8986e-01
 9.750	18.000	6.6791e-01
 9.750	18.250	6.2936e-01
 9.750	18.500	5.6625e-01
 9.750	18.750	4.6750e-01
 9.750	19.000	3.2731e-01
 9.750	19.250	1.8118e-01
 9.750	19.500	6.1328e-02
 9.750	19.750	6.1686e-02
 9.750	20.000	6.4815e-02
 9.750	20.250	6.3319e-02
 9.750	20.500	5.6235e-02
 9.750	20.750	5.1057e-02
 9.750	21.000	4.7897e-02
 9.750	21.250	4.5962e-02
 9.750	21.500	4.5058e-02
 9.750	21.750	4.4590e-02
 9.750	22.000	4.4323e-02
 9.750	22.250	4.4206e-02
 9.750	22.500	4.4156e-02
 9.750	22.750	4.4136e-02
 9.750	23.000	4.4127e-02
 9.750	23.250	4.4122e-02
 9.750	23.500	4.4119e-02
 9.750	23.750	4.4117e-02
 9.750	24.000	4.4116e-02
10.000	17.000	7.1571e-01
10.000	17.250	7.1216e-01
10.000	17.500	7.0643e-01
10.000	17.750	6.9653e-01
10.000	18.000	6.7906e-01
10.000	18.250	6.4889e-01
10.000	18.500	6.0158e-01
10.000	18.750	5.3044e-01
10.000	19.000	4.2257e-01
10.000	19.250	2.8375e-01
10.000	19.500	1.3034e-01
10.000	19.750	6.0784e-02
10.000	20.000	6.1690e-02
10.000	20.250	6.4689e-02
10.000	20.500	6.3297e-02
10.000	20.750	5.6239e-02
10.000	21.000	5.1056e-02
10.000	21.250	4.7897e-02
10.000	21.500	4.5964e-02
10.000	21.750	4.5064e-02
10.000	22.000	4.4591e-02
10.000	22.250	4.4324e-02
10.000	22.500	4.4209e-02
10.000	22.750	4.4158e-02
10.000	23.000	4.4135e-02
10.000	23.250	4.4126e-02
10.000	23.500	4.4122e-02
10.000	23.750	4.4119e-02
10.000	24.000	4.4118e-02
10.250	17.000	7.1652e-01
10.250	17.250	7.1339e-01
10.250	17.500	7.0868e-01
10.250	17.750	7.0052e-01
10.250	18.000	6.8583e-01
10.250	18.250	6.6146e-01
10.250	18.500	6.2482e-01
10.250	18.750	5.7123e-01
10.250	19.000	4.9351e-01
10.250	19.250	3.8578e-01
10.250	19.500	2.4536e-01
10.250	19.750	9.8594e-02
10.250	20.000	6.0552e-02
10.250	20.250	6.1889e-02
10.250	20.500	6.4734e-02
10.250	20.750	6.3277e-02
10.250	21.000	5.6240e-02
10.250	21.250	5.1054e-02
10.250	21.500	4.7896e-02
10.250	21.750	4.5964e-02
10.250	22.000	4.5067e-02
10.250	22.250	4.4596e-02
10.250	22.500	4.4325e-02
10.250	22.750	4.4211e-02
10.250	23.000	4.4161e-02
10.250	23.250	4.4138e-02
10.250	23.500	4.4126e-02
10.250	23.750	4.4121e-02
10.250	24.000	4.4118e-02
10.500	17.000	7.1700e-01
10.500	17.250	7.1408e-01
10.500	17.500	7.0974e-01
10.500	17.750	7.0250e-01
10.500	18.000	6.8953e-01
10.500	18.250	6.6862e-01
10.500	18.500	6.3968e-01
10.500	18.750	5.9956e-01
10.500	19.000	5.4632e-01
10.500	19.250	4.7293e-01
10.500	19.500	3.6563e-01
10.500	19.750	2.1709e-01
10.500	20.000	7.1519e-02
10.500	20.250	6.1304e-02
10.500	20.500	6.2524e-02
10.500	20.750	6.5029e-02
10.500	21.000	6.3275e-02
10.500	21.250	5.6238e-02
10.500	21.500	5.1054e-02
10.500	21.750	4.7895e-02
10.500	22.000	4.5964e-02
10.500	22.250	4.5068e-02
10.500	22.500	4.4601e-02
10.500	22.750	4.4325e-02
10.500	23.000	4.4213e-02
10.500	23.250	4.4164e-02
10.500	23.500	4.4141e-02
10.500	23.750	4.4130e-02
10.500	24.000	4.4124e-02
10.750	17.000	7.1714e-01
10.750	17.250	7.1431e-01
10.750	17.500	7.1004e-01
10.750	17.750	7.0275e-01
10.750	18.000	6.9058e-01
10.750	18.250	6.7245e-01
10.750	18.500	6.4889e-01
10.750	18.750	6.2015e-01
10.750	19.000	5.8402e-01
10.750	19.250	5.3375e-01
10.750	19.500	4.5875e-01
10.750	19.750	3.4538e-01
10.750	20.000	1.8548e-01
10.750	20.250	5.9535e-02
10.750	20.500	6.2197e-02
10.750	20.750	6.3391e-02
10.750	21.000	6.5676e-02
10.750	21.250	6.3316e-02
10.750	21.500	5.6236e-02
10.750	21.750	5.1053e-02
10.750	22.000	4.7896e-02
10.750	22.250	4.5963e-02
10.750	22.500	4.5068e-02
10.750	22.750	4.4603e-02
10.750	23.000	4.4327e-02
10.750	23.250	4.4213e-02
10.750	23.500	4.4165e-02
10.750	23.750	4.4143e-02
10.750	24.000	4.4133e-02
11.000	17.000	7.1629e-01
11.000	17.250	7.1403e-01
11.000	17.500	7.0944e-01
11.000	17.750	7.0158e-01
11.000	18.000	6.8945e-01
11.000	18.250	6.7300e-01
11.000	18.500	6.5306e-01
11.000	18.750	6.3202e-01
11.000	19.000	6.0819e-01
11.000	19.250	5.7434e-01
11.000	19.500	5.2324e-01
11.000	19.750	4.4402e-01
11.000	20.000	3.2337e-01
11.000	20.250	1.5284e-01
11.000	20.500	6.0891e-02
11.000	20.750	6.3344e-02
11.000	21.000	6.4917e-02
11.000	21.250	6.6984e-02
11.000	21.500	6.3413e-02
11.000	21.750	5.6235e-02
11.000	22.000	5.1051e-02
11.000	22.250	4.7896e-02
11.000	22.500	4.5963e-02
11.000	22.750	4.5068e-02
11.000	23.000	4.4604e-02
11.000	23.250	4.4334e-02
11.000	23.500	4.4214e-02
11.000	23.750	4.4166e-02
11.000	24.000	4.4145e-02
11.250	17.000	7.1443e-01
11.250	17.250	7.1261e-01
11.250	17.500	7.0765e-01
11.250	17.750	6.9875e-01
11.250	18.000	6.8576e-01
11.250	18.250	6.6966e-01
11.250	18.500	6.5322e-01
11.250	18.750	6.3773e-01
11.250	19.000	6.2166e-01
11.250	19.250	5.9924e-01
11.250	19.500	5.6524e-01
11.250	19.750	5.1220e-01
11.250	20.000	4.2935e-01
11.250	20.250	3.0034e-01
11.250	20.500	1.1956e-01
11.250	20.750	6.1510e-02
11.250	21.000	6.5120e-02
11.250	21.250	6.7169e-02
11.250	21.500	6.9149e-02
11.250	21.750	6.3587e-02
11.250	22.000	5.6240e-02
11.250	22.250	5.1051e-02
11.250	22.500	4.7895e-02
11.250	22.750	4.5962e-02
11.250	23.000	4.5068e-02
11.250	23.250	4.4604e-02
11.250	23.500	4.4337e-02
11.250	23.750	4.4216e-02
11.250	24.000	4.4167e-02
11.500	17.000	7.1272e-01
11.500	17.250	7.1000e-01
11.500	17.500	7.0414e-01
11.500	17.750	6.9357e-01
11.500	18.000	6.7848e-01
11.500	18.250	6.6194e-01
11.500	18.500	6.4834e-01
11.500	18.750	6.3685e-01
11.500	19.000	6.2571e-01
11.500	19.250	6.1148e-01
11.500	19.500	5.8998e-01
11.500	19.750	5.5549e-01
11.500	20.000	5.0124e-01
11.500	20.250	4.1355e-01
11.500	20.500	2.7595e-01
11.500	20.750	9.3095e-02
11.500	21.000	6.3426e-02
11.500	21.250	6.8314e-02
11.500	21.500	7.0931e-02
11.500	21.750	7.2053e-02
11.500	22.000	6.3800e-02
11.500	22.250	5.6252e-02
11.500	22.500	5.1050e-02
11.500	22.750	4.7896e-02
11.500	23.000	4.5961e-02
11.500	23.250	4.5068e-02
11.500	23.500	4.4604e-02
11.500	23.750	4.4338e-02
11.500	24.000	4.4222e-02
11.750	17.000	7.1105e-01
11.750	17.250	7.0653e-01
11.750	17.500	6.9852e-01
11.750	17.750	6.8479e-01
11.750	18.000	6.6637e-01
11.750	18.250	6.4970e-01
11.750	18.500	6.3830e-01
11.750	18.750	6.2984e-01
11.750	19.000	6.2179e-01
11.750	19.250	6.1249e-01
11.750	19.500	5.9979e-01
11.750	19.750	5.7913e-01
11.750	20.000	5.4552e-01
11.750	20.250	4.8984e-01
11.750	20.500	3.9693e-01
11.750	20.750	2.4970e-01
11.750	21.000	6.1144e-02
11.750	21.250	6.6497e-02
11.750	21.500	7.2706e-02
11.750	21.750	7.5972e-02
11.750	22.000	7.4298e-02
11.750	22.250	6.4011e-02
11.750	22.500	5.6270e-02
11.750	22.750	5.1048e-02
11.750	23.000	4.7897e-02
11.750	23.250	4.5960e-02
11.750	23.500	4.5068e-02
11.750	23.750	4.4604e-02
11.750	24.000	4.4338e-02
12.000	17.000	7.0961e-01
12.000	17.250	7.0187e-01
12.000	17.500	6.8953e-01
12.000	17.750	6.7071e-01
12.000	18.000	6.4902e-01
12.000	18.250	6.3331e-01
12.000	18.500	6.2325e-01
12.000	18.750	6.1633e-01
12.000	19.000	6.1052e-01
12.000	19.250	6.0504e-01
12.000	19.500	5.9790e-01
12.000	19.750	5.8782e-01
12.000	20.000	5.6937e-01
12.000	20.250	5.3595e-01
12.000	20.500	4.7827e-01
12.000	20.750	3.7936e-01
12.000	21.000	2.2256e-01
12.000	21.250	6.9257e-02
12.000	21.500	7.0882e-02
12.000	21.750	7.8732e-02
12.000	22.000	8.1391e-02
12.000	22.250	7.5395e-02
12.000	22.500	6.4243e-02
12.000	22.750	5.6291e-02
12.000	23.000	5.1045e-02
12.000	23.250	4.7898e-02
12.000	23.500	4.5958e-02
12.000	23.750	4.5067e-02
12.000	24.000	4.4604e-02
12.250	17.000	7.0276e-01
12.250	17.250	6.9265e-01
12.250	17.500	6.7487e-01
12.250	17.750	6.4995e-01
12.250	18.000	6.2728e-01
12.250	18.250	6.1260e-01
12.250	18.500	6.0439e-01
12.250	18.750	5.9870e-01
12.250	19.000	5.9469e-01
12.250	19.250	5.9198e-01
12.250	19.500	5.8940e-01
12.250	19.750	5.8529e-01
12.250	20.000	5.7775e-01
12.250	20.250	5.5993e-01
12.250	20.500	5.2658e-01
12.250	20.750	4.6623e-01
12.250	21.000	3.6072e-01
12.250	21.250	1.9473e-01
12.250	21.500	6.7790e-02
12.250	21.750	7.6927e-02
12.250	22.000	8.5907e-02
12.250	22.250	8.6760e-02
12.250	22.500	7.6364e-02
12.250	22.750	6.4466e-02
12.250	23.000	5.6308e-02
12.250	23.250	5.1039e-02
12.250	23.500	4.7898e-02
12.250	23.750	4.5956e-02
12.250	24.000	4.5066e-02
12.500	17.000	5.9586e-01
12.500	17.250	6.6929e-01
12.500	17.500	6.4743e-01
12.500	17.750	6.2190e-01
12.500	18.000	6.0242e-01
12.500	18.250	5.9084e-01
12.500	18.500	5.8378e-01
12.500	18.750	5.7971e-01
12.500	19.000	5.7778e-01
12.500	19.250	5.7737e-01
12.500	19.500	5.7765e-01
12.500	19.750	5.7751e-01
12.500	20.000	5.7517e-01
12.500	20.250	5.6818e-01
12.500	20.500	5.5106e-01
12.500	20.750	5.1677e-01
12.500	21.000	4.5330e-01
12.500	21.250	3.4052e-01
12.500	21.500	1.7548e-01
12.500	21.750	7.4743e-02
12.500	22.000	8.4949e-02
12.500	22.250	9.3887e-02
12.500	22.500	9.0949e-02
12.500	22.750	7.7300e-02
12.500	23.000	6.4713e-02
12.500	23.250	5.6318e-02
12.500	23.500	5.1030e-02
12.500	23.750	4.7897e-02
12.500	24.000	4.5953e-02
12.750	17.000	3.7759e-01
12.750	17.250	5.7831e-01
12.750	17.500	6.0622e-01
12.750	17.750	5.8876e-01
12.750	18.000	5.7378e-01
12.750	18.250	5.6628e-01
12.750	18.500	5.6246e-01
12.750	18.750	5.6083e-01
12.750	19.000	5.6098e-01
12.750	19.250	5.6243e-01
12.750	19.500	5.6485e-01
12.750	19.750	5.6708e-01
12.750	20.000	5.6805e-01
12.750	20.250	5.6608e-01
12.750	20.500	5.5939e-01
12.750	20.750	5.4176e-01
12.750	21.000	5.0584e-01
12.750	21.250	4.3856e-01
12.750	21.500	3.2413e-01
12.750	21.750	1.4970e-01
12.750	22.000	8.3562e-02
12.750	22.250	9.4251e-02
12.750	22.500	1.0229e-01
12.750	22.750	9.4334e-02
12.750	23.000	7.8048e-02
12.750	23.250	6.4953e-02
12.750	23.500	5.6340e-02
12.750	23.750	5.1020e-02
12.750	24.000	4.7893e-02
13.000	17.000	7.9347e-02
13.000	17.250	1.7221e-01
13.000	17.500	4.4503e-01
13.000	17.750	5.4535e-01
13.000	18.000	5.4453e-01
13.000	18.250	5.4076e-01
13.000	18.500	5.3985e-01
13.000	18.750	5.4138e-01
13.000	19.000	5.4443e-01
13.000	19.250	5.4817e-01
13.000	19.500	5.5158e-01
13.000	19.750	5.5528e-01
13.000	20.000	5.5810e-01
13.000	20.250	5.5908e-01
13.000	20.500	5.5697e-01
13.000	20.750	5.4975e-01
13.000	21.000	5.3042e-01
13.000	21.250	4.9263e-01
13.000	21.500	4.2471e-01
13.000	21.750	2.9602e-01
13.000	22.000	1.2721e-01
13.000	22.250	9.3282e-02
13.000	22.500	1.0424e-01
13.000	22.750	1.0874e-01
13.000	23.000	9.7014e-02
13.000	23.250	7.8918e-02
13.000	23.500	6.5246e-02
13.000	23.750	5.6348e-02
13.000	24.000	5.1003e-02
13.250	17.000	4.8870e-02
13.250	17.250	8.7560e-02
13.250	17.500	1.9153e-01
13.250	17.750	3.5915e-01
13.250	18.000	4.5790e-01
13.250	18.250	5.1536e-01
13.250	18.500	5.1652e-01
13.250	18.750	5.2001e-01
13.250	19.000	5.2596e-01
13.250	19.250	5.3240e-01
13.250	19.500	5.3837e-01
13.250	19.750	5.4316e-01
13.250	20.000	5.4692e-01
13.250	20.250	5.4948e-01
13.250	20.500	5.4976e-01
13.250	20.750	5.4676e-01
13.250	21.000	5.3787e-01
13.250	21.250	5.1610e-01
13.250	21.500	4.7643e-01
13.250	21.750	3.9559e-01
13.250	22.000	2.5748e-01
13.250	22.250	1.1128e-01
13.250	22.500	1.0214e-01
13.250	22.750	1.1108e-01
13.250	23.000	1.1257e-01
13.250	23.250	9.9524e-02
13.250	23.500	7.9642e-02
13.250	23.750	6.5401e-02
13.250	24.000	5.6322e-02
13.500	17.000	3.0148e-02
13.500	17.250	5.6498e-02
13.500	17.500	1.1677e-01
13.500	17.750	2.2523e-01
13.500	18.000	3.7693e-01
13.500	18.250	4.4692e-01
13.500	18.500	4.9183e-01
13.500	18.750	4.9747e-01
13.500	19.000	5.0506e-01
13.500	19.250	5.1387e-01
13.500	19.500	5.2251e-01
13.500	19.750	5.2985e-01
13.500	20.000	5.3528e-01
13.500	20.250	5.3864e-01
13.500	20.500	5.4010e-01
13.500	20.750	5.3905e-01
13.500	21.000	5.3356e-01
13.500	21.250	5.2153e-01
13.500	21.500	4.9654e-01
13.500	21.750	4.4545e-01
13.500	22.000	3.5168e-01
13.500	22.250	2.0930e-01
13.500	22.500	1.0551e-01
13.500	22.750	1.1152e-01
13.500	23.000	1.1774e-01
13.500	23.250	1.1690e-01
13.500	23.500	1.0197e-01
13.500	23.750	8.0288e-02
13.500	24.000	6.5496e-02
13.750	17.000	1.8964e-02
13.750	17.250	3.6231e-02
13.750	17.500	7.3176e-02
13.750	17.750	1.3128e-01
13.750	18.000	2.5474e-01
13.750	18.250	3.8446e-01
13.750	18.500	4.3092e-01
13.750	18.750	4.7260e-01
13.750	19.000	4.8225e-01
13.750	19.250	4.9273e-01
13.750	19.500	5.0354e-01
13.750	19.750	5.1353e-01
13.750	20.000	5.2154e-01
13.750	20.250	5.2722e-01
13.750	20.500	5.3017e-01
13.750	20.750	5.2982e-01
13.750	21.000	5.2609e-01
13.750	21.250	5.1669e-01
13.750	21.500	5.0101e-01
13.750	21.750	4.6427e-01
13.750	22.000	3.9862e-01
13.750	22.250	2.9295e-01
13.750	22.500	1.6490e-01
13.750	22.750	1.1533e-01
13.750	23.000	1.2264e-01
13.750	23.250	1.2634e-01
13.750	23.500	1.2159e-01
13.750	23.750	1.0422e-01
13.750	24.000	8.0771e-02
14.000	17.000	1.1897e-02
14.000	17.250	2.2120e-02
14.000	17.500	4.6132e-02
14.000	17.750	8.4882e-02
14.000	18.000	1.5051e-01
14.000	18.250	2.7181e-01
14.000	18.500	3.7693e-01
14.000	18.750	4.3114e-01
14.000	19.000	4.5702e-01
14.000	19.250	4.6937e-01
14.000	19.500	4.8211e-01
14.000	19.750	4.9425e-01
14.000	20.000	5.0466e-01
14.000	20.250	5.1295e-01
14.000	20.500	5.1831e-01
14.000	20.750	5.2040e-01
14.000	21.000	5.1808e-01
14.000	21.250	5.1011e-01
14.000	21.500	4.9761e-01
14.000	21.750	4.6945e-01
14.000	22.000	4.1743e-01
14.000	22.250	3.3775e-01
14.000	22.500	2.3620e-01
14.000	22.750	1.4246e-01
14.000	23.000	1.3715e-01
14.000	23.250	1.4137e-01
14.000	23.500	1.3899e-01
14.000	23.750	1.2851e-01
14.000	24.000	1.0589e-01
