InwC 6209.66A  relative to Inci 1215.00A scaled to 1215A.
Hden   Phi(H)  Eq_Width (A)
 7.000	17.000	1.7304e-02
 7.000	17.250	1.8092e-02
 7.000	17.500	1.8551e-02
 7.000	17.750	1.8559e-02
 7.000	18.000	1.8568e-02
 7.000	18.250	1.8579e-02
 7.000	18.500	1.8584e-02
 7.000	18.750	1.8586e-02
 7.000	19.000	1.8588e-02
 7.000	19.250	1.8590e-02
 7.000	19.500	1.8590e-02
 7.000	19.750	1.8591e-02
 7.000	20.000	1.8591e-02
 7.000	20.250	1.8591e-02
 7.000	20.500	1.8591e-02
 7.000	20.750	1.8591e-02
 7.000	21.000	1.8591e-02
 7.000	21.250	1.8591e-02
 7.000	21.500	1.8591e-02
 7.000	21.750	1.8591e-02
 7.000	22.000	1.8592e-02
 7.000	22.250	1.8592e-02
 7.000	22.500	1.8592e-02
 7.000	22.750	1.8592e-02
 7.000	23.000	1.8592e-02
 7.000	23.250	1.8592e-02
 7.000	23.500	1.8592e-02
 7.000	23.750	1.8592e-02
 7.000	24.000	1.8592e-02
 7.250	17.000	1.2878e-02
 7.250	17.250	1.7367e-02
 7.250	17.500	1.8096e-02
 7.250	17.750	1.8551e-02
 7.250	18.000	1.8560e-02
 7.250	18.250	1.8568e-02
 7.250	18.500	1.8578e-02
 7.250	18.750	1.8584e-02
 7.250	19.000	1.8586e-02
 7.250	19.250	1.8588e-02
 7.250	19.500	1.8590e-02
 7.250	19.750	1.8590e-02
 7.250	20.000	1.8591e-02
 7.250	20.250	1.8591e-02
 7.250	20.500	1.8591e-02
 7.250	20.750	1.8591e-02
 7.250	21.000	1.8591e-02
 7.250	21.250	1.8591e-02
 7.250	21.500	1.8591e-02
 7.250	21.750	1.8591e-02
 7.250	22.000	1.8591e-02
 7.250	22.250	1.8591e-02
 7.250	22.500	1.8591e-02
 7.250	22.750	1.8591e-02
 7.250	23.000	1.8591e-02
 7.250	23.250	1.8591e-02
 7.250	23.500	1.8591e-02
 7.250	23.750	1.8591e-02
 7.250	24.000	1.8592e-02
 7.500	17.000	9.4814e-03
 7.500	17.250	1.3042e-02
 7.500	17.500	1.7413e-02
 7.500	17.750	1.8099e-02
 7.500	18.000	1.8551e-02
 7.500	18.250	1.8560e-02
 7.500	18.500	1.8568e-02
 7.500	18.750	1.8578e-02
 7.500	19.000	1.8584e-02
 7.500	19.250	1.8586e-02
 7.500	19.500	1.8588e-02
 7.500	19.750	1.8590e-02
 7.500	20.000	1.8590e-02
 7.500	20.250	1.8591e-02
 7.500	20.500	1.8591e-02
 7.500	20.750	1.8591e-02
 7.500	21.000	1.8591e-02
 7.500	21.250	1.8591e-02
 7.500	21.500	1.8591e-02
 7.500	21.750	1.8591e-02
 7.500	22.000	1.8591e-02
 7.500	22.250	1.8591e-02
 7.500	22.500	1.8591e-02
 7.500	22.750	1.8591e-02
 7.500	23.000	1.8591e-02
 7.500	23.250	1.8591e-02
 7.500	23.500	1.8592e-02
 7.500	23.750	1.8591e-02
 7.500	24.000	1.8591e-02
 7.750	17.000	6.6647e-03
 7.750	17.250	9.6783e-03
 7.750	17.500	1.3175e-02
 7.750	17.750	1.7448e-02
 7.750	18.000	1.8102e-02
 7.750	18.250	1.8551e-02
 7.750	18.500	1.8560e-02
 7.750	18.750	1.8568e-02
 7.750	19.000	1.8578e-02
 7.750	19.250	1.8584e-02
 7.750	19.500	1.8586e-02
 7.750	19.750	1.8588e-02
 7.750	20.000	1.8590e-02
 7.750	20.250	1.8590e-02
 7.750	20.500	1.8591e-02
 7.750	20.750	1.8591e-02
 7.750	21.000	1.8591e-02
 7.750	21.250	1.8591e-02
 7.750	21.500	1.8591e-02
 7.750	21.750	1.8591e-02
 7.750	22.000	1.8591e-02
 7.750	22.250	1.8591e-02
 7.750	22.500	1.8591e-02
 7.750	22.750	1.8591e-02
 7.750	23.000	1.8591e-02
 7.750	23.250	1.8591e-02
 7.750	23.500	1.8591e-02
 7.750	23.750	1.8591e-02
 7.750	24.000	1.8591e-02
 8.000	17.000	4.5515e-03
 8.000	17.250	6.7878e-03
 8.000	17.500	9.8374e-03
 8.000	17.750	1.3236e-02
 8.000	18.000	1.7402e-02
 8.000	18.250	1.8101e-02
 8.000	18.500	1.8551e-02
 8.000	18.750	1.8560e-02
 8.000	19.000	1.8568e-02
 8.000	19.250	1.8579e-02
 8.000	19.500	1.8584e-02
 8.000	19.750	1.8586e-02
 8.000	20.000	1.8588e-02
 8.000	20.250	1.8590e-02
 8.000	20.500	1.8590e-02
 8.000	20.750	1.8591e-02
 8.000	21.000	1.8591e-02
 8.000	21.250	1.8591e-02
 8.000	21.500	1.8591e-02
 8.000	21.750	1.8591e-02
 8.000	22.000	1.8591e-02
 8.000	22.250	1.8591e-02
 8.000	22.500	1.8591e-02
 8.000	22.750	1.8591e-02
 8.000	23.000	1.8591e-02
 8.000	23.250	1.8591e-02
 8.000	23.500	1.8591e-02
 8.000	23.750	1.8591e-02
 8.000	24.000	1.8591e-02
 8.250	17.000	3.1508e-03
 8.250	17.250	4.6622e-03
 8.250	17.500	6.9757e-03
 8.250	17.750	1.0068e-02
 8.250	18.000	1.3440e-02
 8.250	18.250	1.7440e-02
 8.250	18.500	1.8103e-02
 8.250	18.750	1.8552e-02
 8.250	19.000	1.8560e-02
 8.250	19.250	1.8568e-02
 8.250	19.500	1.8578e-02
 8.250	19.750	1.8584e-02
 8.250	20.000	1.8586e-02
 8.250	20.250	1.8588e-02
 8.250	20.500	1.8590e-02
 8.250	20.750	1.8590e-02
 8.250	21.000	1.8591e-02
 8.250	21.250	1.8591e-02
 8.250	21.500	1.8591e-02
 8.250	21.750	1.8591e-02
 8.250	22.000	1.8591e-02
 8.250	22.250	1.8591e-02
 8.250	22.500	1.8591e-02
 8.250	22.750	1.8591e-02
 8.250	23.000	1.8591e-02
 8.250	23.250	1.8591e-02
 8.250	23.500	1.8591e-02
 8.250	23.750	1.8591e-02
 8.250	24.000	1.8591e-02
 8.500	17.000	2.2139e-03
 8.500	17.250	3.2321e-03
 8.500	17.500	4.8086e-03
 8.500	17.750	7.2405e-03
 8.500	18.000	1.0454e-02
 8.500	18.250	1.3736e-02
 8.500	18.500	1.7507e-02
 8.500	18.750	1.8106e-02
 8.500	19.000	1.8552e-02
 8.500	19.250	1.8560e-02
 8.500	19.500	1.8568e-02
 8.500	19.750	1.8578e-02
 8.500	20.000	1.8584e-02
 8.500	20.250	1.8586e-02
 8.500	20.500	1.8588e-02
 8.500	20.750	1.8590e-02
 8.500	21.000	1.8590e-02
 8.500	21.250	1.8591e-02
 8.500	21.500	1.8591e-02
 8.500	21.750	1.8591e-02
 8.500	22.000	1.8591e-02
 8.500	22.250	1.8591e-02
 8.500	22.500	1.8591e-02
 8.500	22.750	1.8591e-02
 8.500	23.000	1.8591e-02
 8.500	23.250	1.8591e-02
 8.500	23.500	1.8591e-02
 8.500	23.750	1.8591e-02
 8.500	24.000	1.8591e-02
 8.750	17.000	1.5674e-03
 8.750	17.250	2.2723e-03
 8.750	17.500	3.3460e-03
 8.750	17.750	5.0514e-03
 8.750	18.000	7.6813e-03
 8.750	18.250	1.1046e-02
 8.750	18.500	1.4309e-02
 8.750	18.750	1.7538e-02
 8.750	19.000	1.8107e-02
 8.750	19.250	1.8552e-02
 8.750	19.500	1.8560e-02
 8.750	19.750	1.8568e-02
 8.750	20.000	1.8579e-02
 8.750	20.250	1.8584e-02
 8.750	20.500	1.8586e-02
 8.750	20.750	1.8588e-02
 8.750	21.000	1.8590e-02
 8.750	21.250	1.8590e-02
 8.750	21.500	1.8591e-02
 8.750	21.750	1.8591e-02
 8.750	22.000	1.8591e-02
 8.750	22.250	1.8591e-02
 8.750	22.500	1.8591e-02
 8.750	22.750	1.8591e-02
 8.750	23.000	1.8591e-02
 8.750	23.250	1.8591e-02
 8.750	23.500	1.8591e-02
 8.750	23.750	1.8591e-02
 8.750	24.000	1.8591e-02
 9.000	17.000	1.1143e-03
 9.000	17.250	1.6103e-03
 9.000	17.500	2.3621e-03
 9.000	17.750	3.5398e-03
 9.000	18.000	5.4607e-03
 9.000	18.250	8.4028e-03
 9.000	18.500	1.1857e-02
 9.000	18.750	1.4753e-02
 9.000	19.000	1.7524e-02
 9.000	19.250	1.8107e-02
 9.000	19.500	1.8551e-02
 9.000	19.750	1.8560e-02
 9.000	20.000	1.8568e-02
 9.000	20.250	1.8579e-02
 9.000	20.500	1.8584e-02
 9.000	20.750	1.8586e-02
 9.000	21.000	1.8588e-02
 9.000	21.250	1.8590e-02
 9.000	21.500	1.8590e-02
 9.000	21.750	1.8591e-02
 9.000	22.000	1.8591e-02
 9.000	22.250	1.8591e-02
 9.000	22.500	1.8591e-02
 9.000	22.750	1.8591e-02
 9.000	23.000	1.8591e-02
 9.000	23.250	1.8591e-02
 9.000	23.500	1.8591e-02
 9.000	23.750	1.8591e-02
 9.000	24.000	1.8591e-02
 9.250	17.000	7.9407e-04
 9.250	17.250	1.1451e-03
 9.250	17.500	1.6802e-03
 9.250	17.750	2.5229e-03
 9.250	18.000	3.9181e-03
 9.250	18.250	6.1682e-03
 9.250	18.500	9.3529e-03
 9.250	18.750	1.2773e-02
 9.250	19.000	1.5594e-02
 9.250	19.250	1.7501e-02
 9.250	19.500	1.8102e-02
 9.250	19.750	1.8551e-02
 9.250	20.000	1.8560e-02
 9.250	20.250	1.8569e-02
 9.250	20.500	1.8578e-02
 9.250	20.750	1.8584e-02
 9.250	21.000	1.8586e-02
 9.250	21.250	1.8588e-02
 9.250	21.500	1.8586e-02
 9.250	21.750	1.8585e-02
 9.250	22.000	1.8585e-02
 9.250	22.250	1.8585e-02
 9.250	22.500	1.8590e-02
 9.250	22.750	1.8591e-02
 9.250	23.000	1.8591e-02
 9.250	23.250	1.8591e-02
 9.250	23.500	1.8591e-02
 9.250	23.750	1.8591e-02
 9.250	24.000	1.8591e-02
 9.500	17.000	5.6675e-04
 9.500	17.250	8.1704e-04
 9.500	17.500	1.1998e-03
 9.500	17.750	1.8139e-03
 9.500	18.000	2.8545e-03
 9.500	18.250	4.5430e-03
 9.500	18.500	7.0731e-03
 9.500	18.750	1.0334e-02
 9.500	19.000	1.3484e-02
 9.500	19.250	1.6262e-02
 9.500	19.500	1.7466e-02
 9.500	19.750	1.8090e-02
 9.500	20.000	1.8550e-02
 9.500	20.250	1.8560e-02
 9.500	20.500	1.8568e-02
 9.500	20.750	1.8578e-02
 9.500	21.000	1.8580e-02
 9.500	21.250	1.8580e-02
 9.500	21.500	1.8582e-02
 9.500	21.750	1.8583e-02
 9.500	22.000	1.8580e-02
 9.500	22.250	1.8581e-02
 9.500	22.500	1.8581e-02
 9.500	22.750	1.8581e-02
 9.500	23.000	1.8581e-02
 9.500	23.250	1.8581e-02
 9.500	23.500	1.8583e-02
 9.500	23.750	1.8583e-02
 9.500	24.000	1.8583e-02
 9.750	17.000	4.0535e-04
 9.750	17.250	5.8321e-04
 9.750	17.500	8.5819e-04
 9.750	17.750	1.3090e-03
 9.750	18.000	2.0860e-03
 9.750	18.250	3.3802e-03
 9.750	18.500	5.3091e-03
 9.750	18.750	7.9614e-03
 9.750	19.000	1.1186e-02
 9.750	19.250	1.4292e-02
 9.750	19.500	1.7012e-02
 9.750	19.750	1.7425e-02
 9.750	20.000	1.8072e-02
 9.750	20.250	1.8549e-02
 9.750	20.500	1.8560e-02
 9.750	20.750	1.8568e-02
 9.750	21.000	1.8578e-02
 9.750	21.250	1.8582e-02
 9.750	21.500	1.8581e-02
 9.750	21.750	1.8583e-02
 9.750	22.000	1.8583e-02
 9.750	22.250	1.8582e-02
 9.750	22.500	1.8580e-02
 9.750	22.750	1.8581e-02
 9.750	23.000	1.8581e-02
 9.750	23.250	1.8581e-02
 9.750	23.500	1.8581e-02
 9.750	23.750	1.8581e-02
 9.750	24.000	1.8581e-02
10.000	17.000	2.9012e-04
10.000	17.250	4.1753e-04
10.000	17.500	6.1547e-04
10.000	17.750	9.4765e-04
10.000	18.000	1.5379e-03
10.000	18.250	2.5212e-03
10.000	18.500	3.9822e-03
10.000	18.750	6.0152e-03
10.000	19.000	8.7641e-03
10.000	19.250	1.1907e-02
10.000	19.500	1.5158e-02
10.000	19.750	1.6984e-02
10.000	20.000	1.7383e-02
10.000	20.250	1.8036e-02
10.000	20.500	1.8543e-02
10.000	20.750	1.8559e-02
10.000	21.000	1.8568e-02
10.000	21.250	1.8578e-02
10.000	21.500	1.8583e-02
10.000	21.750	1.8584e-02
10.000	22.000	1.8583e-02
10.000	22.250	1.8584e-02
10.000	22.500	1.8583e-02
10.000	22.750	1.8581e-02
10.000	23.000	1.8580e-02
10.000	23.250	1.8581e-02
10.000	23.500	1.8581e-02
10.000	23.750	1.8581e-02
10.000	24.000	1.8581e-02
10.250	17.000	2.0823e-04
10.250	17.250	2.9967e-04
10.250	17.500	4.4321e-04
10.250	17.750	6.8930e-04
10.250	18.000	1.1338e-03
10.250	18.250	1.8742e-03
10.250	18.500	2.9576e-03
10.250	18.750	4.4971e-03
10.250	19.000	6.5984e-03
10.250	19.250	9.3442e-03
10.250	19.500	1.2575e-02
10.250	19.750	1.5750e-02
10.250	20.000	1.6923e-02
10.250	20.250	1.7331e-02
10.250	20.500	1.8005e-02
10.250	20.750	1.8535e-02
10.250	21.000	1.8558e-02
10.250	21.250	1.8568e-02
10.250	21.500	1.8578e-02
10.250	21.750	1.8583e-02
10.250	22.000	1.8585e-02
10.250	22.250	1.8585e-02
10.250	22.500	1.8584e-02
10.250	22.750	1.8584e-02
10.250	23.000	1.8583e-02
10.250	23.250	1.8582e-02
10.250	23.500	1.8581e-02
10.250	23.750	1.8581e-02
10.250	24.000	1.8581e-02
10.500	17.000	1.5037e-04
10.500	17.250	2.1597e-04
10.500	17.500	3.2074e-04
10.500	17.750	5.0453e-04
10.500	18.000	8.3712e-04
10.500	18.250	1.3873e-03
10.500	18.500	2.1796e-03
10.500	18.750	3.3191e-03
10.500	19.000	4.8895e-03
10.500	19.250	7.0222e-03
10.500	19.500	9.7863e-03
10.500	19.750	1.3131e-02
10.500	20.000	1.6295e-02
10.500	20.250	1.6882e-02
10.500	20.500	1.7314e-02
10.500	20.750	1.7991e-02
10.500	21.000	1.8520e-02
10.500	21.250	1.8554e-02
10.500	21.500	1.8567e-02
10.500	21.750	1.8577e-02
10.500	22.000	1.8583e-02
10.500	22.250	1.8585e-02
10.500	22.500	1.8587e-02
10.500	22.750	1.8584e-02
10.500	23.000	1.8584e-02
10.500	23.250	1.8584e-02
10.500	23.500	1.8583e-02
10.500	23.750	1.8582e-02
10.500	24.000	1.8582e-02
10.750	17.000	1.0938e-04
10.750	17.250	1.5654e-04
10.750	17.500	2.3342e-04
10.750	17.750	3.7037e-04
10.750	18.000	6.1695e-04
10.750	18.250	1.0151e-03
10.750	18.500	1.5920e-03
10.750	18.750	2.4220e-03
10.750	19.000	3.5805e-03
10.750	19.250	5.1770e-03
10.750	19.500	7.3543e-03
10.750	19.750	1.0213e-02
10.750	20.000	1.3705e-02
10.750	20.250	1.6517e-02
10.750	20.500	1.6849e-02
10.750	20.750	1.7277e-02
10.750	21.000	1.7990e-02
10.750	21.250	1.8502e-02
10.750	21.500	1.8548e-02
10.750	21.750	1.8565e-02
10.750	22.000	1.8576e-02
10.750	22.250	1.8583e-02
10.750	22.500	1.8585e-02
10.750	22.750	1.8588e-02
10.750	23.000	1.8585e-02
10.750	23.250	1.8585e-02
10.750	23.500	1.8585e-02
10.750	23.750	1.8584e-02
10.750	24.000	1.8584e-02
11.000	17.000	8.0247e-05
11.000	17.250	1.1399e-04
11.000	17.500	1.7029e-04
11.000	17.750	2.7169e-04
11.000	18.000	4.5193e-04
11.000	18.250	7.3638e-04
11.000	18.500	1.1544e-03
11.000	18.750	1.7668e-03
11.000	19.000	2.6112e-03
11.000	19.250	3.7686e-03
11.000	19.500	5.4031e-03
11.000	19.750	7.6598e-03
11.000	20.000	1.0621e-02
11.000	20.250	1.4237e-02
11.000	20.500	1.6481e-02
11.000	20.750	1.6820e-02
11.000	21.000	1.7280e-02
11.000	21.250	1.8029e-02
11.000	21.500	1.8485e-02
11.000	21.750	1.8539e-02
11.000	22.000	1.8561e-02
11.000	22.250	1.8574e-02
11.000	22.500	1.8582e-02
11.000	22.750	1.8585e-02
11.000	23.000	1.8588e-02
11.000	23.250	1.8588e-02
11.000	23.500	1.8585e-02
11.000	23.750	1.8585e-02
11.000	24.000	1.8585e-02
11.250	17.000	5.9671e-05
11.250	17.250	8.3457e-05
11.250	17.500	1.2420e-04
11.250	17.750	1.9852e-04
11.250	18.000	3.2831e-04
11.250	18.250	5.3004e-04
11.250	18.500	8.2535e-04
11.250	18.750	1.2619e-03
11.250	19.000	1.8697e-03
11.250	19.250	2.7257e-03
11.250	19.500	3.9136e-03
11.250	19.750	5.5997e-03
11.250	20.000	7.9134e-03
11.250	20.250	1.0993e-02
11.250	20.500	1.4743e-02
11.250	20.750	1.6421e-02
11.250	21.000	1.6805e-02
11.250	21.250	1.7316e-02
11.250	21.500	1.8130e-02
11.250	21.750	1.8470e-02
11.250	22.000	1.8528e-02
11.250	22.250	1.8553e-02
11.250	22.500	1.8571e-02
11.250	22.750	1.8581e-02
11.250	23.000	1.8585e-02
11.250	23.250	1.8587e-02
11.250	23.500	1.8589e-02
11.250	23.750	1.8586e-02
11.250	24.000	1.8585e-02
11.500	17.000	4.5267e-05
11.500	17.250	6.1975e-05
11.500	17.500	9.1029e-05
11.500	17.750	1.4428e-04
11.500	18.000	2.3605e-04
11.500	18.250	3.7835e-04
11.500	18.500	5.8617e-04
11.500	18.750	8.9613e-04
11.500	19.000	1.3276e-03
11.500	19.250	1.9441e-03
11.500	19.500	2.8079e-03
11.500	19.750	4.0333e-03
11.500	20.000	5.7648e-03
11.500	20.250	8.1598e-03
11.500	20.500	1.1348e-02
11.500	20.750	1.5094e-02
11.500	21.000	1.6376e-02
11.500	21.250	1.6825e-02
11.500	21.500	1.7430e-02
11.500	21.750	1.8269e-02
11.500	22.000	1.8451e-02
11.500	22.250	1.8515e-02
11.500	22.500	1.8545e-02
11.500	22.750	1.8566e-02
11.500	23.000	1.8580e-02
11.500	23.250	1.8584e-02
11.500	23.500	1.8587e-02
11.500	23.750	1.8589e-02
11.500	24.000	1.8588e-02
11.750	17.000	3.5309e-05
11.750	17.250	4.6914e-05
11.750	17.500	6.7407e-05
11.750	17.750	1.0469e-04
11.750	18.000	1.6823e-04
11.750	18.250	2.6683e-04
11.750	18.500	4.1251e-04
11.750	18.750	6.2650e-04
11.750	19.000	9.3901e-04
11.750	19.250	1.3774e-03
11.750	19.500	2.0059e-03
11.750	19.750	2.8909e-03
11.750	20.000	4.1411e-03
11.750	20.250	5.9127e-03
11.750	20.500	8.3939e-03
11.750	20.750	1.1678e-02
11.750	21.000	1.5446e-02
11.750	21.250	1.6329e-02
11.750	21.500	1.6895e-02
11.750	21.750	1.7600e-02
11.750	22.000	1.8330e-02
11.750	22.250	1.8431e-02
11.750	22.500	1.8500e-02
11.750	22.750	1.8533e-02
11.750	23.000	1.8559e-02
11.750	23.250	1.8577e-02
11.750	23.500	1.8583e-02
11.750	23.750	1.8586e-02
11.750	24.000	1.8589e-02
12.000	17.000	2.8066e-05
12.000	17.250	3.6296e-05
12.000	17.500	5.0535e-05
12.000	17.750	7.5967e-05
12.000	18.000	1.1893e-04
12.000	18.250	1.8593e-04
12.000	18.500	2.8790e-04
12.000	18.750	4.3909e-04
12.000	19.000	6.6049e-04
12.000	19.250	9.7432e-04
12.000	19.500	1.4214e-03
12.000	19.750	2.0548e-03
12.000	20.000	2.9500e-03
12.000	20.250	4.2300e-03
12.000	20.500	6.0467e-03
12.000	20.750	8.5959e-03
12.000	21.000	1.1966e-02
12.000	21.250	1.5229e-02
12.000	21.500	1.6299e-02
12.000	21.750	1.6974e-02
12.000	22.000	1.7775e-02
12.000	22.250	1.8307e-02
12.000	22.500	1.8410e-02
12.000	22.750	1.8482e-02
12.000	23.000	1.8519e-02
12.000	23.250	1.8550e-02
12.000	23.500	1.8574e-02
12.000	23.750	1.8581e-02
12.000	24.000	1.8586e-02
12.250	17.000	2.2963e-05
12.250	17.250	2.8724e-05
12.250	17.500	3.8354e-05
12.250	17.750	5.5144e-05
12.250	18.000	8.3704e-05
12.250	18.250	1.2971e-04
12.250	18.500	2.0082e-04
12.250	18.750	3.0749e-04
12.250	19.000	4.6362e-04
12.250	19.250	6.8831e-04
12.250	19.500	1.0049e-03
12.250	19.750	1.4545e-03
12.250	20.000	2.0956e-03
12.250	20.250	3.0066e-03
12.250	20.500	4.2988e-03
12.250	20.750	6.1544e-03
12.250	21.000	8.7666e-03
12.250	21.250	1.2187e-02
12.250	21.500	1.5211e-02
12.250	21.750	1.6243e-02
12.250	22.000	1.7068e-02
12.250	22.250	1.7927e-02
12.250	22.500	1.8272e-02
12.250	22.750	1.8381e-02
12.250	23.000	1.8458e-02
12.250	23.250	1.8500e-02
12.250	23.500	1.8538e-02
12.250	23.750	1.8570e-02
12.250	24.000	1.8579e-02
12.500	17.000	1.6049e-05
12.500	17.250	2.3374e-05
12.500	17.500	2.9959e-05
12.500	17.750	4.0905e-05
12.500	18.000	5.9424e-05
12.500	18.250	9.0370e-05
12.500	18.500	1.3984e-04
12.500	18.750	2.1490e-04
12.500	19.000	3.2502e-04
12.500	19.250	4.8354e-04
12.500	19.500	7.0996e-04
12.500	19.750	1.0298e-03
12.500	20.000	1.4839e-03
12.500	20.250	2.1340e-03
12.500	20.500	3.0436e-03
12.500	20.750	4.3594e-03
12.500	21.000	6.2505e-03
12.500	21.250	8.9031e-03
12.500	21.500	1.2234e-02
12.500	21.750	1.4967e-02
12.500	22.000	1.6169e-02
12.500	22.250	1.7145e-02
12.500	22.500	1.7971e-02
12.500	22.750	1.8220e-02
12.500	23.000	1.8341e-02
12.500	23.250	1.8424e-02
12.500	23.500	1.8472e-02
12.500	23.750	1.8521e-02
12.500	24.000	1.8564e-02
12.750	17.000	8.6420e-06
12.750	17.250	1.7284e-05
12.750	17.500	2.3868e-05
12.750	17.750	3.1193e-05
12.750	18.000	4.3374e-05
12.750	18.250	6.4198e-05
12.750	18.500	9.7695e-05
12.750	18.750	1.4988e-04
12.750	19.000	2.2708e-04
12.750	19.250	3.3984e-04
12.750	19.500	4.9918e-04
12.750	19.750	7.2634e-04
12.750	20.000	1.0453e-03
12.750	20.250	1.5056e-03
12.750	20.500	2.1518e-03
12.750	20.750	3.0654e-03
12.750	21.000	4.4035e-03
12.750	21.250	6.3142e-03
12.750	21.500	8.8965e-03
12.750	21.750	1.2231e-02
12.750	22.000	1.4658e-02
12.750	22.250	1.6054e-02
12.750	22.500	1.7163e-02
12.750	22.750	1.7909e-02
12.750	23.000	1.8140e-02
12.750	23.250	1.8281e-02
12.750	23.500	1.8375e-02
12.750	23.750	1.8432e-02
12.750	24.000	1.8496e-02
13.000	17.000	1.9753e-06
13.000	17.250	4.6091e-06
13.000	17.500	1.3992e-05
13.000	17.750	2.4033e-05
13.000	18.000	3.2922e-05
13.000	18.250	4.6914e-05
13.000	18.500	6.9383e-05
13.000	18.750	1.0494e-04
13.000	19.000	1.5852e-04
13.000	19.250	2.3737e-04
13.000	19.500	3.5004e-04
13.000	19.750	5.1045e-04
13.000	20.000	7.3802e-04
13.000	20.250	1.0583e-03
13.000	20.500	1.5201e-03
13.000	20.750	2.1760e-03
13.000	21.000	3.1081e-03
13.000	21.250	4.4464e-03
13.000	21.500	6.3173e-03
13.000	21.750	8.8870e-03
13.000	22.000	1.2003e-02
13.000	22.250	1.4275e-02
13.000	22.500	1.5851e-02
13.000	22.750	1.7021e-02
13.000	23.000	1.7754e-02
13.000	23.250	1.8020e-02
13.000	23.500	1.8189e-02
13.000	23.750	1.8300e-02
13.000	24.000	1.8370e-02
13.250	17.000	1.1523e-06
13.250	17.250	2.2222e-06
13.250	17.500	5.2675e-06
13.250	17.750	1.2263e-05
13.250	18.000	2.1811e-05
13.250	18.250	3.5309e-05
13.250	18.500	5.0535e-05
13.250	18.750	7.4321e-05
13.250	19.000	1.1062e-04
13.250	19.250	1.6551e-04
13.250	19.500	2.4461e-04
13.250	19.750	3.5761e-04
13.250	20.000	5.1770e-04
13.250	20.250	7.4642e-04
13.250	20.500	1.0692e-03
13.250	20.750	1.5295e-03
13.250	21.000	2.1937e-03
13.250	21.250	3.1249e-03
13.250	21.500	4.4119e-03
13.250	21.750	6.2515e-03
13.250	22.000	8.6929e-03
13.250	22.250	1.1549e-02
13.250	22.500	1.3681e-02
13.250	22.750	1.5356e-02
13.250	23.000	1.6639e-02
13.250	23.250	1.7500e-02
13.250	23.500	1.7835e-02
13.250	23.750	1.8048e-02
13.250	24.000	1.8182e-02
13.500	17.000	1.0000e-07
13.500	17.250	1.3169e-06
13.500	17.500	2.9630e-06
13.500	17.750	6.5844e-06
13.500	18.000	1.4568e-05
13.500	18.250	2.4198e-05
13.500	18.500	3.7695e-05
13.500	18.750	5.3580e-05
13.500	19.000	7.8189e-05
13.500	19.250	1.1498e-04
13.500	19.500	1.7004e-04
13.500	19.750	2.4905e-04
13.500	20.000	3.6230e-04
13.500	20.250	5.2305e-04
13.500	20.500	7.5300e-04
13.500	20.750	1.0768e-03
13.500	21.000	1.5388e-03
13.500	21.250	2.1973e-03
13.500	21.500	3.0928e-03
13.500	21.750	4.3645e-03
13.500	22.000	6.0628e-03
13.500	22.250	8.2137e-03
13.500	22.500	1.0817e-02
13.500	22.750	1.2886e-02
13.500	23.000	1.4698e-02
13.500	23.250	1.6127e-02
13.500	23.500	1.7130e-02
13.500	23.750	1.7555e-02
13.500	24.000	1.7831e-02
13.750	17.000	1.0000e-07
13.750	17.250	1.0000e-07
13.750	17.500	1.7284e-06
13.750	17.750	3.5391e-06
13.750	18.000	8.1481e-06
13.750	18.250	1.6955e-05
13.750	18.500	2.5926e-05
13.750	18.750	3.9671e-05
13.750	19.000	5.6049e-05
13.750	19.250	8.1152e-05
13.750	19.500	1.1844e-04
13.750	19.750	1.7333e-04
13.750	20.000	2.5259e-04
13.750	20.250	3.6593e-04
13.750	20.500	5.2749e-04
13.750	20.750	7.5737e-04
13.750	21.000	1.0816e-03
13.750	21.250	1.5416e-03
13.750	21.500	2.1769e-03
13.750	21.750	3.0530e-03
13.750	22.000	4.1644e-03
13.750	22.250	5.5255e-03
13.750	22.500	7.4627e-03
13.750	22.750	9.9812e-03
13.750	23.000	1.1979e-02
13.750	23.250	1.3889e-02
13.750	23.500	1.5443e-02
13.750	23.750	1.6600e-02
13.750	24.000	1.7145e-02
14.000	17.000	1.0000e-07
14.000	17.250	1.0000e-07
14.000	17.500	9.8765e-07
14.000	17.750	2.0576e-06
14.000	18.000	4.2798e-06
14.000	18.250	9.7119e-06
14.000	18.500	1.8436e-05
14.000	18.750	2.8724e-05
14.000	19.000	4.1152e-05
14.000	19.250	5.7778e-05
14.000	19.500	8.3045e-05
14.000	19.750	1.2049e-04
14.000	20.000	1.7588e-04
14.000	20.250	2.5523e-04
14.000	20.500	3.6930e-04
14.000	20.750	5.3202e-04
14.000	21.000	7.6329e-04
14.000	21.250	1.0891e-03
14.000	21.500	1.5352e-03
14.000	21.750	2.1526e-03
14.000	22.000	2.9038e-03
14.000	22.250	3.6959e-03
14.000	22.500	4.7313e-03
14.000	22.750	6.6535e-03
14.000	23.000	9.0081e-03
14.000	23.250	1.1003e-02
14.000	23.500	1.2930e-02
14.000	23.750	1.4580e-02
14.000	24.000	1.5853e-02
