InwC 1.48022m  relative to Inci 1215.00A scaled to 1215A.
Hden   Phi(H)  Eq_Width (A)
 7.000	17.000	2.2134e-03
 7.000	17.250	2.3142e-03
 7.000	17.500	2.3730e-03
 7.000	17.750	2.3740e-03
 7.000	18.000	2.3751e-03
 7.000	18.250	2.3765e-03
 7.000	18.500	2.3771e-03
 7.000	18.750	2.3774e-03
 7.000	19.000	2.3777e-03
 7.000	19.250	2.3779e-03
 7.000	19.500	2.3779e-03
 7.000	19.750	2.3780e-03
 7.000	20.000	2.3780e-03
 7.000	20.250	2.3780e-03
 7.000	20.500	2.3780e-03
 7.000	20.750	2.3780e-03
 7.000	21.000	2.3780e-03
 7.000	21.250	2.3780e-03
 7.000	21.500	2.3780e-03
 7.000	21.750	2.3781e-03
 7.000	22.000	2.3781e-03
 7.000	22.250	2.3781e-03
 7.000	22.500	2.3781e-03
 7.000	22.750	2.3782e-03
 7.000	23.000	2.3782e-03
 7.000	23.250	2.3782e-03
 7.000	23.500	2.3782e-03
 7.000	23.750	2.3782e-03
 7.000	24.000	2.3782e-03
 7.250	17.000	1.6470e-03
 7.250	17.250	2.2214e-03
 7.250	17.500	2.3147e-03
 7.250	17.750	2.3730e-03
 7.250	18.000	2.3740e-03
 7.250	18.250	2.3751e-03
 7.250	18.500	2.3764e-03
 7.250	18.750	2.3771e-03
 7.250	19.000	2.3774e-03
 7.250	19.250	2.3777e-03
 7.250	19.500	2.3779e-03
 7.250	19.750	2.3779e-03
 7.250	20.000	2.3780e-03
 7.250	20.250	2.3780e-03
 7.250	20.500	2.3780e-03
 7.250	20.750	2.3780e-03
 7.250	21.000	2.3780e-03
 7.250	21.250	2.3780e-03
 7.250	21.500	2.3780e-03
 7.250	21.750	2.3780e-03
 7.250	22.000	2.3780e-03
 7.250	22.250	2.3780e-03
 7.250	22.500	2.3780e-03
 7.250	22.750	2.3781e-03
 7.250	23.000	2.3781e-03
 7.250	23.250	2.3781e-03
 7.250	23.500	2.3781e-03
 7.250	23.750	2.3781e-03
 7.250	24.000	2.3781e-03
 7.500	17.000	1.2123e-03
 7.500	17.250	1.6680e-03
 7.500	17.500	2.2274e-03
 7.500	17.750	2.3151e-03
 7.500	18.000	2.3730e-03
 7.500	18.250	2.3740e-03
 7.500	18.500	2.3751e-03
 7.500	18.750	2.3765e-03
 7.500	19.000	2.3771e-03
 7.500	19.250	2.3774e-03
 7.500	19.500	2.3777e-03
 7.500	19.750	2.3779e-03
 7.500	20.000	2.3779e-03
 7.500	20.250	2.3780e-03
 7.500	20.500	2.3780e-03
 7.500	20.750	2.3780e-03
 7.500	21.000	2.3780e-03
 7.500	21.250	2.3780e-03
 7.500	21.500	2.3780e-03
 7.500	21.750	2.3780e-03
 7.500	22.000	2.3780e-03
 7.500	22.250	2.3780e-03
 7.500	22.500	2.3780e-03
 7.500	22.750	2.3780e-03
 7.500	23.000	2.3780e-03
 7.500	23.250	2.3780e-03
 7.500	23.500	2.3782e-03
 7.500	23.750	2.3780e-03
 7.500	24.000	2.3780e-03
 7.750	17.000	8.5185e-04
 7.750	17.250	1.2376e-03
 7.750	17.500	1.6851e-03
 7.750	17.750	2.2319e-03
 7.750	18.000	2.3155e-03
 7.750	18.250	2.3730e-03
 7.750	18.500	2.3741e-03
 7.750	18.750	2.3751e-03
 7.750	19.000	2.3765e-03
 7.750	19.250	2.3771e-03
 7.750	19.500	2.3774e-03
 7.750	19.750	2.3777e-03
 7.750	20.000	2.3779e-03
 7.750	20.250	2.3779e-03
 7.750	20.500	2.3780e-03
 7.750	20.750	2.3780e-03
 7.750	21.000	2.3780e-03
 7.750	21.250	2.3780e-03
 7.750	21.500	2.3780e-03
 7.750	21.750	2.3780e-03
 7.750	22.000	2.3780e-03
 7.750	22.250	2.3780e-03
 7.750	22.500	2.3780e-03
 7.750	22.750	2.3780e-03
 7.750	23.000	2.3780e-03
 7.750	23.250	2.3780e-03
 7.750	23.500	2.3780e-03
 7.750	23.750	2.3780e-03
 7.750	24.000	2.3780e-03
 8.000	17.000	5.8140e-04
 8.000	17.250	8.6774e-04
 8.000	17.500	1.2581e-03
 8.000	17.750	1.6929e-03
 8.000	18.000	2.2260e-03
 8.000	18.250	2.3153e-03
 8.000	18.500	2.3730e-03
 8.000	18.750	2.3741e-03
 8.000	19.000	2.3751e-03
 8.000	19.250	2.3765e-03
 8.000	19.500	2.3771e-03
 8.000	19.750	2.3774e-03
 8.000	20.000	2.3777e-03
 8.000	20.250	2.3779e-03
 8.000	20.500	2.3779e-03
 8.000	20.750	2.3780e-03
 8.000	21.000	2.3780e-03
 8.000	21.250	2.3780e-03
 8.000	21.500	2.3780e-03
 8.000	21.750	2.3780e-03
 8.000	22.000	2.3780e-03
 8.000	22.250	2.3780e-03
 8.000	22.500	2.3780e-03
 8.000	22.750	2.3780e-03
 8.000	23.000	2.3780e-03
 8.000	23.250	2.3781e-03
 8.000	23.500	2.3780e-03
 8.000	23.750	2.3780e-03
 8.000	24.000	2.3780e-03
 8.250	17.000	4.0214e-04
 8.250	17.250	5.9564e-04
 8.250	17.500	8.9193e-04
 8.250	17.750	1.2879e-03
 8.250	18.000	1.7194e-03
 8.250	18.250	2.2310e-03
 8.250	18.500	2.3156e-03
 8.250	18.750	2.3730e-03
 8.250	19.000	2.3741e-03
 8.250	19.250	2.3751e-03
 8.250	19.500	2.3764e-03
 8.250	19.750	2.3771e-03
 8.250	20.000	2.3774e-03
 8.250	20.250	2.3777e-03
 8.250	20.500	2.3779e-03
 8.250	20.750	2.3779e-03
 8.250	21.000	2.3780e-03
 8.250	21.250	2.3780e-03
 8.250	21.500	2.3780e-03
 8.250	21.750	2.3780e-03
 8.250	22.000	2.3780e-03
 8.250	22.250	2.3780e-03
 8.250	22.500	2.3780e-03
 8.250	22.750	2.3780e-03
 8.250	23.000	2.3780e-03
 8.250	23.250	2.3780e-03
 8.250	23.500	2.3780e-03
 8.250	23.750	2.3780e-03
 8.250	24.000	2.3780e-03
 8.500	17.000	2.8222e-04
 8.500	17.250	4.1267e-04
 8.500	17.500	6.1457e-04
 8.500	17.750	9.2634e-04
 8.500	18.000	1.3384e-03
 8.500	18.250	1.7582e-03
 8.500	18.500	2.2401e-03
 8.500	18.750	2.3160e-03
 8.500	19.000	2.3730e-03
 8.500	19.250	2.3741e-03
 8.500	19.500	2.3751e-03
 8.500	19.750	2.3765e-03
 8.500	20.000	2.3771e-03
 8.500	20.250	2.3774e-03
 8.500	20.500	2.3777e-03
 8.500	20.750	2.3779e-03
 8.500	21.000	2.3779e-03
 8.500	21.250	2.3780e-03
 8.500	21.500	2.3780e-03
 8.500	21.750	2.3780e-03
 8.500	22.000	2.3780e-03
 8.500	22.250	2.3780e-03
 8.500	22.500	2.3780e-03
 8.500	22.750	2.3780e-03
 8.500	23.000	2.3780e-03
 8.500	23.250	2.3780e-03
 8.500	23.500	2.3780e-03
 8.500	23.750	2.3780e-03
 8.500	24.000	2.3780e-03
 8.750	17.000	1.9951e-04
 8.750	17.250	2.8979e-04
 8.750	17.500	4.2741e-04
 8.750	17.750	6.4617e-04
 8.750	18.000	9.8412e-04
 8.750	18.250	1.4165e-03
 8.750	18.500	1.8337e-03
 8.750	18.750	2.2449e-03
 8.750	19.000	2.3162e-03
 8.750	19.250	2.3729e-03
 8.750	19.500	2.3741e-03
 8.750	19.750	2.3751e-03
 8.750	20.000	2.3765e-03
 8.750	20.250	2.3771e-03
 8.750	20.500	2.3774e-03
 8.750	20.750	2.3777e-03
 8.750	21.000	2.3779e-03
 8.750	21.250	2.3779e-03
 8.750	21.500	2.3780e-03
 8.750	21.750	2.3780e-03
 8.750	22.000	2.3780e-03
 8.750	22.250	2.3780e-03
 8.750	22.500	2.3780e-03
 8.750	22.750	2.3780e-03
 8.750	23.000	2.3780e-03
 8.750	23.250	2.3780e-03
 8.750	23.500	2.3780e-03
 8.750	23.750	2.3780e-03
 8.750	24.000	2.3780e-03
 9.000	17.000	1.4148e-04
 9.000	17.250	2.0510e-04
 9.000	17.500	3.0148e-04
 9.000	17.750	4.5276e-04
 9.000	18.000	7.0000e-04
 9.000	18.250	1.0797e-03
 9.000	18.500	1.5245e-03
 9.000	18.750	1.8937e-03
 9.000	19.000	2.2448e-03
 9.000	19.250	2.3162e-03
 9.000	19.500	2.3729e-03
 9.000	19.750	2.3741e-03
 9.000	20.000	2.3751e-03
 9.000	20.250	2.3765e-03
 9.000	20.500	2.3771e-03
 9.000	20.750	2.3774e-03
 9.000	21.000	2.3777e-03
 9.000	21.250	2.3779e-03
 9.000	21.500	2.3779e-03
 9.000	21.750	2.3780e-03
 9.000	22.000	2.3780e-03
 9.000	22.250	2.3780e-03
 9.000	22.500	2.3780e-03
 9.000	22.750	2.3780e-03
 9.000	23.000	2.3780e-03
 9.000	23.250	2.3780e-03
 9.000	23.500	2.3780e-03
 9.000	23.750	2.3780e-03
 9.000	24.000	2.3780e-03
 9.250	17.000	1.0049e-04
 9.250	17.250	1.4551e-04
 9.250	17.500	2.1424e-04
 9.250	17.750	3.2255e-04
 9.250	18.000	5.0255e-04
 9.250	18.250	7.9366e-04
 9.250	18.500	1.2065e-03
 9.250	18.750	1.6474e-03
 9.250	19.000	2.0060e-03
 9.250	19.250	2.2443e-03
 9.250	19.500	2.3160e-03
 9.250	19.750	2.3728e-03
 9.250	20.000	2.3740e-03
 9.250	20.250	2.3751e-03
 9.250	20.500	2.3764e-03
 9.250	20.750	2.3771e-03
 9.250	21.000	2.3774e-03
 9.250	21.250	2.3777e-03
 9.250	21.500	2.3774e-03
 9.250	21.750	2.3773e-03
 9.250	22.000	2.3772e-03
 9.250	22.250	2.3773e-03
 9.250	22.500	2.3779e-03
 9.250	22.750	2.3780e-03
 9.250	23.000	2.3780e-03
 9.250	23.250	2.3780e-03
 9.250	23.500	2.3780e-03
 9.250	23.750	2.3780e-03
 9.250	24.000	2.3780e-03
 9.500	17.000	7.1440e-05
 9.500	17.250	1.0354e-04
 9.500	17.500	1.5267e-04
 9.500	17.750	2.3177e-04
 9.500	18.000	3.6626e-04
 9.500	18.250	5.8527e-04
 9.500	18.500	9.1473e-04
 9.500	18.750	1.3400e-03
 9.500	19.000	1.7461e-03
 9.500	19.250	2.1000e-03
 9.500	19.500	2.2434e-03
 9.500	19.750	2.3154e-03
 9.500	20.000	2.3728e-03
 9.500	20.250	2.3740e-03
 9.500	20.500	2.3751e-03
 9.500	20.750	2.3763e-03
 9.500	21.000	2.3765e-03
 9.500	21.250	2.3767e-03
 9.500	21.500	2.3770e-03
 9.500	21.750	2.3770e-03
 9.500	22.000	2.3767e-03
 9.500	22.250	2.3768e-03
 9.500	22.500	2.3768e-03
 9.500	22.750	2.3767e-03
 9.500	23.000	2.3767e-03
 9.500	23.250	2.3767e-03
 9.500	23.500	2.3770e-03
 9.500	23.750	2.3770e-03
 9.500	24.000	2.3770e-03
 9.750	17.000	5.0782e-05
 9.750	17.250	7.3580e-05
 9.750	17.500	1.0897e-04
 9.750	17.750	1.6708e-04
 9.750	18.000	2.6765e-04
 9.750	18.250	4.3597e-04
 9.750	18.500	6.8823e-04
 9.750	18.750	1.0369e-03
 9.750	19.000	1.4601e-03
 9.750	19.250	1.8594e-03
 9.750	19.500	2.2025e-03
 9.750	19.750	2.2421e-03
 9.750	20.000	2.3143e-03
 9.750	20.250	2.3725e-03
 9.750	20.500	2.3738e-03
 9.750	20.750	2.3751e-03
 9.750	21.000	2.3763e-03
 9.750	21.250	2.3769e-03
 9.750	21.500	2.3768e-03
 9.750	21.750	2.3770e-03
 9.750	22.000	2.3770e-03
 9.750	22.250	2.3769e-03
 9.750	22.500	2.3767e-03
 9.750	22.750	2.3768e-03
 9.750	23.000	2.3768e-03
 9.750	23.250	2.3768e-03
 9.750	23.500	2.3768e-03
 9.750	23.750	2.3767e-03
 9.750	24.000	2.3767e-03
10.000	17.000	3.5967e-05
10.000	17.250	5.2346e-05
10.000	17.500	7.7860e-05
10.000	17.750	1.2074e-04
10.000	18.000	1.9728e-04
10.000	18.250	3.2560e-04
10.000	18.500	5.1753e-04
10.000	18.750	7.8658e-04
10.000	19.000	1.1520e-03
10.000	19.250	1.5660e-03
10.000	19.500	1.9820e-03
10.000	19.750	2.2039e-03
10.000	20.000	2.2405e-03
10.000	20.250	2.3129e-03
10.000	20.500	2.3721e-03
10.000	20.750	2.3737e-03
10.000	21.000	2.3749e-03
10.000	21.250	2.3762e-03
10.000	21.500	2.3770e-03
10.000	21.750	2.3771e-03
10.000	22.000	2.3770e-03
10.000	22.250	2.3771e-03
10.000	22.500	2.3770e-03
10.000	22.750	2.3768e-03
10.000	23.000	2.3767e-03
10.000	23.250	2.3767e-03
10.000	23.500	2.3768e-03
10.000	23.750	2.3768e-03
10.000	24.000	2.3768e-03
10.250	17.000	2.5514e-05
10.250	17.250	3.7284e-05
10.250	17.500	5.5802e-05
10.250	17.750	8.7654e-05
10.250	18.000	1.4543e-04
10.250	18.250	2.4239e-04
10.250	18.500	3.8543e-04
10.250	18.750	5.9045e-04
10.250	19.000	8.7218e-04
10.250	19.250	1.2392e-03
10.250	19.500	1.6629e-03
10.250	19.750	2.0671e-03
10.250	20.000	2.2015e-03
10.250	20.250	2.2385e-03
10.250	20.500	2.3117e-03
10.250	20.750	2.3714e-03
10.250	21.000	2.3733e-03
10.250	21.250	2.3747e-03
10.250	21.500	2.3761e-03
10.250	21.750	2.3770e-03
10.250	22.000	2.3773e-03
10.250	22.250	2.3773e-03
10.250	22.500	2.3772e-03
10.250	22.750	2.3771e-03
10.250	23.000	2.3770e-03
10.250	23.250	2.3769e-03
10.250	23.500	2.3768e-03
10.250	23.750	2.3767e-03
10.250	24.000	2.3767e-03
10.500	17.000	1.8107e-05
10.500	17.250	2.6584e-05
10.500	17.500	4.0082e-05
10.500	17.750	6.3951e-05
10.500	18.000	1.0733e-04
10.500	18.250	1.7975e-04
10.500	18.500	2.8486e-04
10.500	18.750	4.3695e-04
10.500	19.000	6.4724e-04
10.500	19.250	9.3309e-04
10.500	19.500	1.3019e-03
10.500	19.750	1.7396e-03
10.500	20.000	2.1387e-03
10.500	20.250	2.1984e-03
10.500	20.500	2.2364e-03
10.500	20.750	2.3110e-03
10.500	21.000	2.3703e-03
10.500	21.250	2.3728e-03
10.500	21.500	2.3746e-03
10.500	21.750	2.3760e-03
10.500	22.000	2.3770e-03
10.500	22.250	2.3773e-03
10.500	22.500	2.3775e-03
10.500	22.750	2.3772e-03
10.500	23.000	2.3772e-03
10.500	23.250	2.3771e-03
10.500	23.500	2.3770e-03
10.500	23.750	2.3770e-03
10.500	24.000	2.3769e-03
10.750	17.000	1.2922e-05
10.750	17.250	1.8930e-05
10.750	17.500	2.8889e-05
10.750	17.750	4.6749e-05
10.750	18.000	7.9095e-05
10.750	18.250	1.3177e-04
10.750	18.500	2.0848e-04
10.750	18.750	3.1918e-04
10.750	19.000	4.7399e-04
10.750	19.250	6.8782e-04
10.750	19.500	9.7984e-04
10.750	19.750	1.3609e-03
10.750	20.000	1.8175e-03
10.750	20.250	2.1719e-03
10.750	20.500	2.1940e-03
10.750	20.750	2.2338e-03
10.750	21.000	2.3115e-03
10.750	21.250	2.3686e-03
10.750	21.500	2.3724e-03
10.750	21.750	2.3741e-03
10.750	22.000	2.3757e-03
10.750	22.250	2.3768e-03
10.750	22.500	2.3772e-03
10.750	22.750	2.3775e-03
10.750	23.000	2.3773e-03
10.750	23.250	2.3772e-03
10.750	23.500	2.3772e-03
10.750	23.750	2.3771e-03
10.750	24.000	2.3771e-03
11.000	17.000	9.2181e-06
11.000	17.250	1.3498e-05
11.000	17.500	2.0823e-05
11.000	17.750	3.4074e-05
11.000	18.000	5.7942e-05
11.000	18.250	9.5720e-05
11.000	18.500	1.5144e-04
11.000	18.750	2.3317e-04
11.000	19.000	3.4576e-04
11.000	19.250	5.0033e-04
11.000	19.500	7.1926e-04
11.000	19.750	1.0216e-03
11.000	20.000	1.4160e-03
11.000	20.250	1.8879e-03
11.000	20.500	2.1630e-03
11.000	20.750	2.1877e-03
11.000	21.000	2.2313e-03
11.000	21.250	2.3148e-03
11.000	21.500	2.3677e-03
11.000	21.750	2.3713e-03
11.000	22.000	2.3733e-03
11.000	22.250	2.3752e-03
11.000	22.500	2.3766e-03
11.000	22.750	2.3771e-03
11.000	23.000	2.3775e-03
11.000	23.250	2.3776e-03
11.000	23.500	2.3773e-03
11.000	23.750	2.3773e-03
11.000	24.000	2.3772e-03
11.250	17.000	6.5844e-06
11.250	17.250	9.6296e-06
11.250	17.500	1.4979e-05
11.250	17.750	2.4774e-05
11.250	18.000	4.1975e-05
11.250	18.250	6.8971e-05
11.250	18.500	1.0840e-04
11.250	18.750	1.6658e-04
11.250	19.000	2.4757e-04
11.250	19.250	3.6173e-04
11.250	19.500	5.2025e-04
11.250	19.750	7.4551e-04
11.250	20.000	1.0547e-03
11.250	20.250	1.4629e-03
11.250	20.500	1.9494e-03
11.250	20.750	2.1478e-03
11.250	21.000	2.1788e-03
11.250	21.250	2.2300e-03
11.250	21.500	2.3281e-03
11.250	21.750	2.3647e-03
11.250	22.000	2.3695e-03
11.250	22.250	2.3721e-03
11.250	22.500	2.3745e-03
11.250	22.750	2.3764e-03
11.250	23.000	2.3770e-03
11.250	23.250	2.3774e-03
11.250	23.500	2.3778e-03
11.250	23.750	2.3774e-03
11.250	24.000	2.3773e-03
11.500	17.000	4.6914e-06
11.500	17.250	6.9136e-06
11.500	17.500	1.0700e-05
11.500	17.750	1.7778e-05
11.500	18.000	3.0123e-05
11.500	18.250	4.9136e-05
11.500	18.500	7.6955e-05
11.500	18.750	1.1835e-04
11.500	19.000	1.7588e-04
11.500	19.250	2.5794e-04
11.500	19.500	3.7276e-04
11.500	19.750	5.3572e-04
11.500	20.000	7.6576e-04
11.500	20.250	1.0831e-03
11.500	20.500	1.5008e-03
11.500	20.750	1.9820e-03
11.500	21.000	2.1252e-03
11.500	21.250	2.1672e-03
11.500	21.500	2.2425e-03
11.500	21.750	2.3407e-03
11.500	22.000	2.3599e-03
11.500	22.250	2.3665e-03
11.500	22.500	2.3700e-03
11.500	22.750	2.3733e-03
11.500	23.000	2.3759e-03
11.500	23.250	2.3767e-03
11.500	23.500	2.3773e-03
11.500	23.750	2.3778e-03
11.500	24.000	2.3777e-03
11.750	17.000	3.4568e-06
11.750	17.250	5.0206e-06
11.750	17.500	7.7366e-06
11.750	17.750	1.2675e-05
11.750	18.000	2.1235e-05
11.750	18.250	3.4486e-05
11.750	18.500	5.3992e-05
11.750	18.750	8.2634e-05
11.750	19.000	1.2444e-04
11.750	19.250	1.8280e-04
11.750	19.500	2.6626e-04
11.750	19.750	3.8329e-04
11.750	20.000	5.4807e-04
11.750	20.250	7.8066e-04
11.750	20.500	1.1040e-03
11.750	20.750	1.5247e-03
11.750	21.000	1.9974e-03
11.750	21.250	2.0916e-03
11.750	21.500	2.1712e-03
11.750	21.750	2.2515e-03
11.750	22.000	2.3407e-03
11.750	22.250	2.3523e-03
11.750	22.500	2.3616e-03
11.750	22.750	2.3666e-03
11.750	23.000	2.3711e-03
11.750	23.250	2.3751e-03
11.750	23.500	2.3763e-03
11.750	23.750	2.3770e-03
11.750	24.000	2.3777e-03
12.000	17.000	2.4691e-06
12.000	17.250	3.6214e-06
12.000	17.500	5.5144e-06
12.000	17.750	8.9712e-06
12.000	18.000	1.4733e-05
12.000	18.250	2.3786e-05
12.000	18.500	3.7449e-05
12.000	18.750	5.7778e-05
12.000	19.000	8.7490e-05
12.000	19.250	1.2938e-04
12.000	19.500	1.8872e-04
12.000	19.750	2.7218e-04
12.000	20.000	3.8938e-04
12.000	20.250	5.5572e-04
12.000	20.500	7.8930e-04
12.000	20.750	1.1116e-03
12.000	21.000	1.5263e-03
12.000	21.250	1.9200e-03
12.000	21.500	2.0782e-03
12.000	21.750	2.1575e-03
12.000	22.000	2.2552e-03
12.000	22.250	2.3250e-03
12.000	22.500	2.3409e-03
12.000	22.750	2.3539e-03
12.000	23.000	2.3608e-03
12.000	23.250	2.3677e-03
12.000	23.500	2.3740e-03
12.000	23.750	2.3756e-03
12.000	24.000	2.3767e-03
12.250	17.000	1.8107e-06
12.250	17.250	2.5514e-06
12.250	17.500	3.9506e-06
12.250	17.750	6.2551e-06
12.250	18.000	1.0123e-05
12.250	18.250	1.6296e-05
12.250	18.500	2.5844e-05
12.250	18.750	4.0247e-05
12.250	19.000	6.1317e-05
12.250	19.250	9.1440e-05
12.250	19.500	1.3358e-04
12.250	19.750	1.9276e-04
12.250	20.000	2.7630e-04
12.250	20.250	3.9366e-04
12.250	20.500	5.5745e-04
12.250	20.750	7.8774e-04
12.250	21.000	1.1015e-03
12.250	21.250	1.4956e-03
12.250	21.500	1.8970e-03
12.250	21.750	2.0254e-03
12.250	22.000	2.1346e-03
12.250	22.250	2.2469e-03
12.250	22.500	2.3014e-03
12.250	22.750	2.3237e-03
12.250	23.000	2.3416e-03
12.250	23.250	2.3514e-03
12.250	23.500	2.3619e-03
12.250	23.750	2.3719e-03
12.250	24.000	2.3744e-03
12.500	17.000	1.1523e-06
12.500	17.250	1.8107e-06
12.500	17.500	2.7984e-06
12.500	17.750	4.2798e-06
12.500	18.000	6.8313e-06
12.500	18.250	1.1029e-05
12.500	18.500	1.7695e-05
12.500	18.750	2.7901e-05
12.500	19.000	4.2881e-05
12.500	19.250	6.4198e-05
12.500	19.500	9.4486e-05
12.500	19.750	1.3671e-04
12.500	20.000	1.9572e-04
12.500	20.250	2.7901e-04
12.500	20.500	3.9300e-04
12.500	20.750	5.5342e-04
12.500	21.000	7.7481e-04
12.500	21.250	1.0678e-03
12.500	21.500	1.4784e-03
12.500	21.750	1.7897e-03
12.500	22.000	1.9542e-03
12.500	22.250	2.0937e-03
12.500	22.500	2.2136e-03
12.500	22.750	2.2668e-03
12.500	23.000	2.2982e-03
12.500	23.250	2.3221e-03
12.500	23.500	2.3360e-03
12.500	23.750	2.3523e-03
12.500	24.000	2.3687e-03
12.750	17.000	1.0000e-07
12.750	17.250	1.1523e-06
12.750	17.500	1.8930e-06
12.750	17.750	2.8807e-06
12.750	18.000	4.6091e-06
12.750	18.250	7.4897e-06
12.750	18.500	1.2016e-05
12.750	18.750	1.9177e-05
12.750	19.000	2.9712e-05
12.750	19.250	4.5021e-05
12.750	19.500	6.6420e-05
12.750	19.750	9.6543e-05
12.750	20.000	1.3811e-04
12.750	20.250	1.9687e-04
12.750	20.500	2.7728e-04
12.750	20.750	3.8708e-04
12.750	21.000	5.4041e-04
12.750	21.250	7.4387e-04
12.750	21.500	1.0481e-03
12.750	21.750	1.3859e-03
12.750	22.000	1.6558e-03
12.750	22.250	1.8576e-03
12.750	22.500	2.0240e-03
12.750	22.750	2.1521e-03
12.750	23.000	2.2164e-03
12.750	23.250	2.2602e-03
12.750	23.500	2.2920e-03
12.750	23.750	2.3115e-03
12.750	24.000	2.3370e-03
13.000	17.000	1.0000e-07
13.000	17.250	1.0000e-07
13.000	17.500	1.0700e-06
13.000	17.750	1.9753e-06
13.000	18.000	3.1276e-06
13.000	18.250	5.1029e-06
13.000	18.500	8.2305e-06
13.000	18.750	1.3086e-05
13.000	19.000	2.0494e-05
13.000	19.250	3.1193e-05
13.000	19.500	4.6420e-05
13.000	19.750	6.7819e-05
13.000	20.000	9.7613e-05
13.000	20.250	1.3860e-04
13.000	20.500	1.9597e-04
13.000	20.750	2.7416e-04
13.000	21.000	3.7909e-04
13.000	21.250	5.1720e-04
13.000	21.500	7.3012e-04
13.000	21.750	9.6765e-04
13.000	22.000	1.2444e-03
13.000	22.250	1.4958e-03
13.000	22.500	1.7239e-03
13.000	22.750	1.9103e-03
13.000	23.000	2.0591e-03
13.000	23.250	2.1444e-03
13.000	23.500	2.2041e-03
13.000	23.750	2.2458e-03
13.000	24.000	2.2731e-03
13.250	17.000	1.0000e-07
13.250	17.250	1.0000e-07
13.250	17.500	1.0000e-07
13.250	17.750	9.8765e-07
13.250	18.000	1.9753e-06
13.250	18.250	3.4568e-06
13.250	18.500	5.5967e-06
13.250	18.750	8.9712e-06
13.250	19.000	1.3909e-05
13.250	19.250	2.1481e-05
13.250	19.500	3.2263e-05
13.250	19.750	4.7407e-05
13.250	20.000	6.8477e-05
13.250	20.250	9.7860e-05
13.250	20.500	1.3802e-04
13.250	20.750	1.9267e-04
13.250	21.000	2.6683e-04
13.250	21.250	3.6082e-04
13.250	21.500	5.0403e-04
13.250	21.750	6.6239e-04
13.250	22.000	8.4502e-04
13.250	22.250	1.0658e-03
13.250	22.500	1.2967e-03
13.250	22.750	1.5365e-03
13.250	23.000	1.7497e-03
13.250	23.250	1.9300e-03
13.250	23.500	2.0421e-03
13.250	23.750	2.1221e-03
13.250	24.000	2.1760e-03
13.500	17.000	1.0000e-07
13.500	17.250	1.0000e-07
13.500	17.500	1.0000e-07
13.500	17.750	1.0000e-07
13.500	18.000	1.2346e-06
13.500	18.250	2.2222e-06
13.500	18.500	3.8683e-06
13.500	18.750	6.0905e-06
13.500	19.000	9.5473e-06
13.500	19.250	1.4568e-05
13.500	19.500	2.2140e-05
13.500	19.750	3.2840e-05
13.500	20.000	4.7819e-05
13.500	20.250	6.8642e-05
13.500	20.500	9.7366e-05
13.500	20.750	1.3588e-04
13.500	21.000	1.8716e-04
13.500	21.250	2.5300e-04
13.500	21.500	3.5119e-04
13.500	21.750	4.5481e-04
13.500	22.000	5.6321e-04
13.500	22.250	6.8757e-04
13.500	22.500	8.6856e-04
13.500	22.750	1.0788e-03
13.500	23.000	1.3250e-03
13.500	23.250	1.5526e-03
13.500	23.500	1.7600e-03
13.500	23.750	1.9007e-03
13.500	24.000	2.0045e-03
13.750	17.000	1.0000e-07
13.750	17.250	1.0000e-07
13.750	17.500	1.0000e-07
13.750	17.750	1.0000e-07
13.750	18.000	1.0000e-07
13.750	18.250	1.3992e-06
13.750	18.500	2.4691e-06
13.750	18.750	4.1152e-06
13.750	19.000	6.4198e-06
13.750	19.250	9.9588e-06
13.750	19.500	1.5062e-05
13.750	19.750	2.2551e-05
13.750	20.000	3.3169e-05
13.750	20.250	4.7901e-05
13.750	20.500	6.8230e-05
13.750	20.750	9.5720e-05
13.750	21.000	1.3169e-04
13.750	21.250	1.7745e-04
13.750	21.500	2.4650e-04
13.750	21.750	3.1514e-04
13.750	22.000	3.7630e-04
13.750	22.250	4.3185e-04
13.750	22.500	5.3095e-04
13.750	22.750	6.8634e-04
13.750	23.000	8.7144e-04
13.750	23.250	1.0973e-03
13.750	23.500	1.3247e-03
13.750	23.750	1.5456e-03
13.750	24.000	1.7139e-03
14.000	17.000	1.0000e-07
14.000	17.250	1.0000e-07
14.000	17.500	1.0000e-07
14.000	17.750	1.0000e-07
14.000	18.000	1.0000e-07
14.000	18.250	1.0000e-07
14.000	18.500	1.5638e-06
14.000	18.750	2.7160e-06
14.000	19.000	4.3621e-06
14.000	19.250	6.6667e-06
14.000	19.500	1.0206e-05
14.000	19.750	1.5309e-05
14.000	20.000	2.2798e-05
14.000	20.250	3.3251e-05
14.000	20.500	4.7654e-05
14.000	20.750	6.7160e-05
14.000	21.000	9.2922e-05
14.000	21.250	1.2519e-04
14.000	21.500	1.7350e-04
14.000	21.750	2.2058e-04
14.000	22.000	2.5654e-04
14.000	22.250	2.7457e-04
14.000	22.500	3.1325e-04
14.000	22.750	4.0535e-04
14.000	23.000	5.2683e-04
14.000	23.250	6.7951e-04
14.000	23.500	8.6700e-04
14.000	23.750	1.0714e-03
14.000	24.000	1.2903e-03
