InwC 880.000A  relative to Inci 1215.00A scaled to 1215A.
Hden   Phi(H)  Eq_Width (A)
 7.000	17.000	5.5631e-03
 7.000	17.250	1.2629e-02
 7.000	17.500	2.4173e-02
 7.000	17.750	3.2816e-02
 7.000	18.000	3.6866e-02
 7.000	18.250	4.0155e-02
 7.000	18.500	4.2631e-02
 7.000	18.750	4.3319e-02
 7.000	19.000	4.3613e-02
 7.000	19.250	4.3741e-02
 7.000	19.500	4.3765e-02
 7.000	19.750	4.3770e-02
 7.000	20.000	4.3771e-02
 7.000	20.250	4.3772e-02
 7.000	20.500	4.3772e-02
 7.000	20.750	4.3772e-02
 7.000	21.000	4.3773e-02
 7.000	21.250	4.3773e-02
 7.000	21.500	4.3773e-02
 7.000	21.750	4.3773e-02
 7.000	22.000	4.3774e-02
 7.000	22.250	4.3774e-02
 7.000	22.500	4.3775e-02
 7.000	22.750	4.3775e-02
 7.000	23.000	4.3775e-02
 7.000	23.250	4.3775e-02
 7.000	23.500	4.3775e-02
 7.000	23.750	4.3775e-02
 7.000	24.000	4.3775e-02
 7.250	17.000	2.6556e-03
 7.250	17.250	5.5960e-03
 7.250	17.500	1.2712e-02
 7.250	17.750	2.4294e-02
 7.250	18.000	3.2889e-02
 7.250	18.250	3.6887e-02
 7.250	18.500	4.0156e-02
 7.250	18.750	4.2632e-02
 7.250	19.000	4.3320e-02
 7.250	19.250	4.3613e-02
 7.250	19.500	4.3741e-02
 7.250	19.750	4.3765e-02
 7.250	20.000	4.3770e-02
 7.250	20.250	4.3771e-02
 7.250	20.500	4.3772e-02
 7.250	20.750	4.3772e-02
 7.250	21.000	4.3772e-02
 7.250	21.250	4.3772e-02
 7.250	21.500	4.3772e-02
 7.250	21.750	4.3773e-02
 7.250	22.000	4.3773e-02
 7.250	22.250	4.3773e-02
 7.250	22.500	4.3773e-02
 7.250	22.750	4.3773e-02
 7.250	23.000	4.3774e-02
 7.250	23.250	4.3774e-02
 7.250	23.500	4.3774e-02
 7.250	23.750	4.3774e-02
 7.250	24.000	4.3774e-02
 7.500	17.000	1.3484e-03
 7.500	17.250	2.6654e-03
 7.500	17.500	5.6208e-03
 7.500	17.750	1.2788e-02
 7.500	18.000	2.4418e-02
 7.500	18.250	3.2973e-02
 7.500	18.500	3.6918e-02
 7.500	18.750	4.0167e-02
 7.500	19.000	4.2634e-02
 7.500	19.250	4.3320e-02
 7.500	19.500	4.3613e-02
 7.500	19.750	4.3741e-02
 7.500	20.000	4.3765e-02
 7.500	20.250	4.3770e-02
 7.500	20.500	4.3771e-02
 7.500	20.750	4.3772e-02
 7.500	21.000	4.3772e-02
 7.500	21.250	4.3772e-02
 7.500	21.500	4.3772e-02
 7.500	21.750	4.3772e-02
 7.500	22.000	4.3772e-02
 7.500	22.250	4.3772e-02
 7.500	22.500	4.3773e-02
 7.500	22.750	4.3773e-02
 7.500	23.000	4.3773e-02
 7.500	23.250	4.3773e-02
 7.500	23.500	4.3775e-02
 7.500	23.750	4.3773e-02
 7.500	24.000	4.3773e-02
 7.750	17.000	7.0288e-04
 7.750	17.250	1.3528e-03
 7.750	17.500	2.6729e-03
 7.750	17.750	5.6416e-03
 7.750	18.000	1.2861e-02
 7.750	18.250	2.4551e-02
 7.750	18.500	3.3076e-02
 7.750	18.750	3.6957e-02
 7.750	19.000	4.0179e-02
 7.750	19.250	4.2636e-02
 7.750	19.500	4.3321e-02
 7.750	19.750	4.3613e-02
 7.750	20.000	4.3741e-02
 7.750	20.250	4.3765e-02
 7.750	20.500	4.3770e-02
 7.750	20.750	4.3771e-02
 7.750	21.000	4.3772e-02
 7.750	21.250	4.3772e-02
 7.750	21.500	4.3772e-02
 7.750	21.750	4.3772e-02
 7.750	22.000	4.3772e-02
 7.750	22.250	4.3772e-02
 7.750	22.500	4.3772e-02
 7.750	22.750	4.3772e-02
 7.750	23.000	4.3773e-02
 7.750	23.250	4.3772e-02
 7.750	23.500	4.3772e-02
 7.750	23.750	4.3773e-02
 7.750	24.000	4.3772e-02
 8.000	17.000	3.6757e-04
 8.000	17.250	7.0239e-04
 8.000	17.500	1.3514e-03
 8.000	17.750	2.6722e-03
 8.000	18.000	5.6499e-03
 8.000	18.250	1.2915e-02
 8.000	18.500	2.4696e-02
 8.000	18.750	3.3193e-02
 8.000	19.000	3.7005e-02
 8.000	19.250	4.0194e-02
 8.000	19.500	4.2640e-02
 8.000	19.750	4.3322e-02
 8.000	20.000	4.3613e-02
 8.000	20.250	4.3741e-02
 8.000	20.500	4.3765e-02
 8.000	20.750	4.3770e-02
 8.000	21.000	4.3771e-02
 8.000	21.250	4.3772e-02
 8.000	21.500	4.3772e-02
 8.000	21.750	4.3772e-02
 8.000	22.000	4.3772e-02
 8.000	22.250	4.3772e-02
 8.000	22.500	4.3772e-02
 8.000	22.750	4.3773e-02
 8.000	23.000	4.3772e-02
 8.000	23.250	4.3773e-02
 8.000	23.500	4.3772e-02
 8.000	23.750	4.3772e-02
 8.000	24.000	4.3772e-02
 8.250	17.000	1.9284e-04
 8.250	17.250	3.6774e-04
 8.250	17.500	7.0280e-04
 8.250	17.750	1.3522e-03
 8.250	18.000	2.6754e-03
 8.250	18.250	5.6617e-03
 8.250	18.500	1.2974e-02
 8.250	18.750	2.4855e-02
 8.250	19.000	3.3326e-02
 8.250	19.250	3.7060e-02
 8.250	19.500	4.0208e-02
 8.250	19.750	4.2645e-02
 8.250	20.000	4.3323e-02
 8.250	20.250	4.3614e-02
 8.250	20.500	4.3741e-02
 8.250	20.750	4.3765e-02
 8.250	21.000	4.3770e-02
 8.250	21.250	4.3771e-02
 8.250	21.500	4.3772e-02
 8.250	21.750	4.3772e-02
 8.250	22.000	4.3772e-02
 8.250	22.250	4.3772e-02
 8.250	22.500	4.3772e-02
 8.250	22.750	4.3772e-02
 8.250	23.000	4.3772e-02
 8.250	23.250	4.3772e-02
 8.250	23.500	4.3772e-02
 8.250	23.750	4.3772e-02
 8.250	24.000	4.3772e-02
 8.500	17.000	1.0156e-04
 8.500	17.250	1.9267e-04
 8.500	17.500	3.6741e-04
 8.500	17.750	7.0288e-04
 8.500	18.000	1.3540e-03
 8.500	18.250	2.6781e-03
 8.500	18.500	5.6705e-03
 8.500	18.750	1.3031e-02
 8.500	19.000	2.5027e-02
 8.500	19.250	3.3476e-02
 8.500	19.500	3.7126e-02
 8.500	19.750	4.0236e-02
 8.500	20.000	4.2651e-02
 8.500	20.250	4.3325e-02
 8.500	20.500	4.3615e-02
 8.500	20.750	4.3742e-02
 8.500	21.000	4.3765e-02
 8.500	21.250	4.3770e-02
 8.500	21.500	4.3771e-02
 8.500	21.750	4.3772e-02
 8.500	22.000	4.3772e-02
 8.500	22.250	4.3772e-02
 8.500	22.500	4.3772e-02
 8.500	22.750	4.3772e-02
 8.500	23.000	4.3772e-02
 8.500	23.250	4.3772e-02
 8.500	23.500	4.3772e-02
 8.500	23.750	4.3772e-02
 8.500	24.000	4.3772e-02
 8.750	17.000	5.4074e-05
 8.750	17.250	1.0132e-04
 8.750	17.500	1.9251e-04
 8.750	17.750	3.6765e-04
 8.750	18.000	7.0444e-04
 8.750	18.250	1.3571e-03
 8.750	18.500	2.6840e-03
 8.750	18.750	5.6876e-03
 8.750	19.000	1.3093e-02
 8.750	19.250	2.5207e-02
 8.750	19.500	3.3640e-02
 8.750	19.750	3.7197e-02
 8.750	20.000	4.0265e-02
 8.750	20.250	4.2659e-02
 8.750	20.500	4.3328e-02
 8.750	20.750	4.3615e-02
 8.750	21.000	4.3742e-02
 8.750	21.250	4.3765e-02
 8.750	21.500	4.3770e-02
 8.750	21.750	4.3771e-02
 8.750	22.000	4.3772e-02
 8.750	22.250	4.3772e-02
 8.750	22.500	4.3772e-02
 8.750	22.750	4.3772e-02
 8.750	23.000	4.3772e-02
 8.750	23.250	4.3772e-02
 8.750	23.500	4.3772e-02
 8.750	23.750	4.3773e-02
 8.750	24.000	4.3772e-02
 9.000	17.000	2.8971e-05
 9.000	17.250	5.3992e-05
 9.000	17.500	1.0140e-04
 9.000	17.750	1.9300e-04
 9.000	18.000	3.6930e-04
 9.000	18.250	7.0757e-04
 9.000	18.500	1.3631e-03
 9.000	18.750	2.6960e-03
 9.000	19.000	5.7166e-03
 9.000	19.250	1.3165e-02
 9.000	19.500	2.5388e-02
 9.000	19.750	3.3817e-02
 9.000	20.000	3.7272e-02
 9.000	20.250	4.0296e-02
 9.000	20.500	4.2669e-02
 9.000	20.750	4.3331e-02
 9.000	21.000	4.3616e-02
 9.000	21.250	4.3742e-02
 9.000	21.500	4.3765e-02
 9.000	21.750	4.3770e-02
 9.000	22.000	4.3771e-02
 9.000	22.250	4.3772e-02
 9.000	22.500	4.3772e-02
 9.000	22.750	4.3772e-02
 9.000	23.000	4.3772e-02
 9.000	23.250	4.3772e-02
 9.000	23.500	4.3772e-02
 9.000	23.750	4.3772e-02
 9.000	24.000	4.3772e-02
 9.250	17.000	1.5473e-05
 9.250	17.250	2.8971e-05
 9.250	17.500	5.4239e-05
 9.250	17.750	1.0222e-04
 9.250	18.000	1.9473e-04
 9.250	18.250	3.7218e-04
 9.250	18.500	7.1276e-04
 9.250	18.750	1.3747e-03
 9.250	19.000	2.7218e-03
 9.250	19.250	5.7753e-03
 9.250	19.500	1.3270e-02
 9.250	19.750	2.5564e-02
 9.250	20.000	3.3987e-02
 9.250	20.250	3.7350e-02
 9.250	20.500	4.0324e-02
 9.250	20.750	4.2679e-02
 9.250	21.000	4.3335e-02
 9.250	21.250	4.3618e-02
 9.250	21.500	4.3733e-02
 9.250	21.750	4.3752e-02
 9.250	22.000	4.3756e-02
 9.250	22.250	4.3759e-02
 9.250	22.500	4.3771e-02
 9.250	22.750	4.3772e-02
 9.250	23.000	4.3772e-02
 9.250	23.250	4.3772e-02
 9.250	23.500	4.3772e-02
 9.250	23.750	4.3772e-02
 9.250	24.000	4.3772e-02
 9.500	17.000	8.1481e-06
 9.500	17.250	1.5556e-05
 9.500	17.500	2.9383e-05
 9.500	17.750	5.5226e-05
 9.500	18.000	1.0379e-04
 9.500	18.250	1.9728e-04
 9.500	18.500	3.7704e-04
 9.500	18.750	7.2387e-04
 9.500	19.000	1.3998e-03
 9.500	19.250	2.7819e-03
 9.500	19.500	5.9135e-03
 9.500	19.750	1.3474e-02
 9.500	20.000	2.5732e-02
 9.500	20.250	3.4144e-02
 9.500	20.500	3.7428e-02
 9.500	20.750	4.0350e-02
 9.500	21.000	4.2668e-02
 9.500	21.250	4.3320e-02
 9.500	21.500	4.3604e-02
 9.500	21.750	4.3725e-02
 9.500	22.000	4.3742e-02
 9.500	22.250	4.3747e-02
 9.500	22.500	4.3748e-02
 9.500	22.750	4.3748e-02
 9.500	23.000	4.3748e-02
 9.500	23.250	4.3749e-02
 9.500	23.500	4.3754e-02
 9.500	23.750	4.3755e-02
 9.500	24.000	4.3754e-02
 9.750	17.000	4.1152e-06
 9.750	17.250	8.2305e-06
 9.750	17.500	1.5967e-05
 9.750	17.750	3.0206e-05
 9.750	18.000	5.6626e-05
 9.750	18.250	1.0617e-04
 9.750	18.500	2.0189e-04
 9.750	18.750	3.8691e-04
 9.750	19.000	7.4749e-04
 9.750	19.250	1.4584e-03
 9.750	19.500	2.9213e-03
 9.750	19.750	6.1974e-03
 9.750	20.000	1.3855e-02
 9.750	20.250	2.5912e-02
 9.750	20.500	3.4286e-02
 9.750	20.750	3.7504e-02
 9.750	21.000	4.0395e-02
 9.750	21.250	4.2694e-02
 9.750	21.500	4.3329e-02
 9.750	21.750	4.3606e-02
 9.750	22.000	4.3727e-02
 9.750	22.250	4.3745e-02
 9.750	22.500	4.3746e-02
 9.750	22.750	4.3749e-02
 9.750	23.000	4.3749e-02
 9.750	23.250	4.3749e-02
 9.750	23.500	4.3749e-02
 9.750	23.750	4.3749e-02
 9.750	24.000	4.3748e-02
10.000	17.000	1.8930e-06
10.000	17.250	4.1975e-06
10.000	17.500	8.4774e-06
10.000	17.750	1.6543e-05
10.000	18.000	3.1358e-05
10.000	18.250	5.8519e-05
10.000	18.500	1.0996e-04
10.000	18.750	2.1037e-04
10.000	19.000	4.0798e-04
10.000	19.250	7.9934e-04
10.000	19.500	1.5786e-03
10.000	19.750	3.1662e-03
10.000	20.000	6.6779e-03
10.000	20.250	1.4571e-02
10.000	20.500	2.6221e-02
10.000	20.750	3.4437e-02
10.000	21.000	3.7586e-02
10.000	21.250	4.0440e-02
10.000	21.500	4.2714e-02
10.000	21.750	4.3343e-02
10.000	22.000	4.3610e-02
10.000	22.250	4.3729e-02
10.000	22.500	4.3748e-02
10.000	22.750	4.3749e-02
10.000	23.000	4.3747e-02
10.000	23.250	4.3749e-02
10.000	23.500	4.3749e-02
10.000	23.750	4.3749e-02
10.000	24.000	4.3749e-02
10.250	17.000	9.0535e-07
10.250	17.250	1.9753e-06
10.250	17.500	4.3621e-06
10.250	17.750	8.8889e-06
10.250	18.000	1.7366e-05
10.250	18.250	3.2922e-05
10.250	18.500	6.1893e-05
10.250	18.750	1.1778e-04
10.250	19.000	2.2914e-04
10.250	19.250	4.5251e-04
10.250	19.500	9.0025e-04
10.250	19.750	1.7908e-03
10.250	20.000	3.5781e-03
10.250	20.250	7.3825e-03
10.250	20.500	1.5483e-02
10.250	20.750	2.6656e-02
10.250	21.000	3.4601e-02
10.250	21.250	3.7684e-02
10.250	21.500	4.0488e-02
10.250	21.750	4.2733e-02
10.250	22.000	4.3354e-02
10.250	22.250	4.3617e-02
10.250	22.500	4.3730e-02
10.250	22.750	4.3750e-02
10.250	23.000	4.3752e-02
10.250	23.250	4.3750e-02
10.250	23.500	4.3749e-02
10.250	23.750	4.3748e-02
10.250	24.000	4.3748e-02
10.500	17.000	1.0000e-07
10.500	17.250	9.8765e-07
10.500	17.500	2.0576e-06
10.500	17.750	4.6914e-06
10.500	18.000	9.4650e-06
10.500	18.250	1.8683e-05
10.500	18.500	3.5885e-05
10.500	18.750	6.9053e-05
10.500	19.000	1.3449e-04
10.500	19.250	2.6675e-04
10.500	19.500	5.3333e-04
10.500	19.750	1.0642e-03
10.500	20.000	2.1104e-03
10.500	20.250	4.0992e-03
10.500	20.500	8.2249e-03
10.500	20.750	1.6598e-02
10.500	21.000	2.7347e-02
10.500	21.250	3.4829e-02
10.500	21.500	3.7785e-02
10.500	21.750	4.0544e-02
10.500	22.000	4.2753e-02
10.500	22.250	4.3364e-02
10.500	22.500	4.3626e-02
10.500	22.750	4.3731e-02
10.500	23.000	4.3752e-02
10.500	23.250	4.3754e-02
10.500	23.500	4.3753e-02
10.500	23.750	4.3752e-02
10.500	24.000	4.3751e-02
10.750	17.000	1.0000e-07
10.750	17.250	1.0000e-07
10.750	17.500	1.0700e-06
10.750	17.750	2.3045e-06
10.750	18.000	5.0206e-06
10.750	18.250	1.0700e-05
10.750	18.500	2.1481e-05
10.750	18.750	4.2551e-05
10.750	19.000	8.3621e-05
10.750	19.250	1.6519e-04
10.750	19.500	3.2914e-04
10.750	19.750	6.5638e-04
10.750	20.000	1.2973e-03
10.750	20.250	2.5133e-03
10.750	20.500	4.7936e-03
10.750	20.750	9.3245e-03
10.750	21.000	1.7900e-02
10.750	21.250	2.8227e-02
10.750	21.500	3.5125e-02
10.750	21.750	3.7925e-02
10.750	22.000	4.0609e-02
10.750	22.250	4.2777e-02
10.750	22.500	4.3375e-02
10.750	22.750	4.3632e-02
10.750	23.000	4.3735e-02
10.750	23.250	4.3753e-02
10.750	23.500	4.3756e-02
10.750	23.750	4.3756e-02
10.750	24.000	4.3755e-02
11.000	17.000	1.0000e-07
11.000	17.250	1.0000e-07
11.000	17.500	1.0000e-07
11.000	17.750	1.1523e-06
11.000	18.000	2.6337e-06
11.000	18.250	6.0082e-06
11.000	18.500	1.3169e-05
11.000	18.750	2.7325e-05
11.000	19.000	5.4650e-05
11.000	19.250	1.0741e-04
11.000	19.500	2.1095e-04
11.000	19.750	4.1638e-04
11.000	20.000	8.1959e-04
11.000	20.250	1.5930e-03
11.000	20.500	2.9931e-03
11.000	20.750	5.6202e-03
11.000	21.000	1.0485e-02
11.000	21.250	1.9298e-02
11.000	21.500	2.9187e-02
11.000	21.750	3.5514e-02
11.000	22.000	3.8119e-02
11.000	22.250	4.0709e-02
11.000	22.500	4.2809e-02
11.000	22.750	4.3389e-02
11.000	23.000	4.3639e-02
11.000	23.250	4.3743e-02
11.000	23.500	4.3754e-02
11.000	23.750	4.3757e-02
11.000	24.000	4.3757e-02
11.250	17.000	1.0000e-07
11.250	17.250	1.0000e-07
11.250	17.500	1.0000e-07
11.250	17.750	1.0000e-07
11.250	18.000	1.3992e-06
11.250	18.250	3.3745e-06
11.250	18.500	7.9835e-06
11.250	18.750	1.7695e-05
11.250	19.000	3.6379e-05
11.250	19.250	7.1687e-05
11.250	19.500	1.3885e-04
11.250	19.750	2.6930e-04
11.250	20.000	5.2436e-04
11.250	20.250	1.0173e-03
11.250	20.500	1.9470e-03
11.250	20.750	3.6075e-03
11.250	21.000	6.5731e-03
11.250	21.250	1.1890e-02
11.250	21.500	2.0950e-02
11.250	21.750	3.0083e-02
11.250	22.000	3.5951e-02
11.250	22.250	3.8401e-02
11.250	22.500	4.0850e-02
11.250	22.750	4.2852e-02
11.250	23.000	4.3410e-02
11.250	23.250	4.3647e-02
11.250	23.500	4.3748e-02
11.250	23.750	4.3756e-02
11.250	24.000	4.3758e-02
11.500	17.000	1.0000e-07
11.500	17.250	1.0000e-07
11.500	17.500	1.0000e-07
11.500	17.750	1.0000e-07
11.500	18.000	1.0000e-07
11.500	18.250	1.8107e-06
11.500	18.500	4.6091e-06
11.500	18.750	1.0864e-05
11.500	19.000	2.3621e-05
11.500	19.250	4.7325e-05
11.500	19.500	9.1358e-05
11.500	19.750	1.7506e-04
11.500	20.000	3.3613e-04
11.500	20.250	6.4551e-04
11.500	20.500	1.2340e-03
11.500	20.750	2.3288e-03
11.500	21.000	4.2370e-03
11.500	21.250	7.6108e-03
11.500	21.500	1.3445e-02
11.500	21.750	2.2661e-02
11.500	22.000	3.1059e-02
11.500	22.250	3.6386e-02
11.500	22.500	3.8718e-02
11.500	22.750	4.1035e-02
11.500	23.000	4.2912e-02
11.500	23.250	4.3438e-02
11.500	23.500	4.3659e-02
11.500	23.750	4.3751e-02
11.500	24.000	4.3763e-02
11.750	17.000	1.0000e-07
11.750	17.250	1.0000e-07
11.750	17.500	1.0000e-07
11.750	17.750	1.0000e-07
11.750	18.000	1.0000e-07
11.750	18.250	9.8765e-07
11.750	18.500	2.4691e-06
11.750	18.750	6.1728e-06
11.750	19.000	1.4156e-05
11.750	19.250	2.9794e-05
11.750	19.500	5.8436e-05
11.750	19.750	1.1144e-04
11.750	20.000	2.1235e-04
11.750	20.250	4.0584e-04
11.750	20.500	7.7235e-04
11.750	20.750	1.4579e-03
11.750	21.000	2.7333e-03
11.750	21.250	4.9398e-03
11.750	21.500	8.7704e-03
11.750	21.750	1.5177e-02
11.750	22.000	2.4146e-02
11.750	22.250	3.1844e-02
11.750	22.500	3.6805e-02
11.750	22.750	3.9019e-02
11.750	23.000	4.1244e-02
11.750	23.250	4.2992e-02
11.750	23.500	4.3475e-02
11.750	23.750	4.3673e-02
11.750	24.000	4.3755e-02
12.000	17.000	1.0000e-07
12.000	17.250	1.0000e-07
12.000	17.500	1.0000e-07
12.000	17.750	1.0000e-07
12.000	18.000	1.0000e-07
12.000	18.250	1.0000e-07
12.000	18.500	1.3169e-06
12.000	18.750	3.2099e-06
12.000	19.000	7.7366e-06
12.000	19.250	1.7366e-05
12.000	19.500	3.5638e-05
12.000	19.750	6.8724e-05
12.000	20.000	1.3053e-04
12.000	20.250	2.4889e-04
12.000	20.500	4.7457e-04
12.000	20.750	8.9704e-04
12.000	21.000	1.6853e-03
12.000	21.250	3.1342e-03
12.000	21.500	5.6609e-03
12.000	21.750	9.9826e-03
12.000	22.000	1.6823e-02
12.000	22.250	2.5330e-02
12.000	22.500	3.2452e-02
12.000	22.750	3.7125e-02
12.000	23.000	3.9304e-02
12.000	23.250	4.1448e-02
12.000	23.500	4.3087e-02
12.000	23.750	4.3518e-02
12.000	24.000	4.3689e-02
12.250	17.000	1.0000e-07
12.250	17.250	1.0000e-07
12.250	17.500	1.0000e-07
12.250	17.750	1.0000e-07
12.250	18.000	1.0000e-07
12.250	18.250	1.0000e-07
12.250	18.500	1.0000e-07
12.250	18.750	1.6461e-06
12.250	19.000	3.8683e-06
12.250	19.250	9.1358e-06
12.250	19.500	2.0000e-05
12.250	19.750	4.0658e-05
12.250	20.000	7.7942e-05
12.250	20.250	1.4848e-04
12.250	20.500	2.8379e-04
12.250	20.750	5.4058e-04
12.250	21.000	1.0216e-03
12.250	21.250	1.9147e-03
12.250	21.500	3.5329e-03
12.250	21.750	6.4123e-03
12.250	22.000	1.1162e-02
12.250	22.250	1.8291e-02
12.250	22.500	2.6293e-02
12.250	22.750	3.2997e-02
12.250	23.000	3.7347e-02
12.250	23.250	3.9535e-02
12.250	23.500	4.1642e-02
12.250	23.750	4.3187e-02
12.250	24.000	4.3559e-02
12.500	17.000	1.0000e-07
12.500	17.250	1.0000e-07
12.500	17.500	1.0000e-07
12.500	17.750	1.0000e-07
12.500	18.000	1.0000e-07
12.500	18.250	1.0000e-07
12.500	18.500	1.0000e-07
12.500	18.750	1.0000e-07
12.500	19.000	1.8930e-06
12.500	19.250	4.4444e-06
12.500	19.500	1.0206e-05
12.500	19.750	2.2222e-05
12.500	20.000	4.4938e-05
12.500	20.250	8.6420e-05
12.500	20.500	1.6560e-04
12.500	20.750	3.1844e-04
12.500	21.000	6.0963e-04
12.500	21.250	1.1519e-03
12.500	21.500	2.1346e-03
12.500	21.750	3.9314e-03
12.500	22.000	7.1366e-03
12.500	22.250	1.2224e-02
12.500	22.500	1.9454e-02
12.500	22.750	2.7027e-02
12.500	23.000	3.3395e-02
12.500	23.250	3.7500e-02
12.500	23.500	3.9705e-02
12.500	23.750	4.1799e-02
12.500	24.000	4.3278e-02
12.750	17.000	1.0000e-07
12.750	17.250	1.0000e-07
12.750	17.500	1.0000e-07
12.750	17.750	1.0000e-07
12.750	18.000	1.0000e-07
12.750	18.250	1.0000e-07
12.750	18.500	1.0000e-07
12.750	18.750	1.0000e-07
12.750	19.000	9.0535e-07
12.750	19.250	2.0576e-06
12.750	19.500	4.7737e-06
12.750	19.750	1.0947e-05
12.750	20.000	2.3868e-05
12.750	20.250	4.8560e-05
12.750	20.500	9.4486e-05
12.750	20.750	1.8247e-04
12.750	21.000	3.5416e-04
12.750	21.250	6.7893e-04
12.750	21.500	1.2644e-03
12.750	21.750	2.3459e-03
12.750	22.000	4.3260e-03
12.750	22.250	7.8212e-03
12.750	22.500	1.3118e-02
12.750	22.750	2.0267e-02
12.750	23.000	2.7602e-02
12.750	23.250	3.3617e-02
12.750	23.500	3.7588e-02
12.750	23.750	3.9826e-02
12.750	24.000	4.1926e-02
13.000	17.000	1.0000e-07
13.000	17.250	1.0000e-07
13.000	17.500	1.0000e-07
13.000	17.750	1.0000e-07
13.000	18.000	1.0000e-07
13.000	18.250	1.0000e-07
13.000	18.500	1.0000e-07
13.000	18.750	1.0000e-07
13.000	19.000	1.0000e-07
13.000	19.250	9.8765e-07
13.000	19.500	2.1399e-06
13.000	19.750	4.8560e-06
13.000	20.000	1.1358e-05
13.000	20.250	2.5021e-05
13.000	20.500	5.1770e-05
13.000	20.750	1.0263e-04
13.000	21.000	2.0074e-04
13.000	21.250	3.9325e-04
13.000	21.500	7.4765e-04
13.000	21.750	1.3768e-03
13.000	22.000	2.5346e-03
13.000	22.250	4.7091e-03
13.000	22.500	8.4365e-03
13.000	22.750	1.3853e-02
13.000	23.000	2.0897e-02
13.000	23.250	2.7980e-02
13.000	23.500	3.3787e-02
13.000	23.750	3.7593e-02
13.000	24.000	3.9913e-02
13.250	17.000	1.0000e-07
13.250	17.250	1.0000e-07
13.250	17.500	1.0000e-07
13.250	17.750	1.0000e-07
13.250	18.000	1.0000e-07
13.250	18.250	1.0000e-07
13.250	18.500	1.0000e-07
13.250	18.750	1.0000e-07
13.250	19.000	1.0000e-07
13.250	19.250	1.0000e-07
13.250	19.500	9.8765e-07
13.250	19.750	2.1399e-06
13.250	20.000	4.9383e-06
13.250	20.250	1.1440e-05
13.250	20.500	2.5514e-05
13.250	20.750	5.4156e-05
13.250	21.000	1.0922e-04
13.250	21.250	2.1695e-04
13.250	21.500	4.1424e-04
13.250	21.750	7.8905e-04
13.250	22.000	1.4779e-03
13.250	22.250	2.7258e-03
13.250	22.500	5.0305e-03
13.250	22.750	8.9158e-03
13.250	23.000	1.4467e-02
13.250	23.250	2.1408e-02
13.250	23.500	2.8288e-02
13.250	23.750	3.3819e-02
13.250	24.000	3.7560e-02
13.500	17.000	1.0000e-07
13.500	17.250	1.0000e-07
13.500	17.500	1.0000e-07
13.500	17.750	1.0000e-07
13.500	18.000	1.0000e-07
13.500	18.250	1.0000e-07
13.500	18.500	1.0000e-07
13.500	18.750	1.0000e-07
13.500	19.000	1.0000e-07
13.500	19.250	1.0000e-07
13.500	19.500	1.0000e-07
13.500	19.750	9.8765e-07
13.500	20.000	2.1399e-06
13.500	20.250	4.9383e-06
13.500	20.500	1.1440e-05
13.500	20.750	2.5761e-05
13.500	21.000	5.4403e-05
13.500	21.250	1.1226e-04
13.500	21.500	2.2082e-04
13.500	21.750	4.3646e-04
13.500	22.000	8.4856e-04
13.500	22.250	1.5842e-03
13.500	22.500	2.9186e-03
13.500	22.750	5.3629e-03
13.500	23.000	9.3742e-03
13.500	23.250	1.5090e-02
13.500	23.500	2.1895e-02
13.500	23.750	2.8504e-02
13.500	24.000	3.3842e-02
13.750	17.000	1.0000e-07
13.750	17.250	1.0000e-07
13.750	17.500	1.0000e-07
13.750	17.750	1.0000e-07
13.750	18.000	1.0000e-07
13.750	18.250	1.0000e-07
13.750	18.500	1.0000e-07
13.750	18.750	1.0000e-07
13.750	19.000	1.0000e-07
13.750	19.250	1.0000e-07
13.750	19.500	1.0000e-07
13.750	19.750	1.0000e-07
13.750	20.000	1.0700e-06
13.750	20.250	2.2222e-06
13.750	20.500	5.0206e-06
13.750	20.750	1.1605e-05
13.750	21.000	2.6091e-05
13.750	21.250	5.4897e-05
13.750	21.500	1.1235e-04
13.750	21.750	2.2576e-04
13.750	22.000	4.4790e-04
13.750	22.250	8.8165e-04
13.750	22.500	1.6936e-03
13.750	22.750	3.1529e-03
13.750	23.000	5.6889e-03
13.750	23.250	9.9210e-03
13.750	23.500	1.5769e-02
13.750	23.750	2.2437e-02
13.750	24.000	2.8791e-02
14.000	17.000	1.0000e-07
14.000	17.250	1.0000e-07
14.000	17.500	1.0000e-07
14.000	17.750	1.0000e-07
14.000	18.000	1.0000e-07
14.000	18.250	1.0000e-07
14.000	18.500	1.0000e-07
14.000	18.750	1.0000e-07
14.000	19.000	1.0000e-07
14.000	19.250	1.0000e-07
14.000	19.500	1.0000e-07
14.000	19.750	1.0000e-07
14.000	20.000	1.0000e-07
14.000	20.250	1.1523e-06
14.000	20.500	2.3868e-06
14.000	20.750	5.2675e-06
14.000	21.000	1.2099e-05
14.000	21.250	2.7078e-05
14.000	21.500	5.6708e-05
14.000	21.750	1.1481e-04
14.000	22.000	2.2955e-04
14.000	22.250	4.6337e-04
14.000	22.500	9.2938e-04
14.000	22.750	1.8220e-03
14.000	23.000	3.3969e-03
14.000	23.250	6.1385e-03
14.000	23.500	1.0620e-02
14.000	23.750	1.6591e-02
14.000	24.000	2.3063e-02
