InwT 9500.00A  relative to Inci 1215.00A scaled to 1215A.
Hden   Phi(H)  Eq_Width (A)
 7.000	17.000	2.9338e-02
 7.000	17.250	2.1053e-02
 7.000	17.500	1.5453e-02
 7.000	17.750	1.2090e-02
 7.000	18.000	1.0400e-02
 7.000	18.250	9.5428e-03
 7.000	18.500	9.0632e-03
 7.000	18.750	8.8617e-03
 7.000	19.000	8.7607e-03
 7.000	19.250	8.7044e-03
 7.000	19.500	8.6827e-03
 7.000	19.750	8.6741e-03
 7.000	20.000	8.6705e-03
 7.000	20.250	8.6688e-03
 7.000	20.500	8.6680e-03
 7.000	20.750	8.6676e-03
 7.000	21.000	8.6673e-03
 7.000	21.250	8.6672e-03
 7.000	21.500	8.6672e-03
 7.000	21.750	8.6672e-03
 7.000	22.000	8.6673e-03
 7.000	22.250	8.6674e-03
 7.000	22.500	8.6675e-03
 7.000	22.750	8.6676e-03
 7.000	23.000	8.6676e-03
 7.000	23.250	8.6675e-03
 7.000	23.500	8.6675e-03
 7.000	23.750	8.6675e-03
 7.000	24.000	8.6675e-03
 7.250	17.000	3.0375e-02
 7.250	17.250	2.9434e-02
 7.250	17.500	2.1041e-02
 7.250	17.750	1.5445e-02
 7.250	18.000	1.2085e-02
 7.250	18.250	1.0399e-02
 7.250	18.500	9.5426e-03
 7.250	18.750	9.0631e-03
 7.250	19.000	8.8617e-03
 7.250	19.250	8.7607e-03
 7.250	19.500	8.7044e-03
 7.250	19.750	8.6827e-03
 7.250	20.000	8.6741e-03
 7.250	20.250	8.6705e-03
 7.250	20.500	8.6688e-03
 7.250	20.750	8.6680e-03
 7.250	21.000	8.6676e-03
 7.250	21.250	8.6673e-03
 7.250	21.500	8.6672e-03
 7.250	21.750	8.6672e-03
 7.250	22.000	8.6672e-03
 7.250	22.250	8.6672e-03
 7.250	22.500	8.6672e-03
 7.250	22.750	8.6672e-03
 7.250	23.000	8.6672e-03
 7.250	23.250	8.6673e-03
 7.250	23.500	8.6673e-03
 7.250	23.750	8.6673e-03
 7.250	24.000	8.6673e-03
 7.500	17.000	3.1491e-02
 7.500	17.250	3.0784e-02
 7.500	17.500	2.9502e-02
 7.500	17.750	2.1031e-02
 7.500	18.000	1.5437e-02
 7.500	18.250	1.2081e-02
 7.500	18.500	1.0397e-02
 7.500	18.750	9.5425e-03
 7.500	19.000	9.0631e-03
 7.500	19.250	8.8617e-03
 7.500	19.500	8.7607e-03
 7.500	19.750	8.7044e-03
 7.500	20.000	8.6827e-03
 7.500	20.250	8.6741e-03
 7.500	20.500	8.6705e-03
 7.500	20.750	8.6688e-03
 7.500	21.000	8.6680e-03
 7.500	21.250	8.6675e-03
 7.500	21.500	8.6673e-03
 7.500	21.750	8.6672e-03
 7.500	22.000	8.6671e-03
 7.500	22.250	8.6671e-03
 7.500	22.500	8.6671e-03
 7.500	22.750	8.6671e-03
 7.500	23.000	8.6671e-03
 7.500	23.250	8.6671e-03
 7.500	23.500	8.6676e-03
 7.500	23.750	8.6671e-03
 7.500	24.000	8.6671e-03
 7.750	17.000	3.1520e-02
 7.750	17.250	3.2177e-02
 7.750	17.500	3.1126e-02
 7.750	17.750	2.9552e-02
 7.750	18.000	2.1023e-02
 7.750	18.250	1.5431e-02
 7.750	18.500	1.2075e-02
 7.750	18.750	1.0395e-02
 7.750	19.000	9.5423e-03
 7.750	19.250	9.0630e-03
 7.750	19.500	8.8617e-03
 7.750	19.750	8.7607e-03
 7.750	20.000	8.7044e-03
 7.750	20.250	8.6827e-03
 7.750	20.500	8.6741e-03
 7.750	20.750	8.6705e-03
 7.750	21.000	8.6688e-03
 7.750	21.250	8.6680e-03
 7.750	21.500	8.6675e-03
 7.750	21.750	8.6673e-03
 7.750	22.000	8.6672e-03
 7.750	22.250	8.6671e-03
 7.750	22.500	8.6671e-03
 7.750	22.750	8.6670e-03
 7.750	23.000	8.6671e-03
 7.750	23.250	8.6670e-03
 7.750	23.500	8.6670e-03
 7.750	23.750	8.6671e-03
 7.750	24.000	8.6670e-03
 8.000	17.000	3.0833e-02
 8.000	17.250	3.1967e-02
 8.000	17.500	3.2655e-02
 8.000	17.750	3.1230e-02
 8.000	18.000	2.9419e-02
 8.000	18.250	2.1009e-02
 8.000	18.500	1.5424e-02
 8.000	18.750	1.2069e-02
 8.000	19.000	1.0393e-02
 8.000	19.250	9.5421e-03
 8.000	19.500	9.0630e-03
 8.000	19.750	8.8617e-03
 8.000	20.000	8.7607e-03
 8.000	20.250	8.7044e-03
 8.000	20.500	8.6827e-03
 8.000	20.750	8.6741e-03
 8.000	21.000	8.6705e-03
 8.000	21.250	8.6688e-03
 8.000	21.500	8.6680e-03
 8.000	21.750	8.6675e-03
 8.000	22.000	8.6673e-03
 8.000	22.250	8.6672e-03
 8.000	22.500	8.6671e-03
 8.000	22.750	8.6671e-03
 8.000	23.000	8.6670e-03
 8.000	23.250	8.6672e-03
 8.000	23.500	8.6670e-03
 8.000	23.750	8.6670e-03
 8.000	24.000	8.6670e-03
 8.250	17.000	3.0803e-02
 8.250	17.250	3.1554e-02
 8.250	17.500	3.2900e-02
 8.250	17.750	3.3572e-02
 8.250	18.000	3.1805e-02
 8.250	18.250	2.9492e-02
 8.250	18.500	2.1007e-02
 8.250	18.750	1.5417e-02
 8.250	19.000	1.2063e-02
 8.250	19.250	1.0391e-02
 8.250	19.500	9.5417e-03
 8.250	19.750	9.0629e-03
 8.250	20.000	8.8617e-03
 8.250	20.250	8.7607e-03
 8.250	20.500	8.7044e-03
 8.250	20.750	8.6827e-03
 8.250	21.000	8.6741e-03
 8.250	21.250	8.6705e-03
 8.250	21.500	8.6688e-03
 8.250	21.750	8.6680e-03
 8.250	22.000	8.6675e-03
 8.250	22.250	8.6672e-03
 8.250	22.500	8.6672e-03
 8.250	22.750	8.6671e-03
 8.250	23.000	8.6671e-03
 8.250	23.250	8.6670e-03
 8.250	23.500	8.6670e-03
 8.250	23.750	8.6670e-03
 8.250	24.000	8.6670e-03
 8.500	17.000	3.1139e-02
 8.500	17.250	3.1540e-02
 8.500	17.500	3.2565e-02
 8.500	17.750	3.4330e-02
 8.500	18.000	3.5201e-02
 8.500	18.250	3.2720e-02
 8.500	18.500	2.9646e-02
 8.500	18.750	2.1007e-02
 8.500	19.000	1.5410e-02
 8.500	19.250	1.2055e-02
 8.500	19.500	1.0388e-02
 8.500	19.750	9.5413e-03
 8.500	20.000	9.0628e-03
 8.500	20.250	8.8616e-03
 8.500	20.500	8.7607e-03
 8.500	20.750	8.7044e-03
 8.500	21.000	8.6827e-03
 8.500	21.250	8.6741e-03
 8.500	21.500	8.6705e-03
 8.500	21.750	8.6688e-03
 8.500	22.000	8.6680e-03
 8.500	22.250	8.6675e-03
 8.500	22.500	8.6672e-03
 8.500	22.750	8.6672e-03
 8.500	23.000	8.6671e-03
 8.500	23.250	8.6671e-03
 8.500	23.500	8.6670e-03
 8.500	23.750	8.6670e-03
 8.500	24.000	8.6670e-03
 8.750	17.000	3.1645e-02
 8.750	17.250	3.1922e-02
 8.750	17.500	3.2673e-02
 8.750	17.750	3.4352e-02
 8.750	18.000	3.6938e-02
 8.750	18.250	3.7954e-02
 8.750	18.500	3.4591e-02
 8.750	18.750	2.9719e-02
 8.750	19.000	2.1008e-02
 8.750	19.250	1.5403e-02
 8.750	19.500	1.2046e-02
 8.750	19.750	1.0384e-02
 8.750	20.000	9.5408e-03
 8.750	20.250	9.0627e-03
 8.750	20.500	8.8616e-03
 8.750	20.750	8.7607e-03
 8.750	21.000	8.7044e-03
 8.750	21.250	8.6827e-03
 8.750	21.500	8.6741e-03
 8.750	21.750	8.6705e-03
 8.750	22.000	8.6688e-03
 8.750	22.250	8.6680e-03
 8.750	22.500	8.6675e-03
 8.750	22.750	8.6673e-03
 8.750	23.000	8.6672e-03
 8.750	23.250	8.6671e-03
 8.750	23.500	8.6671e-03
 8.750	23.750	8.6671e-03
 8.750	24.000	8.6670e-03
 9.000	17.000	3.2216e-02
 9.000	17.250	3.2500e-02
 9.000	17.500	3.3244e-02
 9.000	17.750	3.4787e-02
 9.000	18.000	3.7764e-02
 9.000	18.250	4.1708e-02
 9.000	18.500	4.2149e-02
 9.000	18.750	3.6337e-02
 9.000	19.000	2.9731e-02
 9.000	19.250	2.1007e-02
 9.000	19.500	1.5397e-02
 9.000	19.750	1.2037e-02
 9.000	20.000	1.0381e-02
 9.000	20.250	9.5404e-03
 9.000	20.500	9.0626e-03
 9.000	20.750	8.8616e-03
 9.000	21.000	8.7607e-03
 9.000	21.250	8.7044e-03
 9.000	21.500	8.6827e-03
 9.000	21.750	8.6741e-03
 9.000	22.000	8.6705e-03
 9.000	22.250	8.6688e-03
 9.000	22.500	8.6679e-03
 9.000	22.750	8.6675e-03
 9.000	23.000	8.6672e-03
 9.000	23.250	8.6672e-03
 9.000	23.500	8.6671e-03
 9.000	23.750	8.6670e-03
 9.000	24.000	8.6671e-03
 9.250	17.000	3.2829e-02
 9.250	17.250	3.3164e-02
 9.250	17.500	3.4093e-02
 9.250	17.750	3.5923e-02
 9.250	18.000	3.9340e-02
 9.250	18.250	4.4414e-02
 9.250	18.500	4.8859e-02
 9.250	18.750	4.7430e-02
 9.250	19.000	3.9606e-02
 9.250	19.250	2.9755e-02
 9.250	19.500	2.1004e-02
 9.250	19.750	1.5392e-02
 9.250	20.000	1.2029e-02
 9.250	20.250	1.0378e-02
 9.250	20.500	9.5398e-03
 9.250	20.750	9.0625e-03
 9.250	21.000	8.8616e-03
 9.250	21.250	8.7607e-03
 9.250	21.500	8.7028e-03
 9.250	21.750	8.6802e-03
 9.250	22.000	8.6714e-03
 9.250	22.250	8.6679e-03
 9.250	22.500	8.6686e-03
 9.250	22.750	8.6678e-03
 9.250	23.000	8.6675e-03
 9.250	23.250	8.6672e-03
 9.250	23.500	8.6672e-03
 9.250	23.750	8.6671e-03
 9.250	24.000	8.6671e-03
 9.500	17.000	3.3581e-02
 9.500	17.250	3.3979e-02
 9.500	17.500	3.5148e-02
 9.500	17.750	3.7522e-02
 9.500	18.000	4.1882e-02
 9.500	18.250	4.7960e-02
 9.500	18.500	5.4188e-02
 9.500	18.750	5.7331e-02
 9.500	19.000	5.2193e-02
 9.500	19.250	4.2456e-02
 9.500	19.500	2.9782e-02
 9.500	19.750	2.0997e-02
 9.500	20.000	1.5390e-02
 9.500	20.250	1.2021e-02
 9.500	20.500	1.0374e-02
 9.500	20.750	9.5392e-03
 9.500	21.000	9.0604e-03
 9.500	21.250	8.8591e-03
 9.500	21.500	8.7579e-03
 9.500	21.750	8.7011e-03
 9.500	22.000	8.6781e-03
 9.500	22.250	8.6695e-03
 9.500	22.500	8.6658e-03
 9.500	22.750	8.6640e-03
 9.500	23.000	8.6633e-03
 9.500	23.250	8.6629e-03
 9.500	23.500	8.6638e-03
 9.500	23.750	8.6637e-03
 9.500	24.000	8.6635e-03
 9.750	17.000	3.4455e-02
 9.750	17.250	3.4893e-02
 9.750	17.500	3.6355e-02
 9.750	17.750	3.9475e-02
 9.750	18.000	4.5165e-02
 9.750	18.250	5.2838e-02
 9.750	18.500	6.0139e-02
 9.750	18.750	6.5387e-02
 9.750	19.000	6.5867e-02
 9.750	19.250	5.7842e-02
 9.750	19.500	4.5650e-02
 9.750	19.750	2.9778e-02
 9.750	20.000	2.0982e-02
 9.750	20.250	1.5389e-02
 9.750	20.500	1.2016e-02
 9.750	20.750	1.0372e-02
 9.750	21.000	9.5388e-03
 9.750	21.250	9.0615e-03
 9.750	21.500	8.8595e-03
 9.750	21.750	8.7580e-03
 9.750	22.000	8.7015e-03
 9.750	22.250	8.6788e-03
 9.750	22.500	8.6694e-03
 9.750	22.750	8.6659e-03
 9.750	23.000	8.6643e-03
 9.750	23.250	8.6634e-03
 9.750	23.500	8.6629e-03
 9.750	23.750	8.6626e-03
 9.750	24.000	8.6625e-03
10.000	17.000	3.5475e-02
10.000	17.250	3.6070e-02
10.000	17.500	3.7895e-02
10.000	17.750	4.1975e-02
10.000	18.000	4.9468e-02
10.000	18.250	5.8763e-02
10.000	18.500	6.7044e-02
10.000	18.750	7.3204e-02
10.000	19.000	7.7013e-02
10.000	19.250	7.4216e-02
10.000	19.500	6.4173e-02
10.000	19.750	4.5533e-02
10.000	20.000	2.9718e-02
10.000	20.250	2.0969e-02
10.000	20.500	1.5390e-02
10.000	20.750	1.2012e-02
10.000	21.000	1.0370e-02
10.000	21.250	9.5383e-03
10.000	21.500	9.0617e-03
10.000	21.750	8.8607e-03
10.000	22.000	8.7583e-03
10.000	22.250	8.7017e-03
10.000	22.500	8.6793e-03
10.000	22.750	8.6698e-03
10.000	23.000	8.6657e-03
10.000	23.250	8.6642e-03
10.000	23.500	8.6634e-03
10.000	23.750	8.6630e-03
10.000	24.000	8.6628e-03
10.250	17.000	3.7148e-02
10.250	17.250	3.7579e-02
10.250	17.500	4.0010e-02
10.250	17.750	4.5346e-02
10.250	18.000	5.4561e-02
10.250	18.250	6.5299e-02
10.250	18.500	7.4246e-02
10.250	18.750	8.1187e-02
10.250	19.000	8.5801e-02
10.250	19.250	8.7071e-02
10.250	19.500	8.2034e-02
10.250	19.750	6.8681e-02
10.250	20.000	4.5530e-02
10.250	20.250	2.9621e-02
10.250	20.500	2.0938e-02
10.250	20.750	1.5389e-02
10.250	21.000	1.2008e-02
10.250	21.250	1.0368e-02
10.250	21.500	9.5379e-03
10.250	21.750	9.0616e-03
10.250	22.000	8.8612e-03
10.250	22.250	8.7592e-03
10.250	22.500	8.7018e-03
10.250	22.750	8.6798e-03
10.250	23.000	8.6705e-03
10.250	23.250	8.6663e-03
10.250	23.500	8.6642e-03
10.250	23.750	8.6632e-03
10.250	24.000	8.6628e-03
10.500	17.000	3.9759e-02
10.500	17.250	4.0005e-02
10.500	17.500	4.2999e-02
10.500	17.750	5.0013e-02
10.500	18.000	6.0683e-02
10.500	18.250	7.2348e-02
10.500	18.500	8.1527e-02
10.500	18.750	8.8804e-02
10.500	19.000	9.3830e-02
10.500	19.250	9.6501e-02
10.500	19.500	9.5504e-02
10.500	19.750	8.8926e-02
10.500	20.000	7.2528e-02
10.500	20.250	4.5280e-02
10.500	20.500	2.9456e-02
10.500	20.750	2.0897e-02
10.500	21.000	1.5382e-02
10.500	21.250	1.2006e-02
10.500	21.500	1.0367e-02
10.500	21.750	9.5376e-03
10.500	22.000	9.0615e-03
10.500	22.250	8.8614e-03
10.500	22.500	8.7602e-03
10.500	22.750	8.7019e-03
10.500	23.000	8.6800e-03
10.500	23.250	8.6709e-03
10.500	23.500	8.6668e-03
10.500	23.750	8.6649e-03
10.500	24.000	8.6638e-03
10.750	17.000	4.3569e-02
10.750	17.250	4.3571e-02
10.750	17.500	4.7457e-02
10.750	17.750	5.5972e-02
10.750	18.000	6.7785e-02
10.750	18.250	7.9473e-02
10.750	18.500	8.8798e-02
10.750	18.750	9.6247e-02
10.750	19.000	1.0163e-01
10.750	19.250	1.0490e-01
10.750	19.500	1.0612e-01
10.750	19.750	1.0406e-01
10.750	20.000	9.6388e-02
10.750	20.250	7.4804e-02
10.750	20.500	4.5036e-02
10.750	20.750	2.9318e-02
10.750	21.000	2.0873e-02
10.750	21.250	1.5363e-02
10.750	21.500	1.2004e-02
10.750	21.750	1.0366e-02
10.750	22.000	9.5374e-03
10.750	22.250	9.0612e-03
10.750	22.500	8.8613e-03
10.750	22.750	8.7604e-03
10.750	23.000	8.7023e-03
10.750	23.250	8.6801e-03
10.750	23.500	8.6713e-03
10.750	23.750	8.6673e-03
10.750	24.000	8.6654e-03
11.000	17.000	4.8837e-02
11.000	17.250	4.8396e-02
11.000	17.500	5.3172e-02
11.000	17.750	6.3060e-02
11.000	18.000	7.5381e-02
11.000	18.250	8.6798e-02
11.000	18.500	9.6188e-02
11.000	18.750	1.0408e-01
11.000	19.000	1.0955e-01
11.000	19.250	1.1282e-01
11.000	19.500	1.1492e-01
11.000	19.750	1.1547e-01
11.000	20.000	1.1265e-01
11.000	20.250	1.0376e-01
11.000	20.500	7.4299e-02
11.000	20.750	4.4810e-02
11.000	21.000	2.9170e-02
11.000	21.250	2.0889e-02
11.000	21.500	1.5334e-02
11.000	21.750	1.1999e-02
11.000	22.000	1.0365e-02
11.000	22.250	9.5367e-03
11.000	22.500	9.0607e-03
11.000	22.750	8.8612e-03
11.000	23.000	8.7604e-03
11.000	23.250	8.7035e-03
11.000	23.500	8.6802e-03
11.000	23.750	8.6714e-03
11.000	24.000	8.6677e-03
11.250	17.000	5.5884e-02
11.250	17.250	5.4534e-02
11.250	17.500	5.9799e-02
11.250	17.750	7.0696e-02
11.250	18.000	8.3323e-02
11.250	18.250	9.4352e-02
11.250	18.500	1.0334e-01
11.250	18.750	1.1103e-01
11.250	19.000	1.1656e-01
11.250	19.250	1.2055e-01
11.250	19.500	1.2281e-01
11.250	19.750	1.2424e-01
11.250	20.000	1.2408e-01
11.250	20.250	1.2090e-01
11.250	20.500	1.1103e-01
11.250	20.750	7.4200e-02
11.250	21.000	4.4598e-02
11.250	21.250	2.9159e-02
11.250	21.500	2.1036e-02
11.250	21.750	1.5281e-02
11.250	22.000	1.1990e-02
11.250	22.250	1.0364e-02
11.250	22.500	9.5353e-03
11.250	22.750	9.0598e-03
11.250	23.000	8.8608e-03
11.250	23.250	8.7603e-03
11.250	23.500	8.7040e-03
11.250	23.750	8.6805e-03
11.250	24.000	8.6715e-03
11.500	17.000	6.5458e-02
11.500	17.250	6.2534e-02
11.500	17.500	6.7459e-02
11.500	17.750	7.8645e-02
11.500	18.000	9.1306e-02
11.500	18.250	1.0203e-01
11.500	18.500	1.1049e-01
11.500	18.750	1.1796e-01
11.500	19.000	1.2334e-01
11.500	19.250	1.2745e-01
11.500	19.500	1.3003e-01
11.500	19.750	1.3172e-01
11.500	20.000	1.3275e-01
11.500	20.250	1.3254e-01
11.500	20.500	1.2906e-01
11.500	20.750	1.1669e-01
11.500	21.000	7.3770e-02
11.500	21.250	4.4381e-02
11.500	21.500	2.9399e-02
11.500	21.750	2.1222e-02
11.500	22.000	1.5210e-02
11.500	22.250	1.1975e-02
11.500	22.500	1.0362e-02
11.500	22.750	9.5333e-03
11.500	23.000	9.0588e-03
11.500	23.250	8.8602e-03
11.500	23.500	8.7601e-03
11.500	23.750	8.7042e-03
11.500	24.000	8.6817e-03
11.750	17.000	7.8640e-02
11.750	17.250	7.2976e-02
11.750	17.500	7.6510e-02
11.750	17.750	8.7030e-02
11.750	18.000	9.9245e-02
11.750	18.250	1.0954e-01
11.750	18.500	1.1777e-01
11.750	18.750	1.2463e-01
11.750	19.000	1.3041e-01
11.750	19.250	1.3430e-01
11.750	19.500	1.3716e-01
11.750	19.750	1.3887e-01
11.750	20.000	1.3988e-01
11.750	20.250	1.4067e-01
11.750	20.500	1.4072e-01
11.750	20.750	1.3697e-01
11.750	21.000	1.2252e-01
11.750	21.250	7.3332e-02
11.750	21.500	4.4550e-02
11.750	21.750	2.9893e-02
11.750	22.000	2.1169e-02
11.750	22.250	1.5127e-02
11.750	22.500	1.1951e-02
11.750	22.750	1.0357e-02
11.750	23.000	9.5301e-03
11.750	23.250	9.0570e-03
11.750	23.500	8.8593e-03
11.750	23.750	8.7597e-03
11.750	24.000	8.7041e-03
12.000	17.000	9.5100e-02
12.000	17.250	8.6435e-02
12.000	17.500	8.7404e-02
12.000	17.750	9.5971e-02
12.000	18.000	1.0694e-01
12.000	18.250	1.1676e-01
12.000	18.500	1.2525e-01
12.000	18.750	1.3235e-01
12.000	19.000	1.3787e-01
12.000	19.250	1.4171e-01
12.000	19.500	1.4407e-01
12.000	19.750	1.4542e-01
12.000	20.000	1.4617e-01
12.000	20.250	1.4702e-01
12.000	20.500	1.4797e-01
12.000	20.750	1.4846e-01
12.000	21.000	1.4449e-01
12.000	21.250	1.2039e-01
12.000	21.500	7.3300e-02
12.000	21.750	4.4706e-02
12.000	22.000	3.0427e-02
12.000	22.250	2.0894e-02
12.000	22.500	1.5021e-02
12.000	22.750	1.1916e-02
12.000	23.000	1.0348e-02
12.000	23.250	9.5249e-03
12.000	23.500	9.0543e-03
12.000	23.750	8.8579e-03
12.000	24.000	8.7590e-03
12.250	17.000	1.1642e-01
12.250	17.250	1.0340e-01
12.250	17.500	1.0011e-01
12.250	17.750	1.0524e-01
12.250	18.000	1.1453e-01
12.250	18.250	1.2443e-01
12.250	18.500	1.3339e-01
12.250	18.750	1.4074e-01
12.250	19.000	1.4598e-01
12.250	19.250	1.4944e-01
12.250	19.500	1.5118e-01
12.250	19.750	1.5195e-01
12.250	20.000	1.5221e-01
12.250	20.250	1.5254e-01
12.250	20.500	1.5315e-01
12.250	20.750	1.5471e-01
12.250	21.000	1.5602e-01
12.250	21.250	1.5118e-01
12.250	21.500	1.2121e-01
12.250	21.750	7.2659e-02
12.250	22.000	4.5043e-02
12.250	22.250	3.0837e-02
12.250	22.500	2.0603e-02
12.250	22.750	1.4894e-02
12.250	23.000	1.1869e-02
12.250	23.250	1.0331e-02
12.250	23.500	9.5157e-03
12.250	23.750	9.0504e-03
12.250	24.000	8.8558e-03
12.500	17.000	1.2790e-01
12.500	17.250	1.2455e-01
12.500	17.500	1.1603e-01
12.500	17.750	1.1614e-01
12.500	18.000	1.2257e-01
12.500	18.250	1.3194e-01
12.500	18.500	1.4158e-01
12.500	18.750	1.4947e-01
12.500	19.000	1.5465e-01
12.500	19.250	1.5739e-01
12.500	19.500	1.5858e-01
12.500	19.750	1.5872e-01
12.500	20.000	1.5828e-01
12.500	20.250	1.5797e-01
12.500	20.500	1.5769e-01
12.500	20.750	1.5896e-01
12.500	21.000	1.6167e-01
12.500	21.250	1.6368e-01
12.500	21.500	1.5572e-01
12.500	21.750	1.1821e-01
12.500	22.000	7.1717e-02
12.500	22.250	4.5407e-02
12.500	22.500	3.0728e-02
12.500	22.750	2.0267e-02
12.500	23.000	1.4733e-02
12.500	23.250	1.1804e-02
12.500	23.500	1.0303e-02
12.500	23.750	9.5001e-03
12.500	24.000	9.0441e-03
12.750	17.000	1.1840e-01
12.750	17.250	1.3726e-01
12.750	17.500	1.3354e-01
12.750	17.750	1.2981e-01
12.750	18.000	1.3285e-01
12.750	18.250	1.4097e-01
12.750	18.500	1.4989e-01
12.750	18.750	1.5799e-01
12.750	19.000	1.6331e-01
12.750	19.250	1.6608e-01
12.750	19.500	1.6616e-01
12.750	19.750	1.6537e-01
12.750	20.000	1.6404e-01
12.750	20.250	1.6320e-01
12.750	20.500	1.6233e-01
12.750	20.750	1.6231e-01
12.750	21.000	1.6477e-01
12.750	21.250	1.6866e-01
12.750	21.500	1.6872e-01
12.750	21.750	1.5902e-01
12.750	22.000	1.1419e-01
12.750	22.250	7.0457e-02
12.750	22.500	4.5627e-02
12.750	22.750	3.0117e-02
12.750	23.000	1.9894e-02
12.750	23.250	1.4535e-02
12.750	23.500	1.1709e-02
12.750	23.750	1.0254e-02
12.750	24.000	9.4733e-03
13.000	17.000	6.7133e-02
13.000	17.250	8.5909e-02
13.000	17.500	1.2701e-01
13.000	17.750	1.4398e-01
13.000	18.000	1.4697e-01
13.000	18.250	1.5263e-01
13.000	18.500	1.5969e-01
13.000	18.750	1.6676e-01
13.000	19.000	1.7183e-01
13.000	19.250	1.7421e-01
13.000	19.500	1.7373e-01
13.000	19.750	1.7217e-01
13.000	20.000	1.7021e-01
13.000	20.250	1.6820e-01
13.000	20.500	1.6728e-01
13.000	20.750	1.6712e-01
13.000	21.000	1.6831e-01
13.000	21.250	1.7205e-01
13.000	21.500	1.7517e-01
13.000	21.750	1.7485e-01
13.000	22.000	1.5753e-01
13.000	22.250	1.0882e-01
13.000	22.500	6.8619e-02
13.000	22.750	4.4952e-02
13.000	23.000	2.9200e-02
13.000	23.250	1.9410e-02
13.000	23.500	1.4272e-02
13.000	23.750	1.1579e-02
13.000	24.000	1.0176e-02
13.250	17.000	6.6761e-02
13.250	17.250	7.6316e-02
13.250	17.500	9.8802e-02
13.250	17.750	1.3124e-01
13.250	18.000	1.5244e-01
13.250	18.250	1.6788e-01
13.250	18.500	1.7239e-01
13.250	18.750	1.7716e-01
13.250	19.000	1.8058e-01
13.250	19.250	1.8253e-01
13.250	19.500	1.8163e-01
13.250	19.750	1.7951e-01
13.250	20.000	1.7673e-01
13.250	20.250	1.7390e-01
13.250	20.500	1.7171e-01
13.250	20.750	1.7104e-01
13.250	21.000	1.7186e-01
13.250	21.250	1.7421e-01
13.250	21.500	1.7576e-01
13.250	21.750	1.8026e-01
13.250	22.000	1.7757e-01
13.250	22.250	1.5101e-01
13.250	22.500	1.0124e-01
13.250	22.750	6.4682e-02
13.250	23.000	4.2499e-02
13.250	23.250	2.7975e-02
13.250	23.500	1.8821e-02
13.250	23.750	1.3959e-02
13.250	24.000	1.1406e-02
13.500	17.000	6.6473e-02
13.500	17.250	7.6943e-02
13.500	17.500	9.5982e-02
13.500	17.750	1.2257e-01
13.500	18.000	1.5948e-01
13.500	18.250	1.7739e-01
13.500	18.500	1.8858e-01
13.500	18.750	1.9003e-01
13.500	19.000	1.9169e-01
13.500	19.250	1.9150e-01
13.500	19.500	1.9016e-01
13.500	19.750	1.8699e-01
13.500	20.000	1.8357e-01
13.500	20.250	1.8035e-01
13.500	20.500	1.7722e-01
13.500	20.750	1.7498e-01
13.500	21.000	1.7410e-01
13.500	21.250	1.7569e-01
13.500	21.500	1.7625e-01
13.500	21.750	1.8149e-01
13.500	22.000	1.8575e-01
13.500	22.250	1.7423e-01
13.500	22.500	1.3800e-01
13.500	22.750	9.1633e-02
13.500	23.000	5.9164e-02
13.500	23.250	3.9674e-02
13.500	23.500	2.6480e-02
13.500	23.750	1.8072e-02
13.500	24.000	1.3547e-02
13.750	17.000	6.6878e-02
13.750	17.250	7.7539e-02
13.750	17.500	9.5204e-02
13.750	17.750	1.1542e-01
13.750	18.000	1.5239e-01
13.750	18.250	1.8886e-01
13.750	18.500	1.9893e-01
13.750	18.750	2.0711e-01
13.750	19.000	2.0536e-01
13.750	19.250	2.0371e-01
13.750	19.500	2.0074e-01
13.750	19.750	1.9670e-01
13.750	20.000	1.9215e-01
13.750	20.250	1.8785e-01
13.750	20.500	1.8407e-01
13.750	20.750	1.8076e-01
13.750	21.000	1.7831e-01
13.750	21.250	1.7746e-01
13.750	21.500	1.7783e-01
13.750	21.750	1.8190e-01
13.750	22.000	1.8633e-01
13.750	22.250	1.8340e-01
13.750	22.500	1.6177e-01
13.750	22.750	1.2205e-01
13.750	23.000	8.0475e-02
13.750	23.250	5.3209e-02
13.750	23.500	3.6171e-02
13.750	23.750	2.4651e-02
13.750	24.000	1.7125e-02
14.000	17.000	6.7224e-02
14.000	17.250	7.6468e-02
14.000	17.500	9.4820e-02
14.000	17.750	1.1471e-01
14.000	18.000	1.4208e-01
14.000	18.250	1.8205e-01
14.000	18.500	2.1266e-01
14.000	18.750	2.2312e-01
14.000	19.000	2.2258e-01
14.000	19.250	2.1803e-01
14.000	19.500	2.1367e-01
14.000	19.750	2.0854e-01
14.000	20.000	2.0321e-01
14.000	20.250	1.9747e-01
14.000	20.500	1.9262e-01
14.000	20.750	1.8850e-01
14.000	21.000	1.8520e-01
14.000	21.250	1.8328e-01
14.000	21.500	1.8186e-01
14.000	21.750	1.8521e-01
14.000	22.000	1.8983e-01
14.000	22.250	1.8761e-01
14.000	22.500	1.7038e-01
14.000	22.750	1.4104e-01
14.000	23.000	1.0387e-01
14.000	23.250	6.9591e-02
14.000	23.500	4.7030e-02
14.000	23.750	3.2664e-02
14.000	24.000	2.2465e-02
