InwC 1103.23A  relative to Inci 1215.00A scaled to 1215A.
Hden   Phi(H)  Eq_Width (A)
 7.000	17.000	4.2640e-02
 7.000	17.250	4.2933e-02
 7.000	17.500	4.4115e-02
 7.000	17.750	4.4135e-02
 7.000	18.000	4.4155e-02
 7.000	18.250	4.4180e-02
 7.000	18.500	4.4192e-02
 7.000	18.750	4.4197e-02
 7.000	19.000	4.4203e-02
 7.000	19.250	4.4207e-02
 7.000	19.500	4.4208e-02
 7.000	19.750	4.4209e-02
 7.000	20.000	4.4209e-02
 7.000	20.250	4.4209e-02
 7.000	20.500	4.4209e-02
 7.000	20.750	4.4209e-02
 7.000	21.000	4.4209e-02
 7.000	21.250	4.4210e-02
 7.000	21.500	4.4210e-02
 7.000	21.750	4.4210e-02
 7.000	22.000	4.4211e-02
 7.000	22.250	4.4211e-02
 7.000	22.500	4.4211e-02
 7.000	22.750	4.4212e-02
 7.000	23.000	4.4212e-02
 7.000	23.250	4.4212e-02
 7.000	23.500	4.4212e-02
 7.000	23.750	4.4212e-02
 7.000	24.000	4.4212e-02
 7.250	17.000	6.5029e-02
 7.250	17.250	4.2318e-02
 7.250	17.500	4.2943e-02
 7.250	17.750	4.4115e-02
 7.250	18.000	4.4135e-02
 7.250	18.250	4.4155e-02
 7.250	18.500	4.4179e-02
 7.250	18.750	4.4192e-02
 7.250	19.000	4.4197e-02
 7.250	19.250	4.4203e-02
 7.250	19.500	4.4207e-02
 7.250	19.750	4.4208e-02
 7.250	20.000	4.4209e-02
 7.250	20.250	4.4209e-02
 7.250	20.500	4.4209e-02
 7.250	20.750	4.4209e-02
 7.250	21.000	4.4209e-02
 7.250	21.250	4.4209e-02
 7.250	21.500	4.4209e-02
 7.250	21.750	4.4209e-02
 7.250	22.000	4.4210e-02
 7.250	22.250	4.4210e-02
 7.250	22.500	4.4210e-02
 7.250	22.750	4.4210e-02
 7.250	23.000	4.4211e-02
 7.250	23.250	4.4211e-02
 7.250	23.500	4.4211e-02
 7.250	23.750	4.4211e-02
 7.250	24.000	4.4211e-02
 7.500	17.000	8.3410e-02
 7.500	17.250	6.3926e-02
 7.500	17.500	4.2084e-02
 7.500	17.750	4.2953e-02
 7.500	18.000	4.4115e-02
 7.500	18.250	4.4135e-02
 7.500	18.500	4.4155e-02
 7.500	18.750	4.4180e-02
 7.500	19.000	4.4192e-02
 7.500	19.250	4.4197e-02
 7.500	19.500	4.4203e-02
 7.500	19.750	4.4207e-02
 7.500	20.000	4.4208e-02
 7.500	20.250	4.4209e-02
 7.500	20.500	4.4209e-02
 7.500	20.750	4.4209e-02
 7.500	21.000	4.4209e-02
 7.500	21.250	4.4209e-02
 7.500	21.500	4.4209e-02
 7.500	21.750	4.4209e-02
 7.500	22.000	4.4209e-02
 7.500	22.250	4.4209e-02
 7.500	22.500	4.4209e-02
 7.500	22.750	4.4209e-02
 7.500	23.000	4.4209e-02
 7.500	23.250	4.4210e-02
 7.500	23.500	4.4212e-02
 7.500	23.750	4.4210e-02
 7.500	24.000	4.4210e-02
 7.750	17.000	9.8880e-02
 7.750	17.250	8.2039e-02
 7.750	17.500	6.3013e-02
 7.750	17.750	4.1912e-02
 7.750	18.000	4.2962e-02
 7.750	18.250	4.4115e-02
 7.750	18.500	4.4135e-02
 7.750	18.750	4.4155e-02
 7.750	19.000	4.4180e-02
 7.750	19.250	4.4192e-02
 7.750	19.500	4.4197e-02
 7.750	19.750	4.4203e-02
 7.750	20.000	4.4207e-02
 7.750	20.250	4.4208e-02
 7.750	20.500	4.4209e-02
 7.750	20.750	4.4209e-02
 7.750	21.000	4.4209e-02
 7.750	21.250	4.4209e-02
 7.750	21.500	4.4209e-02
 7.750	21.750	4.4209e-02
 7.750	22.000	4.4209e-02
 7.750	22.250	4.4209e-02
 7.750	22.500	4.4209e-02
 7.750	22.750	4.4209e-02
 7.750	23.000	4.4209e-02
 7.750	23.250	4.4209e-02
 7.750	23.500	4.4209e-02
 7.750	23.750	4.4210e-02
 7.750	24.000	4.4209e-02
 8.000	17.000	1.0976e-01
 8.000	17.250	9.7890e-02
 8.000	17.500	8.0819e-02
 8.000	17.750	6.2460e-02
 8.000	18.000	4.2120e-02
 8.000	18.250	4.2960e-02
 8.000	18.500	4.4116e-02
 8.000	18.750	4.4135e-02
 8.000	19.000	4.4155e-02
 8.000	19.250	4.4180e-02
 8.000	19.500	4.4192e-02
 8.000	19.750	4.4197e-02
 8.000	20.000	4.4203e-02
 8.000	20.250	4.4207e-02
 8.000	20.500	4.4208e-02
 8.000	20.750	4.4209e-02
 8.000	21.000	4.4209e-02
 8.000	21.250	4.4209e-02
 8.000	21.500	4.4209e-02
 8.000	21.750	4.4209e-02
 8.000	22.000	4.4209e-02
 8.000	22.250	4.4209e-02
 8.000	22.500	4.4209e-02
 8.000	22.750	4.4209e-02
 8.000	23.000	4.4209e-02
 8.000	23.250	4.4210e-02
 8.000	23.500	4.4209e-02
 8.000	23.750	4.4209e-02
 8.000	24.000	4.4209e-02
 8.250	17.000	1.1583e-01
 8.250	17.250	1.0878e-01
 8.250	17.500	9.6475e-02
 8.250	17.750	7.9115e-02
 8.250	18.000	6.1008e-02
 8.250	18.250	4.1917e-02
 8.250	18.500	4.2967e-02
 8.250	18.750	4.4115e-02
 8.250	19.000	4.4135e-02
 8.250	19.250	4.4156e-02
 8.250	19.500	4.4179e-02
 8.250	19.750	4.4192e-02
 8.250	20.000	4.4197e-02
 8.250	20.250	4.4203e-02
 8.250	20.500	4.4207e-02
 8.250	20.750	4.4208e-02
 8.250	21.000	4.4209e-02
 8.250	21.250	4.4209e-02
 8.250	21.500	4.4209e-02
 8.250	21.750	4.4209e-02
 8.250	22.000	4.4209e-02
 8.250	22.250	4.4209e-02
 8.250	22.500	4.4209e-02
 8.250	22.750	4.4209e-02
 8.250	23.000	4.4209e-02
 8.250	23.250	4.4209e-02
 8.250	23.500	4.4209e-02
 8.250	23.750	4.4209e-02
 8.250	24.000	4.4209e-02
 8.500	17.000	1.1859e-01
 8.500	17.250	1.1494e-01
 8.500	17.500	1.0750e-01
 8.500	17.750	9.4400e-02
 8.500	18.000	7.6299e-02
 8.500	18.250	5.8896e-02
 8.500	18.500	4.1556e-02
 8.500	18.750	4.2974e-02
 8.500	19.000	4.4115e-02
 8.500	19.250	4.4136e-02
 8.500	19.500	4.4156e-02
 8.500	19.750	4.4180e-02
 8.500	20.000	4.4192e-02
 8.500	20.250	4.4197e-02
 8.500	20.500	4.4203e-02
 8.500	20.750	4.4207e-02
 8.500	21.000	4.4208e-02
 8.500	21.250	4.4209e-02
 8.500	21.500	4.4209e-02
 8.500	21.750	4.4209e-02
 8.500	22.000	4.4209e-02
 8.500	22.250	4.4209e-02
 8.500	22.500	4.4209e-02
 8.500	22.750	4.4209e-02
 8.500	23.000	4.4209e-02
 8.500	23.250	4.4209e-02
 8.500	23.500	4.4209e-02
 8.500	23.750	4.4209e-02
 8.500	24.000	4.4209e-02
 8.750	17.000	1.1894e-01
 8.750	17.250	1.1771e-01
 8.750	17.500	1.1369e-01
 8.750	17.750	1.0538e-01
 8.750	18.000	9.1026e-02
 8.750	18.250	7.1960e-02
 8.750	18.500	5.4821e-02
 8.750	18.750	4.1349e-02
 8.750	19.000	4.2981e-02
 8.750	19.250	4.4115e-02
 8.750	19.500	4.4136e-02
 8.750	19.750	4.4156e-02
 8.750	20.000	4.4180e-02
 8.750	20.250	4.4192e-02
 8.750	20.500	4.4197e-02
 8.750	20.750	4.4203e-02
 8.750	21.000	4.4207e-02
 8.750	21.250	4.4208e-02
 8.750	21.500	4.4209e-02
 8.750	21.750	4.4209e-02
 8.750	22.000	4.4209e-02
 8.750	22.250	4.4209e-02
 8.750	22.500	4.4209e-02
 8.750	22.750	4.4209e-02
 8.750	23.000	4.4209e-02
 8.750	23.250	4.4209e-02
 8.750	23.500	4.4209e-02
 8.750	23.750	4.4209e-02
 8.750	24.000	4.4209e-02
 9.000	17.000	1.1737e-01
 9.000	17.250	1.1802e-01
 9.000	17.500	1.1643e-01
 9.000	17.750	1.1168e-01
 9.000	18.000	1.0193e-01
 9.000	18.250	8.5563e-02
 9.000	18.500	6.6080e-02
 9.000	18.750	5.1994e-02
 9.000	19.000	4.1337e-02
 9.000	19.250	4.2983e-02
 9.000	19.500	4.4115e-02
 9.000	19.750	4.4136e-02
 9.000	20.000	4.4156e-02
 9.000	20.250	4.4180e-02
 9.000	20.500	4.4192e-02
 9.000	20.750	4.4197e-02
 9.000	21.000	4.4203e-02
 9.000	21.250	4.4207e-02
 9.000	21.500	4.4208e-02
 9.000	21.750	4.4209e-02
 9.000	22.000	4.4209e-02
 9.000	22.250	4.4209e-02
 9.000	22.500	4.4209e-02
 9.000	22.750	4.4209e-02
 9.000	23.000	4.4209e-02
 9.000	23.250	4.4209e-02
 9.000	23.500	4.4209e-02
 9.000	23.750	4.4209e-02
 9.000	24.000	4.4209e-02
 9.250	17.000	1.1415e-01
 9.250	17.250	1.1636e-01
 9.250	17.500	1.1666e-01
 9.250	17.750	1.1432e-01
 9.250	18.000	1.0799e-01
 9.250	18.250	9.6287e-02
 9.250	18.500	7.8644e-02
 9.250	18.750	5.9730e-02
 9.250	19.000	4.7017e-02
 9.250	19.250	4.1328e-02
 9.250	19.500	4.2980e-02
 9.250	19.750	4.4114e-02
 9.250	20.000	4.4136e-02
 9.250	20.250	4.4156e-02
 9.250	20.500	4.4179e-02
 9.250	20.750	4.4192e-02
 9.250	21.000	4.4198e-02
 9.250	21.250	4.4203e-02
 9.250	21.500	4.4198e-02
 9.250	21.750	4.4195e-02
 9.250	22.000	4.4195e-02
 9.250	22.250	4.4196e-02
 9.250	22.500	4.4208e-02
 9.250	22.750	4.4208e-02
 9.250	23.000	4.4209e-02
 9.250	23.250	4.4209e-02
 9.250	23.500	4.4209e-02
 9.250	23.750	4.4209e-02
 9.250	24.000	4.4209e-02
 9.500	17.000	1.0951e-01
 9.500	17.250	1.1298e-01
 9.500	17.500	1.1482e-01
 9.500	17.750	1.1434e-01
 9.500	18.000	1.1042e-01
 9.500	18.250	1.0244e-01
 9.500	18.500	8.9328e-02
 9.500	18.750	7.1551e-02
 9.500	19.000	5.5145e-02
 9.500	19.250	4.3514e-02
 9.500	19.500	4.1322e-02
 9.500	19.750	4.2969e-02
 9.500	20.000	4.4113e-02
 9.500	20.250	4.4136e-02
 9.500	20.500	4.4156e-02
 9.500	20.750	4.4178e-02
 9.500	21.000	4.4182e-02
 9.500	21.250	4.4185e-02
 9.500	21.500	4.4189e-02
 9.500	21.750	4.4190e-02
 9.500	22.000	4.4185e-02
 9.500	22.250	4.4186e-02
 9.500	22.500	4.4185e-02
 9.500	22.750	4.4185e-02
 9.500	23.000	4.4185e-02
 9.500	23.250	4.4185e-02
 9.500	23.500	4.4191e-02
 9.500	23.750	4.4191e-02
 9.500	24.000	4.4191e-02
 9.750	17.000	1.0370e-01
 9.750	17.250	1.0816e-01
 9.750	17.500	1.1120e-01
 9.750	17.750	1.1217e-01
 9.750	18.000	1.1023e-01
 9.750	18.250	1.0477e-01
 9.750	18.500	9.5803e-02
 9.750	18.750	8.2492e-02
 9.750	19.000	6.5428e-02
 9.750	19.250	5.0308e-02
 9.750	19.500	4.0347e-02
 9.750	19.750	4.1328e-02
 9.750	20.000	4.2954e-02
 9.750	20.250	4.4110e-02
 9.750	20.500	4.4135e-02
 9.750	20.750	4.4157e-02
 9.750	21.000	4.4179e-02
 9.750	21.250	4.4188e-02
 9.750	21.500	4.4187e-02
 9.750	21.750	4.4190e-02
 9.750	22.000	4.4192e-02
 9.750	22.250	4.4188e-02
 9.750	22.500	4.4185e-02
 9.750	22.750	4.4186e-02
 9.750	23.000	4.4186e-02
 9.750	23.250	4.4186e-02
 9.750	23.500	4.4186e-02
 9.750	23.750	4.4185e-02
 9.750	24.000	4.4185e-02
10.000	17.000	9.6890e-02
10.000	17.250	1.0206e-01
10.000	17.500	1.0598e-01
10.000	17.750	1.0794e-01
10.000	18.000	1.0728e-01
10.000	18.250	1.0400e-01
10.000	18.500	9.8432e-02
10.000	18.750	8.9671e-02
10.000	19.000	7.6239e-02
10.000	19.250	6.0346e-02
10.000	19.500	4.5432e-02
10.000	19.750	4.0318e-02
10.000	20.000	4.1339e-02
10.000	20.250	4.2938e-02
10.000	20.500	4.4106e-02
10.000	20.750	4.4135e-02
10.000	21.000	4.4156e-02
10.000	21.250	4.4179e-02
10.000	21.500	4.4191e-02
10.000	21.750	4.4193e-02
10.000	22.000	4.4191e-02
10.000	22.250	4.4193e-02
10.000	22.500	4.4191e-02
10.000	22.750	4.4187e-02
10.000	23.000	4.4185e-02
10.000	23.250	4.4185e-02
10.000	23.500	4.4186e-02
10.000	23.750	4.4186e-02
10.000	24.000	4.4186e-02
10.250	17.000	8.9207e-02
10.250	17.250	9.4860e-02
10.250	17.500	9.9315e-02
10.250	17.750	1.0185e-01
10.250	18.000	1.0200e-01
10.250	18.250	1.0052e-01
10.250	18.500	9.7986e-02
10.250	18.750	9.3045e-02
10.250	19.000	8.4375e-02
10.250	19.250	7.1539e-02
10.250	19.500	5.6129e-02
10.250	19.750	4.2767e-02
10.250	20.000	4.0375e-02
10.250	20.250	4.1348e-02
10.250	20.500	4.2932e-02
10.250	20.750	4.4100e-02
10.250	21.000	4.4134e-02
10.250	21.250	4.4156e-02
10.250	21.500	4.4179e-02
10.250	21.750	4.4192e-02
10.250	22.000	4.4196e-02
10.250	22.250	4.4195e-02
10.250	22.500	4.4193e-02
10.250	22.750	4.4193e-02
10.250	23.000	4.4190e-02
10.250	23.250	4.4187e-02
10.250	23.500	4.4186e-02
10.250	23.750	4.4185e-02
10.250	24.000	4.4185e-02
10.500	17.000	8.0556e-02
10.500	17.250	8.6638e-02
10.500	17.500	9.1337e-02
10.500	17.750	9.3984e-02
10.500	18.000	9.4531e-02
10.500	18.250	9.4354e-02
10.500	18.500	9.4670e-02
10.500	18.750	9.3164e-02
10.500	19.000	8.9013e-02
10.500	19.250	8.1237e-02
10.500	19.500	6.8976e-02
10.500	19.750	5.3275e-02
10.500	20.000	4.0547e-02
10.500	20.250	4.0425e-02
10.500	20.500	4.1372e-02
10.500	20.750	4.2948e-02
10.500	21.000	4.4094e-02
10.500	21.250	4.4132e-02
10.500	21.500	4.4156e-02
10.500	21.750	4.4179e-02
10.500	22.000	4.4192e-02
10.500	22.250	4.4197e-02
10.500	22.500	4.4200e-02
10.500	22.750	4.4194e-02
10.500	23.000	4.4194e-02
10.500	23.250	4.4193e-02
10.500	23.500	4.4191e-02
10.500	23.750	4.4189e-02
10.500	24.000	4.4188e-02
10.750	17.000	7.0801e-02
10.750	17.250	7.7333e-02
10.750	17.500	8.2108e-02
10.750	17.750	8.4570e-02
10.750	18.000	8.5230e-02
10.750	18.250	8.6216e-02
10.750	18.500	8.8493e-02
10.750	18.750	9.0097e-02
10.750	19.000	8.9805e-02
10.750	19.250	8.6558e-02
10.750	19.500	7.9041e-02
10.750	19.750	6.6477e-02
10.750	20.000	5.0147e-02
10.750	20.250	3.9659e-02
10.750	20.500	4.0442e-02
10.750	20.750	4.1406e-02
10.750	21.000	4.3000e-02
10.750	21.250	4.4087e-02
10.750	21.500	4.4129e-02
10.750	21.750	4.4154e-02
10.750	22.000	4.4179e-02
10.750	22.250	4.4192e-02
10.750	22.500	4.4197e-02
10.750	22.750	4.4202e-02
10.750	23.000	4.4196e-02
10.750	23.250	4.4195e-02
10.750	23.500	4.4194e-02
10.750	23.750	4.4193e-02
10.750	24.000	4.4192e-02
11.000	17.000	5.9575e-02
11.000	17.250	6.6879e-02
11.000	17.500	7.1659e-02
11.000	17.750	7.3846e-02
11.000	18.000	7.4572e-02
11.000	18.250	7.6460e-02
11.000	18.500	7.9879e-02
11.000	18.750	8.3595e-02
11.000	19.000	8.6717e-02
11.000	19.250	8.7422e-02
11.000	19.500	8.4501e-02
11.000	19.750	7.6800e-02
11.000	20.000	6.3781e-02
11.000	20.250	4.6936e-02
11.000	20.500	3.9701e-02
11.000	20.750	4.0459e-02
11.000	21.000	4.1466e-02
11.000	21.250	4.3127e-02
11.000	21.500	4.4079e-02
11.000	21.750	4.4126e-02
11.000	22.000	4.4153e-02
11.000	22.250	4.4178e-02
11.000	22.500	4.4192e-02
11.000	22.750	4.4197e-02
11.000	23.000	4.4202e-02
11.000	23.250	4.4202e-02
11.000	23.500	4.4195e-02
11.000	23.750	4.4195e-02
11.000	24.000	4.4194e-02
11.250	17.000	4.6805e-02
11.250	17.250	5.5028e-02
11.250	17.500	6.0025e-02
11.250	17.750	6.1954e-02
11.250	18.000	6.2926e-02
11.250	18.250	6.5477e-02
11.250	18.500	6.9771e-02
11.250	18.750	7.4885e-02
11.250	19.000	8.0282e-02
11.250	19.250	8.4114e-02
11.250	19.500	8.5196e-02
11.250	19.750	8.2364e-02
11.250	20.000	7.4561e-02
11.250	20.250	6.0958e-02
11.250	20.500	4.3705e-02
11.250	20.750	3.9656e-02
11.250	21.000	4.0507e-02
11.250	21.250	4.1593e-02
11.250	21.500	4.3382e-02
11.250	21.750	4.4067e-02
11.250	22.000	4.4122e-02
11.250	22.250	4.4151e-02
11.250	22.500	4.4177e-02
11.250	22.750	4.4192e-02
11.250	23.000	4.4197e-02
11.250	23.250	4.4203e-02
11.250	23.500	4.4205e-02
11.250	23.750	4.4197e-02
11.250	24.000	4.4196e-02
11.500	17.000	3.3685e-02
11.500	17.250	4.1770e-02
11.500	17.500	4.7061e-02
11.500	17.750	4.9135e-02
11.500	18.000	5.0598e-02
11.500	18.250	5.3758e-02
11.500	18.500	5.8762e-02
11.500	18.750	6.4618e-02
11.500	19.000	7.1160e-02
11.500	19.250	7.7205e-02
11.500	19.500	8.1518e-02
11.500	19.750	8.2842e-02
11.500	20.000	8.0187e-02
11.500	20.250	7.2120e-02
11.500	20.500	5.7975e-02
11.500	20.750	4.1166e-02
11.500	21.000	3.9660e-02
11.500	21.250	4.0596e-02
11.500	21.500	4.1865e-02
11.500	21.750	4.3726e-02
11.500	22.000	4.4053e-02
11.500	22.250	4.4118e-02
11.500	22.500	4.4149e-02
11.500	22.750	4.4177e-02
11.500	23.000	4.4191e-02
11.500	23.250	4.4197e-02
11.500	23.500	4.4203e-02
11.500	23.750	4.4206e-02
11.500	24.000	4.4203e-02
11.750	17.000	2.2000e-02
11.750	17.250	2.8565e-02
11.750	17.500	3.3488e-02
11.750	17.750	3.5980e-02
11.750	18.000	3.8248e-02
11.750	18.250	4.2177e-02
11.750	18.500	4.7564e-02
11.750	18.750	5.3703e-02
11.750	19.000	6.0371e-02
11.750	19.250	6.7367e-02
11.750	19.500	7.3880e-02
11.750	19.750	7.8544e-02
11.750	20.000	8.0300e-02
11.750	20.250	7.7838e-02
11.750	20.500	6.9542e-02
11.750	20.750	5.4793e-02
11.750	21.000	3.7942e-02
11.750	21.250	3.9685e-02
11.750	21.500	4.0773e-02
11.750	21.750	4.2290e-02
11.750	22.000	4.3905e-02
11.750	22.250	4.4038e-02
11.750	22.500	4.4110e-02
11.750	22.750	4.4147e-02
11.750	23.000	4.4176e-02
11.750	23.250	4.4191e-02
11.750	23.500	4.4197e-02
11.750	23.750	4.4203e-02
11.750	24.000	4.4207e-02
12.000	17.000	1.3226e-02
12.000	17.250	1.7701e-02
12.000	17.500	2.1374e-02
12.000	17.750	2.4073e-02
12.000	18.000	2.7207e-02
12.000	18.250	3.1539e-02
12.000	18.500	3.6575e-02
12.000	18.750	4.2242e-02
12.000	19.000	4.8668e-02
12.000	19.250	5.5901e-02
12.000	19.500	6.3373e-02
12.000	19.750	7.0413e-02
12.000	20.000	7.5585e-02
12.000	20.250	7.7671e-02
12.000	20.500	7.5352e-02
12.000	20.750	6.6792e-02
12.000	21.000	5.1509e-02
12.000	21.250	3.8393e-02
12.000	21.500	3.9767e-02
12.000	21.750	4.1029e-02
12.000	22.000	4.2752e-02
12.000	22.250	4.3887e-02
12.000	22.500	4.4021e-02
12.000	22.750	4.4101e-02
12.000	23.000	4.4143e-02
12.000	23.250	4.4174e-02
12.000	23.500	4.4191e-02
12.000	23.750	4.4197e-02
12.000	24.000	4.4202e-02
12.250	17.000	7.3773e-03
12.250	17.250	1.0233e-02
12.250	17.500	1.2869e-02
12.250	17.750	1.5477e-02
12.250	18.000	1.8535e-02
12.250	18.250	2.2042e-02
12.250	18.500	2.6158e-02
12.250	18.750	3.1098e-02
12.250	19.000	3.7005e-02
12.250	19.250	4.3911e-02
12.250	19.500	5.1604e-02
12.250	19.750	5.9520e-02
12.250	20.000	6.7024e-02
12.250	20.250	7.2466e-02
12.250	20.500	7.4907e-02
12.250	20.750	7.2667e-02
12.250	21.000	6.3795e-02
12.250	21.250	4.8151e-02
12.250	21.500	3.8054e-02
12.250	21.750	3.9911e-02
12.250	22.000	4.1367e-02
12.250	22.250	4.3197e-02
12.250	22.500	4.3865e-02
12.250	22.750	4.4004e-02
12.250	23.000	4.4091e-02
12.250	23.250	4.4138e-02
12.250	23.500	4.4173e-02
12.250	23.750	4.4190e-02
12.250	24.000	4.4197e-02
12.500	17.000	4.1929e-03
12.500	17.250	5.9853e-03
12.500	17.500	7.9356e-03
12.500	17.750	9.9676e-03
12.500	18.000	1.2049e-02
12.500	18.250	1.4442e-02
12.500	18.500	1.7428e-02
12.500	18.750	2.1413e-02
12.500	19.000	2.6478e-02
12.500	19.250	3.2631e-02
12.500	19.500	3.9798e-02
12.500	19.750	4.7706e-02
12.500	20.000	5.5822e-02
12.500	20.250	6.3465e-02
12.500	20.500	6.9220e-02
12.500	20.750	7.1825e-02
12.500	21.000	6.9627e-02
12.500	21.250	6.0404e-02
12.500	21.500	4.5618e-02
12.500	21.750	3.8299e-02
12.500	22.000	4.0132e-02
12.500	22.250	4.1756e-02
12.500	22.500	4.3456e-02
12.500	22.750	4.3847e-02
12.500	23.000	4.3991e-02
12.500	23.250	4.4081e-02
12.500	23.500	4.4132e-02
12.500	23.750	4.4171e-02
12.500	24.000	4.4190e-02
12.750	17.000	2.6567e-03
12.750	17.250	3.7807e-03
12.750	17.500	4.9275e-03
12.750	17.750	6.0099e-03
12.750	18.000	7.2597e-03
12.750	18.250	8.9069e-03
12.750	18.500	1.1107e-02
12.750	18.750	1.4057e-02
12.750	19.000	1.7986e-02
12.750	19.250	2.2955e-02
12.750	19.500	2.9036e-02
12.750	19.750	3.6142e-02
12.750	20.000	4.4024e-02
12.750	20.250	5.2118e-02
12.750	20.500	5.9819e-02
12.750	20.750	6.5654e-02
12.750	21.000	6.8324e-02
12.750	21.250	6.6065e-02
12.750	21.500	5.7457e-02
12.750	21.750	4.2482e-02
12.750	22.000	3.8614e-02
12.750	22.250	4.0398e-02
12.750	22.500	4.2182e-02
12.750	22.750	4.3565e-02
12.750	23.000	4.3837e-02
12.750	23.250	4.3980e-02
12.750	23.500	4.4070e-02
12.750	23.750	4.4126e-02
12.750	24.000	4.4167e-02
13.000	17.000	1.6244e-03
13.000	17.250	2.2837e-03
13.000	17.500	2.8595e-03
13.000	17.750	3.4537e-03
13.000	18.000	4.2329e-03
13.000	18.250	5.3189e-03
13.000	18.500	6.8237e-03
13.000	18.750	8.8925e-03
13.000	19.000	1.1732e-02
13.000	19.250	1.5473e-02
13.000	19.500	2.0173e-02
13.000	19.750	2.5939e-02
13.000	20.000	3.2718e-02
13.000	20.250	4.0332e-02
13.000	20.500	4.8248e-02
13.000	20.750	5.5848e-02
13.000	21.000	6.1445e-02
13.000	21.250	6.4059e-02
13.000	21.500	6.2450e-02
13.000	21.750	5.3009e-02
13.000	22.000	3.9862e-02
13.000	22.250	3.8884e-02
13.000	22.500	4.0683e-02
13.000	22.750	4.2473e-02
13.000	23.000	4.3601e-02
13.000	23.250	4.3832e-02
13.000	23.500	4.3971e-02
13.000	23.750	4.4060e-02
13.000	24.000	4.4117e-02
13.250	17.000	1.0237e-03
13.250	17.250	1.4244e-03
13.250	17.500	1.7774e-03
13.250	17.750	2.0505e-03
13.250	18.000	2.4798e-03
13.250	18.250	3.1305e-03
13.250	18.500	4.0786e-03
13.250	18.750	5.4218e-03
13.250	19.000	7.3298e-03
13.250	19.250	9.9737e-03
13.250	19.500	1.3453e-02
13.250	19.750	1.7840e-02
13.250	20.000	2.3164e-02
13.250	20.250	2.9426e-02
13.250	20.500	3.6563e-02
13.250	20.750	4.4116e-02
13.250	21.000	5.1314e-02
13.250	21.250	5.6540e-02
13.250	21.500	5.9514e-02
13.250	21.750	5.6769e-02
13.250	22.000	4.7640e-02
13.250	22.250	3.7891e-02
13.250	22.500	3.9038e-02
13.250	22.750	4.0740e-02
13.250	23.000	4.2424e-02
13.250	23.250	4.3596e-02
13.250	23.500	4.3822e-02
13.250	23.750	4.3960e-02
13.250	24.000	4.4049e-02
13.500	17.000	6.7761e-04
13.500	17.250	9.1210e-04
13.500	17.500	1.1207e-03
13.500	17.750	1.2791e-03
13.500	18.000	1.4986e-03
13.500	18.250	1.8683e-03
13.500	18.500	2.4236e-03
13.500	18.750	3.2438e-03
13.500	19.000	4.4397e-03
13.500	19.250	6.1625e-03
13.500	19.500	8.5447e-03
13.500	19.750	1.1708e-02
13.500	20.000	1.5669e-02
13.500	20.250	2.0490e-02
13.500	20.500	2.6100e-02
13.500	20.750	3.2597e-02
13.500	21.000	3.9397e-02
13.500	21.250	4.5826e-02
13.500	21.500	5.0987e-02
13.500	21.750	5.2455e-02
13.500	22.000	4.9337e-02
13.500	22.250	4.1646e-02
13.500	22.500	3.6840e-02
13.500	22.750	3.9080e-02
13.500	23.000	4.0664e-02
13.500	23.250	4.2390e-02
13.500	23.500	4.3582e-02
13.500	23.750	4.3804e-02
13.500	24.000	4.3944e-02
13.750	17.000	4.7449e-04
13.750	17.250	6.1942e-04
13.750	17.500	7.4486e-04
13.750	17.750	8.4099e-04
13.750	18.000	9.5934e-04
13.750	18.250	1.1591e-03
13.750	18.500	1.4752e-03
13.750	18.750	1.9454e-03
13.750	19.000	2.6542e-03
13.750	19.250	3.7030e-03
13.750	19.500	5.2263e-03
13.750	19.750	7.3406e-03
13.750	20.000	1.0150e-02
13.750	20.250	1.3683e-02
13.750	20.500	1.7955e-02
13.750	20.750	2.2882e-02
13.750	21.000	2.8353e-02
13.750	21.250	3.4051e-02
13.750	21.500	4.0003e-02
13.750	21.750	4.3091e-02
13.750	22.000	4.3406e-02
13.750	22.250	4.0845e-02
13.750	22.500	3.6280e-02
13.750	22.750	3.6723e-02
13.750	23.000	3.9048e-02
13.750	23.250	4.0600e-02
13.750	23.500	4.2294e-02
13.750	23.750	4.3551e-02
13.750	24.000	4.3776e-02
14.000	17.000	3.4757e-04
14.000	17.250	4.4609e-04
14.000	17.500	5.2733e-04
14.000	17.750	5.8444e-04
14.000	18.000	6.5407e-04
14.000	18.250	7.6379e-04
14.000	18.500	9.3786e-04
14.000	18.750	1.2045e-03
14.000	19.000	1.6067e-03
14.000	19.250	2.2181e-03
14.000	19.500	3.1336e-03
14.000	19.750	4.4635e-03
14.000	20.000	6.3179e-03
14.000	20.250	8.7914e-03
14.000	20.500	1.1885e-02
14.000	20.750	1.5586e-02
14.000	21.000	1.9720e-02
14.000	21.250	2.4078e-02
14.000	21.500	2.9094e-02
14.000	21.750	3.2469e-02
14.000	22.000	3.3763e-02
14.000	22.250	3.3786e-02
14.000	22.500	3.3413e-02
14.000	22.750	3.2869e-02
14.000	23.000	3.7041e-02
14.000	23.250	3.9066e-02
14.000	23.500	4.0606e-02
14.000	23.750	4.2381e-02
14.000	24.000	4.3489e-02
