InwT 1458.33A  relative to Inci 1215.00A scaled to 1215A.
Hden   Phi(H)  Eq_Width (A)
 7.000	17.000	7.3312e-02
 7.000	17.250	7.1086e-02
 7.000	17.500	6.5732e-02
 7.000	17.750	5.6298e-02
 7.000	18.000	5.0560e-02
 7.000	18.250	4.7305e-02
 7.000	18.500	4.5418e-02
 7.000	18.750	4.4587e-02
 7.000	19.000	4.4163e-02
 7.000	19.250	4.3922e-02
 7.000	19.500	4.3822e-02
 7.000	19.750	4.3780e-02
 7.000	20.000	4.3762e-02
 7.000	20.250	4.3754e-02
 7.000	20.500	4.3750e-02
 7.000	20.750	4.3748e-02
 7.000	21.000	4.3747e-02
 7.000	21.250	4.3746e-02
 7.000	21.500	4.3746e-02
 7.000	21.750	4.3746e-02
 7.000	22.000	4.3747e-02
 7.000	22.250	4.3747e-02
 7.000	22.500	4.3747e-02
 7.000	22.750	4.3748e-02
 7.000	23.000	4.3748e-02
 7.000	23.250	4.3747e-02
 7.000	23.500	4.3747e-02
 7.000	23.750	4.3747e-02
 7.000	24.000	4.3747e-02
 7.250	17.000	7.2675e-02
 7.250	17.250	7.2934e-02
 7.250	17.500	7.0924e-02
 7.250	17.750	6.5633e-02
 7.250	18.000	5.6244e-02
 7.250	18.250	5.0534e-02
 7.250	18.500	4.7293e-02
 7.250	18.750	4.5414e-02
 7.250	19.000	4.4586e-02
 7.250	19.250	4.4162e-02
 7.250	19.500	4.3922e-02
 7.250	19.750	4.3822e-02
 7.250	20.000	4.3780e-02
 7.250	20.250	4.3762e-02
 7.250	20.500	4.3754e-02
 7.250	20.750	4.3750e-02
 7.250	21.000	4.3747e-02
 7.250	21.250	4.3746e-02
 7.250	21.500	4.3746e-02
 7.250	21.750	4.3746e-02
 7.250	22.000	4.3745e-02
 7.250	22.250	4.3745e-02
 7.250	22.500	4.3746e-02
 7.250	22.750	4.3746e-02
 7.250	23.000	4.3746e-02
 7.250	23.250	4.3746e-02
 7.250	23.500	4.3746e-02
 7.250	23.750	4.3746e-02
 7.250	24.000	4.3747e-02
 7.500	17.000	7.3149e-02
 7.500	17.250	7.2038e-02
 7.500	17.500	7.2515e-02
 7.500	17.750	7.0815e-02
 7.500	18.000	6.5577e-02
 7.500	18.250	5.6211e-02
 7.500	18.500	5.0516e-02
 7.500	18.750	4.7286e-02
 7.500	19.000	4.5411e-02
 7.500	19.250	4.4585e-02
 7.500	19.500	4.4162e-02
 7.500	19.750	4.3922e-02
 7.500	20.000	4.3822e-02
 7.500	20.250	4.3780e-02
 7.500	20.500	4.3762e-02
 7.500	20.750	4.3754e-02
 7.500	21.000	4.3750e-02
 7.500	21.250	4.3747e-02
 7.500	21.500	4.3746e-02
 7.500	21.750	4.3746e-02
 7.500	22.000	4.3745e-02
 7.500	22.250	4.3745e-02
 7.500	22.500	4.3745e-02
 7.500	22.750	4.3745e-02
 7.500	23.000	4.3745e-02
 7.500	23.250	4.3745e-02
 7.500	23.500	4.3748e-02
 7.500	23.750	4.3745e-02
 7.500	24.000	4.3745e-02
 7.750	17.000	7.3743e-02
 7.750	17.250	7.2351e-02
 7.750	17.500	7.1453e-02
 7.750	17.750	7.2156e-02
 7.750	18.000	7.0742e-02
 7.750	18.250	6.5545e-02
 7.750	18.500	5.6190e-02
 7.750	18.750	5.0504e-02
 7.750	19.000	4.7282e-02
 7.750	19.250	4.5410e-02
 7.750	19.500	4.4584e-02
 7.750	19.750	4.4161e-02
 7.750	20.000	4.3922e-02
 7.750	20.250	4.3822e-02
 7.750	20.500	4.3780e-02
 7.750	20.750	4.3762e-02
 7.750	21.000	4.3754e-02
 7.750	21.250	4.3750e-02
 7.750	21.500	4.3747e-02
 7.750	21.750	4.3746e-02
 7.750	22.000	4.3746e-02
 7.750	22.250	4.3745e-02
 7.750	22.500	4.3745e-02
 7.750	22.750	4.3745e-02
 7.750	23.000	4.3745e-02
 7.750	23.250	4.3745e-02
 7.750	23.500	4.3745e-02
 7.750	23.750	4.3745e-02
 7.750	24.000	4.3745e-02
 8.000	17.000	7.3586e-02
 8.000	17.250	7.2665e-02
 8.000	17.500	7.1402e-02
 8.000	17.750	7.0736e-02
 8.000	18.000	7.1710e-02
 8.000	18.250	7.0644e-02
 8.000	18.500	6.5529e-02
 8.000	18.750	5.6175e-02
 8.000	19.000	5.0494e-02
 8.000	19.250	4.7278e-02
 8.000	19.500	4.5408e-02
 8.000	19.750	4.4584e-02
 8.000	20.000	4.4161e-02
 8.000	20.250	4.3922e-02
 8.000	20.500	4.3822e-02
 8.000	20.750	4.3780e-02
 8.000	21.000	4.3762e-02
 8.000	21.250	4.3754e-02
 8.000	21.500	4.3750e-02
 8.000	21.750	4.3747e-02
 8.000	22.000	4.3746e-02
 8.000	22.250	4.3746e-02
 8.000	22.500	4.3745e-02
 8.000	22.750	4.3745e-02
 8.000	23.000	4.3745e-02
 8.000	23.250	4.3746e-02
 8.000	23.500	4.3745e-02
 8.000	23.750	4.3745e-02
 8.000	24.000	4.3745e-02
 8.250	17.000	7.3290e-02
 8.250	17.250	7.2903e-02
 8.250	17.500	7.2057e-02
 8.250	17.750	7.0798e-02
 8.250	18.000	7.0320e-02
 8.250	18.250	7.1551e-02
 8.250	18.500	7.0642e-02
 8.250	18.750	6.5521e-02
 8.250	19.000	5.6165e-02
 8.250	19.250	5.0485e-02
 8.250	19.500	4.7276e-02
 8.250	19.750	4.5408e-02
 8.250	20.000	4.4584e-02
 8.250	20.250	4.4161e-02
 8.250	20.500	4.3922e-02
 8.250	20.750	4.3822e-02
 8.250	21.000	4.3780e-02
 8.250	21.250	4.3762e-02
 8.250	21.500	4.3754e-02
 8.250	21.750	4.3750e-02
 8.250	22.000	4.3747e-02
 8.250	22.250	4.3746e-02
 8.250	22.500	4.3746e-02
 8.250	22.750	4.3745e-02
 8.250	23.000	4.3745e-02
 8.250	23.250	4.3745e-02
 8.250	23.500	4.3745e-02
 8.250	23.750	4.3745e-02
 8.250	24.000	4.3745e-02
 8.500	17.000	7.2853e-02
 8.500	17.250	7.2766e-02
 8.500	17.500	7.2423e-02
 8.500	17.750	7.1527e-02
 8.500	18.000	7.0288e-02
 8.500	18.250	6.9940e-02
 8.500	18.500	7.1460e-02
 8.500	18.750	7.0660e-02
 8.500	19.000	6.5518e-02
 8.500	19.250	5.6156e-02
 8.500	19.500	5.0477e-02
 8.500	19.750	4.7274e-02
 8.500	20.000	4.5407e-02
 8.500	20.250	4.4583e-02
 8.500	20.500	4.4161e-02
 8.500	20.750	4.3922e-02
 8.500	21.000	4.3822e-02
 8.500	21.250	4.3780e-02
 8.500	21.500	4.3762e-02
 8.500	21.750	4.3754e-02
 8.500	22.000	4.3750e-02
 8.500	22.250	4.3747e-02
 8.500	22.500	4.3746e-02
 8.500	22.750	4.3746e-02
 8.500	23.000	4.3745e-02
 8.500	23.250	4.3745e-02
 8.500	23.500	4.3745e-02
 8.500	23.750	4.3745e-02
 8.500	24.000	4.3745e-02
 8.750	17.000	7.2373e-02
 8.750	17.250	7.2488e-02
 8.750	17.500	7.2426e-02
 8.750	17.750	7.2022e-02
 8.750	18.000	7.1021e-02
 8.750	18.250	6.9661e-02
 8.750	18.500	6.9480e-02
 8.750	18.750	7.1306e-02
 8.750	19.000	7.0689e-02
 8.750	19.250	6.5517e-02
 8.750	19.500	5.6148e-02
 8.750	19.750	5.0469e-02
 8.750	20.000	4.7272e-02
 8.750	20.250	4.5407e-02
 8.750	20.500	4.4583e-02
 8.750	20.750	4.4161e-02
 8.750	21.000	4.3922e-02
 8.750	21.250	4.3822e-02
 8.750	21.500	4.3780e-02
 8.750	21.750	4.3762e-02
 8.750	22.000	4.3754e-02
 8.750	22.250	4.3750e-02
 8.750	22.500	4.3747e-02
 8.750	22.750	4.3746e-02
 8.750	23.000	4.3746e-02
 8.750	23.250	4.3745e-02
 8.750	23.500	4.3745e-02
 8.750	23.750	4.3745e-02
 8.750	24.000	4.3745e-02
 9.000	17.000	7.1823e-02
 9.000	17.250	7.2151e-02
 9.000	17.500	7.2289e-02
 9.000	17.750	7.2187e-02
 9.000	18.000	7.1606e-02
 9.000	18.250	7.0257e-02
 9.000	18.500	6.8921e-02
 9.000	18.750	6.9405e-02
 9.000	19.000	7.1107e-02
 9.000	19.250	7.0701e-02
 9.000	19.500	6.5514e-02
 9.000	19.750	5.6140e-02
 9.000	20.000	5.0460e-02
 9.000	20.250	4.7270e-02
 9.000	20.500	4.5406e-02
 9.000	20.750	4.4583e-02
 9.000	21.000	4.4161e-02
 9.000	21.250	4.3922e-02
 9.000	21.500	4.3822e-02
 9.000	21.750	4.3780e-02
 9.000	22.000	4.3762e-02
 9.000	22.250	4.3754e-02
 9.000	22.500	4.3750e-02
 9.000	22.750	4.3747e-02
 9.000	23.000	4.3746e-02
 9.000	23.250	4.3746e-02
 9.000	23.500	4.3745e-02
 9.000	23.750	4.3745e-02
 9.000	24.000	4.3745e-02
 9.250	17.000	7.1107e-02
 9.250	17.250	7.1679e-02
 9.250	17.500	7.2072e-02
 9.250	17.750	7.2186e-02
 9.250	18.000	7.1866e-02
 9.250	18.250	7.0899e-02
 9.250	18.500	6.9385e-02
 9.250	18.750	6.8392e-02
 9.250	19.000	6.9745e-02
 9.250	19.250	7.0792e-02
 9.250	19.500	7.0685e-02
 9.250	19.750	6.5510e-02
 9.250	20.000	5.6132e-02
 9.250	20.250	5.0453e-02
 9.250	20.500	4.7268e-02
 9.250	20.750	4.5406e-02
 9.250	21.000	4.4583e-02
 9.250	21.250	4.4161e-02
 9.250	21.500	4.3913e-02
 9.250	21.750	4.3809e-02
 9.250	22.000	4.3767e-02
 9.250	22.250	4.3750e-02
 9.250	22.500	4.3753e-02
 9.250	22.750	4.3749e-02
 9.250	23.000	4.3747e-02
 9.250	23.250	4.3746e-02
 9.250	23.500	4.3745e-02
 9.250	23.750	4.3745e-02
 9.250	24.000	4.3745e-02
 9.500	17.000	7.0144e-02
 9.500	17.250	7.0973e-02
 9.500	17.500	7.1675e-02
 9.500	17.750	7.2098e-02
 9.500	18.000	7.2013e-02
 9.500	18.250	7.1336e-02
 9.500	18.500	7.0144e-02
 9.500	18.750	6.8783e-02
 9.500	19.000	6.8620e-02
 9.500	19.250	7.0882e-02
 9.500	19.500	7.0410e-02
 9.500	19.750	7.0619e-02
 9.500	20.000	6.5501e-02
 9.500	20.250	5.6125e-02
 9.500	20.500	5.0445e-02
 9.500	20.750	4.7266e-02
 9.500	21.000	4.5396e-02
 9.500	21.250	4.4570e-02
 9.500	21.500	4.4148e-02
 9.500	21.750	4.3905e-02
 9.500	22.000	4.3799e-02
 9.500	22.250	4.3758e-02
 9.500	22.500	4.3739e-02
 9.500	22.750	4.3730e-02
 9.500	23.000	4.3726e-02
 9.500	23.250	4.3724e-02
 9.500	23.500	4.3728e-02
 9.500	23.750	4.3728e-02
 9.500	24.000	4.3727e-02
 9.750	17.000	6.8900e-02
 9.750	17.250	6.9929e-02
 9.750	17.500	7.0952e-02
 9.750	17.750	7.1769e-02
 9.750	18.000	7.2078e-02
 9.750	18.250	7.1769e-02
 9.750	18.500	7.0847e-02
 9.750	18.750	6.9526e-02
 9.750	19.000	6.8515e-02
 9.750	19.250	6.9420e-02
 9.750	19.500	7.2642e-02
 9.750	19.750	7.0166e-02
 9.750	20.000	7.0532e-02
 9.750	20.250	6.5487e-02
 9.750	20.500	5.6118e-02
 9.750	20.750	5.0439e-02
 9.750	21.000	4.7265e-02
 9.750	21.250	4.5401e-02
 9.750	21.500	4.4573e-02
 9.750	21.750	4.4148e-02
 9.750	22.000	4.3907e-02
 9.750	22.250	4.3802e-02
 9.750	22.500	4.3757e-02
 9.750	22.750	4.3740e-02
 9.750	23.000	4.3731e-02
 9.750	23.250	4.3727e-02
 9.750	23.500	4.3724e-02
 9.750	23.750	4.3723e-02
 9.750	24.000	4.3722e-02
10.000	17.000	6.7418e-02
10.000	17.250	6.8532e-02
10.000	17.500	6.9780e-02
10.000	17.750	7.1026e-02
10.000	18.000	7.1919e-02
10.000	18.250	7.2120e-02
10.000	18.500	7.1440e-02
10.000	18.750	7.0226e-02
10.000	19.000	6.8871e-02
10.000	19.250	6.8611e-02
10.000	19.500	7.0894e-02
10.000	19.750	7.3484e-02
10.000	20.000	7.0233e-02
10.000	20.250	7.0401e-02
10.000	20.500	6.5467e-02
10.000	20.750	5.6112e-02
10.000	21.000	5.0434e-02
10.000	21.250	4.7264e-02
10.000	21.500	4.5403e-02
10.000	21.750	4.4579e-02
10.000	22.000	4.4149e-02
10.000	22.250	4.3908e-02
10.000	22.500	4.3805e-02
10.000	22.750	4.3759e-02
10.000	23.000	4.3738e-02
10.000	23.250	4.3731e-02
10.000	23.500	4.3727e-02
10.000	23.750	4.3725e-02
10.000	24.000	4.3723e-02
10.250	17.000	6.6176e-02
10.250	17.250	6.6914e-02
10.250	17.500	6.8285e-02
10.250	17.750	6.9855e-02
10.250	18.000	7.1325e-02
10.250	18.250	7.2078e-02
10.250	18.500	7.1761e-02
10.250	18.750	7.0627e-02
10.250	19.000	6.9148e-02
10.250	19.250	6.8358e-02
10.250	19.500	6.9355e-02
10.250	19.750	7.3210e-02
10.250	20.000	7.3147e-02
10.250	20.250	7.0560e-02
10.250	20.500	7.0483e-02
10.250	20.750	6.5447e-02
10.250	21.000	5.6106e-02
10.250	21.250	5.0430e-02
10.250	21.500	4.7263e-02
10.250	21.750	4.5403e-02
10.250	22.000	4.4582e-02
10.250	22.250	4.4154e-02
10.250	22.500	4.3909e-02
10.250	22.750	4.3807e-02
10.250	23.000	4.3762e-02
10.250	23.250	4.3741e-02
10.250	23.500	4.3731e-02
10.250	23.750	4.3726e-02
10.250	24.000	4.3724e-02
10.500	17.000	6.5360e-02
10.500	17.250	6.5596e-02
10.500	17.500	6.6621e-02
10.500	17.750	6.8394e-02
10.500	18.000	7.0176e-02
10.500	18.250	7.1240e-02
10.500	18.500	7.1318e-02
10.500	18.750	7.0511e-02
10.500	19.000	6.9427e-02
10.500	19.250	6.8745e-02
10.500	19.500	6.8842e-02
10.500	19.750	7.0633e-02
10.500	20.000	7.5512e-02
10.500	20.250	7.4283e-02
10.500	20.500	7.1452e-02
10.500	20.750	7.0838e-02
10.500	21.000	6.5435e-02
10.500	21.250	5.6099e-02
10.500	21.500	5.0427e-02
10.500	21.750	4.7262e-02
10.500	22.000	4.5403e-02
10.500	22.250	4.4583e-02
10.500	22.500	4.4159e-02
10.500	22.750	4.3909e-02
10.500	23.000	4.3808e-02
10.500	23.250	4.3765e-02
10.500	23.500	4.3744e-02
10.500	23.750	4.3734e-02
10.500	24.000	4.3729e-02
10.750	17.000	6.5067e-02
10.750	17.250	6.4829e-02
10.750	17.500	6.5362e-02
10.750	17.750	6.6790e-02
10.750	18.000	6.8435e-02
10.750	18.250	6.9512e-02
10.750	18.500	6.9822e-02
10.750	18.750	6.9532e-02
10.750	19.000	6.9103e-02
10.750	19.250	6.8768e-02
10.750	19.500	6.8706e-02
10.750	19.750	6.9250e-02
10.750	20.000	7.1424e-02
10.750	20.250	7.5829e-02
10.750	20.500	7.5481e-02
10.750	20.750	7.2536e-02
10.750	21.000	7.1550e-02
10.750	21.250	6.5441e-02
10.750	21.500	5.6092e-02
10.750	21.750	5.0425e-02
10.750	22.000	4.7263e-02
10.750	22.250	4.5403e-02
10.750	22.500	4.4583e-02
10.750	22.750	4.4161e-02
10.750	23.000	4.3911e-02
10.750	23.250	4.3809e-02
10.750	23.500	4.3766e-02
10.750	23.750	4.3747e-02
10.750	24.000	4.3737e-02
11.000	17.000	6.5247e-02
11.000	17.250	6.4662e-02
11.000	17.500	6.4666e-02
11.000	17.750	6.5307e-02
11.000	18.000	6.6266e-02
11.000	18.250	6.6937e-02
11.000	18.500	6.7271e-02
11.000	18.750	6.7533e-02
11.000	19.000	6.7853e-02
11.000	19.250	6.8110e-02
11.000	19.500	6.8267e-02
11.000	19.750	6.8517e-02
11.000	20.000	6.9260e-02
11.000	20.250	7.1716e-02
11.000	20.500	7.7900e-02
11.000	20.750	7.6885e-02
11.000	21.000	7.4356e-02
11.000	21.250	7.2978e-02
11.000	21.500	6.5466e-02
11.000	21.750	5.6085e-02
11.000	22.000	5.0424e-02
11.000	22.250	4.7263e-02
11.000	22.500	4.5402e-02
11.000	22.750	4.4583e-02
11.000	23.000	4.4161e-02
11.000	23.250	4.3917e-02
11.000	23.500	4.3809e-02
11.000	23.750	4.3767e-02
11.000	24.000	4.3748e-02
11.250	17.000	6.5896e-02
11.250	17.250	6.5004e-02
11.250	17.500	6.4420e-02
11.250	17.750	6.4151e-02
11.250	18.000	6.4026e-02
11.250	18.250	6.3861e-02
11.250	18.500	6.4014e-02
11.250	18.750	6.4784e-02
11.250	19.000	6.5803e-02
11.250	19.250	6.6680e-02
11.250	19.500	6.7337e-02
11.250	19.750	6.7801e-02
11.250	20.000	6.8259e-02
11.250	20.250	6.9222e-02
11.250	20.500	7.2148e-02
11.250	20.750	7.8001e-02
11.250	21.000	7.8972e-02
11.250	21.250	7.6925e-02
11.250	21.500	7.5337e-02
11.250	21.750	6.5510e-02
11.250	22.000	5.6077e-02
11.250	22.250	5.0425e-02
11.250	22.500	4.7262e-02
11.250	22.750	4.5401e-02
11.250	23.000	4.4583e-02
11.250	23.250	4.4161e-02
11.250	23.500	4.3920e-02
11.250	23.750	4.3811e-02
11.250	24.000	4.3768e-02
11.500	17.000	6.7137e-02
11.500	17.250	6.5721e-02
11.500	17.500	6.4500e-02
11.500	17.750	6.3311e-02
11.500	18.000	6.1954e-02
11.500	18.250	6.0749e-02
11.500	18.500	6.0568e-02
11.500	18.750	6.1543e-02
11.500	19.000	6.3149e-02
11.500	19.250	6.4640e-02
11.500	19.500	6.5842e-02
11.500	19.750	6.6802e-02
11.500	20.000	6.7595e-02
11.500	20.250	6.8272e-02
11.500	20.500	6.9524e-02
11.500	20.750	7.3189e-02
11.500	21.000	8.0196e-02
11.500	21.250	8.2883e-02
11.500	21.500	8.1324e-02
11.500	21.750	7.8406e-02
11.500	22.000	6.5554e-02
11.500	22.250	5.6066e-02
11.500	22.500	5.0426e-02
11.500	22.750	4.7263e-02
11.500	23.000	4.5400e-02
11.500	23.250	4.4582e-02
11.500	23.500	4.4162e-02
11.500	23.750	4.3921e-02
11.500	24.000	4.3817e-02
11.750	17.000	6.9078e-02
11.750	17.250	6.6793e-02
11.750	17.500	6.4761e-02
11.750	17.750	6.2580e-02
11.750	18.000	6.0068e-02
11.750	18.250	5.8078e-02
11.750	18.500	5.7530e-02
11.750	18.750	5.8349e-02
11.750	19.000	6.0116e-02
11.750	19.250	6.2156e-02
11.750	19.500	6.3913e-02
11.750	19.750	6.5380e-02
11.750	20.000	6.6688e-02
11.750	20.250	6.7790e-02
11.750	20.500	6.8773e-02
11.750	20.750	7.0489e-02
11.750	21.000	7.4557e-02
11.750	21.250	8.3819e-02
11.750	21.500	8.8149e-02
11.750	21.750	8.7287e-02
11.750	22.000	8.0394e-02
11.750	22.250	6.5580e-02
11.750	22.500	5.6046e-02
11.750	22.750	5.0427e-02
11.750	23.000	4.7264e-02
11.750	23.250	4.5398e-02
11.750	23.500	4.4582e-02
11.750	23.750	4.4162e-02
11.750	24.000	4.3922e-02
12.000	17.000	7.1441e-02
12.000	17.250	6.8148e-02
12.000	17.500	6.4991e-02
12.000	17.750	6.1656e-02
12.000	18.000	5.8310e-02
12.000	18.250	5.6059e-02
12.000	18.500	5.5233e-02
12.000	18.750	5.5646e-02
12.000	19.000	5.7142e-02
12.000	19.250	5.9388e-02
12.000	19.500	6.1679e-02
12.000	19.750	6.3656e-02
12.000	20.000	6.5455e-02
12.000	20.250	6.7133e-02
12.000	20.500	6.8602e-02
12.000	20.750	7.0062e-02
12.000	21.000	7.3151e-02
12.000	21.250	7.9451e-02
12.000	21.500	8.9019e-02
12.000	21.750	9.5472e-02
12.000	22.000	9.3594e-02
12.000	22.250	8.0900e-02
12.000	22.500	6.5590e-02
12.000	22.750	5.6015e-02
12.000	23.000	5.0425e-02
12.000	23.250	4.7265e-02
12.000	23.500	4.5397e-02
12.000	23.750	4.4581e-02
12.000	24.000	4.4162e-02
12.250	17.000	7.3973e-02
12.250	17.250	6.9325e-02
12.250	17.500	6.4742e-02
12.250	17.750	6.0236e-02
12.250	18.000	5.6636e-02
12.250	18.250	5.4517e-02
12.250	18.500	5.3704e-02
12.250	18.750	5.3792e-02
12.250	19.000	5.4752e-02
12.250	19.250	5.6684e-02
12.250	19.500	5.9210e-02
12.250	19.750	6.1718e-02
12.250	20.000	6.3960e-02
12.250	20.250	6.6126e-02
12.250	20.500	6.8226e-02
12.250	20.750	7.0326e-02
12.250	21.000	7.3208e-02
12.250	21.250	7.8322e-02
12.250	21.500	8.6298e-02
12.250	21.750	9.6627e-02
12.250	22.000	1.0425e-01
12.250	22.250	9.9569e-02
12.250	22.500	8.1274e-02
12.250	22.750	6.5574e-02
12.250	23.000	5.5974e-02
12.250	23.250	5.0418e-02
12.250	23.500	4.7266e-02
12.250	23.750	4.5394e-02
12.250	24.000	4.4580e-02
12.500	17.000	6.2133e-02
12.500	17.250	6.9422e-02
12.500	17.500	6.3576e-02
12.500	17.750	5.8424e-02
12.500	18.000	5.4984e-02
12.500	18.250	5.3265e-02
12.500	18.500	5.2634e-02
12.500	18.750	5.2678e-02
12.500	19.000	5.3269e-02
12.500	19.250	5.4607e-02
12.500	19.500	5.6829e-02
12.500	19.750	5.9619e-02
12.500	20.000	6.2358e-02
12.500	20.250	6.4896e-02
12.500	20.500	6.7517e-02
12.500	20.750	7.0481e-02
12.500	21.000	7.4315e-02
12.500	21.250	7.9787e-02
12.500	21.500	8.6295e-02
12.500	21.750	9.6236e-02
12.500	22.000	1.0725e-01
12.500	22.250	1.1412e-01
12.500	22.500	1.0362e-01
12.500	22.750	8.1591e-02
12.500	23.000	6.5554e-02
12.500	23.250	5.5925e-02
12.500	23.500	5.0407e-02
12.500	23.750	4.7264e-02
12.500	24.000	4.5391e-02
12.750	17.000	3.9841e-02
12.750	17.250	5.9532e-02
12.750	17.500	6.1016e-02
12.750	17.750	5.6433e-02
12.750	18.000	5.3298e-02
12.750	18.250	5.1989e-02
12.750	18.500	5.1621e-02
12.750	18.750	5.1848e-02
12.750	19.000	5.2436e-02
12.750	19.250	5.3430e-02
12.750	19.500	5.5067e-02
12.750	19.750	5.7512e-02
12.750	20.000	6.0481e-02
12.750	20.250	6.3640e-02
12.750	20.500	6.6672e-02
12.750	20.750	6.9940e-02
12.750	21.000	7.4494e-02
12.750	21.250	8.0787e-02
12.750	21.500	8.7306e-02
12.750	21.750	9.7822e-02
12.750	22.000	1.0928e-01
12.750	22.250	1.1981e-01
12.750	22.500	1.2449e-01
12.750	22.750	1.0624e-01
12.750	23.000	8.1781e-02
12.750	23.250	6.5527e-02
12.750	23.500	5.5867e-02
12.750	23.750	5.0389e-02
12.750	24.000	4.7258e-02
13.000	17.000	1.3577e-02
13.000	17.250	1.9831e-02
13.000	17.500	4.1741e-02
13.000	17.750	5.2821e-02
13.000	18.000	5.1679e-02
13.000	18.250	5.0627e-02
13.000	18.500	5.0420e-02
13.000	18.750	5.0878e-02
13.000	19.000	5.1704e-02
13.000	19.250	5.2763e-02
13.000	19.500	5.4055e-02
13.000	19.750	5.5977e-02
13.000	20.000	5.8682e-02
13.000	20.250	6.1921e-02
13.000	20.500	6.5670e-02
13.000	20.750	6.9728e-02
13.000	21.000	7.4572e-02
13.000	21.250	8.2047e-02
13.000	21.500	9.0513e-02
13.000	21.750	9.8469e-02
13.000	22.000	1.0978e-01
13.000	22.250	1.2430e-01
13.000	22.500	1.3412e-01
13.000	22.750	1.3165e-01
13.000	23.000	1.0786e-01
13.000	23.250	8.2021e-02
13.000	23.500	6.5508e-02
13.000	23.750	5.5804e-02
13.000	24.000	5.0360e-02
13.250	17.000	1.1339e-02
13.250	17.250	1.3662e-02
13.250	17.500	2.0548e-02
13.250	17.750	3.2958e-02
13.250	18.000	4.2036e-02
13.250	18.250	4.9198e-02
13.250	18.500	4.9036e-02
13.250	18.750	4.9594e-02
13.250	19.000	5.0677e-02
13.250	19.250	5.2023e-02
13.250	19.500	5.3477e-02
13.250	19.750	5.5222e-02
13.250	20.000	5.7486e-02
13.250	20.250	6.0346e-02
13.250	20.500	6.3867e-02
13.250	20.750	6.8507e-02
13.250	21.000	7.3747e-02
13.250	21.250	8.0597e-02
13.250	21.500	8.6739e-02
13.250	21.750	9.5689e-02
13.250	22.000	1.0882e-01
13.250	22.250	1.2485e-01
13.250	22.500	1.3780e-01
13.250	22.750	1.4201e-01
13.250	23.000	1.3388e-01
13.250	23.250	1.0908e-01
13.250	23.500	8.2148e-02
13.250	23.750	6.5423e-02
13.250	24.000	5.5739e-02
13.500	17.000	1.0037e-02
13.500	17.250	1.1986e-02
13.500	17.500	1.6197e-02
13.500	17.750	2.3401e-02
13.500	18.000	3.5419e-02
13.500	18.250	4.2112e-02
13.500	18.500	4.7613e-02
13.500	18.750	4.8132e-02
13.500	19.000	4.9317e-02
13.500	19.250	5.0880e-02
13.500	19.500	5.2671e-02
13.500	19.750	5.4589e-02
13.500	20.000	5.6807e-02
13.500	20.250	5.9561e-02
13.500	20.500	6.2716e-02
13.500	20.750	6.6665e-02
13.500	21.000	7.1147e-02
13.500	21.250	7.7391e-02
13.500	21.500	8.2413e-02
13.500	21.750	9.0748e-02
13.500	22.000	1.0354e-01
13.500	22.250	1.1911e-01
13.500	22.500	1.4043e-01
13.500	22.750	1.5093e-01
13.500	23.000	1.4798e-01
13.500	23.250	1.3657e-01
13.500	23.500	1.1009e-01
13.500	23.750	8.2194e-02
13.500	24.000	6.5306e-02
13.750	17.000	9.3783e-03
13.750	17.250	1.1027e-02
13.750	17.500	1.4041e-02
13.750	17.750	1.7855e-02
13.750	18.000	2.6636e-02
13.750	18.250	3.7419e-02
13.750	18.500	4.1647e-02
13.750	18.750	4.6643e-02
13.750	19.000	4.7742e-02
13.750	19.250	4.9438e-02
13.750	19.500	5.1495e-02
13.750	19.750	5.3739e-02
13.750	20.000	5.6215e-02
13.750	20.250	5.9073e-02
13.750	20.500	6.2414e-02
13.750	20.750	6.6149e-02
13.750	21.000	7.0292e-02
13.750	21.250	7.4644e-02
13.750	21.500	7.9661e-02
13.750	21.750	8.5757e-02
13.750	22.000	9.4398e-02
13.750	22.250	1.0954e-01
13.750	22.500	1.3491e-01
13.750	22.750	1.6653e-01
13.750	23.000	1.6415e-01
13.750	23.250	1.5582e-01
13.750	23.500	1.3902e-01
13.750	23.750	1.1083e-01
13.750	24.000	8.2115e-02
14.000	17.000	9.0021e-03
14.000	17.250	1.0232e-02
14.000	17.500	1.2879e-02
14.000	17.750	1.5808e-02
14.000	18.000	2.0389e-02
14.000	18.250	2.9140e-02
14.000	18.500	3.7911e-02
14.000	18.750	4.3297e-02
14.000	19.000	4.6151e-02
14.000	19.250	4.7759e-02
14.000	19.500	4.9980e-02
14.000	19.750	5.2550e-02
14.000	20.000	5.5362e-02
14.000	20.250	5.8478e-02
14.000	20.500	6.2075e-02
14.000	20.750	6.6156e-02
14.000	21.000	7.0608e-02
14.000	21.250	7.5377e-02
14.000	21.500	7.9644e-02
14.000	21.750	8.5037e-02
14.000	22.000	9.1992e-02
14.000	22.250	1.0404e-01
14.000	22.500	1.2639e-01
14.000	22.750	1.6501e-01
14.000	23.000	1.9916e-01
14.000	23.250	1.8628e-01
14.000	23.500	1.6785e-01
14.000	23.750	1.4439e-01
14.000	24.000	1.1107e-01
