InwC 2430.05A  relative to Inci 1215.00A scaled to 1215A.
Hden   Phi(H)  Eq_Width (A)
 7.000	17.000	3.5652e-02
 7.000	17.250	3.7963e-02
 7.000	17.500	3.9147e-02
 7.000	17.750	3.9165e-02
 7.000	18.000	3.9183e-02
 7.000	18.250	3.9205e-02
 7.000	18.500	3.9216e-02
 7.000	18.750	3.9221e-02
 7.000	19.000	3.9225e-02
 7.000	19.250	3.9229e-02
 7.000	19.500	3.9230e-02
 7.000	19.750	3.9231e-02
 7.000	20.000	3.9231e-02
 7.000	20.250	3.9231e-02
 7.000	20.500	3.9231e-02
 7.000	20.750	3.9231e-02
 7.000	21.000	3.9232e-02
 7.000	21.250	3.9232e-02
 7.000	21.500	3.9232e-02
 7.000	21.750	3.9232e-02
 7.000	22.000	3.9233e-02
 7.000	22.250	3.9233e-02
 7.000	22.500	3.9233e-02
 7.000	22.750	3.9234e-02
 7.000	23.000	3.9234e-02
 7.000	23.250	3.9234e-02
 7.000	23.500	3.9234e-02
 7.000	23.750	3.9234e-02
 7.000	24.000	3.9234e-02
 7.250	17.000	2.6634e-02
 7.250	17.250	3.5766e-02
 7.250	17.500	3.7974e-02
 7.250	17.750	3.9147e-02
 7.250	18.000	3.9165e-02
 7.250	18.250	3.9183e-02
 7.250	18.500	3.9204e-02
 7.250	18.750	3.9216e-02
 7.250	19.000	3.9221e-02
 7.250	19.250	3.9226e-02
 7.250	19.500	3.9229e-02
 7.250	19.750	3.9230e-02
 7.250	20.000	3.9231e-02
 7.250	20.250	3.9231e-02
 7.250	20.500	3.9231e-02
 7.250	20.750	3.9231e-02
 7.250	21.000	3.9231e-02
 7.250	21.250	3.9231e-02
 7.250	21.500	3.9231e-02
 7.250	21.750	3.9232e-02
 7.250	22.000	3.9232e-02
 7.250	22.250	3.9232e-02
 7.250	22.500	3.9232e-02
 7.250	22.750	3.9232e-02
 7.250	23.000	3.9233e-02
 7.250	23.250	3.9233e-02
 7.250	23.500	3.9233e-02
 7.250	23.750	3.9233e-02
 7.250	24.000	3.9233e-02
 7.500	17.000	1.9905e-02
 7.500	17.250	2.6939e-02
 7.500	17.500	3.5849e-02
 7.500	17.750	3.7984e-02
 7.500	18.000	3.9147e-02
 7.500	18.250	3.9165e-02
 7.500	18.500	3.9183e-02
 7.500	18.750	3.9205e-02
 7.500	19.000	3.9216e-02
 7.500	19.250	3.9221e-02
 7.500	19.500	3.9225e-02
 7.500	19.750	3.9229e-02
 7.500	20.000	3.9230e-02
 7.500	20.250	3.9231e-02
 7.500	20.500	3.9231e-02
 7.500	20.750	3.9231e-02
 7.500	21.000	3.9231e-02
 7.500	21.250	3.9231e-02
 7.500	21.500	3.9231e-02
 7.500	21.750	3.9231e-02
 7.500	22.000	3.9231e-02
 7.500	22.250	3.9231e-02
 7.500	22.500	3.9232e-02
 7.500	22.750	3.9232e-02
 7.500	23.000	3.9232e-02
 7.500	23.250	3.9232e-02
 7.500	23.500	3.9234e-02
 7.500	23.750	3.9232e-02
 7.500	24.000	3.9232e-02
 7.750	17.000	1.4401e-02
 7.750	17.250	2.0262e-02
 7.750	17.500	2.7174e-02
 7.750	17.750	3.5905e-02
 7.750	18.000	3.7994e-02
 7.750	18.250	3.9147e-02
 7.750	18.500	3.9165e-02
 7.750	18.750	3.9183e-02
 7.750	19.000	3.9205e-02
 7.750	19.250	3.9216e-02
 7.750	19.500	3.9221e-02
 7.750	19.750	3.9225e-02
 7.750	20.000	3.9229e-02
 7.750	20.250	3.9230e-02
 7.750	20.500	3.9231e-02
 7.750	20.750	3.9231e-02
 7.750	21.000	3.9231e-02
 7.750	21.250	3.9231e-02
 7.750	21.500	3.9231e-02
 7.750	21.750	3.9231e-02
 7.750	22.000	3.9231e-02
 7.750	22.250	3.9231e-02
 7.750	22.500	3.9231e-02
 7.750	22.750	3.9231e-02
 7.750	23.000	3.9232e-02
 7.750	23.250	3.9231e-02
 7.750	23.500	3.9231e-02
 7.750	23.750	3.9232e-02
 7.750	24.000	3.9231e-02
 8.000	17.000	1.0280e-02
 8.000	17.250	1.4614e-02
 8.000	17.500	2.0527e-02
 8.000	17.750	2.7250e-02
 8.000	18.000	3.5811e-02
 8.000	18.250	3.7989e-02
 8.000	18.500	3.9146e-02
 8.000	18.750	3.9165e-02
 8.000	19.000	3.9183e-02
 8.000	19.250	3.9205e-02
 8.000	19.500	3.9216e-02
 8.000	19.750	3.9221e-02
 8.000	20.000	3.9226e-02
 8.000	20.250	3.9229e-02
 8.000	20.500	3.9230e-02
 8.000	20.750	3.9231e-02
 8.000	21.000	3.9231e-02
 8.000	21.250	3.9231e-02
 8.000	21.500	3.9231e-02
 8.000	21.750	3.9231e-02
 8.000	22.000	3.9231e-02
 8.000	22.250	3.9231e-02
 8.000	22.500	3.9231e-02
 8.000	22.750	3.9232e-02
 8.000	23.000	3.9231e-02
 8.000	23.250	3.9232e-02
 8.000	23.500	3.9231e-02
 8.000	23.750	3.9231e-02
 8.000	24.000	3.9231e-02
 8.250	17.000	7.5357e-03
 8.250	17.250	1.0466e-02
 8.250	17.500	1.4926e-02
 8.250	17.750	2.0896e-02
 8.250	18.000	2.7566e-02
 8.250	18.250	3.5850e-02
 8.250	18.500	3.7993e-02
 8.250	18.750	3.9145e-02
 8.250	19.000	3.9165e-02
 8.250	19.250	3.9183e-02
 8.250	19.500	3.9204e-02
 8.250	19.750	3.9216e-02
 8.250	20.000	3.9221e-02
 8.250	20.250	3.9225e-02
 8.250	20.500	3.9229e-02
 8.250	20.750	3.9230e-02
 8.250	21.000	3.9231e-02
 8.250	21.250	3.9231e-02
 8.250	21.500	3.9231e-02
 8.250	21.750	3.9231e-02
 8.250	22.000	3.9231e-02
 8.250	22.250	3.9231e-02
 8.250	22.500	3.9231e-02
 8.250	22.750	3.9231e-02
 8.250	23.000	3.9231e-02
 8.250	23.250	3.9231e-02
 8.250	23.500	3.9231e-02
 8.250	23.750	3.9231e-02
 8.250	24.000	3.9231e-02
 8.500	17.000	5.6905e-03
 8.500	17.250	7.6652e-03
 8.500	17.500	1.0697e-02
 8.500	17.750	1.5342e-02
 8.500	18.000	2.1492e-02
 8.500	18.250	2.8001e-02
 8.500	18.500	3.5921e-02
 8.500	18.750	3.7994e-02
 8.500	19.000	3.9144e-02
 8.500	19.250	3.9165e-02
 8.500	19.500	3.9183e-02
 8.500	19.750	3.9205e-02
 8.500	20.000	3.9216e-02
 8.500	20.250	3.9221e-02
 8.500	20.500	3.9225e-02
 8.500	20.750	3.9229e-02
 8.500	21.000	3.9230e-02
 8.500	21.250	3.9231e-02
 8.500	21.500	3.9231e-02
 8.500	21.750	3.9231e-02
 8.500	22.000	3.9231e-02
 8.500	22.250	3.9231e-02
 8.500	22.500	3.9231e-02
 8.500	22.750	3.9231e-02
 8.500	23.000	3.9231e-02
 8.500	23.250	3.9231e-02
 8.500	23.500	3.9231e-02
 8.500	23.750	3.9231e-02
 8.500	24.000	3.9231e-02
 8.750	17.000	4.4087e-03
 8.750	17.250	5.7746e-03
 8.750	17.500	7.8327e-03
 8.750	17.750	1.1067e-02
 8.750	18.000	1.6009e-02
 8.750	18.250	2.2372e-02
 8.750	18.500	2.8876e-02
 8.750	18.750	3.5901e-02
 8.750	19.000	3.7990e-02
 8.750	19.250	3.9142e-02
 8.750	19.500	3.9164e-02
 8.750	19.750	3.9183e-02
 8.750	20.000	3.9205e-02
 8.750	20.250	3.9216e-02
 8.750	20.500	3.9221e-02
 8.750	20.750	3.9225e-02
 8.750	21.000	3.9229e-02
 8.750	21.250	3.9230e-02
 8.750	21.500	3.9231e-02
 8.750	21.750	3.9231e-02
 8.750	22.000	3.9231e-02
 8.750	22.250	3.9231e-02
 8.750	22.500	3.9231e-02
 8.750	22.750	3.9231e-02
 8.750	23.000	3.9231e-02
 8.750	23.250	3.9231e-02
 8.750	23.500	3.9231e-02
 8.750	23.750	3.9231e-02
 8.750	24.000	3.9231e-02
 9.000	17.000	3.5057e-03
 9.000	17.250	4.4624e-03
 9.000	17.500	5.8950e-03
 9.000	17.750	8.1091e-03
 9.000	18.000	1.1671e-02
 9.000	18.250	1.7082e-02
 9.000	18.500	2.3559e-02
 9.000	18.750	2.9500e-02
 9.000	19.000	3.5819e-02
 9.000	19.250	3.7974e-02
 9.000	19.500	3.9137e-02
 9.000	19.750	3.9164e-02
 9.000	20.000	3.9183e-02
 9.000	20.250	3.9205e-02
 9.000	20.500	3.9216e-02
 9.000	20.750	3.9221e-02
 9.000	21.000	3.9225e-02
 9.000	21.250	3.9229e-02
 9.000	21.500	3.9230e-02
 9.000	21.750	3.9231e-02
 9.000	22.000	3.9231e-02
 9.000	22.250	3.9231e-02
 9.000	22.500	3.9231e-02
 9.000	22.750	3.9231e-02
 9.000	23.000	3.9231e-02
 9.000	23.250	3.9231e-02
 9.000	23.500	3.9231e-02
 9.000	23.750	3.9231e-02
 9.000	24.000	3.9231e-02
 9.250	17.000	2.8652e-03
 9.250	17.250	3.5365e-03
 9.250	17.500	4.5462e-03
 9.250	17.750	6.1118e-03
 9.250	18.000	8.6621e-03
 9.250	18.250	1.2727e-02
 9.250	18.500	1.8474e-02
 9.250	18.750	2.4891e-02
 9.250	19.000	3.0862e-02
 9.250	19.250	3.5723e-02
 9.250	19.500	3.7941e-02
 9.250	19.750	3.9131e-02
 9.250	20.000	3.9162e-02
 9.250	20.250	3.9183e-02
 9.250	20.500	3.9204e-02
 9.250	20.750	3.9216e-02
 9.250	21.000	3.9221e-02
 9.250	21.250	3.9225e-02
 9.250	21.500	3.9222e-02
 9.250	21.750	3.9219e-02
 9.250	22.000	3.9218e-02
 9.250	22.250	3.9220e-02
 9.250	22.500	3.9231e-02
 9.250	22.750	3.9231e-02
 9.250	23.000	3.9231e-02
 9.250	23.250	3.9231e-02
 9.250	23.500	3.9231e-02
 9.250	23.750	3.9231e-02
 9.250	24.000	3.9231e-02
 9.500	17.000	2.4098e-03
 9.500	17.250	2.8822e-03
 9.500	17.500	3.5937e-03
 9.500	17.750	4.7170e-03
 9.500	18.000	6.5911e-03
 9.500	18.250	9.5872e-03
 9.500	18.500	1.4008e-02
 9.500	18.750	1.9750e-02
 9.500	19.000	2.5807e-02
 9.500	19.250	3.2014e-02
 9.500	19.500	3.5634e-02
 9.500	19.750	3.7888e-02
 9.500	20.000	3.9119e-02
 9.500	20.250	3.9160e-02
 9.500	20.500	3.9182e-02
 9.500	20.750	3.9203e-02
 9.500	21.000	3.9207e-02
 9.500	21.250	3.9209e-02
 9.500	21.500	3.9213e-02
 9.500	21.750	3.9214e-02
 9.500	22.000	3.9210e-02
 9.500	22.250	3.9210e-02
 9.500	22.500	3.9210e-02
 9.500	22.750	3.9210e-02
 9.500	23.000	3.9210e-02
 9.500	23.250	3.9210e-02
 9.500	23.500	3.9215e-02
 9.500	23.750	3.9215e-02
 9.500	24.000	3.9215e-02
 9.750	17.000	2.0862e-03
 9.750	17.250	2.4156e-03
 9.750	17.500	2.9170e-03
 9.750	17.750	3.7255e-03
 9.750	18.000	5.0998e-03
 9.750	18.250	7.3374e-03
 9.750	18.500	1.0585e-02
 9.750	18.750	1.5005e-02
 9.750	19.000	2.0598e-02
 9.750	19.250	2.7016e-02
 9.750	19.500	3.3455e-02
 9.750	19.750	3.5573e-02
 9.750	20.000	3.7817e-02
 9.750	20.250	3.9101e-02
 9.750	20.500	3.9156e-02
 9.750	20.750	3.9181e-02
 9.750	21.000	3.9203e-02
 9.750	21.250	3.9212e-02
 9.750	21.500	3.9211e-02
 9.750	21.750	3.9214e-02
 9.750	22.000	3.9216e-02
 9.750	22.250	3.9212e-02
 9.750	22.500	3.9209e-02
 9.750	22.750	3.9211e-02
 9.750	23.000	3.9211e-02
 9.750	23.250	3.9211e-02
 9.750	23.500	3.9210e-02
 9.750	23.750	3.9210e-02
 9.750	24.000	3.9210e-02
10.000	17.000	1.8554e-03
10.000	17.250	2.0858e-03
10.000	17.500	2.4384e-03
10.000	17.750	3.0197e-03
10.000	18.000	4.0378e-03
10.000	18.250	5.6812e-03
10.000	18.500	8.0295e-03
10.000	18.750	1.1220e-02
10.000	19.000	1.5593e-02
10.000	19.250	2.1215e-02
10.000	19.500	2.8504e-02
10.000	19.750	3.3570e-02
10.000	20.000	3.5537e-02
10.000	20.250	3.7747e-02
10.000	20.500	3.9074e-02
10.000	20.750	3.9150e-02
10.000	21.000	3.9179e-02
10.000	21.250	3.9203e-02
10.000	21.500	3.9215e-02
10.000	21.750	3.9217e-02
10.000	22.000	3.9215e-02
10.000	22.250	3.9217e-02
10.000	22.500	3.9215e-02
10.000	22.750	3.9212e-02
10.000	23.000	3.9210e-02
10.000	23.250	3.9210e-02
10.000	23.500	3.9211e-02
10.000	23.750	3.9211e-02
10.000	24.000	3.9211e-02
10.250	17.000	1.6917e-03
10.250	17.250	1.8519e-03
10.250	17.500	2.0992e-03
10.250	17.750	2.5171e-03
10.250	18.000	3.2568e-03
10.250	18.250	4.4473e-03
10.250	18.500	6.1061e-03
10.250	18.750	8.3724e-03
10.250	19.000	1.1450e-02
10.250	19.250	1.5913e-02
10.250	19.500	2.2295e-02
10.250	19.750	2.9949e-02
10.250	20.000	3.3595e-02
10.250	20.250	3.5497e-02
10.250	20.500	3.7686e-02
10.250	20.750	3.9037e-02
10.250	21.000	3.9141e-02
10.250	21.250	3.9176e-02
10.250	21.500	3.9202e-02
10.250	21.750	3.9215e-02
10.250	22.000	3.9219e-02
10.250	22.250	3.9219e-02
10.250	22.500	3.9217e-02
10.250	22.750	3.9217e-02
10.250	23.000	3.9214e-02
10.250	23.250	3.9212e-02
10.250	23.500	3.9211e-02
10.250	23.750	3.9210e-02
10.250	24.000	3.9210e-02
10.500	17.000	1.5758e-03
10.500	17.250	1.6861e-03
10.500	17.500	1.8587e-03
10.500	17.750	2.1578e-03
10.500	18.000	2.6886e-03
10.500	18.250	3.5398e-03
10.500	18.500	4.7175e-03
10.500	18.750	6.3761e-03
10.500	19.000	8.7270e-03
10.500	19.250	1.2118e-02
10.500	19.500	1.6911e-02
10.500	19.750	2.3674e-02
10.500	20.000	3.1079e-02
10.500	20.250	3.3692e-02
10.500	20.500	3.5447e-02
10.500	20.750	3.7645e-02
10.500	21.000	3.8996e-02
10.500	21.250	3.9127e-02
10.500	21.500	3.9170e-02
10.500	21.750	3.9200e-02
10.500	22.000	3.9215e-02
10.500	22.250	3.9220e-02
10.500	22.500	3.9223e-02
10.500	22.750	3.9218e-02
10.500	23.000	3.9218e-02
10.500	23.250	3.9217e-02
10.500	23.500	3.9215e-02
10.500	23.750	3.9213e-02
10.500	24.000	3.9212e-02
10.750	17.000	1.4925e-03
10.750	17.250	1.5674e-03
10.750	17.500	1.6863e-03
10.750	17.750	1.8965e-03
10.750	18.000	2.2755e-03
10.750	18.250	2.8807e-03
10.750	18.500	3.7435e-03
10.750	18.750	4.9926e-03
10.750	19.000	6.7691e-03
10.750	19.250	9.2588e-03
10.750	19.500	1.2779e-02
10.750	19.750	1.7786e-02
10.750	20.000	2.4826e-02
10.750	20.250	3.1427e-02
10.750	20.500	3.3615e-02
10.750	20.750	3.5442e-02
10.750	21.000	3.7640e-02
10.750	21.250	3.8954e-02
10.750	21.500	3.9108e-02
10.750	21.750	3.9162e-02
10.750	22.000	3.9198e-02
10.750	22.250	3.9215e-02
10.750	22.500	3.9220e-02
10.750	22.750	3.9225e-02
10.750	23.000	3.9220e-02
10.750	23.250	3.9218e-02
10.750	23.500	3.9218e-02
10.750	23.750	3.9217e-02
10.750	24.000	3.9216e-02
11.000	17.000	1.4309e-03
11.000	17.250	1.4805e-03
11.000	17.500	1.5598e-03
11.000	17.750	1.7055e-03
11.000	18.000	1.9737e-03
11.000	18.250	2.4058e-03
11.000	18.500	3.0494e-03
11.000	18.750	4.0063e-03
11.000	19.000	5.3227e-03
11.000	19.250	7.1184e-03
11.000	19.500	9.6682e-03
11.000	19.750	1.3284e-02
11.000	20.000	1.8427e-02
11.000	20.250	2.5617e-02
11.000	20.500	3.1447e-02
11.000	20.750	3.3529e-02
11.000	21.000	3.5469e-02
11.000	21.250	3.7716e-02
11.000	21.500	3.8909e-02
11.000	21.750	3.9086e-02
11.000	22.000	3.9152e-02
11.000	22.250	3.9194e-02
11.000	22.500	3.9214e-02
11.000	22.750	3.9220e-02
11.000	23.000	3.9225e-02
11.000	23.250	3.9225e-02
11.000	23.500	3.9219e-02
11.000	23.750	3.9219e-02
11.000	24.000	3.9218e-02
11.250	17.000	1.3846e-03
11.250	17.250	1.4149e-03
11.250	17.500	1.4656e-03
11.250	17.750	1.5645e-03
11.250	18.000	1.7525e-03
11.250	18.250	2.0631e-03
11.250	18.500	2.5355e-03
11.250	18.750	3.2391e-03
11.250	19.000	4.2040e-03
11.250	19.250	5.5372e-03
11.250	19.500	7.3641e-03
11.250	19.750	9.9507e-03
11.250	20.000	1.3591e-02
11.250	20.250	1.8821e-02
11.250	20.500	2.6187e-02
11.250	20.750	3.1125e-02
11.250	21.000	3.3541e-02
11.250	21.250	3.5562e-02
11.250	21.500	3.7907e-02
11.250	21.750	3.8851e-02
11.250	22.000	3.9063e-02
11.250	22.250	3.9140e-02
11.250	22.500	3.9188e-02
11.250	22.750	3.9213e-02
11.250	23.000	3.9219e-02
11.250	23.250	3.9225e-02
11.250	23.500	3.9228e-02
11.250	23.750	3.9221e-02
11.250	24.000	3.9219e-02
11.500	17.000	1.3508e-03
11.500	17.250	1.3657e-03
11.500	17.500	1.3956e-03
11.500	17.750	1.4603e-03
11.500	18.000	1.5907e-03
11.500	18.250	1.8157e-03
11.500	18.500	2.1597e-03
11.500	18.750	2.6736e-03
11.500	19.000	3.3709e-03
11.500	19.250	4.3440e-03
11.500	19.500	5.6743e-03
11.500	19.750	7.5255e-03
11.500	20.000	1.0125e-02
11.500	20.250	1.3795e-02
11.500	20.500	1.9097e-02
11.500	20.750	2.6439e-02
11.500	21.000	3.1030e-02
11.500	21.250	3.3619e-02
11.500	21.500	3.5834e-02
11.500	21.750	3.8181e-02
11.500	22.000	3.8801e-02
11.500	22.250	3.9040e-02
11.500	22.500	3.9127e-02
11.500	22.750	3.9183e-02
11.500	23.000	3.9211e-02
11.500	23.250	3.9218e-02
11.500	23.500	3.9225e-02
11.500	23.750	3.9228e-02
11.500	24.000	3.9226e-02
11.750	17.000	1.3282e-03
11.750	17.250	1.3301e-03
11.750	17.500	1.3440e-03
11.750	17.750	1.3842e-03
11.750	18.000	1.4741e-03
11.750	18.250	1.6351e-03
11.750	18.500	1.8832e-03
11.750	18.750	2.2458e-03
11.750	19.000	2.7637e-03
11.750	19.250	3.4674e-03
11.750	19.500	4.4486e-03
11.750	19.750	5.7896e-03
11.750	20.000	7.6413e-03
11.750	20.250	1.0239e-02
11.750	20.500	1.3950e-02
11.750	20.750	1.9320e-02
11.750	21.000	2.6412e-02
11.750	21.250	3.0952e-02
11.750	21.500	3.3831e-02
11.750	21.750	3.6255e-02
11.750	22.000	3.8309e-02
11.750	22.250	3.8766e-02
11.750	22.500	3.9015e-02
11.750	22.750	3.9115e-02
11.750	23.000	3.9177e-02
11.750	23.250	3.9209e-02
11.750	23.500	3.9218e-02
11.750	23.750	3.9224e-02
11.750	24.000	3.9229e-02
12.000	17.000	1.3142e-03
12.000	17.250	1.3071e-03
12.000	17.500	1.3084e-03
12.000	17.750	1.3308e-03
12.000	18.000	1.3917e-03
12.000	18.250	1.5045e-03
12.000	18.500	1.6823e-03
12.000	18.750	1.9441e-03
12.000	19.000	2.3192e-03
12.000	19.250	2.8340e-03
12.000	19.500	3.5454e-03
12.000	19.750	4.5227e-03
12.000	20.000	5.8602e-03
12.000	20.250	7.7237e-03
12.000	20.500	1.0336e-02
12.000	20.750	1.4086e-02
12.000	21.000	1.9583e-02
12.000	21.250	2.5996e-02
12.000	21.500	3.0977e-02
12.000	21.750	3.4168e-02
12.000	22.000	3.6707e-02
12.000	22.250	3.8270e-02
12.000	22.500	3.8732e-02
12.000	22.750	3.8988e-02
12.000	23.000	3.9100e-02
12.000	23.250	3.9171e-02
12.000	23.500	3.9206e-02
12.000	23.750	3.9216e-02
12.000	24.000	3.9224e-02
12.250	17.000	1.3072e-03
12.250	17.250	1.2956e-03
12.250	17.500	1.2885e-03
12.250	17.750	1.2974e-03
12.250	18.000	1.3369e-03
12.250	18.250	1.4157e-03
12.250	18.500	1.5413e-03
12.250	18.750	1.7280e-03
12.250	19.000	1.9974e-03
12.250	19.250	2.3750e-03
12.250	19.500	2.8912e-03
12.250	19.750	3.6007e-03
12.250	20.000	4.5807e-03
12.250	20.250	5.9273e-03
12.250	20.500	7.7895e-03
12.250	20.750	1.0434e-02
12.250	21.000	1.4274e-02
12.250	21.250	1.9963e-02
12.250	21.500	2.6200e-02
12.250	21.750	3.1212e-02
12.250	22.000	3.4625e-02
12.250	22.250	3.7138e-02
12.250	22.500	3.8236e-02
12.250	22.750	3.8692e-02
12.250	23.000	3.8964e-02
12.250	23.250	3.9085e-02
12.250	23.500	3.9164e-02
12.250	23.750	3.9204e-02
12.250	24.000	3.9215e-02
12.500	17.000	1.0169e-03
12.500	17.250	1.2942e-03
12.500	17.500	1.2848e-03
12.500	17.750	1.2858e-03
12.500	18.000	1.3067e-03
12.500	18.250	1.3560e-03
12.500	18.500	1.4418e-03
12.500	18.750	1.5736e-03
12.500	19.000	1.7655e-03
12.500	19.250	2.0380e-03
12.500	19.500	2.4167e-03
12.500	19.750	2.9351e-03
12.500	20.000	3.6472e-03
12.500	20.250	4.6351e-03
12.500	20.500	5.9760e-03
12.500	20.750	7.8727e-03
12.500	21.000	1.0590e-02
12.500	21.250	1.4592e-02
12.500	21.500	2.0187e-02
12.500	21.750	2.6585e-02
12.500	22.000	3.1641e-02
12.500	22.250	3.5110e-02
12.500	22.500	3.7397e-02
12.500	22.750	3.8221e-02
12.500	23.000	3.8664e-02
12.500	23.250	3.8935e-02
12.500	23.500	3.9069e-02
12.500	23.750	3.9156e-02
12.500	24.000	3.9201e-02
12.750	17.000	5.6428e-04
12.750	17.250	1.1213e-03
12.750	17.500	1.2910e-03
12.750	17.750	1.2878e-03
12.750	18.000	1.2947e-03
12.750	18.250	1.3210e-03
12.750	18.500	1.3739e-03
12.750	18.750	1.4637e-03
12.750	19.000	1.5988e-03
12.750	19.250	1.7956e-03
12.750	19.500	2.0681e-03
12.750	19.750	2.4463e-03
12.750	20.000	2.9597e-03
12.750	20.250	3.6796e-03
12.750	20.500	4.6611e-03
12.750	20.750	6.0139e-03
12.750	21.000	7.9658e-03
12.750	21.250	1.0794e-02
12.750	21.500	1.4738e-02
12.750	21.750	2.0835e-02
12.750	22.000	2.7140e-02
12.750	22.250	3.2179e-02
12.750	22.500	3.5574e-02
12.750	22.750	3.7522e-02
12.750	23.000	3.8208e-02
12.750	23.250	3.8640e-02
12.750	23.500	3.8908e-02
12.750	23.750	3.9050e-02
12.750	24.000	3.9145e-02
13.000	17.000	9.3827e-05
13.000	17.250	2.2617e-04
13.000	17.500	8.3687e-04
13.000	17.750	1.2711e-03
13.000	18.000	1.2927e-03
13.000	18.250	1.3038e-03
13.000	18.500	1.3321e-03
13.000	18.750	1.3886e-03
13.000	19.000	1.4807e-03
13.000	19.250	1.6190e-03
13.000	19.500	1.8146e-03
13.000	19.750	2.0874e-03
13.000	20.000	2.4639e-03
13.000	20.250	2.9765e-03
13.000	20.500	3.6966e-03
13.000	20.750	4.6962e-03
13.000	21.000	6.0925e-03
13.000	21.250	8.1027e-03
13.000	21.500	1.0900e-02
13.000	21.750	1.5196e-02
13.000	22.000	2.1530e-02
13.000	22.250	2.7823e-02
13.000	22.500	3.2725e-02
13.000	22.750	3.5836e-02
13.000	23.000	3.7557e-02
13.000	23.250	3.8195e-02
13.000	23.500	3.8611e-02
13.000	23.750	3.8876e-02
13.000	24.000	3.9024e-02
13.250	17.000	5.6049e-05
13.250	17.250	1.0650e-04
13.250	17.500	2.6477e-04
13.250	17.750	6.3490e-04
13.250	18.000	9.8798e-04
13.250	18.250	1.2990e-03
13.250	18.500	1.3111e-03
13.250	18.750	1.3412e-03
13.250	19.000	1.3984e-03
13.250	19.250	1.4932e-03
13.250	19.500	1.6311e-03
13.250	19.750	1.8257e-03
13.250	20.000	2.0952e-03
13.250	20.250	2.4700e-03
13.250	20.500	2.9831e-03
13.250	20.750	3.6970e-03
13.250	21.000	4.7126e-03
13.250	21.250	6.1300e-03
13.250	21.500	8.0494e-03
13.250	21.750	1.1005e-02
13.250	22.000	1.5581e-02
13.250	22.250	2.2234e-02
13.250	22.500	2.8218e-02
13.250	22.750	3.2744e-02
13.250	23.000	3.5763e-02
13.250	23.250	3.7531e-02
13.250	23.500	3.8160e-02
13.250	23.750	3.8573e-02
13.250	24.000	3.8833e-02
13.500	17.000	3.3580e-05
13.500	17.250	6.6667e-05
13.500	17.500	1.5095e-04
13.500	17.750	3.4173e-04
13.500	18.000	7.5350e-04
13.500	18.250	1.0521e-03
13.500	18.500	1.3041e-03
13.500	18.750	1.3161e-03
13.500	19.000	1.3469e-03
13.500	19.250	1.4045e-03
13.500	19.500	1.4988e-03
13.500	19.750	1.6347e-03
13.500	20.000	1.8270e-03
13.500	20.250	2.0930e-03
13.500	20.500	2.4635e-03
13.500	20.750	2.9704e-03
13.500	21.000	3.6793e-03
13.500	21.250	4.6826e-03
13.500	21.500	6.0019e-03
13.500	21.750	7.9824e-03
13.500	22.000	1.0969e-02
13.500	22.250	1.5754e-02
13.500	22.500	2.2698e-02
13.500	22.750	2.8335e-02
13.500	23.000	3.2626e-02
13.500	23.250	3.5643e-02
13.500	23.500	3.7454e-02
13.500	23.750	3.8087e-02
13.500	24.000	3.8507e-02
13.750	17.000	2.0494e-05
13.750	17.250	4.1481e-05
13.750	17.500	9.0453e-05
13.750	17.750	1.7967e-04
13.750	18.000	4.3399e-04
13.750	18.250	8.6872e-04
13.750	18.500	1.0799e-03
13.750	18.750	1.3076e-03
13.750	19.000	1.3193e-03
13.750	19.250	1.3500e-03
13.750	19.500	1.4077e-03
13.750	19.750	1.4995e-03
13.750	20.000	1.6329e-03
13.750	20.250	1.8198e-03
13.750	20.500	2.0795e-03
13.750	20.750	2.4380e-03
13.750	21.000	2.9305e-03
13.750	21.250	3.6177e-03
13.750	21.500	4.5271e-03
13.750	21.750	5.8193e-03
13.750	22.000	7.6248e-03
13.750	22.250	1.0489e-02
13.750	22.500	1.5785e-02
13.750	22.750	2.3221e-02
13.750	23.000	2.8301e-02
13.750	23.250	3.2435e-02
13.750	23.500	3.5407e-02
13.750	23.750	3.7296e-02
13.750	24.000	3.7960e-02
14.000	17.000	1.2428e-05
14.000	17.250	2.4444e-05
14.000	17.500	5.4815e-05
14.000	17.750	1.1037e-04
14.000	18.000	2.2412e-04
14.000	18.250	5.1868e-04
14.000	18.500	9.2617e-04
14.000	18.750	1.2025e-03
14.000	19.000	1.3092e-03
14.000	19.250	1.3202e-03
14.000	19.500	1.3496e-03
14.000	19.750	1.4057e-03
14.000	20.000	1.4951e-03
14.000	20.250	1.6229e-03
14.000	20.500	1.8024e-03
14.000	20.750	2.0509e-03
14.000	21.000	2.3928e-03
14.000	21.250	2.8605e-03
14.000	21.500	3.4642e-03
14.000	21.750	4.3040e-03
14.000	22.000	5.3858e-03
14.000	22.250	6.9393e-03
14.000	22.500	9.8954e-03
14.000	22.750	1.6019e-02
14.000	23.000	2.3476e-02
14.000	23.250	2.8322e-02
14.000	23.500	3.2221e-02
14.000	23.750	3.5193e-02
14.000	24.000	3.7016e-02
