InwC 1650.00A  relative to Inci 1215.00A scaled to 1215A.
Hden   Phi(H)  Eq_Width (A)
 7.000	17.000	3.9671e-02
 7.000	17.250	4.1798e-02
 7.000	17.500	4.3019e-02
 7.000	17.750	4.3038e-02
 7.000	18.000	4.3058e-02
 7.000	18.250	4.3082e-02
 7.000	18.500	4.3094e-02
 7.000	18.750	4.3099e-02
 7.000	19.000	4.3104e-02
 7.000	19.250	4.3108e-02
 7.000	19.500	4.3109e-02
 7.000	19.750	4.3110e-02
 7.000	20.000	4.3110e-02
 7.000	20.250	4.3110e-02
 7.000	20.500	4.3111e-02
 7.000	20.750	4.3111e-02
 7.000	21.000	4.3111e-02
 7.000	21.250	4.3111e-02
 7.000	21.500	4.3111e-02
 7.000	21.750	4.3112e-02
 7.000	22.000	4.3112e-02
 7.000	22.250	4.3112e-02
 7.000	22.500	4.3113e-02
 7.000	22.750	4.3113e-02
 7.000	23.000	4.3113e-02
 7.000	23.250	4.3113e-02
 7.000	23.500	4.3113e-02
 7.000	23.750	4.3113e-02
 7.000	24.000	4.3113e-02
 7.250	17.000	3.2822e-02
 7.250	17.250	3.9761e-02
 7.250	17.500	4.1809e-02
 7.250	17.750	4.3019e-02
 7.250	18.000	4.3038e-02
 7.250	18.250	4.3058e-02
 7.250	18.500	4.3081e-02
 7.250	18.750	4.3094e-02
 7.250	19.000	4.3099e-02
 7.250	19.250	4.3104e-02
 7.250	19.500	4.3108e-02
 7.250	19.750	4.3109e-02
 7.250	20.000	4.3110e-02
 7.250	20.250	4.3110e-02
 7.250	20.500	4.3110e-02
 7.250	20.750	4.3111e-02
 7.250	21.000	4.3111e-02
 7.250	21.250	4.3111e-02
 7.250	21.500	4.3111e-02
 7.250	21.750	4.3111e-02
 7.250	22.000	4.3111e-02
 7.250	22.250	4.3111e-02
 7.250	22.500	4.3111e-02
 7.250	22.750	4.3111e-02
 7.250	23.000	4.3112e-02
 7.250	23.250	4.3112e-02
 7.250	23.500	4.3112e-02
 7.250	23.750	4.3112e-02
 7.250	24.000	4.3112e-02
 7.500	17.000	2.7954e-02
 7.500	17.250	3.3031e-02
 7.500	17.500	3.9828e-02
 7.500	17.750	4.1819e-02
 7.500	18.000	4.3019e-02
 7.500	18.250	4.3038e-02
 7.500	18.500	4.3058e-02
 7.500	18.750	4.3082e-02
 7.500	19.000	4.3094e-02
 7.500	19.250	4.3099e-02
 7.500	19.500	4.3104e-02
 7.500	19.750	4.3108e-02
 7.500	20.000	4.3109e-02
 7.500	20.250	4.3110e-02
 7.500	20.500	4.3110e-02
 7.500	20.750	4.3110e-02
 7.500	21.000	4.3110e-02
 7.500	21.250	4.3110e-02
 7.500	21.500	4.3111e-02
 7.500	21.750	4.3111e-02
 7.500	22.000	4.3111e-02
 7.500	22.250	4.3111e-02
 7.500	22.500	4.3111e-02
 7.500	22.750	4.3111e-02
 7.500	23.000	4.3111e-02
 7.500	23.250	4.3111e-02
 7.500	23.500	4.3113e-02
 7.500	23.750	4.3111e-02
 7.500	24.000	4.3111e-02
 7.750	17.000	2.4146e-02
 7.750	17.250	2.8191e-02
 7.750	17.500	3.3194e-02
 7.750	17.750	3.9878e-02
 7.750	18.000	4.1829e-02
 7.750	18.250	4.3019e-02
 7.750	18.500	4.3038e-02
 7.750	18.750	4.3058e-02
 7.750	19.000	4.3082e-02
 7.750	19.250	4.3094e-02
 7.750	19.500	4.3099e-02
 7.750	19.750	4.3104e-02
 7.750	20.000	4.3108e-02
 7.750	20.250	4.3109e-02
 7.750	20.500	4.3110e-02
 7.750	20.750	4.3110e-02
 7.750	21.000	4.3110e-02
 7.750	21.250	4.3110e-02
 7.750	21.500	4.3111e-02
 7.750	21.750	4.3111e-02
 7.750	22.000	4.3111e-02
 7.750	22.250	4.3111e-02
 7.750	22.500	4.3111e-02
 7.750	22.750	4.3111e-02
 7.750	23.000	4.3111e-02
 7.750	23.250	4.3111e-02
 7.750	23.500	4.3111e-02
 7.750	23.750	4.3111e-02
 7.750	24.000	4.3111e-02
 8.000	17.000	2.1379e-02
 8.000	17.250	2.4280e-02
 8.000	17.500	2.8365e-02
 8.000	17.750	3.3245e-02
 8.000	18.000	3.9812e-02
 8.000	18.250	4.1826e-02
 8.000	18.500	4.3019e-02
 8.000	18.750	4.3038e-02
 8.000	19.000	4.3058e-02
 8.000	19.250	4.3082e-02
 8.000	19.500	4.3094e-02
 8.000	19.750	4.3099e-02
 8.000	20.000	4.3104e-02
 8.000	20.250	4.3108e-02
 8.000	20.500	4.3109e-02
 8.000	20.750	4.3110e-02
 8.000	21.000	4.3110e-02
 8.000	21.250	4.3110e-02
 8.000	21.500	4.3110e-02
 8.000	21.750	4.3110e-02
 8.000	22.000	4.3110e-02
 8.000	22.250	4.3111e-02
 8.000	22.500	4.3111e-02
 8.000	22.750	4.3111e-02
 8.000	23.000	4.3111e-02
 8.000	23.250	4.3112e-02
 8.000	23.500	4.3111e-02
 8.000	23.750	4.3111e-02
 8.000	24.000	4.3111e-02
 8.250	17.000	1.9569e-02
 8.250	17.250	2.1489e-02
 8.250	17.500	2.4481e-02
 8.250	17.750	2.8614e-02
 8.250	18.000	3.3473e-02
 8.250	18.250	3.9857e-02
 8.250	18.500	4.1834e-02
 8.250	18.750	4.3018e-02
 8.250	19.000	4.3038e-02
 8.250	19.250	4.3058e-02
 8.250	19.500	4.3081e-02
 8.250	19.750	4.3093e-02
 8.250	20.000	4.3099e-02
 8.250	20.250	4.3104e-02
 8.250	20.500	4.3108e-02
 8.250	20.750	4.3109e-02
 8.250	21.000	4.3110e-02
 8.250	21.250	4.3110e-02
 8.250	21.500	4.3110e-02
 8.250	21.750	4.3110e-02
 8.250	22.000	4.3110e-02
 8.250	22.250	4.3110e-02
 8.250	22.500	4.3111e-02
 8.250	22.750	4.3111e-02
 8.250	23.000	4.3111e-02
 8.250	23.250	4.3111e-02
 8.250	23.500	4.3111e-02
 8.250	23.750	4.3111e-02
 8.250	24.000	4.3111e-02
 8.500	17.000	1.8368e-02
 8.500	17.250	1.9636e-02
 8.500	17.500	2.1623e-02
 8.500	17.750	2.4744e-02
 8.500	18.000	2.9024e-02
 8.500	18.250	3.3796e-02
 8.500	18.500	3.9939e-02
 8.500	18.750	4.1840e-02
 8.500	19.000	4.3018e-02
 8.500	19.250	4.3038e-02
 8.500	19.500	4.3058e-02
 8.500	19.750	4.3082e-02
 8.500	20.000	4.3094e-02
 8.500	20.250	4.3099e-02
 8.500	20.500	4.3104e-02
 8.500	20.750	4.3108e-02
 8.500	21.000	4.3109e-02
 8.500	21.250	4.3110e-02
 8.500	21.500	4.3110e-02
 8.500	21.750	4.3110e-02
 8.500	22.000	4.3110e-02
 8.500	22.250	4.3110e-02
 8.500	22.500	4.3110e-02
 8.500	22.750	4.3111e-02
 8.500	23.000	4.3110e-02
 8.500	23.250	4.3111e-02
 8.500	23.500	4.3110e-02
 8.500	23.750	4.3110e-02
 8.500	24.000	4.3111e-02
 8.750	17.000	1.7534e-02
 8.750	17.250	1.8395e-02
 8.750	17.500	1.9712e-02
 8.750	17.750	2.1834e-02
 8.750	18.000	2.5176e-02
 8.750	18.250	2.9645e-02
 8.750	18.500	3.4444e-02
 8.750	18.750	3.9958e-02
 8.750	19.000	4.1844e-02
 8.750	19.250	4.3017e-02
 8.750	19.500	4.3038e-02
 8.750	19.750	4.3058e-02
 8.750	20.000	4.3082e-02
 8.750	20.250	4.3094e-02
 8.750	20.500	4.3099e-02
 8.750	20.750	4.3104e-02
 8.750	21.000	4.3108e-02
 8.750	21.250	4.3109e-02
 8.750	21.500	4.3110e-02
 8.750	21.750	4.3110e-02
 8.750	22.000	4.3110e-02
 8.750	22.250	4.3110e-02
 8.750	22.500	4.3110e-02
 8.750	22.750	4.3111e-02
 8.750	23.000	4.3111e-02
 8.750	23.250	4.3111e-02
 8.750	23.500	4.3111e-02
 8.750	23.750	4.3111e-02
 8.750	24.000	4.3111e-02
 9.000	17.000	1.6944e-02
 9.000	17.250	1.7532e-02
 9.000	17.500	1.8425e-02
 9.000	17.750	1.9837e-02
 9.000	18.000	2.2184e-02
 9.000	18.250	2.5888e-02
 9.000	18.500	3.0504e-02
 9.000	18.750	3.4965e-02
 9.000	19.000	3.9936e-02
 9.000	19.250	4.1841e-02
 9.000	19.500	4.3015e-02
 9.000	19.750	4.3038e-02
 9.000	20.000	4.3059e-02
 9.000	20.250	4.3082e-02
 9.000	20.500	4.3094e-02
 9.000	20.750	4.3099e-02
 9.000	21.000	4.3104e-02
 9.000	21.250	4.3108e-02
 9.000	21.500	4.3109e-02
 9.000	21.750	4.3110e-02
 9.000	22.000	4.3110e-02
 9.000	22.250	4.3110e-02
 9.000	22.500	4.3110e-02
 9.000	22.750	4.3110e-02
 9.000	23.000	4.3110e-02
 9.000	23.250	4.3111e-02
 9.000	23.500	4.3111e-02
 9.000	23.750	4.3110e-02
 9.000	24.000	4.3111e-02
 9.250	17.000	1.6522e-02
 9.250	17.250	1.6918e-02
 9.250	17.500	1.7523e-02
 9.250	17.750	1.8485e-02
 9.250	18.000	2.0113e-02
 9.250	18.250	2.2834e-02
 9.250	18.500	2.6856e-02
 9.250	18.750	3.1513e-02
 9.250	19.000	3.6069e-02
 9.250	19.250	3.9908e-02
 9.250	19.500	4.1831e-02
 9.250	19.750	4.3013e-02
 9.250	20.000	4.3038e-02
 9.250	20.250	4.3059e-02
 9.250	20.500	4.3081e-02
 9.250	20.750	4.3094e-02
 9.250	21.000	4.3099e-02
 9.250	21.250	4.3104e-02
 9.250	21.500	4.3100e-02
 9.250	21.750	4.3097e-02
 9.250	22.000	4.3096e-02
 9.250	22.250	4.3098e-02
 9.250	22.500	4.3110e-02
 9.250	22.750	4.3110e-02
 9.250	23.000	4.3110e-02
 9.250	23.250	4.3110e-02
 9.250	23.500	4.3110e-02
 9.250	23.750	4.3111e-02
 9.250	24.000	4.3111e-02
 9.500	17.000	1.6217e-02
 9.500	17.250	1.6478e-02
 9.500	17.500	1.6877e-02
 9.500	17.750	1.7530e-02
 9.500	18.000	1.8678e-02
 9.500	18.250	2.0627e-02
 9.500	18.500	2.3664e-02
 9.500	18.750	2.7793e-02
 9.500	19.000	3.2291e-02
 9.500	19.250	3.7091e-02
 9.500	19.500	3.9883e-02
 9.500	19.750	4.1808e-02
 9.500	20.000	4.3008e-02
 9.500	20.250	4.3037e-02
 9.500	20.500	4.3058e-02
 9.500	20.750	4.3080e-02
 9.500	21.000	4.3084e-02
 9.500	21.250	4.3087e-02
 9.500	21.500	4.3091e-02
 9.500	21.750	4.3091e-02
 9.500	22.000	4.3087e-02
 9.500	22.250	4.3087e-02
 9.500	22.500	4.3087e-02
 9.500	22.750	4.3087e-02
 9.500	23.000	4.3087e-02
 9.500	23.250	4.3087e-02
 9.500	23.500	4.3093e-02
 9.500	23.750	4.3093e-02
 9.500	24.000	4.3093e-02
 9.750	17.000	1.5998e-02
 9.750	17.250	1.6159e-02
 9.750	17.500	1.6412e-02
 9.750	17.750	1.6840e-02
 9.750	18.000	1.7628e-02
 9.750	18.250	1.9015e-02
 9.750	18.500	2.1177e-02
 9.750	18.750	2.4322e-02
 9.750	19.000	2.8486e-02
 9.750	19.250	3.3328e-02
 9.750	19.500	3.8370e-02
 9.750	19.750	3.9877e-02
 9.750	20.000	4.1776e-02
 9.750	20.250	4.3001e-02
 9.750	20.500	4.3036e-02
 9.750	20.750	4.3058e-02
 9.750	21.000	4.3081e-02
 9.750	21.250	4.3090e-02
 9.750	21.500	4.3089e-02
 9.750	21.750	4.3091e-02
 9.750	22.000	4.3093e-02
 9.750	22.250	4.3090e-02
 9.750	22.500	4.3087e-02
 9.750	22.750	4.3088e-02
 9.750	23.000	4.3088e-02
 9.750	23.250	4.3088e-02
 9.750	23.500	4.3088e-02
 9.750	23.750	4.3087e-02
 9.750	24.000	4.3087e-02
10.000	17.000	1.5839e-02
10.000	17.250	1.5932e-02
10.000	17.500	1.6079e-02
10.000	17.750	1.6339e-02
10.000	18.000	1.6859e-02
10.000	18.250	1.7789e-02
10.000	18.500	1.9262e-02
10.000	18.750	2.1466e-02
10.000	19.000	2.4733e-02
10.000	19.250	2.9066e-02
10.000	19.500	3.4623e-02
10.000	19.750	3.8481e-02
10.000	20.000	3.9883e-02
10.000	20.250	4.1745e-02
10.000	20.500	4.2989e-02
10.000	20.750	4.3033e-02
10.000	21.000	4.3058e-02
10.000	21.250	4.3081e-02
10.000	21.500	4.3093e-02
10.000	21.750	4.3095e-02
10.000	22.000	4.3093e-02
10.000	22.250	4.3094e-02
10.000	22.500	4.3093e-02
10.000	22.750	4.3089e-02
10.000	23.000	4.3087e-02
10.000	23.250	4.3087e-02
10.000	23.500	4.3088e-02
10.000	23.750	4.3088e-02
10.000	24.000	4.3088e-02
10.250	17.000	1.5724e-02
10.250	17.250	1.5768e-02
10.250	17.500	1.5838e-02
10.250	17.750	1.5975e-02
10.250	18.000	1.6269e-02
10.250	18.250	1.6841e-02
10.250	18.500	1.7765e-02
10.250	18.750	1.9230e-02
10.250	19.000	2.1460e-02
10.250	19.250	2.4946e-02
10.250	19.500	2.9959e-02
10.250	19.750	3.5845e-02
10.250	20.000	3.8554e-02
10.250	20.250	3.9885e-02
10.250	20.500	4.1723e-02
10.250	20.750	4.2974e-02
10.250	21.000	4.3030e-02
10.250	21.250	4.3056e-02
10.250	21.500	4.3080e-02
10.250	21.750	4.3093e-02
10.250	22.000	4.3098e-02
10.250	22.250	4.3097e-02
10.250	22.500	4.3095e-02
10.250	22.750	4.3095e-02
10.250	23.000	4.3092e-02
10.250	23.250	4.3089e-02
10.250	23.500	4.3088e-02
10.250	23.750	4.3087e-02
10.250	24.000	4.3087e-02
10.500	17.000	1.5639e-02
10.500	17.250	1.5649e-02
10.500	17.500	1.5663e-02
10.500	17.750	1.5704e-02
10.500	18.000	1.5825e-02
10.500	18.250	1.6122e-02
10.500	18.500	1.6671e-02
10.500	18.750	1.7657e-02
10.500	19.000	1.9321e-02
10.500	19.250	2.1945e-02
10.500	19.500	2.5735e-02
10.500	19.750	3.1060e-02
10.500	20.000	3.6870e-02
10.500	20.250	3.8635e-02
10.500	20.500	3.9895e-02
10.500	20.750	4.1719e-02
10.500	21.000	4.2957e-02
10.500	21.250	4.3024e-02
10.500	21.500	4.3054e-02
10.500	21.750	4.3080e-02
10.500	22.000	4.3093e-02
10.500	22.250	4.3099e-02
10.500	22.500	4.3102e-02
10.500	22.750	4.3095e-02
10.500	23.000	4.3096e-02
10.500	23.250	4.3094e-02
10.500	23.500	4.3092e-02
10.500	23.750	4.3091e-02
10.500	24.000	4.3090e-02
10.750	17.000	1.5567e-02
10.750	17.250	1.5556e-02
10.750	17.500	1.5529e-02
10.750	17.750	1.5493e-02
10.750	18.000	1.5497e-02
10.750	18.250	1.5620e-02
10.750	18.500	1.5951e-02
10.750	18.750	1.6659e-02
10.750	19.000	1.7880e-02
10.750	19.250	1.9734e-02
10.750	19.500	2.2471e-02
10.750	19.750	2.6441e-02
10.750	20.000	3.2038e-02
10.750	20.250	3.7311e-02
10.750	20.500	3.8629e-02
10.750	20.750	3.9917e-02
10.750	21.000	4.1747e-02
10.750	21.250	4.2938e-02
10.750	21.500	4.3016e-02
10.750	21.750	4.3051e-02
10.750	22.000	4.3079e-02
10.750	22.250	4.3093e-02
10.750	22.500	4.3099e-02
10.750	22.750	4.3103e-02
10.750	23.000	4.3098e-02
10.750	23.250	4.3096e-02
10.750	23.500	4.3096e-02
10.750	23.750	4.3095e-02
10.750	24.000	4.3094e-02
11.000	17.000	1.5496e-02
11.000	17.250	1.5474e-02
11.000	17.500	1.5416e-02
11.000	17.750	1.5331e-02
11.000	18.000	1.5262e-02
11.000	18.250	1.5287e-02
11.000	18.500	1.5503e-02
11.000	18.750	1.6033e-02
11.000	19.000	1.6894e-02
11.000	19.250	1.8151e-02
11.000	19.500	2.0049e-02
11.000	19.750	2.2867e-02
11.000	20.000	2.6980e-02
11.000	20.250	3.2793e-02
11.000	20.500	3.7356e-02
11.000	20.750	3.8612e-02
11.000	21.000	3.9957e-02
11.000	21.250	4.1843e-02
11.000	21.500	4.2915e-02
11.000	21.750	4.3007e-02
11.000	22.000	4.3047e-02
11.000	22.250	4.3077e-02
11.000	22.500	4.3093e-02
11.000	22.750	4.3099e-02
11.000	23.000	4.3104e-02
11.000	23.250	4.3104e-02
11.000	23.500	4.3097e-02
11.000	23.750	4.3097e-02
11.000	24.000	4.3096e-02
11.250	17.000	1.5422e-02
11.250	17.250	1.5388e-02
11.250	17.500	1.5313e-02
11.250	17.750	1.5201e-02
11.250	18.000	1.5094e-02
11.250	18.250	1.5077e-02
11.250	18.500	1.5227e-02
11.250	18.750	1.5597e-02
11.250	19.000	1.6179e-02
11.250	19.250	1.7053e-02
11.250	19.500	1.8327e-02
11.250	19.750	2.0248e-02
11.250	20.000	2.3092e-02
11.250	20.250	2.7338e-02
11.250	20.500	3.3435e-02
11.250	20.750	3.7206e-02
11.250	21.000	3.8638e-02
11.250	21.250	4.0045e-02
11.250	21.500	4.2052e-02
11.250	21.750	4.2881e-02
11.250	22.000	4.2996e-02
11.250	22.250	4.3041e-02
11.250	22.500	4.3075e-02
11.250	22.750	4.3092e-02
11.250	23.000	4.3098e-02
11.250	23.250	4.3104e-02
11.250	23.500	4.3107e-02
11.250	23.750	4.3099e-02
11.250	24.000	4.3097e-02
11.500	17.000	1.5362e-02
11.500	17.250	1.5302e-02
11.500	17.500	1.5215e-02
11.500	17.750	1.5091e-02
11.500	18.000	1.4975e-02
11.500	18.250	1.4953e-02
11.500	18.500	1.5064e-02
11.500	18.750	1.5317e-02
11.500	19.000	1.5695e-02
11.500	19.250	1.6277e-02
11.500	19.500	1.7136e-02
11.500	19.750	1.8419e-02
11.500	20.000	2.0351e-02
11.500	20.250	2.3242e-02
11.500	20.500	2.7628e-02
11.500	20.750	3.3844e-02
11.500	21.000	3.7161e-02
11.500	21.250	3.8693e-02
11.500	21.500	4.0270e-02
11.500	21.750	4.2347e-02
11.500	22.000	4.2841e-02
11.500	22.250	4.2983e-02
11.500	22.500	4.3036e-02
11.500	22.750	4.3073e-02
11.500	23.000	4.3092e-02
11.500	23.250	4.3098e-02
11.500	23.500	4.3104e-02
11.500	23.750	4.3108e-02
11.500	24.000	4.3105e-02
11.750	17.000	1.5329e-02
11.750	17.250	1.5232e-02
11.750	17.500	1.5125e-02
11.750	17.750	1.4998e-02
11.750	18.000	1.4896e-02
11.750	18.250	1.4886e-02
11.750	18.500	1.4965e-02
11.750	18.750	1.5125e-02
11.750	19.000	1.5381e-02
11.750	19.250	1.5755e-02
11.750	19.500	1.6335e-02
11.750	19.750	1.7191e-02
11.750	20.000	1.8466e-02
11.750	20.250	2.0395e-02
11.750	20.500	2.3359e-02
11.750	20.750	2.7889e-02
11.750	21.000	3.4098e-02
11.750	21.250	3.7116e-02
11.750	21.500	3.8833e-02
11.750	21.750	4.0631e-02
11.750	22.000	4.2486e-02
11.750	22.250	4.2800e-02
11.750	22.500	4.2964e-02
11.750	22.750	4.3029e-02
11.750	23.000	4.3070e-02
11.750	23.250	4.3091e-02
11.750	23.500	4.3098e-02
11.750	23.750	4.3104e-02
11.750	24.000	4.3108e-02
12.000	17.000	1.5326e-02
12.000	17.250	1.5198e-02
12.000	17.500	1.5061e-02
12.000	17.750	1.4932e-02
12.000	18.000	1.4853e-02
12.000	18.250	1.4853e-02
12.000	18.500	1.4907e-02
12.000	18.750	1.5008e-02
12.000	19.000	1.5172e-02
12.000	19.250	1.5415e-02
12.000	19.500	1.5790e-02
12.000	19.750	1.6360e-02
12.000	20.000	1.7204e-02
12.000	20.250	1.8481e-02
12.000	20.500	2.0430e-02
12.000	20.750	2.3462e-02
12.000	21.000	2.8204e-02
12.000	21.250	3.3824e-02
12.000	21.500	3.7134e-02
12.000	21.750	3.9048e-02
12.000	22.000	4.1018e-02
12.000	22.250	4.2431e-02
12.000	22.500	4.2753e-02
12.000	22.750	4.2938e-02
12.000	23.000	4.3019e-02
12.000	23.250	4.3067e-02
12.000	23.500	4.3090e-02
12.000	23.750	4.3097e-02
12.000	24.000	4.3103e-02
12.250	17.000	1.5342e-02
12.250	17.250	1.5208e-02
12.250	17.500	1.5052e-02
12.250	17.750	1.4915e-02
12.250	18.000	1.4846e-02
12.250	18.250	1.4843e-02
12.250	18.500	1.4874e-02
12.250	18.750	1.4930e-02
12.250	19.000	1.5029e-02
12.250	19.250	1.5188e-02
12.250	19.500	1.5433e-02
12.250	19.750	1.5804e-02
12.250	20.000	1.6370e-02
12.250	20.250	1.7210e-02
12.250	20.500	1.8478e-02
12.250	20.750	2.0456e-02
12.250	21.000	2.3618e-02
12.250	21.250	2.8631e-02
12.250	21.500	3.4117e-02
12.250	21.750	3.7254e-02
12.250	22.000	3.9327e-02
12.250	22.250	4.1396e-02
12.250	22.500	4.2371e-02
12.250	22.750	4.2708e-02
12.250	23.000	4.2910e-02
12.250	23.250	4.3006e-02
12.250	23.500	4.3063e-02
12.250	23.750	4.3088e-02
12.250	24.000	4.3097e-02
12.500	17.000	1.1951e-02
12.500	17.250	1.5244e-02
12.500	17.500	1.5102e-02
12.500	17.750	1.4973e-02
12.500	18.000	1.4887e-02
12.500	18.250	1.4851e-02
12.500	18.500	1.4849e-02
12.500	18.750	1.4872e-02
12.500	19.000	1.4927e-02
12.500	19.250	1.5031e-02
12.500	19.500	1.5194e-02
12.500	19.750	1.5440e-02
12.500	20.000	1.5809e-02
12.500	20.250	1.6372e-02
12.500	20.500	1.7198e-02
12.500	20.750	1.8486e-02
12.500	21.000	2.0534e-02
12.500	21.250	2.3894e-02
12.500	21.500	2.8918e-02
12.500	21.750	3.4383e-02
12.500	22.000	3.7472e-02
12.500	22.250	3.9632e-02
12.500	22.500	4.1612e-02
12.500	22.750	4.2322e-02
12.500	23.000	4.2670e-02
12.500	23.250	4.2884e-02
12.500	23.500	4.2990e-02
12.500	23.750	4.3056e-02
12.500	24.000	4.3087e-02
12.750	17.000	6.6000e-03
12.750	17.250	1.3168e-02
12.750	17.500	1.5165e-02
12.750	17.750	1.5056e-02
12.750	18.000	1.4952e-02
12.750	18.250	1.4874e-02
12.750	18.500	1.4831e-02
12.750	18.750	1.4826e-02
12.750	19.000	1.4853e-02
12.750	19.250	1.4918e-02
12.750	19.500	1.5025e-02
12.750	19.750	1.5190e-02
12.750	20.000	1.5428e-02
12.750	20.250	1.5796e-02
12.750	20.500	1.6342e-02
12.750	20.750	1.7160e-02
12.750	21.000	1.8482e-02
12.750	21.250	2.0644e-02
12.750	21.500	2.4024e-02
12.750	21.750	2.9589e-02
12.750	22.000	3.4762e-02
12.750	22.250	3.7730e-02
12.750	22.500	3.9962e-02
12.750	22.750	4.1699e-02
12.750	23.000	4.2296e-02
12.750	23.250	4.2643e-02
12.750	23.500	4.2855e-02
12.750	23.750	4.2974e-02
12.750	24.000	4.3048e-02
13.000	17.000	1.0807e-03
13.000	17.250	2.6163e-03
13.000	17.500	9.7704e-03
13.000	17.750	1.4855e-02
13.000	18.000	1.5010e-02
13.000	18.250	1.4913e-02
13.000	18.500	1.4834e-02
13.000	18.750	1.4796e-02
13.000	19.000	1.4797e-02
13.000	19.250	1.4834e-02
13.000	19.500	1.4901e-02
13.000	19.750	1.5010e-02
13.000	20.000	1.5171e-02
13.000	20.250	1.5401e-02
13.000	20.500	1.5755e-02
13.000	20.750	1.6294e-02
13.000	21.000	1.7129e-02
13.000	21.250	1.8490e-02
13.000	21.500	2.0659e-02
13.000	21.750	2.4469e-02
13.000	22.000	3.0307e-02
13.000	22.250	3.5144e-02
13.000	22.500	3.7984e-02
13.000	22.750	4.0190e-02
13.000	23.000	4.1731e-02
13.000	23.250	4.2281e-02
13.000	23.500	4.2620e-02
13.000	23.750	4.2830e-02
13.000	24.000	4.2952e-02
13.250	17.000	6.4543e-04
13.250	17.250	1.2261e-03
13.250	17.500	3.0611e-03
13.250	17.750	7.3598e-03
13.250	18.000	1.1431e-02
13.250	18.250	1.4968e-02
13.250	18.500	1.4869e-02
13.250	18.750	1.4789e-02
13.250	19.000	1.4757e-02
13.250	19.250	1.4768e-02
13.250	19.500	1.4808e-02
13.250	19.750	1.4877e-02
13.250	20.000	1.4979e-02
13.250	20.250	1.5129e-02
13.250	20.500	1.5342e-02
13.250	20.750	1.5665e-02
13.250	21.000	1.6186e-02
13.250	21.250	1.7007e-02
13.250	21.500	1.8304e-02
13.250	21.750	2.0668e-02
13.250	22.000	2.4887e-02
13.250	22.250	3.1039e-02
13.250	22.500	3.5370e-02
13.250	22.750	3.8015e-02
13.250	23.000	4.0148e-02
13.250	23.250	4.1723e-02
13.250	23.500	4.2260e-02
13.250	23.750	4.2594e-02
13.250	24.000	4.2804e-02
13.500	17.000	3.8675e-04
13.500	17.250	7.6724e-04
13.500	17.500	1.7407e-03
13.500	17.750	3.9456e-03
13.500	18.000	8.7021e-03
13.500	18.250	1.2107e-02
13.500	18.500	1.4926e-02
13.500	18.750	1.4824e-02
13.500	19.000	1.4747e-02
13.500	19.250	1.4719e-02
13.500	19.500	1.4733e-02
13.500	19.750	1.4773e-02
13.500	20.000	1.4835e-02
13.500	20.250	1.4922e-02
13.500	20.500	1.5047e-02
13.500	20.750	1.5225e-02
13.500	21.000	1.5501e-02
13.500	21.250	1.5962e-02
13.500	21.500	1.6674e-02
13.500	21.750	1.7999e-02
13.500	22.000	2.0501e-02
13.500	22.250	2.5155e-02
13.500	22.500	3.1577e-02
13.500	22.750	3.5441e-02
13.500	23.000	3.7969e-02
13.500	23.250	4.0106e-02
13.500	23.500	4.1695e-02
13.500	23.750	4.2222e-02
13.500	24.000	4.2559e-02
13.750	17.000	2.3638e-04
13.750	17.250	4.7778e-04
13.750	17.500	1.0422e-03
13.750	17.750	2.0689e-03
13.750	18.000	4.9988e-03
13.750	18.250	9.9919e-03
13.750	18.500	1.2366e-02
13.750	18.750	1.4886e-02
13.750	19.000	1.4782e-02
13.750	19.250	1.4706e-02
13.750	19.500	1.4680e-02
13.750	19.750	1.4692e-02
13.750	20.000	1.4723e-02
13.750	20.250	1.4767e-02
13.750	20.500	1.4824e-02
13.750	20.750	1.4900e-02
13.750	21.000	1.5010e-02
13.750	21.250	1.5197e-02
13.750	21.500	1.5517e-02
13.750	21.750	1.6103e-02
13.750	22.000	1.7238e-02
13.750	22.250	1.9773e-02
13.750	22.500	2.5264e-02
13.750	22.750	3.2114e-02
13.750	23.000	3.5494e-02
13.750	23.250	3.7892e-02
13.750	23.500	3.9994e-02
13.750	23.750	4.1634e-02
13.750	24.000	4.2163e-02
14.000	17.000	1.4329e-04
14.000	17.250	2.8165e-04
14.000	17.500	6.3202e-04
14.000	17.750	1.2698e-03
14.000	18.000	2.5751e-03
14.000	18.250	5.9549e-03
14.000	18.500	1.0611e-02
14.000	18.750	1.3732e-02
14.000	19.000	1.4848e-02
14.000	19.250	1.4741e-02
14.000	19.500	1.4663e-02
14.000	19.750	1.4634e-02
14.000	20.000	1.4635e-02
14.000	20.250	1.4646e-02
14.000	20.500	1.4656e-02
14.000	20.750	1.4660e-02
14.000	21.000	1.4656e-02
14.000	21.250	1.4649e-02
14.000	21.500	1.4668e-02
14.000	21.750	1.4750e-02
14.000	22.000	1.4985e-02
14.000	22.250	1.5803e-02
14.000	22.500	1.8642e-02
14.000	22.750	2.5543e-02
14.000	23.000	3.2441e-02
14.000	23.250	3.5512e-02
14.000	23.500	3.7802e-02
14.000	23.750	3.9971e-02
14.000	24.000	4.1506e-02
