InwT 1113.22A  relative to Inci 1215.00A scaled to 1215A.
Hden   Phi(H)  Eq_Width (A)
 7.000	17.000	6.2852e-02
 7.000	17.250	6.1610e-02
 7.000	17.500	6.1031e-02
 7.000	17.750	5.5839e-02
 7.000	18.000	5.1367e-02
 7.000	18.250	4.8235e-02
 7.000	18.500	4.6215e-02
 7.000	18.750	4.5235e-02
 7.000	19.000	4.4725e-02
 7.000	19.250	4.4433e-02
 7.000	19.500	4.4310e-02
 7.000	19.750	4.4258e-02
 7.000	20.000	4.4235e-02
 7.000	20.250	4.4225e-02
 7.000	20.500	4.4219e-02
 7.000	20.750	4.4217e-02
 7.000	21.000	4.4215e-02
 7.000	21.250	4.4215e-02
 7.000	21.500	4.4214e-02
 7.000	21.750	4.4214e-02
 7.000	22.000	4.4215e-02
 7.000	22.250	4.4215e-02
 7.000	22.500	4.4215e-02
 7.000	22.750	4.4216e-02
 7.000	23.000	4.4216e-02
 7.000	23.250	4.4216e-02
 7.000	23.500	4.4216e-02
 7.000	23.750	4.4216e-02
 7.000	24.000	4.4216e-02
 7.250	17.000	9.0491e-02
 7.250	17.250	6.1359e-02
 7.250	17.500	6.1173e-02
 7.250	17.750	6.0873e-02
 7.250	18.000	5.5760e-02
 7.250	18.250	5.1325e-02
 7.250	18.500	4.8213e-02
 7.250	18.750	4.6207e-02
 7.250	19.000	4.5232e-02
 7.250	19.250	4.4724e-02
 7.250	19.500	4.4433e-02
 7.250	19.750	4.4310e-02
 7.250	20.000	4.4258e-02
 7.250	20.250	4.4235e-02
 7.250	20.500	4.4225e-02
 7.250	20.750	4.4219e-02
 7.250	21.000	4.4216e-02
 7.250	21.250	4.4215e-02
 7.250	21.500	4.4214e-02
 7.250	21.750	4.4214e-02
 7.250	22.000	4.4214e-02
 7.250	22.250	4.4214e-02
 7.250	22.500	4.4214e-02
 7.250	22.750	4.4214e-02
 7.250	23.000	4.4214e-02
 7.250	23.250	4.4214e-02
 7.250	23.500	4.4214e-02
 7.250	23.750	4.4214e-02
 7.250	24.000	4.4215e-02
 7.500	17.000	1.1349e-01
 7.500	17.250	8.7720e-02
 7.500	17.500	5.9971e-02
 7.500	17.750	6.0853e-02
 7.500	18.000	6.0792e-02
 7.500	18.250	5.5721e-02
 7.500	18.500	5.1300e-02
 7.500	18.750	4.8200e-02
 7.500	19.000	4.6202e-02
 7.500	19.250	4.5230e-02
 7.500	19.500	4.4723e-02
 7.500	19.750	4.4433e-02
 7.500	20.000	4.4310e-02
 7.500	20.250	4.4258e-02
 7.500	20.500	4.4235e-02
 7.500	20.750	4.4225e-02
 7.500	21.000	4.4219e-02
 7.500	21.250	4.4216e-02
 7.500	21.500	4.4215e-02
 7.500	21.750	4.4214e-02
 7.500	22.000	4.4214e-02
 7.500	22.250	4.4213e-02
 7.500	22.500	4.4213e-02
 7.500	22.750	4.4213e-02
 7.500	23.000	4.4213e-02
 7.500	23.250	4.4213e-02
 7.500	23.500	4.4216e-02
 7.500	23.750	4.4213e-02
 7.500	24.000	4.4213e-02
 7.750	17.000	1.3331e-01
 7.750	17.250	1.1019e-01
 7.750	17.500	8.5355e-02
 7.750	17.750	5.8835e-02
 7.750	18.000	6.0608e-02
 7.750	18.250	6.0757e-02
 7.750	18.500	5.5708e-02
 7.750	18.750	5.1286e-02
 7.750	19.000	4.8193e-02
 7.750	19.250	4.6199e-02
 7.750	19.500	4.5229e-02
 7.750	19.750	4.4723e-02
 7.750	20.000	4.4433e-02
 7.750	20.250	4.4310e-02
 7.750	20.500	4.4258e-02
 7.750	20.750	4.4235e-02
 7.750	21.000	4.4225e-02
 7.750	21.250	4.4219e-02
 7.750	21.500	4.4216e-02
 7.750	21.750	4.4215e-02
 7.750	22.000	4.4214e-02
 7.750	22.250	4.4214e-02
 7.750	22.500	4.4213e-02
 7.750	22.750	4.4213e-02
 7.750	23.000	4.4213e-02
 7.750	23.250	4.4213e-02
 7.750	23.500	4.4213e-02
 7.750	23.750	4.4213e-02
 7.750	24.000	4.4213e-02
 8.000	17.000	1.4788e-01
 8.000	17.250	1.3048e-01
 8.000	17.500	1.0731e-01
 8.000	17.750	8.3644e-02
 8.000	18.000	5.8341e-02
 8.000	18.250	6.0422e-02
 8.000	18.500	6.0752e-02
 8.000	18.750	5.5713e-02
 8.000	19.000	5.1280e-02
 8.000	19.250	4.8188e-02
 8.000	19.500	4.6197e-02
 8.000	19.750	4.5228e-02
 8.000	20.000	4.4723e-02
 8.000	20.250	4.4433e-02
 8.000	20.500	4.4310e-02
 8.000	20.750	4.4258e-02
 8.000	21.000	4.4235e-02
 8.000	21.250	4.4225e-02
 8.000	21.500	4.4219e-02
 8.000	21.750	4.4216e-02
 8.000	22.000	4.4215e-02
 8.000	22.250	4.4214e-02
 8.000	22.500	4.4214e-02
 8.000	22.750	4.4213e-02
 8.000	23.000	4.4213e-02
 8.000	23.250	4.4214e-02
 8.000	23.500	4.4213e-02
 8.000	23.750	4.4213e-02
 8.000	24.000	4.4213e-02
 8.250	17.000	1.5709e-01
 8.250	17.250	1.4546e-01
 8.250	17.500	1.2765e-01
 8.250	17.750	1.0424e-01
 8.250	18.000	8.1120e-02
 8.250	18.250	5.7617e-02
 8.250	18.500	6.0329e-02
 8.250	18.750	6.0765e-02
 8.250	19.000	5.5730e-02
 8.250	19.250	5.1279e-02
 8.250	19.500	4.8184e-02
 8.250	19.750	4.6196e-02
 8.250	20.000	4.5228e-02
 8.250	20.250	4.4722e-02
 8.250	20.500	4.4433e-02
 8.250	20.750	4.4310e-02
 8.250	21.000	4.4258e-02
 8.250	21.250	4.4235e-02
 8.250	21.500	4.4225e-02
 8.250	21.750	4.4219e-02
 8.250	22.000	4.4216e-02
 8.250	22.250	4.4215e-02
 8.250	22.500	4.4214e-02
 8.250	22.750	4.4213e-02
 8.250	23.000	4.4213e-02
 8.250	23.250	4.4213e-02
 8.250	23.500	4.4213e-02
 8.250	23.750	4.4213e-02
 8.250	24.000	4.4213e-02
 8.500	17.000	1.6292e-01
 8.500	17.250	1.5517e-01
 8.500	17.500	1.4312e-01
 8.500	17.750	1.2434e-01
 8.500	18.000	1.0007e-01
 8.500	18.250	7.7962e-02
 8.500	18.500	5.6854e-02
 8.500	18.750	6.0281e-02
 8.500	19.000	6.0790e-02
 8.500	19.250	5.5755e-02
 8.500	19.500	5.1280e-02
 8.500	19.750	4.8183e-02
 8.500	20.000	4.6195e-02
 8.500	20.250	4.5228e-02
 8.500	20.500	4.4722e-02
 8.500	20.750	4.4433e-02
 8.500	21.000	4.4310e-02
 8.500	21.250	4.4258e-02
 8.500	21.500	4.4235e-02
 8.500	21.750	4.4225e-02
 8.500	22.000	4.4219e-02
 8.500	22.250	4.4216e-02
 8.500	22.500	4.4215e-02
 8.500	22.750	4.4214e-02
 8.500	23.000	4.4213e-02
 8.500	23.250	4.4213e-02
 8.500	23.500	4.4213e-02
 8.500	23.750	4.4213e-02
 8.500	24.000	4.4213e-02
 8.750	17.000	1.6668e-01
 8.750	17.250	1.6143e-01
 8.750	17.500	1.5325e-01
 8.750	17.750	1.4010e-01
 8.750	18.000	1.1966e-01
 8.750	18.250	9.4072e-02
 8.750	18.500	7.2331e-02
 8.750	18.750	5.6398e-02
 8.750	19.000	6.0259e-02
 8.750	19.250	6.0819e-02
 8.750	19.500	5.5787e-02
 8.750	19.750	5.1283e-02
 8.750	20.000	4.8181e-02
 8.750	20.250	4.6194e-02
 8.750	20.500	4.5227e-02
 8.750	20.750	4.4722e-02
 8.750	21.000	4.4433e-02
 8.750	21.250	4.4310e-02
 8.750	21.500	4.4258e-02
 8.750	21.750	4.4235e-02
 8.750	22.000	4.4225e-02
 8.750	22.250	4.4219e-02
 8.750	22.500	4.4216e-02
 8.750	22.750	4.4215e-02
 8.750	23.000	4.4214e-02
 8.750	23.250	4.4214e-02
 8.750	23.500	4.4213e-02
 8.750	23.750	4.4213e-02
 8.750	24.000	4.4213e-02
 9.000	17.000	1.6907e-01
 9.000	17.250	1.6552e-01
 9.000	17.500	1.5985e-01
 9.000	17.750	1.5074e-01
 9.000	18.000	1.3566e-01
 9.000	18.250	1.1239e-01
 9.000	18.500	8.6150e-02
 9.000	18.750	6.8461e-02
 9.000	19.000	5.6217e-02
 9.000	19.250	6.0234e-02
 9.000	19.500	6.0845e-02
 9.000	19.750	5.5821e-02
 9.000	20.000	5.1286e-02
 9.000	20.250	4.8180e-02
 9.000	20.500	4.6194e-02
 9.000	20.750	4.5227e-02
 9.000	21.000	4.4722e-02
 9.000	21.250	4.4433e-02
 9.000	21.500	4.4310e-02
 9.000	21.750	4.4258e-02
 9.000	22.000	4.4235e-02
 9.000	22.250	4.4225e-02
 9.000	22.500	4.4219e-02
 9.000	22.750	4.4216e-02
 9.000	23.000	4.4215e-02
 9.000	23.250	4.4214e-02
 9.000	23.500	4.4213e-02
 9.000	23.750	4.4213e-02
 9.000	24.000	4.4213e-02
 9.250	17.000	1.7047e-01
 9.250	17.250	1.6813e-01
 9.250	17.500	1.6420e-01
 9.250	17.750	1.5763e-01
 9.250	18.000	1.4649e-01
 9.250	18.250	1.2850e-01
 9.250	18.500	1.0318e-01
 9.250	18.750	7.7626e-02
 9.250	19.000	6.1786e-02
 9.250	19.250	5.6031e-02
 9.250	19.500	6.0192e-02
 9.250	19.750	6.0864e-02
 9.250	20.000	5.5852e-02
 9.250	20.250	5.1290e-02
 9.250	20.500	4.8179e-02
 9.250	20.750	4.6193e-02
 9.250	21.000	4.5227e-02
 9.250	21.250	4.4722e-02
 9.250	21.500	4.4424e-02
 9.250	21.750	4.4297e-02
 9.250	22.000	4.4244e-02
 9.250	22.250	4.4222e-02
 9.250	22.500	4.4224e-02
 9.250	22.750	4.4219e-02
 9.250	23.000	4.4216e-02
 9.250	23.250	4.4215e-02
 9.250	23.500	4.4214e-02
 9.250	23.750	4.4214e-02
 9.250	24.000	4.4213e-02
 9.500	17.000	1.7111e-01
 9.500	17.250	1.6965e-01
 9.500	17.500	1.6698e-01
 9.500	17.750	1.6221e-01
 9.500	18.000	1.5378e-01
 9.500	18.250	1.4005e-01
 9.500	18.500	1.1957e-01
 9.500	18.750	9.3668e-02
 9.500	19.000	7.1453e-02
 9.500	19.250	5.7123e-02
 9.500	19.500	5.5833e-02
 9.500	19.750	6.0113e-02
 9.500	20.000	6.0869e-02
 9.500	20.250	5.5877e-02
 9.500	20.500	5.1293e-02
 9.500	20.750	4.8177e-02
 9.500	21.000	4.6183e-02
 9.500	21.250	4.5214e-02
 9.500	21.500	4.4709e-02
 9.500	21.750	4.4416e-02
 9.500	22.000	4.4286e-02
 9.500	22.250	4.4235e-02
 9.500	22.500	4.4212e-02
 9.500	22.750	4.4200e-02
 9.500	23.000	4.4195e-02
 9.500	23.250	4.4193e-02
 9.500	23.500	4.4197e-02
 9.500	23.750	4.4196e-02
 9.500	24.000	4.4195e-02
 9.750	17.000	1.7121e-01
 9.750	17.250	1.7036e-01
 9.750	17.500	1.6861e-01
 9.750	17.750	1.6518e-01
 9.750	18.000	1.5882e-01
 9.750	18.250	1.4802e-01
 9.750	18.500	1.3205e-01
 9.750	18.750	1.1048e-01
 9.750	19.000	8.5356e-02
 9.750	19.250	6.4965e-02
 9.750	19.500	5.2944e-02
 9.750	19.750	5.5689e-02
 9.750	20.000	6.0014e-02
 9.750	20.250	6.0857e-02
 9.750	20.500	5.5896e-02
 9.750	20.750	5.1296e-02
 9.750	21.000	4.8177e-02
 9.750	21.250	4.6189e-02
 9.750	21.500	4.5217e-02
 9.750	21.750	4.4709e-02
 9.750	22.000	4.4418e-02
 9.750	22.250	4.4290e-02
 9.750	22.500	4.4234e-02
 9.750	22.750	4.4212e-02
 9.750	23.000	4.4202e-02
 9.750	23.250	4.4196e-02
 9.750	23.500	4.4193e-02
 9.750	23.750	4.4191e-02
 9.750	24.000	4.4190e-02
10.000	17.000	1.7093e-01
10.000	17.250	1.7047e-01
10.000	17.500	1.6935e-01
10.000	17.750	1.6689e-01
10.000	18.000	1.6200e-01
10.000	18.250	1.5356e-01
10.000	18.500	1.4108e-01
10.000	18.750	1.2410e-01
10.000	19.000	1.0186e-01
10.000	19.250	7.8437e-02
10.000	19.500	5.8460e-02
10.000	19.750	5.3102e-02
10.000	20.000	5.5663e-02
10.000	20.250	5.9901e-02
10.000	20.500	6.0833e-02
10.000	20.750	5.5909e-02
10.000	21.000	5.1298e-02
10.000	21.250	4.8177e-02
10.000	21.500	4.6191e-02
10.000	21.750	4.5223e-02
10.000	22.000	4.4710e-02
10.000	22.250	4.4419e-02
10.000	22.500	4.4293e-02
10.000	22.750	4.4236e-02
10.000	23.000	4.4211e-02
10.000	23.250	4.4201e-02
10.000	23.500	4.4196e-02
10.000	23.750	4.4193e-02
10.000	24.000	4.4192e-02
10.250	17.000	1.7044e-01
10.250	17.250	1.7018e-01
10.250	17.500	1.6944e-01
10.250	17.750	1.6763e-01
10.250	18.000	1.6381e-01
10.250	18.250	1.5726e-01
10.250	18.500	1.4766e-01
10.250	18.750	1.3429e-01
10.250	19.000	1.1663e-01
10.250	19.250	9.5273e-02
10.250	19.500	7.2725e-02
10.250	19.750	5.4930e-02
10.250	20.000	5.3000e-02
10.250	20.250	5.5769e-02
10.250	20.500	5.9918e-02
10.250	20.750	6.0813e-02
10.250	21.000	5.5916e-02
10.250	21.250	5.1300e-02
10.250	21.500	4.8176e-02
10.250	21.750	4.6191e-02
10.250	22.000	4.5226e-02
10.250	22.250	4.4715e-02
10.250	22.500	4.4419e-02
10.250	22.750	4.4295e-02
10.250	23.000	4.4239e-02
10.250	23.250	4.4214e-02
10.250	23.500	4.4201e-02
10.250	23.750	4.4195e-02
10.250	24.000	4.4192e-02
10.500	17.000	1.6973e-01
10.500	17.250	1.6963e-01
10.500	17.500	1.6907e-01
10.500	17.750	1.6761e-01
10.500	18.000	1.6453e-01
10.500	18.250	1.5935e-01
10.500	18.500	1.5210e-01
10.500	18.750	1.4197e-01
10.500	19.000	1.2890e-01
10.500	19.250	1.1238e-01
10.500	19.500	9.1777e-02
10.500	19.750	6.8856e-02
10.500	20.000	5.2156e-02
10.500	20.250	5.3473e-02
10.500	20.500	5.6186e-02
10.500	20.750	6.0150e-02
10.500	21.000	6.0815e-02
10.500	21.250	5.5919e-02
10.500	21.500	5.1301e-02
10.500	21.750	4.8176e-02
10.500	22.000	4.6191e-02
10.500	22.250	4.5227e-02
10.500	22.500	4.4720e-02
10.500	22.750	4.4420e-02
10.500	23.000	4.4296e-02
10.500	23.250	4.4242e-02
10.500	23.500	4.4217e-02
10.500	23.750	4.4205e-02
10.500	24.000	4.4198e-02
10.750	17.000	1.6870e-01
10.750	17.250	1.6881e-01
10.750	17.500	1.6837e-01
10.750	17.750	1.6701e-01
10.750	18.000	1.6436e-01
10.750	18.250	1.6030e-01
10.750	18.500	1.5483e-01
10.750	18.750	1.4759e-01
10.750	19.000	1.3832e-01
10.750	19.250	1.2603e-01
10.750	19.500	1.0955e-01
10.750	19.750	8.8427e-02
10.750	20.000	6.4686e-02
10.750	20.250	5.1090e-02
10.750	20.500	5.4092e-02
10.750	20.750	5.6835e-02
10.750	21.000	6.0706e-02
10.750	21.250	6.0878e-02
10.750	21.500	5.5919e-02
10.750	21.750	5.1300e-02
10.750	22.000	4.8176e-02
10.750	22.250	4.6191e-02
10.750	22.500	4.5227e-02
10.750	22.750	4.4722e-02
10.750	23.000	4.4422e-02
10.750	23.250	4.4297e-02
10.750	23.500	4.4243e-02
10.750	23.750	4.4219e-02
10.750	24.000	4.4207e-02
11.000	17.000	1.6713e-01
11.000	17.250	1.6761e-01
11.000	17.500	1.6728e-01
11.000	17.750	1.6594e-01
11.000	18.000	1.6349e-01
11.000	18.250	1.6015e-01
11.000	18.500	1.5598e-01
11.000	18.750	1.5092e-01
11.000	19.000	1.4468e-01
11.000	19.250	1.3603e-01
11.000	19.500	1.2373e-01
11.000	19.750	1.0678e-01
11.000	20.000	8.4956e-02
11.000	20.250	6.0597e-02
11.000	20.500	5.1968e-02
11.000	20.750	5.4959e-02
11.000	21.000	5.8030e-02
11.000	21.250	6.1841e-02
11.000	21.500	6.1022e-02
11.000	21.750	5.5924e-02
11.000	22.000	5.1299e-02
11.000	22.250	4.8176e-02
11.000	22.500	4.6190e-02
11.000	22.750	4.5227e-02
11.000	23.000	4.4722e-02
11.000	23.250	4.4428e-02
11.000	23.500	4.4297e-02
11.000	23.750	4.4244e-02
11.000	24.000	4.4221e-02
11.250	17.000	1.6477e-01
11.250	17.250	1.6577e-01
11.250	17.500	1.6564e-01
11.250	17.750	1.6430e-01
11.250	18.000	1.6192e-01
11.250	18.250	1.5897e-01
11.250	18.500	1.5582e-01
11.250	18.750	1.5247e-01
11.250	19.000	1.4843e-01
11.250	19.250	1.4253e-01
11.250	19.500	1.3395e-01
11.250	19.750	1.2148e-01
11.250	20.000	1.0419e-01
11.250	20.250	8.1546e-02
11.250	20.500	5.6757e-02
11.250	20.750	5.2665e-02
11.250	21.000	5.6354e-02
11.250	21.250	5.9884e-02
11.250	21.500	6.3736e-02
11.250	21.750	6.1284e-02
11.250	22.000	5.5939e-02
11.250	22.250	5.1296e-02
11.250	22.500	4.8176e-02
11.250	22.750	4.6189e-02
11.250	23.000	4.5227e-02
11.250	23.250	4.4723e-02
11.250	23.500	4.4431e-02
11.250	23.750	4.4299e-02
11.250	24.000	4.4245e-02
11.500	17.000	1.6159e-01
11.500	17.250	1.6297e-01
11.500	17.500	1.6315e-01
11.500	17.750	1.6184e-01
11.500	18.000	1.5943e-01
11.500	18.250	1.5669e-01
11.500	18.500	1.5433e-01
11.500	18.750	1.5210e-01
11.500	19.000	1.4960e-01
11.500	19.250	1.4594e-01
11.500	19.500	1.4034e-01
11.500	19.750	1.3183e-01
11.500	20.000	1.1940e-01
11.500	20.250	1.0157e-01
11.500	20.500	7.8156e-02
11.500	20.750	5.4180e-02
11.500	21.000	5.4168e-02
11.500	21.250	5.8801e-02
11.500	21.500	6.2958e-02
11.500	21.750	6.6334e-02
11.500	22.000	6.1616e-02
11.500	22.250	5.5972e-02
11.500	22.500	5.1293e-02
11.500	22.750	4.8176e-02
11.500	23.000	4.6188e-02
11.500	23.250	4.5227e-02
11.500	23.500	4.4723e-02
11.500	23.750	4.4432e-02
11.500	24.000	4.4305e-02
11.750	17.000	1.5761e-01
11.750	17.250	1.5901e-01
11.750	17.500	1.5939e-01
11.750	17.750	1.5811e-01
11.750	18.000	1.5563e-01
11.750	18.250	1.5322e-01
11.750	18.500	1.5149e-01
11.750	18.750	1.5002e-01
11.750	19.000	1.4842e-01
11.750	19.250	1.4632e-01
11.750	19.500	1.4303e-01
11.750	19.750	1.3779e-01
11.750	20.000	1.2975e-01
11.750	20.250	1.1737e-01
11.750	20.500	9.8989e-02
11.750	20.750	7.4770e-02
11.750	21.000	5.1235e-02
11.750	21.250	5.6550e-02
11.750	21.500	6.2262e-02
11.750	21.750	6.7096e-02
11.750	22.000	6.8578e-02
11.750	22.250	6.1965e-02
11.750	22.500	5.6023e-02
11.750	22.750	5.1289e-02
11.750	23.000	4.8176e-02
11.750	23.250	4.6187e-02
11.750	23.500	4.5227e-02
11.750	23.750	4.4723e-02
11.750	24.000	4.4433e-02
12.000	17.000	1.5243e-01
12.000	17.250	1.5378e-01
12.000	17.500	1.5393e-01
12.000	17.750	1.5256e-01
12.000	18.000	1.5023e-01
12.000	18.250	1.4842e-01
12.000	18.500	1.4715e-01
12.000	18.750	1.4612e-01
12.000	19.000	1.4512e-01
12.000	19.250	1.4412e-01
12.000	19.500	1.4257e-01
12.000	19.750	1.4003e-01
12.000	20.000	1.3557e-01
12.000	20.250	1.2788e-01
12.000	20.500	1.1546e-01
12.000	20.750	9.6462e-02
12.000	21.000	7.1841e-02
12.000	21.250	5.4349e-02
12.000	21.500	5.9966e-02
12.000	21.750	6.7002e-02
12.000	22.000	7.1633e-02
12.000	22.250	6.9993e-02
12.000	22.500	6.2370e-02
12.000	22.750	5.6091e-02
12.000	23.000	5.1284e-02
12.000	23.250	4.8177e-02
12.000	23.500	4.6186e-02
12.000	23.750	4.5226e-02
12.000	24.000	4.4723e-02
12.250	17.000	1.4430e-01
12.250	17.250	1.4638e-01
12.250	17.500	1.4628e-01
12.250	17.750	1.4484e-01
12.250	18.000	1.4316e-01
12.250	18.250	1.4192e-01
12.250	18.500	1.4128e-01
12.250	18.750	1.4077e-01
12.250	19.000	1.4038e-01
12.250	19.250	1.4018e-01
12.250	19.500	1.3996e-01
12.250	19.750	1.3927e-01
12.250	20.000	1.3752e-01
12.250	20.250	1.3351e-01
12.250	20.500	1.2618e-01
12.250	20.750	1.1362e-01
12.250	21.000	9.4237e-02
12.250	21.250	6.9671e-02
12.250	21.500	5.7322e-02
12.250	21.750	6.4577e-02
12.250	22.000	7.2686e-02
12.250	22.250	7.6309e-02
12.250	22.500	7.1326e-02
12.250	22.750	6.2790e-02
12.250	23.000	5.6161e-02
12.250	23.250	5.1278e-02
12.250	23.500	4.8177e-02
12.250	23.750	4.6184e-02
12.250	24.000	4.5225e-02
12.500	17.000	1.1356e-01
12.500	17.250	1.3600e-01
12.500	17.500	1.3639e-01
12.500	17.750	1.3539e-01
12.500	18.000	1.3443e-01
12.500	18.250	1.3406e-01
12.500	18.500	1.3403e-01
12.500	18.750	1.3437e-01
12.500	19.000	1.3490e-01
12.500	19.250	1.3552e-01
12.500	19.500	1.3618e-01
12.500	19.750	1.3672e-01
12.500	20.000	1.3663e-01
12.500	20.250	1.3524e-01
12.500	20.500	1.3170e-01
12.500	20.750	1.2457e-01
12.500	21.000	1.1210e-01
12.500	21.250	9.2641e-02
12.500	21.500	6.9853e-02
12.500	21.750	6.2262e-02
12.500	22.000	7.0539e-02
12.500	22.250	7.9016e-02
12.500	22.500	8.0313e-02
12.500	22.750	7.2671e-02
12.500	23.000	6.3261e-02
12.500	23.250	5.6227e-02
12.500	23.500	5.1271e-02
12.500	23.750	4.8175e-02
12.500	24.000	4.6181e-02
12.750	17.000	7.0760e-02
12.750	17.250	1.1290e-01
12.750	17.500	1.2505e-01
12.750	17.750	1.2463e-01
12.750	18.000	1.2364e-01
12.750	18.250	1.2395e-01
12.750	18.500	1.2525e-01
12.750	18.750	1.2686e-01
12.750	19.000	1.2861e-01
12.750	19.250	1.3024e-01
12.750	19.500	1.3178e-01
12.750	19.750	1.3311e-01
12.750	20.000	1.3408e-01
12.750	20.250	1.3428e-01
12.750	20.500	1.3323e-01
12.750	20.750	1.2992e-01
12.750	21.000	1.2302e-01
12.750	21.250	1.1075e-01
12.750	21.500	9.2175e-02
12.750	21.750	7.0118e-02
12.750	22.000	6.8397e-02
12.750	22.250	7.7388e-02
12.750	22.500	8.5743e-02
12.750	22.750	8.3920e-02
12.750	23.000	7.3834e-02
12.750	23.250	6.3730e-02
12.750	23.500	5.6322e-02
12.750	23.750	5.1267e-02
12.750	24.000	4.8172e-02
13.000	17.000	1.7856e-02
13.000	17.250	3.3988e-02
13.000	17.500	8.4572e-02
13.000	17.750	1.0884e-01
13.000	18.000	1.1105e-01
13.000	18.250	1.1230e-01
13.000	18.500	1.1470e-01
13.000	18.750	1.1784e-01
13.000	19.000	1.2111e-01
13.000	19.250	1.2413e-01
13.000	19.500	1.2662e-01
13.000	19.750	1.2874e-01
13.000	20.000	1.3041e-01
13.000	20.250	1.3156e-01
13.000	20.500	1.3194e-01
13.000	20.750	1.3109e-01
13.000	21.000	1.2791e-01
13.000	21.250	1.2155e-01
13.000	21.500	1.1043e-01
13.000	21.750	9.0407e-02
13.000	22.000	7.0828e-02
13.000	22.250	7.4961e-02
13.000	22.500	8.4506e-02
13.000	22.750	9.1372e-02
13.000	23.000	8.7102e-02
13.000	23.250	7.5164e-02
13.000	23.500	6.4286e-02
13.000	23.750	5.6399e-02
13.000	24.000	5.1260e-02
13.250	17.000	1.3345e-02
13.250	17.250	1.9785e-02
13.250	17.500	3.7699e-02
13.250	17.750	6.6304e-02
13.250	18.000	8.5327e-02
13.250	18.250	9.9746e-02
13.250	18.500	1.0278e-01
13.250	18.750	1.0692e-01
13.250	19.000	1.1182e-01
13.250	19.250	1.1641e-01
13.250	19.500	1.2037e-01
13.250	19.750	1.2351e-01
13.250	20.000	1.2593e-01
13.250	20.250	1.2773e-01
13.250	20.500	1.2888e-01
13.250	20.750	1.2933e-01
13.250	21.000	1.2846e-01
13.250	21.250	1.2532e-01
13.250	21.500	1.1878e-01
13.250	21.750	1.0564e-01
13.250	22.000	8.6636e-02
13.250	22.250	7.3138e-02
13.250	22.500	8.1009e-02
13.250	22.750	9.0153e-02
13.250	23.000	9.5697e-02
13.250	23.250	9.0307e-02
13.250	23.500	7.6350e-02
13.250	23.750	6.4660e-02
13.250	24.000	5.6412e-02
13.500	17.000	1.0638e-02
13.500	17.250	1.5290e-02
13.500	17.500	2.5748e-02
13.500	17.750	4.2900e-02
13.500	18.000	6.6024e-02
13.500	18.250	7.8873e-02
13.500	18.500	9.0090e-02
13.500	18.750	9.4872e-02
13.500	19.000	1.0057e-01
13.500	19.250	1.0666e-01
13.500	19.500	1.1221e-01
13.500	19.750	1.1686e-01
13.500	20.000	1.2045e-01
13.500	20.250	1.2308e-01
13.500	20.500	1.2486e-01
13.500	20.750	1.2591e-01
13.500	21.000	1.2585e-01
13.500	21.250	1.2459e-01
13.500	21.500	1.2079e-01
13.500	21.750	1.1256e-01
13.500	22.000	9.8747e-02
13.500	22.250	8.1200e-02
13.500	22.500	7.6818e-02
13.500	22.750	8.7645e-02
13.500	23.000	9.6267e-02
13.500	23.250	1.0061e-01
13.500	23.500	9.3598e-02
13.500	23.750	7.7475e-02
13.500	24.000	6.4956e-02
13.750	17.000	9.1002e-03
13.750	17.250	1.2454e-02
13.750	17.500	1.9220e-02
13.750	17.750	2.8466e-02
13.750	18.000	4.5548e-02
13.750	18.250	6.2901e-02
13.750	18.500	7.1928e-02
13.750	18.750	8.2098e-02
13.750	19.000	8.8208e-02
13.750	19.250	9.4979e-02
13.750	19.500	1.0195e-01
13.750	19.750	1.0820e-01
13.750	20.000	1.1333e-01
13.750	20.250	1.1729e-01
13.750	20.500	1.2013e-01
13.750	20.750	1.2181e-01
13.750	21.000	1.2244e-01
13.750	21.250	1.2160e-01
13.750	21.500	1.1969e-01
13.750	21.750	1.1363e-01
13.750	22.000	1.0299e-01
13.750	22.250	8.8597e-02
13.750	22.500	7.7889e-02
13.750	22.750	8.5894e-02
13.750	23.000	9.6161e-02
13.750	23.250	1.0423e-01
13.750	23.500	1.0623e-01
13.750	23.750	9.6852e-02
13.750	24.000	7.8432e-02
14.000	17.000	8.1262e-03
14.000	17.250	1.0349e-02
14.000	17.500	1.5311e-02
14.000	17.750	2.1882e-02
14.000	18.000	3.0918e-02
14.000	18.250	4.5145e-02
14.000	18.500	5.7802e-02
14.000	18.750	6.7501e-02
14.000	19.000	7.5530e-02
14.000	19.250	8.2418e-02
14.000	19.500	9.0016e-02
14.000	19.750	9.7570e-02
14.000	20.000	1.0422e-01
14.000	20.250	1.0974e-01
14.000	20.500	1.1395e-01
14.000	20.750	1.1690e-01
14.000	21.000	1.1844e-01
14.000	21.250	1.1843e-01
14.000	21.500	1.1731e-01
14.000	21.750	1.1286e-01
14.000	22.000	1.0421e-01
14.000	22.250	9.2538e-02
14.000	22.500	8.2095e-02
14.000	22.750	8.2384e-02
14.000	23.000	1.0061e-01
14.000	23.250	1.1057e-01
14.000	23.500	1.1585e-01
14.000	23.750	1.1370e-01
14.000	24.000	9.9569e-02
