InwC 511.948A  relative to Inci 1215.00A scaled to 1215A.
Hden   Phi(H)  Eq_Width (A)
 7.000	17.000	1.3522e-02
 7.000	17.250	2.5327e-02
 7.000	17.500	3.3698e-02
 7.000	17.750	3.7285e-02
 7.000	18.000	3.8648e-02
 7.000	18.250	3.9650e-02
 7.000	18.500	4.0343e-02
 7.000	18.750	4.0525e-02
 7.000	19.000	4.0602e-02
 7.000	19.250	4.0636e-02
 7.000	19.500	4.0643e-02
 7.000	19.750	4.0644e-02
 7.000	20.000	4.0645e-02
 7.000	20.250	4.0645e-02
 7.000	20.500	4.0645e-02
 7.000	20.750	4.0646e-02
 7.000	21.000	4.0646e-02
 7.000	21.250	4.0646e-02
 7.000	21.500	4.0646e-02
 7.000	21.750	4.0646e-02
 7.000	22.000	4.0647e-02
 7.000	22.250	4.0647e-02
 7.000	22.500	4.0647e-02
 7.000	22.750	4.0648e-02
 7.000	23.000	4.0648e-02
 7.000	23.250	4.0648e-02
 7.000	23.500	4.0648e-02
 7.000	23.750	4.0648e-02
 7.000	24.000	4.0648e-02
 7.250	17.000	6.9911e-03
 7.250	17.250	1.3599e-02
 7.250	17.500	2.5413e-02
 7.250	17.750	3.3755e-02
 7.250	18.000	3.7311e-02
 7.250	18.250	3.8655e-02
 7.250	18.500	3.9650e-02
 7.250	18.750	4.0343e-02
 7.250	19.000	4.0525e-02
 7.250	19.250	4.0602e-02
 7.250	19.500	4.0636e-02
 7.250	19.750	4.0643e-02
 7.250	20.000	4.0644e-02
 7.250	20.250	4.0645e-02
 7.250	20.500	4.0645e-02
 7.250	20.750	4.0645e-02
 7.250	21.000	4.0645e-02
 7.250	21.250	4.0645e-02
 7.250	21.500	4.0646e-02
 7.250	21.750	4.0646e-02
 7.250	22.000	4.0646e-02
 7.250	22.250	4.0646e-02
 7.250	22.500	4.0646e-02
 7.250	22.750	4.0646e-02
 7.250	23.000	4.0647e-02
 7.250	23.250	4.0647e-02
 7.250	23.500	4.0647e-02
 7.250	23.750	4.0647e-02
 7.250	24.000	4.0647e-02
 7.500	17.000	3.7409e-03
 7.500	17.250	7.0195e-03
 7.500	17.500	1.3658e-02
 7.500	17.750	2.5487e-02
 7.500	18.000	3.3813e-02
 7.500	18.250	3.7341e-02
 7.500	18.500	3.8665e-02
 7.500	18.750	3.9653e-02
 7.500	19.000	4.0344e-02
 7.500	19.250	4.0525e-02
 7.500	19.500	4.0602e-02
 7.500	19.750	4.0636e-02
 7.500	20.000	4.0643e-02
 7.500	20.250	4.0644e-02
 7.500	20.500	4.0645e-02
 7.500	20.750	4.0645e-02
 7.500	21.000	4.0645e-02
 7.500	21.250	4.0645e-02
 7.500	21.500	4.0645e-02
 7.500	21.750	4.0645e-02
 7.500	22.000	4.0645e-02
 7.500	22.250	4.0646e-02
 7.500	22.500	4.0646e-02
 7.500	22.750	4.0646e-02
 7.500	23.000	4.0646e-02
 7.500	23.250	4.0646e-02
 7.500	23.500	4.0648e-02
 7.500	23.750	4.0646e-02
 7.500	24.000	4.0646e-02
 7.750	17.000	2.0103e-03
 7.750	17.250	3.7523e-03
 7.750	17.500	7.0336e-03
 7.750	17.750	1.3702e-02
 7.750	18.000	2.5553e-02
 7.750	18.250	3.3873e-02
 7.750	18.500	3.7377e-02
 7.750	18.750	3.8677e-02
 7.750	19.000	3.9657e-02
 7.750	19.250	4.0344e-02
 7.750	19.500	4.0525e-02
 7.750	19.750	4.0602e-02
 7.750	20.000	4.0636e-02
 7.750	20.250	4.0643e-02
 7.750	20.500	4.0644e-02
 7.750	20.750	4.0645e-02
 7.750	21.000	4.0645e-02
 7.750	21.250	4.0645e-02
 7.750	21.500	4.0645e-02
 7.750	21.750	4.0645e-02
 7.750	22.000	4.0645e-02
 7.750	22.250	4.0645e-02
 7.750	22.500	4.0645e-02
 7.750	22.750	4.0645e-02
 7.750	23.000	4.0646e-02
 7.750	23.250	4.0645e-02
 7.750	23.500	4.0645e-02
 7.750	23.750	4.0646e-02
 7.750	24.000	4.0646e-02
 8.000	17.000	1.0736e-03
 8.000	17.250	2.0025e-03
 8.000	17.500	3.7361e-03
 8.000	17.750	7.0212e-03
 8.000	18.000	1.3679e-02
 8.000	18.250	2.5583e-02
 8.000	18.500	3.3938e-02
 8.000	18.750	3.7419e-02
 8.000	19.000	3.8692e-02
 8.000	19.250	3.9661e-02
 8.000	19.500	4.0345e-02
 8.000	19.750	4.0526e-02
 8.000	20.000	4.0602e-02
 8.000	20.250	4.0636e-02
 8.000	20.500	4.0643e-02
 8.000	20.750	4.0644e-02
 8.000	21.000	4.0645e-02
 8.000	21.250	4.0645e-02
 8.000	21.500	4.0645e-02
 8.000	21.750	4.0645e-02
 8.000	22.000	4.0645e-02
 8.000	22.250	4.0645e-02
 8.000	22.500	4.0645e-02
 8.000	22.750	4.0646e-02
 8.000	23.000	4.0645e-02
 8.000	23.250	4.0646e-02
 8.000	23.500	4.0645e-02
 8.000	23.750	4.0645e-02
 8.000	24.000	4.0645e-02
 8.250	17.000	5.7695e-04
 8.250	17.250	1.0742e-03
 8.250	17.500	2.0026e-03
 8.250	17.750	3.7376e-03
 8.250	18.000	7.0268e-03
 8.250	18.250	1.3696e-02
 8.250	18.500	2.5627e-02
 8.250	18.750	3.4010e-02
 8.250	19.000	3.7465e-02
 8.250	19.250	3.8710e-02
 8.250	19.500	3.9665e-02
 8.250	19.750	4.0347e-02
 8.250	20.000	4.0526e-02
 8.250	20.250	4.0602e-02
 8.250	20.500	4.0636e-02
 8.250	20.750	4.0643e-02
 8.250	21.000	4.0644e-02
 8.250	21.250	4.0645e-02
 8.250	21.500	4.0645e-02
 8.250	21.750	4.0645e-02
 8.250	22.000	4.0645e-02
 8.250	22.250	4.0645e-02
 8.250	22.500	4.0645e-02
 8.250	22.750	4.0645e-02
 8.250	23.000	4.0645e-02
 8.250	23.250	4.0645e-02
 8.250	23.500	4.0645e-02
 8.250	23.750	4.0645e-02
 8.250	24.000	4.0645e-02
 8.500	17.000	3.1095e-04
 8.500	17.250	5.7687e-04
 8.500	17.500	1.0746e-03
 8.500	17.750	2.0031e-03
 8.500	18.000	3.7441e-03
 8.500	18.250	7.0362e-03
 8.500	18.500	1.3725e-02
 8.500	18.750	2.5665e-02
 8.500	19.000	3.4085e-02
 8.500	19.250	3.7518e-02
 8.500	19.500	3.8730e-02
 8.500	19.750	3.9673e-02
 8.500	20.000	4.0348e-02
 8.500	20.250	4.0527e-02
 8.500	20.500	4.0602e-02
 8.500	20.750	4.0636e-02
 8.500	21.000	4.0643e-02
 8.500	21.250	4.0644e-02
 8.500	21.500	4.0645e-02
 8.500	21.750	4.0645e-02
 8.500	22.000	4.0645e-02
 8.500	22.250	4.0645e-02
 8.500	22.500	4.0645e-02
 8.500	22.750	4.0645e-02
 8.500	23.000	4.0645e-02
 8.500	23.250	4.0646e-02
 8.500	23.500	4.0645e-02
 8.500	23.750	4.0645e-02
 8.500	24.000	4.0645e-02
 8.750	17.000	1.6848e-04
 8.750	17.250	3.1078e-04
 8.750	17.500	5.7704e-04
 8.750	17.750	1.0760e-03
 8.750	18.000	2.0102e-03
 8.750	18.250	3.7640e-03
 8.750	18.500	7.0769e-03
 8.750	18.750	1.3802e-02
 8.750	19.000	2.5709e-02
 8.750	19.250	3.4163e-02
 8.750	19.500	3.7574e-02
 8.750	19.750	3.8753e-02
 8.750	20.000	3.9682e-02
 8.750	20.250	4.0351e-02
 8.750	20.500	4.0527e-02
 8.750	20.750	4.0603e-02
 8.750	21.000	4.0636e-02
 8.750	21.250	4.0643e-02
 8.750	21.500	4.0644e-02
 8.750	21.750	4.0645e-02
 8.750	22.000	4.0645e-02
 8.750	22.250	4.0645e-02
 8.750	22.500	4.0645e-02
 8.750	22.750	4.0645e-02
 8.750	23.000	4.0645e-02
 8.750	23.250	4.0645e-02
 8.750	23.500	4.0646e-02
 8.750	23.750	4.0646e-02
 8.750	24.000	4.0645e-02
 9.000	17.000	9.1605e-05
 9.000	17.250	1.6872e-04
 9.000	17.500	3.1144e-04
 9.000	17.750	5.7992e-04
 9.000	18.000	1.0837e-03
 9.000	18.250	2.0282e-03
 9.000	18.500	3.8001e-03
 9.000	18.750	7.1786e-03
 9.000	19.000	1.4011e-02
 9.000	19.250	2.5771e-02
 9.000	19.500	3.4241e-02
 9.000	19.750	3.7636e-02
 9.000	20.000	3.8776e-02
 9.000	20.250	3.9690e-02
 9.000	20.500	4.0353e-02
 9.000	20.750	4.0528e-02
 9.000	21.000	4.0603e-02
 9.000	21.250	4.0636e-02
 9.000	21.500	4.0643e-02
 9.000	21.750	4.0644e-02
 9.000	22.000	4.0645e-02
 9.000	22.250	4.0645e-02
 9.000	22.500	4.0645e-02
 9.000	22.750	4.0645e-02
 9.000	23.000	4.0645e-02
 9.000	23.250	4.0645e-02
 9.000	23.500	4.0645e-02
 9.000	23.750	4.0645e-02
 9.000	24.000	4.0646e-02
 9.250	17.000	4.9383e-05
 9.250	17.250	9.2016e-05
 9.250	17.500	1.7021e-04
 9.250	17.750	3.1539e-04
 9.250	18.000	5.8774e-04
 9.250	18.250	1.0996e-03
 9.250	18.500	2.0635e-03
 9.250	18.750	3.9027e-03
 9.250	19.000	7.4707e-03
 9.250	19.250	1.4519e-02
 9.250	19.500	2.5883e-02
 9.250	19.750	3.4316e-02
 9.250	20.000	3.7694e-02
 9.250	20.250	3.8801e-02
 9.250	20.500	3.9698e-02
 9.250	20.750	4.0356e-02
 9.250	21.000	4.0529e-02
 9.250	21.250	4.0603e-02
 9.250	21.500	4.0629e-02
 9.250	21.750	4.0631e-02
 9.250	22.000	4.0632e-02
 9.250	22.250	4.0633e-02
 9.250	22.500	4.0645e-02
 9.250	22.750	4.0645e-02
 9.250	23.000	4.0645e-02
 9.250	23.250	4.0645e-02
 9.250	23.500	4.0645e-02
 9.250	23.750	4.0645e-02
 9.250	24.000	4.0645e-02
 9.500	17.000	2.6255e-05
 9.500	17.250	4.9959e-05
 9.500	17.500	9.3827e-05
 9.500	17.750	1.7440e-04
 9.500	18.000	3.2313e-04
 9.500	18.250	6.0239e-04
 9.500	18.500	1.1323e-03
 9.500	18.750	2.1579e-03
 9.500	19.000	4.1611e-03
 9.500	19.250	8.1246e-03
 9.500	19.500	1.5532e-02
 9.500	19.750	2.6139e-02
 9.500	20.000	3.4389e-02
 9.500	20.250	3.7748e-02
 9.500	20.500	3.8825e-02
 9.500	20.750	3.9705e-02
 9.500	21.000	4.0347e-02
 9.500	21.250	4.0517e-02
 9.500	21.500	4.0591e-02
 9.500	21.750	4.0621e-02
 9.500	22.000	4.0621e-02
 9.500	22.250	4.0623e-02
 9.500	22.500	4.0623e-02
 9.500	22.750	4.0623e-02
 9.500	23.000	4.0623e-02
 9.500	23.250	4.0624e-02
 9.500	23.500	4.0629e-02
 9.500	23.750	4.0629e-02
 9.500	24.000	4.0629e-02
 9.750	17.000	1.3580e-05
 9.750	17.250	2.6749e-05
 9.750	17.500	5.1523e-05
 9.750	17.750	9.7613e-05
 9.750	18.000	1.8115e-04
 9.750	18.250	3.3630e-04
 9.750	18.500	6.3449e-04
 9.750	18.750	1.2209e-03
 9.750	19.000	2.3998e-03
 9.750	19.250	4.7537e-03
 9.750	19.500	9.3943e-03
 9.750	19.750	1.6956e-02
 9.750	20.000	2.6595e-02
 9.750	20.250	3.4469e-02
 9.750	20.500	3.7796e-02
 9.750	20.750	3.8849e-02
 9.750	21.000	3.9718e-02
 9.750	21.250	4.0358e-02
 9.750	21.500	4.0520e-02
 9.750	21.750	4.0592e-02
 9.750	22.000	4.0623e-02
 9.750	22.250	4.0624e-02
 9.750	22.500	4.0622e-02
 9.750	22.750	4.0624e-02
 9.750	23.000	4.0624e-02
 9.750	23.250	4.0624e-02
 9.750	23.500	4.0624e-02
 9.750	23.750	4.0623e-02
 9.750	24.000	4.0623e-02
10.000	17.000	6.5021e-06
10.000	17.250	1.3992e-05
10.000	17.500	2.7984e-05
10.000	17.750	5.4568e-05
10.000	18.000	1.0362e-04
10.000	18.250	1.9383e-04
10.000	18.500	3.6708e-04
10.000	18.750	7.1704e-04
10.000	19.000	1.4336e-03
10.000	19.250	2.8847e-03
10.000	19.500	5.7596e-03
10.000	19.750	1.0907e-02
10.000	20.000	1.8476e-02
10.000	20.250	2.7399e-02
10.000	20.500	3.4612e-02
10.000	20.750	3.7847e-02
10.000	21.000	3.8874e-02
10.000	21.250	3.9731e-02
10.000	21.500	4.0364e-02
10.000	21.750	4.0528e-02
10.000	22.000	4.0593e-02
10.000	22.250	4.0624e-02
10.000	22.500	4.0627e-02
10.000	22.750	4.0624e-02
10.000	23.000	4.0623e-02
10.000	23.250	4.0623e-02
10.000	23.500	4.0624e-02
10.000	23.750	4.0624e-02
10.000	24.000	4.0624e-02
10.250	17.000	3.2922e-06
10.250	17.250	6.8313e-06
10.250	17.500	1.4897e-05
10.250	17.750	3.0288e-05
10.250	18.000	5.9671e-05
10.250	18.250	1.1613e-04
10.250	18.500	2.2486e-04
10.250	18.750	4.4700e-04
10.250	19.000	9.0074e-04
10.250	19.250	1.8221e-03
10.250	19.500	3.6587e-03
10.250	19.750	7.2550e-03
10.250	20.000	1.3082e-02
10.250	20.250	2.0004e-02
10.250	20.500	2.8199e-02
10.250	20.750	3.4812e-02
10.250	21.000	3.7902e-02
10.250	21.250	3.8904e-02
10.250	21.500	3.9745e-02
10.250	21.750	4.0370e-02
10.250	22.000	4.0533e-02
10.250	22.250	4.0598e-02
10.250	22.500	4.0625e-02
10.250	22.750	4.0629e-02
10.250	23.000	4.0627e-02
10.250	23.250	4.0625e-02
10.250	23.500	4.0624e-02
10.250	23.750	4.0623e-02
10.250	24.000	4.0623e-02
10.500	17.000	1.6461e-06
10.500	17.250	3.4568e-06
10.500	17.500	7.4074e-06
10.500	17.750	1.6708e-05
10.500	18.000	3.4733e-05
10.500	18.250	7.1605e-05
10.500	18.500	1.4617e-04
10.500	18.750	2.9547e-04
10.500	19.000	5.9490e-04
10.500	19.250	1.1911e-03
10.500	19.500	2.3743e-03
10.500	19.750	4.6867e-03
10.500	20.000	9.1665e-03
10.500	20.250	1.4686e-02
10.500	20.500	2.1262e-02
10.500	20.750	2.9051e-02
10.500	21.000	3.5126e-02
10.500	21.250	3.7979e-02
10.500	21.500	3.8935e-02
10.500	21.750	3.9761e-02
10.500	22.000	4.0375e-02
10.500	22.250	4.0536e-02
10.500	22.500	4.0604e-02
10.500	22.750	4.0625e-02
10.500	23.000	4.0630e-02
10.500	23.250	4.0630e-02
10.500	23.500	4.0628e-02
10.500	23.750	4.0627e-02
10.500	24.000	4.0626e-02
10.750	17.000	9.0535e-07
10.750	17.250	1.8107e-06
10.750	17.500	3.8683e-06
10.750	17.750	8.9712e-06
10.750	18.000	2.0741e-05
10.750	18.250	4.5926e-05
10.750	18.500	9.7778e-05
10.750	18.750	2.0132e-04
10.750	19.000	4.0230e-04
10.750	19.250	7.9292e-04
10.750	19.500	1.5516e-03
10.750	19.750	3.0288e-03
10.750	20.000	5.8853e-03
10.750	20.250	1.1042e-02
10.750	20.500	1.6476e-02
10.750	20.750	2.2759e-02
10.750	21.000	2.9948e-02
10.750	21.250	3.5510e-02
10.750	21.500	3.8078e-02
10.750	21.750	3.8978e-02
10.750	22.000	3.9779e-02
10.750	22.250	4.0382e-02
10.750	22.500	4.0539e-02
10.750	22.750	4.0606e-02
10.750	23.000	4.0627e-02
10.750	23.250	4.0631e-02
10.750	23.500	4.0631e-02
10.750	23.750	4.0630e-02
10.750	24.000	4.0629e-02
11.000	17.000	1.0000e-07
11.000	17.250	9.8765e-07
11.000	17.500	2.0576e-06
11.000	17.750	4.9383e-06
11.000	18.000	1.2346e-05
11.000	18.250	2.9218e-05
11.000	18.500	6.4691e-05
11.000	18.750	1.3481e-04
11.000	19.000	2.6905e-04
11.000	19.250	5.2346e-04
11.000	19.500	1.0072e-03
11.000	19.750	1.9360e-03
11.000	20.000	3.7217e-03
11.000	20.250	7.1449e-03
11.000	20.500	1.2546e-02
11.000	20.750	1.8145e-02
11.000	21.000	2.3988e-02
11.000	21.250	3.0840e-02
11.000	21.500	3.5910e-02
11.000	21.750	3.8207e-02
11.000	22.000	3.9037e-02
11.000	22.250	3.9808e-02
11.000	22.500	4.0390e-02
11.000	22.750	4.0543e-02
11.000	23.000	4.0608e-02
11.000	23.250	4.0634e-02
11.000	23.500	4.0631e-02
11.000	23.750	4.0632e-02
11.000	24.000	4.0632e-02
11.250	17.000	1.0000e-07
11.250	17.250	1.0000e-07
11.250	17.500	1.1523e-06
11.250	17.750	2.7984e-06
11.250	18.000	7.2428e-06
11.250	18.250	1.8025e-05
11.250	18.500	4.0905e-05
11.250	18.750	8.6420e-05
11.250	19.000	1.7342e-04
11.250	19.250	3.3704e-04
11.250	19.500	6.4272e-04
11.250	19.750	1.2184e-03
11.250	20.000	2.3113e-03
11.250	20.250	4.4018e-03
11.250	20.500	8.4207e-03
11.250	20.750	1.4341e-02
11.250	21.000	1.9662e-02
11.250	21.250	2.5339e-02
11.250	21.500	3.1895e-02
11.250	21.750	3.6262e-02
11.250	22.000	3.8349e-02
11.250	22.250	3.9123e-02
11.250	22.500	3.9848e-02
11.250	22.750	4.0401e-02
11.250	23.000	4.0548e-02
11.250	23.250	4.0611e-02
11.250	23.500	4.0637e-02
11.250	23.750	4.0633e-02
11.250	24.000	4.0633e-02
11.500	17.000	1.0000e-07
11.500	17.250	1.0000e-07
11.500	17.500	1.0000e-07
11.500	17.750	1.5638e-06
11.500	18.000	4.1975e-06
11.500	18.250	1.0617e-05
11.500	18.500	2.4609e-05
11.500	18.750	5.2757e-05
11.500	19.000	1.0724e-04
11.500	19.250	2.0905e-04
11.500	19.500	3.9811e-04
11.500	19.750	7.5177e-04
11.500	20.000	1.4149e-03
11.500	20.250	2.6629e-03
11.500	20.500	5.0423e-03
11.500	20.750	9.6291e-03
11.500	21.000	1.5655e-02
11.500	21.250	2.1025e-02
11.500	21.500	2.6664e-02
11.500	21.750	3.2967e-02
11.500	22.000	3.6638e-02
11.500	22.250	3.8489e-02
11.500	22.500	3.9218e-02
11.500	22.750	3.9900e-02
11.500	23.000	4.0417e-02
11.500	23.250	4.0555e-02
11.500	23.500	4.0613e-02
11.500	23.750	4.0638e-02
11.500	24.000	4.0639e-02
11.750	17.000	1.0000e-07
11.750	17.250	1.0000e-07
11.750	17.500	1.0000e-07
11.750	17.750	9.0535e-07
11.750	18.000	2.3045e-06
11.750	18.250	5.9259e-06
11.750	18.500	1.4074e-05
11.750	18.750	3.0700e-05
11.750	19.000	6.3374e-05
11.750	19.250	1.2510e-04
11.750	19.500	2.3909e-04
11.750	19.750	4.5037e-04
11.750	20.000	8.4543e-04
11.750	20.250	1.5881e-03
11.750	20.500	2.9836e-03
11.750	20.750	5.6412e-03
11.750	21.000	1.0839e-02
11.750	21.250	1.6948e-02
11.750	21.500	2.2364e-02
11.750	21.750	2.8092e-02
11.750	22.000	3.3785e-02
11.750	22.250	3.6928e-02
11.750	22.500	3.8621e-02
11.750	22.750	3.9307e-02
11.750	23.000	3.9958e-02
11.750	23.250	4.0437e-02
11.750	23.500	4.0564e-02
11.750	23.750	4.0617e-02
11.750	24.000	4.0639e-02
12.000	17.000	1.0000e-07
12.000	17.250	1.0000e-07
12.000	17.500	1.0000e-07
12.000	17.750	1.0000e-07
12.000	18.000	1.3169e-06
12.000	18.250	3.2099e-06
12.000	18.500	7.6543e-06
12.000	18.750	1.7119e-05
12.000	19.000	3.5885e-05
12.000	19.250	7.2181e-05
12.000	19.500	1.3951e-04
12.000	19.750	2.6313e-04
12.000	20.000	4.9284e-04
12.000	20.250	9.2469e-04
12.000	20.500	1.7377e-03
12.000	20.750	3.2727e-03
12.000	21.000	6.2179e-03
12.000	21.250	1.1897e-02
12.000	21.500	1.8069e-02
12.000	21.750	2.3628e-02
12.000	22.000	2.9389e-02
12.000	22.250	3.4318e-02
12.000	22.500	3.7145e-02
12.000	22.750	3.8722e-02
12.000	23.000	3.9391e-02
12.000	23.250	4.0015e-02
12.000	23.500	4.0462e-02
12.000	23.750	4.0575e-02
12.000	24.000	4.0621e-02
12.250	17.000	1.0000e-07
12.250	17.250	1.0000e-07
12.250	17.500	1.0000e-07
12.250	17.750	1.0000e-07
12.250	18.000	1.0000e-07
12.250	18.250	1.6461e-06
12.250	18.500	3.9506e-06
12.250	18.750	8.9712e-06
12.250	19.000	1.9342e-05
12.250	19.250	3.9835e-05
12.250	19.500	7.8601e-05
12.250	19.750	1.5037e-04
12.250	20.000	2.8156e-04
12.250	20.250	5.2749e-04
12.250	20.500	9.9144e-04
12.250	20.750	1.8709e-03
12.250	21.000	3.5541e-03
12.250	21.250	6.8143e-03
12.250	21.500	1.2861e-02
12.250	21.750	1.9172e-02
12.250	22.000	2.4810e-02
12.250	22.250	3.0522e-02
12.250	22.500	3.4738e-02
12.250	22.750	3.7340e-02
12.250	23.000	3.8791e-02
12.250	23.250	3.9458e-02
12.250	23.500	4.0068e-02
12.250	23.750	4.0488e-02
12.250	24.000	4.0585e-02
12.500	17.000	1.0000e-07
12.500	17.250	1.0000e-07
12.500	17.500	1.0000e-07
12.500	17.750	1.0000e-07
12.500	18.000	1.0000e-07
12.500	18.250	9.0535e-07
12.500	18.500	1.9753e-06
12.500	18.750	4.5267e-06
12.500	19.000	9.9588e-06
12.500	19.250	2.0905e-05
12.500	19.500	4.2305e-05
12.500	19.750	8.3045e-05
12.500	20.000	1.5819e-04
12.500	20.250	2.9605e-04
12.500	20.500	5.5613e-04
12.500	20.750	1.0535e-03
12.500	21.000	2.0127e-03
12.500	21.250	3.8711e-03
12.500	21.500	7.3517e-03
12.500	21.750	1.3874e-02
12.500	22.000	2.0165e-02
12.500	22.250	2.5845e-02
12.500	22.500	3.1334e-02
12.500	22.750	3.5047e-02
12.500	23.000	3.7481e-02
12.500	23.250	3.8838e-02
12.500	23.500	3.9508e-02
12.500	23.750	4.0111e-02
12.500	24.000	4.0511e-02
12.750	17.000	1.0000e-07
12.750	17.250	1.0000e-07
12.750	17.500	1.0000e-07
12.750	17.750	1.0000e-07
12.750	18.000	1.0000e-07
12.750	18.250	1.0000e-07
12.750	18.500	1.0700e-06
12.750	18.750	2.2222e-06
12.750	19.000	4.9383e-06
12.750	19.250	1.0453e-05
12.750	19.500	2.1646e-05
12.750	19.750	4.3621e-05
12.750	20.000	8.5432e-05
12.750	20.250	1.6354e-04
12.750	20.500	3.0840e-04
12.750	20.750	5.8321e-04
12.750	21.000	1.1191e-03
12.750	21.250	2.1668e-03
12.750	21.500	4.1291e-03
12.750	21.750	7.9808e-03
12.750	22.000	1.4840e-02
12.750	22.250	2.1088e-02
12.750	22.500	2.6723e-02
12.750	22.750	3.1838e-02
12.750	23.000	3.5288e-02
12.750	23.250	3.7558e-02
12.750	23.500	3.8865e-02
12.750	23.750	3.9543e-02
12.750	24.000	4.0145e-02
13.000	17.000	1.0000e-07
13.000	17.250	1.0000e-07
13.000	17.500	1.0000e-07
13.000	17.750	1.0000e-07
13.000	18.000	1.0000e-07
13.000	18.250	1.0000e-07
13.000	18.500	1.0000e-07
13.000	18.750	1.1523e-06
13.000	19.000	2.3868e-06
13.000	19.250	5.0206e-06
13.000	19.500	1.0535e-05
13.000	19.750	2.1728e-05
13.000	20.000	4.3951e-05
13.000	20.250	8.6749e-05
13.000	20.500	1.6798e-04
13.000	20.750	3.2140e-04
13.000	21.000	6.1646e-04
13.000	21.250	1.2042e-03
13.000	21.500	2.3221e-03
13.000	21.750	4.4458e-03
13.000	22.000	8.5676e-03
13.000	22.250	1.5771e-02
13.000	22.500	2.1926e-02
13.000	22.750	2.7390e-02
13.000	23.000	3.2186e-02
13.000	23.250	3.5443e-02
13.000	23.500	3.7619e-02
13.000	23.750	3.8866e-02
13.000	24.000	3.9568e-02
13.250	17.000	1.0000e-07
13.250	17.250	1.0000e-07
13.250	17.500	1.0000e-07
13.250	17.750	1.0000e-07
13.250	18.000	1.0000e-07
13.250	18.250	1.0000e-07
13.250	18.500	1.0000e-07
13.250	18.750	1.0000e-07
13.250	19.000	1.2346e-06
13.250	19.250	2.4691e-06
13.250	19.500	5.0206e-06
13.250	19.750	1.0453e-05
13.250	20.000	2.1564e-05
13.250	20.250	4.3786e-05
13.250	20.500	8.7325e-05
13.250	20.750	1.7202e-04
13.250	21.000	3.3333e-04
13.250	21.250	6.5062e-04
13.250	21.500	1.2399e-03
13.250	21.750	2.4073e-03
13.250	22.000	4.7037e-03
13.250	22.250	9.1491e-03
13.250	22.500	1.6442e-02
13.250	22.750	2.2435e-02
13.250	23.000	2.7812e-02
13.250	23.250	3.2448e-02
13.250	23.500	3.5569e-02
13.250	23.750	3.7630e-02
13.250	24.000	3.8855e-02
13.500	17.000	1.0000e-07
13.500	17.250	1.0000e-07
13.500	17.500	1.0000e-07
13.500	17.750	1.0000e-07
13.500	18.000	1.0000e-07
13.500	18.250	1.0000e-07
13.500	18.500	1.0000e-07
13.500	18.750	1.0000e-07
13.500	19.000	1.0000e-07
13.500	19.250	1.2346e-06
13.500	19.500	2.4691e-06
13.500	19.750	5.0206e-06
13.500	20.000	1.0370e-05
13.500	20.250	2.1481e-05
13.500	20.500	4.3868e-05
13.500	20.750	8.8066e-05
13.500	21.000	1.7267e-04
13.500	21.250	3.3918e-04
13.500	21.500	6.4864e-04
13.500	21.750	1.2723e-03
13.500	22.000	2.5178e-03
13.500	22.250	4.9097e-03
13.500	22.500	9.6374e-03
13.500	22.750	1.6998e-02
13.500	23.000	2.2833e-02
13.500	23.250	2.8252e-02
13.500	23.500	3.2699e-02
13.500	23.750	3.5656e-02
13.500	24.000	3.7638e-02
13.750	17.000	1.0000e-07
13.750	17.250	1.0000e-07
13.750	17.500	1.0000e-07
13.750	17.750	1.0000e-07
13.750	18.000	1.0000e-07
13.750	18.250	1.0000e-07
13.750	18.500	1.0000e-07
13.750	18.750	1.0000e-07
13.750	19.000	1.0000e-07
13.750	19.250	1.0000e-07
13.750	19.500	1.3169e-06
13.750	19.750	2.5514e-06
13.750	20.000	5.1852e-06
13.750	20.250	1.0617e-05
13.750	20.500	2.1893e-05
13.750	20.750	4.4691e-05
13.750	21.000	8.9218e-05
13.750	21.250	1.7399e-04
13.750	21.500	3.3547e-04
13.750	21.750	6.5259e-04
13.750	22.000	1.2821e-03
13.750	22.250	2.5530e-03
13.750	22.500	5.1203e-03
13.750	22.750	1.0313e-02
13.750	23.000	1.7390e-02
13.750	23.250	2.3335e-02
13.750	23.500	2.8690e-02
13.750	23.750	3.2972e-02
13.750	24.000	3.5770e-02
14.000	17.000	1.0000e-07
14.000	17.250	1.0000e-07
14.000	17.500	1.0000e-07
14.000	17.750	1.0000e-07
14.000	18.000	1.0000e-07
14.000	18.250	1.0000e-07
14.000	18.500	1.0000e-07
14.000	18.750	1.0000e-07
14.000	19.000	1.0000e-07
14.000	19.250	1.0000e-07
14.000	19.500	1.0000e-07
14.000	19.750	1.3992e-06
14.000	20.000	2.7160e-06
14.000	20.250	5.4321e-06
14.000	20.500	1.1029e-05
14.000	20.750	2.2716e-05
14.000	21.000	4.6173e-05
14.000	21.250	9.2016e-05
14.000	21.500	1.7704e-04
14.000	21.750	3.4132e-04
14.000	22.000	6.6288e-04
14.000	22.250	1.3187e-03
14.000	22.500	2.6668e-03
14.000	22.750	5.4778e-03
14.000	23.000	1.1056e-02
14.000	23.250	1.8093e-02
14.000	23.500	2.4058e-02
14.000	23.750	2.9316e-02
14.000	24.000	3.3276e-02
