nFnu 1113.22A  relative to Inci 1215.00A scaled to 1215A.
Hden   Phi(H)  Eq_Width (A)
 7.000	17.000	8.2030e-02
 7.000	17.250	7.9748e-02
 7.000	17.500	7.7526e-02
 7.000	17.750	6.7263e-02
 7.000	18.000	5.8410e-02
 7.000	18.250	5.2193e-02
 7.000	18.500	4.8188e-02
 7.000	18.750	4.6246e-02
 7.000	19.000	4.5232e-02
 7.000	19.250	4.4651e-02
 7.000	19.500	4.4406e-02
 7.000	19.750	4.4302e-02
 7.000	20.000	4.4257e-02
 7.000	20.250	4.4236e-02
 7.000	20.500	4.4226e-02
 7.000	20.750	4.4220e-02
 7.000	21.000	4.4217e-02
 7.000	21.250	4.4216e-02
 7.000	21.500	4.4215e-02
 7.000	21.750	4.4215e-02
 7.000	22.000	4.4215e-02
 7.000	22.250	4.4215e-02
 7.000	22.500	4.4215e-02
 7.000	22.750	4.4216e-02
 7.000	23.000	4.4216e-02
 7.000	23.250	4.4216e-02
 7.000	23.500	4.4216e-02
 7.000	23.750	4.4216e-02
 7.000	24.000	4.4216e-02
 7.250	17.000	1.0616e-01
 7.250	17.250	7.9503e-02
 7.250	17.500	7.8869e-02
 7.250	17.750	7.7213e-02
 7.250	18.000	6.7106e-02
 7.250	18.250	5.8326e-02
 7.250	18.500	5.2152e-02
 7.250	18.750	4.8173e-02
 7.250	19.000	4.6240e-02
 7.250	19.250	4.5230e-02
 7.250	19.500	4.4651e-02
 7.250	19.750	4.4406e-02
 7.250	20.000	4.4302e-02
 7.250	20.250	4.4257e-02
 7.250	20.500	4.4236e-02
 7.250	20.750	4.4225e-02
 7.250	21.000	4.4220e-02
 7.250	21.250	4.4217e-02
 7.250	21.500	4.4215e-02
 7.250	21.750	4.4214e-02
 7.250	22.000	4.4214e-02
 7.250	22.250	4.4214e-02
 7.250	22.500	4.4214e-02
 7.250	22.750	4.4214e-02
 7.250	23.000	4.4214e-02
 7.250	23.250	4.4215e-02
 7.250	23.500	4.4215e-02
 7.250	23.750	4.4214e-02
 7.250	24.000	4.4215e-02
 7.500	17.000	1.2662e-01
 7.500	17.250	1.0217e-01
 7.500	17.500	7.7060e-02
 7.500	17.750	7.8223e-02
 7.500	18.000	7.7052e-02
 7.500	18.250	6.7030e-02
 7.500	18.500	5.8277e-02
 7.500	18.750	5.2126e-02
 7.500	19.000	4.8163e-02
 7.500	19.250	4.6236e-02
 7.500	19.500	4.5228e-02
 7.500	19.750	4.4650e-02
 7.500	20.000	4.4406e-02
 7.500	20.250	4.4302e-02
 7.500	20.500	4.4257e-02
 7.500	20.750	4.4236e-02
 7.500	21.000	4.4225e-02
 7.500	21.250	4.4220e-02
 7.500	21.500	4.4217e-02
 7.500	21.750	4.4215e-02
 7.500	22.000	4.4214e-02
 7.500	22.250	4.4214e-02
 7.500	22.500	4.4214e-02
 7.500	22.750	4.4213e-02
 7.500	23.000	4.4213e-02
 7.500	23.250	4.4213e-02
 7.500	23.500	4.4216e-02
 7.500	23.750	4.4213e-02
 7.500	24.000	4.4213e-02
 7.750	17.000	1.4416e-01
 7.750	17.250	1.2197e-01
 7.750	17.500	9.8727e-02
 7.750	17.750	7.5033e-02
 7.750	18.000	7.7726e-02
 7.750	18.250	7.6983e-02
 7.750	18.500	6.7005e-02
 7.750	18.750	5.8250e-02
 7.750	19.000	5.2111e-02
 7.750	19.250	4.8157e-02
 7.750	19.500	4.6234e-02
 7.750	19.750	4.5228e-02
 7.750	20.000	4.4650e-02
 7.750	20.250	4.4406e-02
 7.750	20.500	4.4302e-02
 7.750	20.750	4.4257e-02
 7.750	21.000	4.4236e-02
 7.750	21.250	4.4225e-02
 7.750	21.500	4.4220e-02
 7.750	21.750	4.4217e-02
 7.750	22.000	4.4215e-02
 7.750	22.250	4.4214e-02
 7.750	22.500	4.4214e-02
 7.750	22.750	4.4213e-02
 7.750	23.000	4.4213e-02
 7.750	23.250	4.4213e-02
 7.750	23.500	4.4213e-02
 7.750	23.750	4.4213e-02
 7.750	24.000	4.4213e-02
 8.000	17.000	1.5655e-01
 8.000	17.250	1.3988e-01
 8.000	17.500	1.1790e-01
 8.000	17.750	9.6080e-02
 8.000	18.000	7.3757e-02
 8.000	18.250	7.7357e-02
 8.000	18.500	7.6973e-02
 8.000	18.750	6.7013e-02
 8.000	19.000	5.8239e-02
 8.000	19.250	5.2101e-02
 8.000	19.500	4.8153e-02
 8.000	19.750	4.6232e-02
 8.000	20.000	4.5227e-02
 8.000	20.250	4.4650e-02
 8.000	20.500	4.4406e-02
 8.000	20.750	4.4302e-02
 8.000	21.000	4.4257e-02
 8.000	21.250	4.4236e-02
 8.000	21.500	4.4225e-02
 8.000	21.750	4.4220e-02
 8.000	22.000	4.4217e-02
 8.000	22.250	4.4215e-02
 8.000	22.500	4.4214e-02
 8.000	22.750	4.4214e-02
 8.000	23.000	4.4213e-02
 8.000	23.250	4.4214e-02
 8.000	23.500	4.4213e-02
 8.000	23.750	4.4213e-02
 8.000	24.000	4.4213e-02
 8.250	17.000	1.6403e-01
 8.250	17.250	1.5298e-01
 8.250	17.500	1.3610e-01
 8.250	17.750	1.1407e-01
 8.250	18.000	9.3001e-02
 8.250	18.250	7.2591e-02
 8.250	18.500	7.7164e-02
 8.250	18.750	7.6999e-02
 8.250	19.000	6.7046e-02
 8.250	19.250	5.8235e-02
 8.250	19.500	5.2095e-02
 8.250	19.750	4.8151e-02
 8.250	20.000	4.6231e-02
 8.250	20.250	4.5227e-02
 8.250	20.500	4.4650e-02
 8.250	20.750	4.4406e-02
 8.250	21.000	4.4302e-02
 8.250	21.250	4.4257e-02
 8.250	21.500	4.4236e-02
 8.250	21.750	4.4225e-02
 8.250	22.000	4.4220e-02
 8.250	22.250	4.4217e-02
 8.250	22.500	4.4215e-02
 8.250	22.750	4.4214e-02
 8.250	23.000	4.4214e-02
 8.250	23.250	4.4213e-02
 8.250	23.500	4.4213e-02
 8.250	23.750	4.4213e-02
 8.250	24.000	4.4213e-02
 8.500	17.000	1.6851e-01
 8.500	17.250	1.6121e-01
 8.500	17.500	1.4989e-01
 8.500	17.750	1.3218e-01
 8.500	18.000	1.0948e-01
 8.500	18.250	8.9528e-02
 8.500	18.500	7.1563e-02
 8.500	18.750	7.7063e-02
 8.500	19.000	7.7048e-02
 8.500	19.250	6.7097e-02
 8.500	19.500	5.8238e-02
 8.500	19.750	5.2091e-02
 8.500	20.000	4.8149e-02
 8.500	20.250	4.6231e-02
 8.500	20.500	4.5227e-02
 8.500	20.750	4.4650e-02
 8.500	21.000	4.4406e-02
 8.500	21.250	4.4302e-02
 8.500	21.500	4.4257e-02
 8.500	21.750	4.4236e-02
 8.500	22.000	4.4225e-02
 8.500	22.250	4.4220e-02
 8.500	22.500	4.4217e-02
 8.500	22.750	4.4215e-02
 8.500	23.000	4.4214e-02
 8.500	23.250	4.4214e-02
 8.500	23.500	4.4213e-02
 8.500	23.750	4.4213e-02
 8.500	24.000	4.4213e-02
 8.750	17.000	1.7127e-01
 8.750	17.250	1.6636e-01
 8.750	17.500	1.5874e-01
 8.750	17.750	1.4642e-01
 8.750	18.000	1.2719e-01
 8.750	18.250	1.0325e-01
 8.750	18.500	8.3747e-02
 8.750	18.750	7.0937e-02
 8.750	19.000	7.7014e-02
 8.750	19.250	7.7105e-02
 8.750	19.500	6.7161e-02
 8.750	19.750	5.8243e-02
 8.750	20.000	5.2088e-02
 8.750	20.250	4.8148e-02
 8.750	20.500	4.6230e-02
 8.750	20.750	4.5226e-02
 8.750	21.000	4.4650e-02
 8.750	21.250	4.4406e-02
 8.750	21.500	4.4302e-02
 8.750	21.750	4.4257e-02
 8.750	22.000	4.4236e-02
 8.750	22.250	4.4225e-02
 8.750	22.500	4.4220e-02
 8.750	22.750	4.4217e-02
 8.750	23.000	4.4215e-02
 8.750	23.250	4.4214e-02
 8.750	23.500	4.4214e-02
 8.750	23.750	4.4213e-02
 8.750	24.000	4.4213e-02
 9.000	17.000	1.7292e-01
 9.000	17.250	1.6965e-01
 9.000	17.500	1.6441e-01
 9.000	17.750	1.5593e-01
 9.000	18.000	1.4177e-01
 9.000	18.250	1.1979e-01
 9.000	18.500	9.5286e-02
 9.000	18.750	7.9853e-02
 9.000	19.000	7.0594e-02
 9.000	19.250	7.6962e-02
 9.000	19.500	7.7158e-02
 9.000	19.750	6.7226e-02
 9.000	20.000	5.8250e-02
 9.000	20.250	5.2086e-02
 9.000	20.500	4.8147e-02
 9.000	20.750	4.6230e-02
 9.000	21.000	4.5226e-02
 9.000	21.250	4.4650e-02
 9.000	21.500	4.4406e-02
 9.000	21.750	4.4302e-02
 9.000	22.000	4.4257e-02
 9.000	22.250	4.4236e-02
 9.000	22.500	4.4225e-02
 9.000	22.750	4.4220e-02
 9.000	23.000	4.4217e-02
 9.000	23.250	4.4215e-02
 9.000	23.500	4.4214e-02
 9.000	23.750	4.4213e-02
 9.000	24.000	4.4213e-02
 9.250	17.000	1.7375e-01
 9.250	17.250	1.7167e-01
 9.250	17.500	1.6811e-01
 9.250	17.750	1.6203e-01
 9.250	18.000	1.5159e-01
 9.250	18.250	1.3458e-01
 9.250	18.500	1.1061e-01
 9.250	18.750	8.6842e-02
 9.250	19.000	7.3325e-02
 9.250	19.250	7.0234e-02
 9.250	19.500	7.6882e-02
 9.250	19.750	7.7196e-02
 9.250	20.000	6.7288e-02
 9.250	20.250	5.8257e-02
 9.250	20.500	5.2084e-02
 9.250	20.750	4.8146e-02
 9.250	21.000	4.6230e-02
 9.250	21.250	4.5226e-02
 9.250	21.500	4.4641e-02
 9.250	21.750	4.4393e-02
 9.250	22.000	4.4288e-02
 9.250	22.250	4.4244e-02
 9.250	22.500	4.4235e-02
 9.250	22.750	4.4225e-02
 9.250	23.000	4.4220e-02
 9.250	23.250	4.4217e-02
 9.250	23.500	4.4215e-02
 9.250	23.750	4.4214e-02
 9.250	24.000	4.4214e-02
 9.500	17.000	1.7394e-01
 9.500	17.250	1.7272e-01
 9.500	17.500	1.7041e-01
 9.500	17.750	1.6608e-01
 9.500	18.000	1.5820e-01
 9.500	18.250	1.4521e-01
 9.500	18.500	1.2576e-01
 9.500	18.750	1.0124e-01
 9.500	19.000	8.0811e-02
 9.500	19.250	6.8889e-02
 9.500	19.500	6.9848e-02
 9.500	19.750	7.6738e-02
 9.500	20.000	7.7207e-02
 9.500	20.250	6.7339e-02
 9.500	20.500	5.8264e-02
 9.500	20.750	5.2081e-02
 9.500	21.000	4.8135e-02
 9.500	21.250	4.6217e-02
 9.500	21.500	4.5212e-02
 9.500	21.750	4.4633e-02
 9.500	22.000	4.4382e-02
 9.500	22.250	4.4279e-02
 9.500	22.500	4.4234e-02
 9.500	22.750	4.4212e-02
 9.500	23.000	4.4201e-02
 9.500	23.250	4.4196e-02
 9.500	23.500	4.4199e-02
 9.500	23.750	4.4197e-02
 9.500	24.000	4.4196e-02
 9.750	17.000	1.7371e-01
 9.750	17.250	1.7303e-01
 9.750	17.500	1.7162e-01
 9.750	17.750	1.6864e-01
 9.750	18.000	1.6279e-01
 9.750	18.250	1.5261e-01
 9.750	18.500	1.3740e-01
 9.750	18.750	1.1684e-01
 9.750	19.000	9.3098e-02
 9.750	19.250	7.4566e-02
 9.750	19.500	6.5060e-02
 9.750	19.750	6.9561e-02
 9.750	20.000	7.6562e-02
 9.750	20.250	7.7187e-02
 9.750	20.500	6.7377e-02
 9.750	20.750	5.8269e-02
 9.750	21.000	5.2081e-02
 9.750	21.250	4.8140e-02
 9.750	21.500	4.6219e-02
 9.750	21.750	4.5213e-02
 9.750	22.000	4.4635e-02
 9.750	22.250	4.4385e-02
 9.750	22.500	4.4278e-02
 9.750	22.750	4.4234e-02
 9.750	23.000	4.4213e-02
 9.750	23.250	4.4202e-02
 9.750	23.500	4.4196e-02
 9.750	23.750	4.4193e-02
 9.750	24.000	4.4191e-02
10.000	17.000	1.7324e-01
10.000	17.250	1.7283e-01
10.000	17.500	1.7199e-01
10.000	17.750	1.6997e-01
10.000	18.000	1.6563e-01
10.000	18.250	1.5777e-01
10.000	18.500	1.4589e-01
10.000	18.750	1.2963e-01
10.000	19.000	1.0841e-01
10.000	19.250	8.6387e-02
10.000	19.500	6.8383e-02
10.000	19.750	6.5466e-02
10.000	20.000	6.9503e-02
10.000	20.250	7.6355e-02
10.000	20.500	7.7145e-02
10.000	20.750	6.7403e-02
10.000	21.000	5.8274e-02
10.000	21.250	5.2080e-02
10.000	21.500	4.8142e-02
10.000	21.750	4.6225e-02
10.000	22.000	4.5214e-02
10.000	22.250	4.4636e-02
10.000	22.500	4.4388e-02
10.000	22.750	4.4281e-02
10.000	23.000	4.4233e-02
10.000	23.250	4.4212e-02
10.000	23.500	4.4202e-02
10.000	23.750	4.4197e-02
10.000	24.000	4.4194e-02
10.250	17.000	1.7276e-01
10.250	17.250	1.7236e-01
10.250	17.500	1.7178e-01
10.250	17.750	1.7036e-01
10.250	18.000	1.6710e-01
10.250	18.250	1.6116e-01
10.250	18.500	1.5210e-01
10.250	18.750	1.3929e-01
10.250	19.000	1.2234e-01
10.250	19.250	1.0201e-01
10.250	19.500	8.0937e-02
10.250	19.750	6.5210e-02
10.250	20.000	6.5204e-02
10.250	20.250	6.9708e-02
10.250	20.500	7.6400e-02
10.250	20.750	7.7110e-02
10.250	21.000	6.7419e-02
10.250	21.250	5.8277e-02
10.250	21.500	5.2079e-02
10.250	21.750	4.8142e-02
10.250	22.000	4.6228e-02
10.250	22.250	4.5219e-02
10.250	22.500	4.4636e-02
10.250	22.750	4.4390e-02
10.250	23.000	4.4284e-02
10.250	23.250	4.4236e-02
10.250	23.500	4.4213e-02
10.250	23.750	4.4201e-02
10.250	24.000	4.4196e-02
10.500	17.000	1.7228e-01
10.500	17.250	1.7186e-01
10.500	17.500	1.7126e-01
10.500	17.750	1.7008e-01
10.500	18.000	1.6751e-01
10.500	18.250	1.6293e-01
10.500	18.500	1.5622e-01
10.500	18.750	1.4658e-01
10.500	19.000	1.3405e-01
10.500	19.250	1.1825e-01
10.500	19.500	9.8734e-02
10.500	19.750	7.7373e-02
10.500	20.000	6.2889e-02
10.500	20.250	6.6101e-02
10.500	20.500	7.0523e-02
10.500	20.750	7.6851e-02
10.500	21.000	7.7123e-02
10.500	21.250	6.7426e-02
10.500	21.500	5.8279e-02
10.500	21.750	5.2079e-02
10.500	22.000	4.8141e-02
10.500	22.250	4.6229e-02
10.500	22.500	4.5224e-02
10.500	22.750	4.4637e-02
10.500	23.000	4.4392e-02
10.500	23.250	4.4286e-02
10.500	23.500	4.4239e-02
10.500	23.750	4.4216e-02
10.500	24.000	4.4204e-02
10.750	17.000	1.7168e-01
10.750	17.250	1.7131e-01
10.750	17.500	1.7066e-01
10.750	17.750	1.6940e-01
10.750	18.000	1.6713e-01
10.750	18.250	1.6358e-01
10.750	18.500	1.5862e-01
10.750	18.750	1.5186e-01
10.750	19.000	1.4304e-01
10.750	19.250	1.3130e-01
10.750	19.500	1.1562e-01
10.750	19.750	9.5655e-02
10.750	20.000	7.3550e-02
10.750	20.250	6.2080e-02
10.750	20.500	6.7310e-02
10.750	20.750	7.1775e-02
10.750	21.000	7.7906e-02
10.750	21.250	7.7257e-02
10.750	21.500	6.7430e-02
10.750	21.750	5.8280e-02
10.750	22.000	5.2079e-02
10.750	22.250	4.8140e-02
10.750	22.500	4.6230e-02
10.750	22.750	4.5226e-02
10.750	23.000	4.4639e-02
10.750	23.250	4.4392e-02
10.750	23.500	4.4288e-02
10.750	23.750	4.4241e-02
10.750	24.000	4.4219e-02
11.000	17.000	1.7071e-01
11.000	17.250	1.7059e-01
11.000	17.500	1.6991e-01
11.000	17.750	1.6851e-01
11.000	18.000	1.6625e-01
11.000	18.250	1.6324e-01
11.000	18.500	1.5947e-01
11.000	18.750	1.5486e-01
11.000	19.000	1.4903e-01
11.000	19.250	1.4083e-01
11.000	19.500	1.2914e-01
11.000	19.750	1.1310e-01
11.000	20.000	9.2537e-02
11.000	20.250	6.9922e-02
11.000	20.500	6.3791e-02
11.000	20.750	6.8995e-02
11.000	21.000	7.4088e-02
11.000	21.250	8.0037e-02
11.000	21.500	7.7553e-02
11.000	21.750	6.7443e-02
11.000	22.000	5.8278e-02
11.000	22.250	5.2079e-02
11.000	22.500	4.8139e-02
11.000	22.750	4.6230e-02
11.000	23.000	4.5227e-02
11.000	23.250	4.4646e-02
11.000	23.500	4.4393e-02
11.000	23.750	4.4289e-02
11.000	24.000	4.4243e-02
11.250	17.000	1.6916e-01
11.250	17.250	1.6941e-01
11.250	17.500	1.6883e-01
11.250	17.750	1.6733e-01
11.250	18.000	1.6496e-01
11.250	18.250	1.6210e-01
11.250	18.500	1.5913e-01
11.250	18.750	1.5611e-01
11.250	19.000	1.5242e-01
11.250	19.250	1.4692e-01
11.250	19.500	1.3884e-01
11.250	19.750	1.2711e-01
11.250	20.000	1.1087e-01
11.250	20.250	8.9654e-02
11.250	20.500	6.6772e-02
11.250	20.750	6.5169e-02
11.250	21.000	7.1698e-02
11.250	21.250	7.7629e-02
11.250	21.500	8.3552e-02
11.250	21.750	7.8088e-02
11.250	22.000	6.7479e-02
11.250	22.250	5.8276e-02
11.250	22.500	5.2079e-02
11.250	22.750	4.8138e-02
11.250	23.000	4.6230e-02
11.250	23.250	4.5227e-02
11.250	23.500	4.4649e-02
11.250	23.750	4.4395e-02
11.250	24.000	4.4289e-02
11.500	17.000	1.6704e-01
11.500	17.250	1.6750e-01
11.500	17.500	1.6711e-01
11.500	17.750	1.6555e-01
11.500	18.000	1.6303e-01
11.500	18.250	1.6016e-01
11.500	18.500	1.5770e-01
11.500	18.750	1.5556e-01
11.500	19.000	1.5330e-01
11.500	19.250	1.4997e-01
11.500	19.500	1.4479e-01
11.500	19.750	1.3689e-01
11.500	20.000	1.2537e-01
11.500	20.250	1.0878e-01
11.500	20.500	8.6999e-02
11.500	20.750	6.5151e-02
11.500	21.000	6.8109e-02
11.500	21.250	7.6438e-02
11.500	21.500	8.3451e-02
11.500	21.750	8.8384e-02
11.500	22.000	7.8765e-02
11.500	22.250	6.7550e-02
11.500	22.500	5.8272e-02
11.500	22.750	5.2081e-02
11.500	23.000	4.8136e-02
11.500	23.250	4.6229e-02
11.500	23.500	4.5228e-02
11.500	23.750	4.4650e-02
11.500	24.000	4.4401e-02
11.750	17.000	1.6445e-01
11.750	17.250	1.6468e-01
11.750	17.500	1.6435e-01
11.750	17.750	1.6273e-01
11.750	18.000	1.6001e-01
11.750	18.250	1.5728e-01
11.750	18.500	1.5521e-01
11.750	18.750	1.5354e-01
11.750	19.000	1.5196e-01
11.750	19.250	1.5007e-01
11.750	19.500	1.4711e-01
11.750	19.750	1.4237e-01
11.750	20.000	1.3510e-01
11.750	20.250	1.2383e-01
11.750	20.500	1.0692e-01
11.750	20.750	8.4626e-02
11.750	21.000	6.3623e-02
11.750	21.250	7.2736e-02
11.750	21.500	8.3088e-02
11.750	21.750	9.1236e-02
11.750	22.000	9.2682e-02
11.750	22.250	7.9477e-02
11.750	22.500	6.7660e-02
11.750	22.750	5.8267e-02
11.750	23.000	5.2083e-02
11.750	23.250	4.8134e-02
11.750	23.500	4.6229e-02
11.750	23.750	4.5228e-02
11.750	24.000	4.4650e-02
12.000	17.000	1.6077e-01
12.000	17.250	1.6084e-01
12.000	17.500	1.6013e-01
12.000	17.750	1.5825e-01
12.000	18.000	1.5553e-01
12.000	18.250	1.5325e-01
12.000	18.500	1.5149e-01
12.000	18.750	1.5003e-01
12.000	19.000	1.4876e-01
12.000	19.250	1.4774e-01
12.000	19.500	1.4639e-01
12.000	19.750	1.4422e-01
12.000	20.000	1.4038e-01
12.000	20.250	1.3367e-01
12.000	20.500	1.2260e-01
12.000	20.750	1.0538e-01
12.000	21.000	8.3296e-02
12.000	21.250	6.9061e-02
12.000	21.500	7.9344e-02
12.000	21.750	9.2199e-02
12.000	22.000	9.9791e-02
12.000	22.250	9.5522e-02
12.000	22.500	8.0304e-02
12.000	22.750	6.7806e-02
12.000	23.000	5.8260e-02
12.000	23.250	5.2085e-02
12.000	23.500	4.8132e-02
12.000	23.750	4.6228e-02
12.000	24.000	4.5228e-02
12.250	17.000	1.5431e-01
12.250	17.250	1.5497e-01
12.250	17.500	1.5381e-01
12.250	17.750	1.5166e-01
12.250	18.000	1.4943e-01
12.250	18.250	1.4764e-01
12.250	18.500	1.4645e-01
12.250	18.750	1.4536e-01
12.250	19.000	1.4445e-01
12.250	19.250	1.4393e-01
12.250	19.500	1.4366e-01
12.250	19.750	1.4320e-01
12.250	20.000	1.4191e-01
12.250	20.250	1.3869e-01
12.250	20.500	1.3256e-01
12.250	20.750	1.2171e-01
12.250	21.000	1.0474e-01
12.250	21.250	8.3584e-02
12.250	21.500	7.5378e-02
12.250	21.750	8.8239e-02
12.250	22.000	1.0312e-01
12.250	22.250	1.0865e-01
12.250	22.500	9.8198e-02
12.250	22.750	8.1157e-02
12.250	23.000	6.7958e-02
12.250	23.250	5.8253e-02
12.250	23.500	5.2086e-02
12.250	23.750	4.8129e-02
12.250	24.000	4.6227e-02
12.500	17.000	1.2470e-01
12.500	17.250	1.4620e-01
12.500	17.500	1.4532e-01
12.500	17.750	1.4332e-01
12.500	18.000	1.4162e-01
12.500	18.250	1.4067e-01
12.500	18.500	1.4010e-01
12.500	18.750	1.3983e-01
12.500	19.000	1.3971e-01
12.500	19.250	1.3974e-01
12.500	19.500	1.4005e-01
12.500	19.750	1.4056e-01
12.500	20.000	1.4075e-01
12.500	20.250	1.3994e-01
12.500	20.500	1.3739e-01
12.500	20.750	1.3186e-01
12.500	21.000	1.2178e-01
12.500	21.250	1.0580e-01
12.500	21.500	8.7299e-02
12.500	21.750	8.4794e-02
12.500	22.000	9.9759e-02
12.500	22.250	1.1529e-01
12.500	22.500	1.1636e-01
12.500	22.750	1.0089e-01
12.500	23.000	8.2111e-02
12.500	23.250	6.8101e-02
12.500	23.500	5.8248e-02
12.500	23.750	5.2086e-02
12.500	24.000	4.8124e-02
12.750	17.000	8.1559e-02
12.750	17.250	1.2394e-01
12.750	17.500	1.3510e-01
12.750	17.750	1.3361e-01
12.750	18.000	1.3173e-01
12.750	18.250	1.3151e-01
12.750	18.500	1.3227e-01
12.750	18.750	1.3329e-01
12.750	19.000	1.3433e-01
12.750	19.250	1.3525e-01
12.750	19.500	1.3616e-01
12.750	19.750	1.3712e-01
12.750	20.000	1.3808e-01
12.750	20.250	1.3867e-01
12.750	20.500	1.3837e-01
12.750	20.750	1.3634e-01
12.750	21.000	1.3163e-01
12.750	21.250	1.2273e-01
12.750	21.500	1.0837e-01
12.750	21.750	9.2148e-02
12.750	22.000	9.6532e-02
12.750	22.250	1.1302e-01
12.750	22.500	1.2825e-01
12.750	22.750	1.2343e-01
12.750	23.000	1.0321e-01
12.750	23.250	8.3056e-02
12.750	23.500	6.8304e-02
12.750	23.750	5.8245e-02
12.750	24.000	5.2083e-02
13.000	17.000	2.4213e-02
13.000	17.250	4.1765e-02
13.000	17.500	9.4179e-02
13.000	17.750	1.1832e-01
13.000	18.000	1.2010e-01
13.000	18.250	1.2087e-01
13.000	18.500	1.2273e-01
13.000	18.750	1.2527e-01
13.000	19.000	1.2785e-01
13.000	19.250	1.3009e-01
13.000	19.500	1.3180e-01
13.000	19.750	1.3327e-01
13.000	20.000	1.3458e-01
13.000	20.250	1.3577e-01
13.000	20.500	1.3669e-01
13.000	20.750	1.3690e-01
13.000	21.000	1.3552e-01
13.000	21.250	1.3234e-01
13.000	21.500	1.2564e-01
13.000	21.750	1.1053e-01
13.000	22.000	9.7249e-02
13.000	22.250	1.0917e-01
13.000	22.500	1.2687e-01
13.000	22.750	1.3914e-01
13.000	23.000	1.2973e-01
13.000	23.250	1.0587e-01
13.000	23.500	8.4175e-02
13.000	23.750	6.8470e-02
13.000	24.000	5.8243e-02
13.250	17.000	1.9760e-02
13.250	17.250	2.6806e-02
13.250	17.500	4.6123e-02
13.250	17.750	7.5978e-02
13.250	18.000	9.5164e-02
13.250	18.250	1.0932e-01
13.250	18.500	1.1185e-01
13.250	18.750	1.1539e-01
13.250	19.000	1.1958e-01
13.250	19.250	1.2341e-01
13.250	19.500	1.2653e-01
13.250	19.750	1.2887e-01
13.250	20.000	1.3064e-01
13.250	20.250	1.3210e-01
13.250	20.500	1.3333e-01
13.250	20.750	1.3449e-01
13.250	21.000	1.3502e-01
13.250	21.250	1.3428e-01
13.250	21.500	1.3077e-01
13.250	21.750	1.2241e-01
13.250	22.000	1.1019e-01
13.250	22.250	1.0470e-01
13.250	22.500	1.2102e-01
13.250	22.750	1.3804e-01
13.250	23.000	1.4778e-01
13.250	23.250	1.3613e-01
13.250	23.500	1.0824e-01
13.250	23.750	8.4933e-02
13.250	24.000	6.8508e-02
13.500	17.000	1.7107e-02
13.500	17.250	2.2529e-02
13.500	17.500	3.4272e-02
13.500	17.750	5.2551e-02
13.500	18.000	7.6637e-02
13.500	18.250	8.9340e-02
13.500	18.500	1.0008e-01
13.500	18.750	1.0430e-01
13.500	19.000	1.0934e-01
13.500	19.250	1.1466e-01
13.500	19.500	1.1940e-01
13.500	19.750	1.2318e-01
13.500	20.000	1.2599e-01
13.500	20.250	1.2802e-01
13.500	20.500	1.2950e-01
13.500	20.750	1.3069e-01
13.500	21.000	1.3134e-01
13.500	21.250	1.3171e-01
13.500	21.500	1.3002e-01
13.500	21.750	1.2553e-01
13.500	22.000	1.1773e-01
13.500	22.250	1.0769e-01
13.500	22.500	1.1369e-01
13.500	22.750	1.3420e-01
13.500	23.000	1.5031e-01
13.500	23.250	1.5759e-01
13.500	23.500	1.4272e-01
13.500	23.750	1.1050e-01
13.500	24.000	8.5543e-02
13.750	17.000	1.5662e-02
13.750	17.250	1.9882e-02
13.750	17.500	2.7961e-02
13.750	17.750	3.8056e-02
13.750	18.000	5.6418e-02
13.750	18.250	7.4029e-02
13.750	18.500	8.2686e-02
13.750	18.750	9.2291e-02
13.750	19.000	9.7823e-02
13.750	19.250	1.0393e-01
13.750	19.500	1.1012e-01
13.750	19.750	1.1554e-01
13.750	20.000	1.1985e-01
13.750	20.250	1.2309e-01
13.750	20.500	1.2543e-01
13.750	20.750	1.2690e-01
13.750	21.000	1.2774e-01
13.750	21.250	1.2763e-01
13.750	21.500	1.2718e-01
13.750	21.750	1.2352e-01
13.750	22.000	1.1665e-01
13.750	22.250	1.0869e-01
13.750	22.500	1.0861e-01
13.750	22.750	1.3234e-01
13.750	23.000	1.5128e-01
13.750	23.250	1.6628e-01
13.750	23.500	1.6893e-01
13.750	23.750	1.4927e-01
13.750	24.000	1.1245e-01
14.000	17.000	1.4737e-02
14.000	17.250	1.7745e-02
14.000	17.500	2.4237e-02
14.000	17.750	3.1744e-02
14.000	18.000	4.1717e-02
14.000	18.250	5.6675e-02
14.000	18.500	6.8925e-02
14.000	18.750	7.8063e-02
14.000	19.000	8.5674e-02
14.000	19.250	9.2042e-02
14.000	19.500	9.9019e-02
14.000	19.750	1.0585e-01
14.000	20.000	1.1173e-01
14.000	20.250	1.1649e-01
14.000	20.500	1.2011e-01
14.000	20.750	1.2272e-01
14.000	21.000	1.2423e-01
14.000	21.250	1.2464e-01
14.000	21.500	1.2433e-01
14.000	21.750	1.2153e-01
14.000	22.000	1.1552e-01
14.000	22.250	1.0832e-01
14.000	22.500	1.0604e-01
14.000	22.750	1.2207e-01
14.000	23.000	1.6184e-01
14.000	23.250	1.8023e-01
14.000	23.500	1.8957e-01
14.000	23.750	1.8383e-01
14.000	24.000	1.5481e-01
