nFnu 1262.79A  relative to Inci 1215.00A scaled to 1215A.
Hden   Phi(H)  Eq_Width (A)
 7.000	17.000	1.0436e-01
 7.000	17.250	8.8243e-02
 7.000	17.500	8.2489e-02
 7.000	17.750	6.8221e-02
 7.000	18.000	5.8054e-02
 7.000	18.250	5.1693e-02
 7.000	18.500	4.7802e-02
 7.000	18.750	4.6000e-02
 7.000	19.000	4.5068e-02
 7.000	19.250	4.4536e-02
 7.000	19.500	4.4313e-02
 7.000	19.750	4.4220e-02
 7.000	20.000	4.4179e-02
 7.000	20.250	4.4160e-02
 7.000	20.500	4.4150e-02
 7.000	20.750	4.4146e-02
 7.000	21.000	4.4143e-02
 7.000	21.250	4.4142e-02
 7.000	21.500	4.4141e-02
 7.000	21.750	4.4141e-02
 7.000	22.000	4.4141e-02
 7.000	22.250	4.4141e-02
 7.000	22.500	4.4142e-02
 7.000	22.750	4.4142e-02
 7.000	23.000	4.4142e-02
 7.000	23.250	4.4142e-02
 7.000	23.500	4.4142e-02
 7.000	23.750	4.4142e-02
 7.000	24.000	4.4142e-02
 7.250	17.000	3.2095e-01
 7.250	17.250	9.9368e-02
 7.250	17.500	8.7656e-02
 7.250	17.750	8.2249e-02
 7.250	18.000	6.8094e-02
 7.250	18.250	5.7988e-02
 7.250	18.500	5.1662e-02
 7.250	18.750	4.7791e-02
 7.250	19.000	4.5996e-02
 7.250	19.250	4.5066e-02
 7.250	19.500	4.4535e-02
 7.250	19.750	4.4313e-02
 7.250	20.000	4.4220e-02
 7.250	20.250	4.4179e-02
 7.250	20.500	4.4160e-02
 7.250	20.750	4.4150e-02
 7.250	21.000	4.4145e-02
 7.250	21.250	4.4143e-02
 7.250	21.500	4.4141e-02
 7.250	21.750	4.4141e-02
 7.250	22.000	4.4140e-02
 7.250	22.250	4.4140e-02
 7.250	22.500	4.4140e-02
 7.250	22.750	4.4140e-02
 7.250	23.000	4.4141e-02
 7.250	23.250	4.4141e-02
 7.250	23.500	4.4141e-02
 7.250	23.750	4.4141e-02
 7.250	24.000	4.4141e-02
 7.500	17.000	4.5931e-01
 7.500	17.250	3.1057e-01
 7.500	17.500	9.5256e-02
 7.500	17.750	8.7233e-02
 7.500	18.000	8.2122e-02
 7.500	18.250	6.8026e-02
 7.500	18.500	5.7947e-02
 7.500	18.750	5.1642e-02
 7.500	19.000	4.7783e-02
 7.500	19.250	4.5993e-02
 7.500	19.500	4.5065e-02
 7.500	19.750	4.4535e-02
 7.500	20.000	4.4313e-02
 7.500	20.250	4.4220e-02
 7.500	20.500	4.4179e-02
 7.500	20.750	4.4160e-02
 7.500	21.000	4.4150e-02
 7.500	21.250	4.4145e-02
 7.500	21.500	4.4143e-02
 7.500	21.750	4.4141e-02
 7.500	22.000	4.4140e-02
 7.500	22.250	4.4140e-02
 7.500	22.500	4.4140e-02
 7.500	22.750	4.4140e-02
 7.500	23.000	4.4140e-02
 7.500	23.250	4.4140e-02
 7.500	23.500	4.4142e-02
 7.500	23.750	4.4140e-02
 7.500	24.000	4.4140e-02
 7.750	17.000	5.5733e-01
 7.750	17.250	4.4886e-01
 7.750	17.500	3.0180e-01
 7.750	17.750	9.2044e-02
 7.750	18.000	8.6917e-02
 7.750	18.250	8.2064e-02
 7.750	18.500	6.7994e-02
 7.750	18.750	5.7922e-02
 7.750	19.000	5.1630e-02
 7.750	19.250	4.7779e-02
 7.750	19.500	4.5991e-02
 7.750	19.750	4.5064e-02
 7.750	20.000	4.4535e-02
 7.750	20.250	4.4313e-02
 7.750	20.500	4.4220e-02
 7.750	20.750	4.4179e-02
 7.750	21.000	4.4160e-02
 7.750	21.250	4.4150e-02
 7.750	21.500	4.4145e-02
 7.750	21.750	4.4143e-02
 7.750	22.000	4.4141e-02
 7.750	22.250	4.4140e-02
 7.750	22.500	4.4140e-02
 7.750	22.750	4.4140e-02
 7.750	23.000	4.4140e-02
 7.750	23.250	4.4139e-02
 7.750	23.500	4.4139e-02
 7.750	23.750	4.4140e-02
 7.750	24.000	4.4139e-02
 8.000	17.000	6.2050e-01
 8.000	17.250	5.5075e-01
 8.000	17.500	4.3951e-01
 8.000	17.750	2.9620e-01
 8.000	18.000	9.3230e-02
 8.000	18.250	8.6647e-02
 8.000	18.500	8.2049e-02
 8.000	18.750	6.7986e-02
 8.000	19.000	5.7907e-02
 8.000	19.250	5.1622e-02
 8.000	19.500	4.7776e-02
 8.000	19.750	4.5990e-02
 8.000	20.000	4.5064e-02
 8.000	20.250	4.4535e-02
 8.000	20.500	4.4313e-02
 8.000	20.750	4.4220e-02
 8.000	21.000	4.4179e-02
 8.000	21.250	4.4160e-02
 8.000	21.500	4.4150e-02
 8.000	21.750	4.4145e-02
 8.000	22.000	4.4143e-02
 8.000	22.250	4.4141e-02
 8.000	22.500	4.4140e-02
 8.000	22.750	4.4140e-02
 8.000	23.000	4.4140e-02
 8.000	23.250	4.4140e-02
 8.000	23.500	4.4139e-02
 8.000	23.750	4.4139e-02
 8.000	24.000	4.4139e-02
 8.250	17.000	6.5759e-01
 8.250	17.250	6.1535e-01
 8.250	17.500	5.4238e-01
 8.250	17.750	4.2750e-01
 8.250	18.000	2.8360e-01
 8.250	18.250	9.0371e-02
 8.250	18.500	8.6546e-02
 8.250	18.750	8.2060e-02
 8.250	19.000	6.7994e-02
 8.250	19.250	5.7897e-02
 8.250	19.500	5.1617e-02
 8.250	19.750	4.7773e-02
 8.250	20.000	4.5989e-02
 8.250	20.250	4.5064e-02
 8.250	20.500	4.4535e-02
 8.250	20.750	4.4313e-02
 8.250	21.000	4.4220e-02
 8.250	21.250	4.4179e-02
 8.250	21.500	4.4160e-02
 8.250	21.750	4.4150e-02
 8.250	22.000	4.4145e-02
 8.250	22.250	4.4143e-02
 8.250	22.500	4.4141e-02
 8.250	22.750	4.4140e-02
 8.250	23.000	4.4140e-02
 8.250	23.250	4.4140e-02
 8.250	23.500	4.4139e-02
 8.250	23.750	4.4139e-02
 8.250	24.000	4.4139e-02
 8.500	17.000	6.8036e-01
 8.500	17.250	6.5377e-01
 8.500	17.500	6.0923e-01
 8.500	17.750	5.3077e-01
 8.500	18.000	4.0812e-01
 8.500	18.250	2.6553e-01
 8.500	18.500	8.5970e-02
 8.500	18.750	8.6511e-02
 8.500	19.000	8.2087e-02
 8.500	19.250	6.8013e-02
 8.500	19.500	5.7891e-02
 8.500	19.750	5.1613e-02
 8.500	20.000	4.7772e-02
 8.500	20.250	4.5989e-02
 8.500	20.500	4.5064e-02
 8.500	20.750	4.4535e-02
 8.500	21.000	4.4313e-02
 8.500	21.250	4.4220e-02
 8.500	21.500	4.4179e-02
 8.500	21.750	4.4160e-02
 8.500	22.000	4.4150e-02
 8.500	22.250	4.4145e-02
 8.500	22.500	4.4143e-02
 8.500	22.750	4.4141e-02
 8.500	23.000	4.4140e-02
 8.500	23.250	4.4140e-02
 8.500	23.500	4.4139e-02
 8.500	23.750	4.4139e-02
 8.500	24.000	4.4139e-02
 8.750	17.000	6.9495e-01
 8.750	17.250	6.7736e-01
 8.750	17.500	6.4894e-01
 8.750	17.750	5.9959e-01
 8.750	18.000	5.1184e-01
 8.750	18.250	3.7742e-01
 8.750	18.500	2.3006e-01
 8.750	18.750	8.3453e-02
 8.750	19.000	8.6510e-02
 8.750	19.250	8.2119e-02
 8.750	19.500	6.8039e-02
 8.750	19.750	5.7885e-02
 8.750	20.000	5.1610e-02
 8.750	20.250	4.7771e-02
 8.750	20.500	4.5989e-02
 8.750	20.750	4.5064e-02
 8.750	21.000	4.4535e-02
 8.750	21.250	4.4313e-02
 8.750	21.500	4.4220e-02
 8.750	21.750	4.4179e-02
 8.750	22.000	4.4160e-02
 8.750	22.250	4.4150e-02
 8.750	22.500	4.4145e-02
 8.750	22.750	4.4143e-02
 8.750	23.000	4.4141e-02
 8.750	23.250	4.4140e-02
 8.750	23.500	4.4140e-02
 8.750	23.750	4.4140e-02
 8.750	24.000	4.4139e-02
 9.000	17.000	7.0450e-01
 9.000	17.250	6.9246e-01
 9.000	17.500	6.7325e-01
 9.000	17.750	6.4119e-01
 9.000	18.000	5.8342e-01
 9.000	18.250	4.7948e-01
 9.000	18.500	3.3343e-01
 9.000	18.750	2.0372e-01
 9.000	19.000	8.2997e-02
 9.000	19.250	8.6492e-02
 9.000	19.500	8.2147e-02
 9.000	19.750	6.8066e-02
 9.000	20.000	5.7881e-02
 9.000	20.250	5.1607e-02
 9.000	20.500	4.7770e-02
 9.000	20.750	4.5988e-02
 9.000	21.000	4.5064e-02
 9.000	21.250	4.4535e-02
 9.000	21.500	4.4313e-02
 9.000	21.750	4.4220e-02
 9.000	22.000	4.4179e-02
 9.000	22.250	4.4160e-02
 9.000	22.500	4.4150e-02
 9.000	22.750	4.4145e-02
 9.000	23.000	4.4143e-02
 9.000	23.250	4.4141e-02
 9.000	23.500	4.4140e-02
 9.000	23.750	4.4140e-02
 9.000	24.000	4.4140e-02
 9.250	17.000	7.1066e-01
 9.250	17.250	7.0222e-01
 9.250	17.500	6.8881e-01
 9.250	17.750	6.6635e-01
 9.250	18.000	6.2671e-01
 9.250	18.250	5.5559e-01
 9.250	18.500	4.3544e-01
 9.250	18.750	2.8197e-01
 9.250	19.000	1.5505e-01
 9.250	19.250	8.2488e-02
 9.250	19.500	8.6436e-02
 9.250	19.750	8.2165e-02
 9.250	20.000	6.8091e-02
 9.250	20.250	5.7877e-02
 9.250	20.500	5.1604e-02
 9.250	20.750	4.7769e-02
 9.250	21.000	4.5988e-02
 9.250	21.250	4.5063e-02
 9.250	21.500	4.4526e-02
 9.250	21.750	4.4300e-02
 9.250	22.000	4.4206e-02
 9.250	22.250	4.4166e-02
 9.250	22.500	4.4159e-02
 9.250	22.750	4.4150e-02
 9.250	23.000	4.4145e-02
 9.250	23.250	4.4142e-02
 9.250	23.500	4.4141e-02
 9.250	23.750	4.4140e-02
 9.250	24.000	4.4140e-02
 9.500	17.000	7.1441e-01
 9.500	17.250	7.0845e-01
 9.500	17.500	6.9881e-01
 9.500	17.750	6.8253e-01
 9.500	18.000	6.5383e-01
 9.500	18.250	6.0366e-01
 9.500	18.500	5.1767e-01
 9.500	18.750	3.8533e-01
 9.500	19.000	2.4143e-01
 9.500	19.250	1.1772e-01
 9.500	19.500	8.1921e-02
 9.500	19.750	8.6300e-02
 9.500	20.000	8.2165e-02
 9.500	20.250	6.8111e-02
 9.500	20.500	5.7873e-02
 9.500	20.750	5.1601e-02
 9.500	21.000	4.7758e-02
 9.500	21.250	4.5975e-02
 9.500	21.500	4.5050e-02
 9.500	21.750	4.4518e-02
 9.500	22.000	4.4290e-02
 9.500	22.250	4.4197e-02
 9.500	22.500	4.4156e-02
 9.500	22.750	4.4136e-02
 9.500	23.000	4.4127e-02
 9.500	23.250	4.4122e-02
 9.500	23.500	4.4125e-02
 9.500	23.750	4.4123e-02
 9.500	24.000	4.4122e-02
 9.750	17.000	7.1654e-01
 9.750	17.250	7.1221e-01
 9.750	17.500	7.0510e-01
 9.750	17.750	6.9299e-01
 9.750	18.000	6.7154e-01
 9.750	18.250	6.3373e-01
 9.750	18.500	5.7177e-01
 9.750	18.750	4.7490e-01
 9.750	19.000	3.3773e-01
 9.750	19.250	1.9572e-01
 9.750	19.500	8.0904e-02
 9.750	19.750	8.1530e-02
 9.750	20.000	8.6130e-02
 9.750	20.250	8.2144e-02
 9.750	20.500	6.8125e-02
 9.750	20.750	5.7870e-02
 9.750	21.000	5.1600e-02
 9.750	21.250	4.7764e-02
 9.750	21.500	4.5977e-02
 9.750	21.750	4.5050e-02
 9.750	22.000	4.4520e-02
 9.750	22.250	4.4293e-02
 9.750	22.500	4.4196e-02
 9.750	22.750	4.4156e-02
 9.750	23.000	4.4137e-02
 9.750	23.250	4.4127e-02
 9.750	23.500	4.4122e-02
 9.750	23.750	4.4119e-02
 9.750	24.000	4.4117e-02
10.000	17.000	7.1761e-01
10.000	17.250	7.1426e-01
10.000	17.500	7.0884e-01
10.000	17.750	6.9934e-01
10.000	18.000	6.8236e-01
10.000	18.250	6.5284e-01
10.000	18.500	6.0637e-01
10.000	18.750	5.3646e-01
10.000	19.000	4.3064e-01
10.000	19.250	2.9504e-01
10.000	19.500	1.4643e-01
10.000	19.750	8.0865e-02
10.000	20.000	8.1542e-02
10.000	20.250	8.5905e-02
10.000	20.500	8.2107e-02
10.000	20.750	6.8134e-02
10.000	21.000	5.7867e-02
10.000	21.250	5.1598e-02
10.000	21.500	4.7765e-02
10.000	21.750	4.5984e-02
10.000	22.000	4.5051e-02
10.000	22.250	4.4521e-02
10.000	22.500	4.4296e-02
10.000	22.750	4.4198e-02
10.000	23.000	4.4155e-02
10.000	23.250	4.4136e-02
10.000	23.500	4.4127e-02
10.000	23.750	4.4122e-02
10.000	24.000	4.4120e-02
10.250	17.000	7.1821e-01
10.250	17.250	7.1521e-01
10.250	17.500	7.1077e-01
10.250	17.750	7.0300e-01
10.250	18.000	6.8883e-01
10.250	18.250	6.6506e-01
10.250	18.500	6.2910e-01
10.250	18.750	5.7637e-01
10.250	19.000	4.9995e-01
10.250	19.250	3.9438e-01
10.250	19.500	2.5755e-01
10.250	19.750	1.1607e-01
10.250	20.000	8.0357e-02
10.250	20.250	8.1936e-02
10.250	20.500	8.6012e-02
10.250	20.750	8.2077e-02
10.250	21.000	6.8139e-02
10.250	21.250	5.7865e-02
10.250	21.500	5.1597e-02
10.250	21.750	4.7765e-02
10.250	22.000	4.5987e-02
10.250	22.250	4.5056e-02
10.250	22.500	4.4522e-02
10.250	22.750	4.4298e-02
10.250	23.000	4.4201e-02
10.250	23.250	4.4158e-02
10.250	23.500	4.4137e-02
10.250	23.750	4.4126e-02
10.250	24.000	4.4121e-02
10.500	17.000	7.1857e-01
10.500	17.250	7.1569e-01
10.500	17.500	7.1154e-01
10.500	17.750	7.0466e-01
10.500	18.000	6.9218e-01
10.500	18.250	6.7185e-01
10.500	18.500	6.4350e-01
10.500	18.750	6.0402e-01
10.500	19.000	5.5159e-01
10.500	19.250	4.7951e-01
10.500	19.500	3.7457e-01
10.500	19.750	2.3016e-01
10.500	20.000	9.0487e-02
10.500	20.250	8.1814e-02
10.500	20.500	8.3194e-02
10.500	20.750	8.6596e-02
10.500	21.000	8.2084e-02
10.500	21.250	6.8139e-02
10.500	21.500	5.7864e-02
10.500	21.750	5.1596e-02
10.500	22.000	4.7764e-02
10.500	22.250	4.5988e-02
10.500	22.500	4.5061e-02
10.500	22.750	4.4522e-02
10.500	23.000	4.4299e-02
10.500	23.250	4.4204e-02
10.500	23.500	4.4161e-02
10.500	23.750	4.4140e-02
10.500	24.000	4.4129e-02
10.750	17.000	7.1864e-01
10.750	17.250	7.1581e-01
10.750	17.500	7.1164e-01
10.750	17.750	7.0463e-01
10.750	18.000	6.9289e-01
10.750	18.250	6.7525e-01
10.750	18.500	6.5220e-01
10.750	18.750	6.2394e-01
10.750	19.000	5.8835e-01
10.750	19.250	5.3893e-01
10.750	19.500	4.6545e-01
10.750	19.750	3.5478e-01
10.750	20.000	1.9951e-01
10.750	20.250	7.9046e-02
10.750	20.500	8.3573e-02
10.750	20.750	8.4887e-02
10.750	21.000	8.7844e-02
10.750	21.250	8.2179e-02
10.750	21.500	6.8138e-02
10.750	21.750	5.7864e-02
10.750	22.000	5.1597e-02
10.750	22.250	4.7763e-02
10.750	22.500	4.5988e-02
10.750	22.750	4.5063e-02
10.750	23.000	4.4524e-02
10.750	23.250	4.4300e-02
10.750	23.500	4.4205e-02
10.750	23.750	4.4163e-02
10.750	24.000	4.4143e-02
11.000	17.000	7.1777e-01
11.000	17.250	7.1549e-01
11.000	17.500	7.1094e-01
11.000	17.750	7.0325e-01
11.000	18.000	6.9142e-01
11.000	18.250	6.7533e-01
11.000	18.500	6.5580e-01
11.000	18.750	6.3513e-01
11.000	19.000	6.1172e-01
11.000	19.250	5.7849e-01
11.000	19.500	5.2840e-01
11.000	19.750	4.5093e-01
11.000	20.000	3.3330e-01
11.000	20.250	1.6791e-01
11.000	20.500	8.1744e-02
11.000	20.750	8.5815e-02
11.000	21.000	8.7869e-02
11.000	21.250	9.0333e-02
11.000	21.500	8.2387e-02
11.000	21.750	6.8143e-02
11.000	22.000	5.7864e-02
11.000	22.250	5.1598e-02
11.000	22.500	4.7762e-02
11.000	22.750	4.5988e-02
11.000	23.000	4.5064e-02
11.000	23.250	4.4531e-02
11.000	23.500	4.4300e-02
11.000	23.750	4.4206e-02
11.000	24.000	4.4165e-02
11.250	17.000	7.1593e-01
11.250	17.250	7.1408e-01
11.250	17.500	7.0913e-01
11.250	17.750	7.0030e-01
11.250	18.000	6.8746e-01
11.250	18.250	6.7157e-01
11.250	18.500	6.5537e-01
11.250	18.750	6.4018e-01
11.250	19.000	6.2447e-01
11.250	19.250	6.0255e-01
11.250	19.500	5.6930e-01
11.250	19.750	5.1744e-01
11.250	20.000	4.3658e-01
11.250	20.250	3.1100e-01
11.250	20.500	1.3598e-01
11.250	20.750	8.2946e-02
11.250	21.000	8.9279e-02
11.250	21.250	9.2216e-02
11.250	21.500	9.4404e-02
11.250	21.750	8.2756e-02
11.250	22.000	6.8159e-02
11.250	22.250	5.7866e-02
11.250	22.500	5.1598e-02
11.250	22.750	4.7761e-02
11.250	23.000	4.5988e-02
11.250	23.250	4.5064e-02
11.250	23.500	4.4534e-02
11.250	23.750	4.4302e-02
11.250	24.000	4.4207e-02
11.500	17.000	7.1426e-01
11.500	17.250	7.1151e-01
11.500	17.500	7.0562e-01
11.500	17.750	6.9506e-01
11.500	18.000	6.8001e-01
11.500	18.250	6.6351e-01
11.500	18.500	6.4999e-01
11.500	18.750	6.3867e-01
11.500	19.000	6.2787e-01
11.500	19.250	6.1409e-01
11.500	19.500	5.9319e-01
11.500	19.750	5.5957e-01
11.500	20.000	5.0670e-01
11.500	20.250	4.2129e-01
11.500	20.500	2.8761e-01
11.500	20.750	1.1115e-01
11.500	21.000	8.6707e-02
11.500	21.250	9.5513e-02
11.500	21.500	9.9424e-02
11.500	21.750	9.9870e-02
11.500	22.000	8.3204e-02
11.500	22.250	6.8191e-02
11.500	22.500	5.7867e-02
11.500	22.750	5.1600e-02
11.500	23.000	4.7759e-02
11.500	23.250	4.5987e-02
11.500	23.500	4.5065e-02
11.500	23.750	4.4535e-02
11.500	24.000	4.4308e-02
11.750	17.000	7.1266e-01
11.750	17.250	7.0810e-01
11.750	17.500	7.0004e-01
11.750	17.750	6.8626e-01
11.750	18.000	6.6779e-01
11.750	18.250	6.5103e-01
11.750	18.500	6.3957e-01
11.750	18.750	6.3116e-01
11.750	19.000	6.2336e-01
11.750	19.250	6.1448e-01
11.750	19.500	6.0230e-01
11.750	19.750	5.8233e-01
11.750	20.000	5.4974e-01
11.750	20.250	4.9566e-01
11.750	20.500	4.0539e-01
11.750	20.750	2.6277e-01
11.750	21.000	8.1629e-02
11.750	21.250	9.2679e-02
11.750	21.500	1.0402e-01
11.750	21.750	1.0904e-01
11.750	22.000	1.0420e-01
11.750	22.250	8.3651e-02
11.750	22.500	6.8238e-02
11.750	22.750	5.7868e-02
11.750	23.000	5.1604e-02
11.750	23.250	4.7757e-02
11.750	23.500	4.5987e-02
11.750	23.750	4.5065e-02
11.750	24.000	4.4535e-02
12.000	17.000	7.1130e-01
12.000	17.250	7.0349e-01
12.000	17.500	6.9107e-01
12.000	17.750	6.7217e-01
12.000	18.000	6.5035e-01
12.000	18.250	6.3447e-01
12.000	18.500	6.2427e-01
12.000	18.750	6.1730e-01
12.000	19.000	6.1163e-01
12.000	19.250	6.0649e-01
12.000	19.500	5.9982e-01
12.000	19.750	5.9032e-01
12.000	20.000	5.7267e-01
12.000	20.250	5.4044e-01
12.000	20.500	4.8463e-01
12.000	20.750	3.8887e-01
12.000	21.000	2.3792e-01
12.000	21.250	9.2847e-02
12.000	21.500	1.0118e-01
12.000	21.750	1.1570e-01
12.000	22.000	1.1940e-01
12.000	22.250	1.0643e-01
12.000	22.500	8.4144e-02
12.000	22.750	6.8296e-02
12.000	23.000	5.7866e-02
12.000	23.250	5.1608e-02
12.000	23.500	4.7755e-02
12.000	23.750	4.5986e-02
12.000	24.000	4.5065e-02
12.250	17.000	7.0453e-01
12.250	17.250	6.9432e-01
12.250	17.500	6.7642e-01
12.250	17.750	6.5136e-01
12.250	18.000	6.2852e-01
12.250	18.250	6.1364e-01
12.250	18.500	6.0525e-01
12.250	18.750	5.9948e-01
12.250	19.000	5.9550e-01
12.250	19.250	5.9301e-01
12.250	19.500	5.9082e-01
12.250	19.750	5.8722e-01
12.250	20.000	5.8034e-01
12.250	20.250	5.6345e-01
12.250	20.500	5.3149e-01
12.250	20.750	4.7339e-01
12.250	21.000	3.7198e-01
12.250	21.250	2.1373e-01
12.250	21.500	9.6172e-02
12.250	21.750	1.1288e-01
12.250	22.000	1.2962e-01
12.250	22.250	1.2969e-01
12.250	22.500	1.0840e-01
12.250	22.750	8.4616e-02
12.250	23.000	6.8347e-02
12.250	23.250	5.7862e-02
12.250	23.500	5.1611e-02
12.250	23.750	4.7751e-02
12.250	24.000	4.5985e-02
12.500	17.000	5.9798e-01
12.500	17.250	6.7097e-01
12.500	17.500	6.4896e-01
12.500	17.750	6.2324e-01
12.500	18.000	6.0355e-01
12.500	18.250	5.9176e-01
12.500	18.500	5.8454e-01
12.500	18.750	5.8040e-01
12.500	19.000	5.7846e-01
12.500	19.250	5.7815e-01
12.500	19.500	5.7869e-01
12.500	19.750	5.7898e-01
12.500	20.000	5.7721e-01
12.500	20.250	5.7096e-01
12.500	20.500	5.5492e-01
12.500	20.750	5.2235e-01
12.500	21.000	4.6190e-01
12.500	21.250	3.5489e-01
12.500	21.500	1.9956e-01
12.500	21.750	1.0953e-01
12.500	22.000	1.2849e-01
12.500	22.250	1.4515e-01
12.500	22.500	1.3781e-01
12.500	22.750	1.1030e-01
12.500	23.000	8.5135e-02
12.500	23.250	6.8385e-02
12.500	23.500	5.7855e-02
12.500	23.750	5.1612e-02
12.500	24.000	4.7746e-02
12.750	17.000	3.7999e-01
12.750	17.250	5.8001e-01
12.750	17.500	6.0764e-01
12.750	17.750	5.8998e-01
12.750	18.000	5.7478e-01
12.750	18.250	5.6710e-01
12.750	18.500	5.6317e-01
12.750	18.750	5.6149e-01
12.750	19.000	5.6162e-01
12.750	19.250	5.6311e-01
12.750	19.500	5.6567e-01
12.750	19.750	5.6819e-01
12.750	20.000	5.6962e-01
12.750	20.250	5.6832e-01
12.750	20.500	5.6249e-01
12.750	20.750	5.4615e-01
12.750	21.000	5.1248e-01
12.750	21.250	4.4936e-01
12.750	21.500	3.4204e-01
12.750	21.750	1.8111e-01
12.750	22.000	1.2656e-01
12.750	22.250	1.4665e-01
12.750	22.500	1.6154e-01
12.750	22.750	1.4447e-01
12.750	23.000	1.1180e-01
12.750	23.250	8.5632e-02
12.750	23.500	6.8446e-02
12.750	23.750	5.7844e-02
12.750	24.000	5.1608e-02
13.000	17.000	8.0959e-02
13.000	17.250	1.7383e-01
13.000	17.500	4.4637e-01
13.000	17.750	5.4636e-01
13.000	18.000	5.4539e-01
13.000	18.250	5.4150e-01
13.000	18.500	5.4052e-01
13.000	18.750	5.4202e-01
13.000	19.000	5.4507e-01
13.000	19.250	5.4884e-01
13.000	19.500	5.5233e-01
13.000	19.750	5.5619e-01
13.000	20.000	5.5934e-01
13.000	20.250	5.6083e-01
13.000	20.500	5.5948e-01
13.000	20.750	5.5335e-01
13.000	21.000	5.3572e-01
13.000	21.250	5.0113e-01
13.000	21.500	4.3868e-01
13.000	21.750	3.1931e-01
13.000	22.000	1.6627e-01
13.000	22.250	1.4547e-01
13.000	22.500	1.6635e-01
13.000	22.750	1.7415e-01
13.000	23.000	1.4980e-01
13.000	23.250	1.1356e-01
13.000	23.500	8.6233e-02
13.000	23.750	6.8478e-02
13.000	24.000	5.7824e-02
13.250	17.000	5.0058e-02
13.250	17.250	8.8748e-02
13.250	17.500	1.9272e-01
13.250	17.750	3.6019e-01
13.250	18.000	4.5873e-01
13.250	18.250	5.1604e-01
13.250	18.500	5.1717e-01
13.250	18.750	5.2065e-01
13.250	19.000	5.2662e-01
13.250	19.250	5.3310e-01
13.250	19.500	5.3913e-01
13.250	19.750	5.4403e-01
13.250	20.000	5.4799e-01
13.250	20.250	5.5089e-01
13.250	20.500	5.5174e-01
13.250	20.750	5.4965e-01
13.250	21.000	5.4209e-01
13.250	21.250	5.2256e-01
13.250	21.500	4.8608e-01
13.250	21.750	4.1162e-01
13.250	22.000	2.8648e-01
13.250	22.250	1.5974e-01
13.250	22.500	1.6305e-01
13.250	22.750	1.8001e-01
13.250	23.000	1.8184e-01
13.250	23.250	1.5484e-01
13.250	23.500	1.1502e-01
13.250	23.750	8.6561e-02
13.250	24.000	6.8445e-02
13.500	17.000	3.1070e-02
13.500	17.250	5.7459e-02
13.500	17.500	1.1777e-01
13.500	17.750	2.2623e-01
13.500	18.000	3.7778e-01
13.500	18.250	4.4765e-01
13.500	18.500	4.9246e-01
13.500	18.750	4.9811e-01
13.500	19.000	5.0573e-01
13.500	19.250	5.1459e-01
13.500	19.500	5.2331e-01
13.500	19.750	5.3075e-01
13.500	20.000	5.3634e-01
13.500	20.250	5.3995e-01
13.500	20.500	5.4179e-01
13.500	20.750	5.4136e-01
13.500	21.000	5.3678e-01
13.500	21.250	5.2631e-01
13.500	21.500	5.0335e-01
13.500	21.750	4.5630e-01
13.500	22.000	3.7108e-01
13.500	22.250	2.4465e-01
13.500	22.500	1.6384e-01
13.500	22.750	1.8192e-01
13.500	23.000	1.9347e-01
13.500	23.250	1.9053e-01
13.500	23.500	1.5976e-01
13.500	23.750	1.1634e-01
13.500	24.000	8.6781e-02
13.750	17.000	1.9733e-02
13.750	17.250	3.7052e-02
13.750	17.500	7.4069e-02
13.750	17.750	1.3222e-01
13.750	18.000	2.5567e-01
13.750	18.250	3.8523e-01
13.750	18.500	4.3163e-01
13.750	18.750	4.7324e-01
13.750	19.000	4.8294e-01
13.750	19.250	4.9348e-01
13.750	19.500	5.0437e-01
13.750	19.750	5.1448e-01
13.750	20.000	5.2264e-01
13.750	20.250	5.2854e-01
13.750	20.500	5.3181e-01
13.750	20.750	5.3193e-01
13.750	21.000	5.2888e-01
13.750	21.250	5.2042e-01
13.750	21.500	5.0620e-01
13.750	21.750	4.7188e-01
13.750	22.000	4.1079e-01
13.750	22.250	3.1542e-01
13.750	22.500	2.0968e-01
13.750	22.750	1.9047e-01
13.750	23.000	2.0448e-01
13.750	23.250	2.1087e-01
13.750	23.500	2.0008e-01
13.750	23.750	1.6436e-01
13.750	24.000	1.1736e-01
14.000	17.000	1.2579e-02
14.000	17.250	2.2851e-02
14.000	17.500	4.6958e-02
14.000	17.750	8.5797e-02
14.000	18.000	1.5150e-01
14.000	18.250	2.7274e-01
14.000	18.500	3.7771e-01
14.000	18.750	4.3182e-01
14.000	19.000	4.5771e-01
14.000	19.250	4.7014e-01
14.000	19.500	4.8297e-01
14.000	19.750	4.9524e-01
14.000	20.000	5.0581e-01
14.000	20.250	5.1432e-01
14.000	20.500	5.1999e-01
14.000	20.750	5.2251e-01
14.000	21.000	5.2079e-01
14.000	21.250	5.1364e-01
14.000	21.500	5.0218e-01
14.000	21.750	4.7573e-01
14.000	22.000	4.2666e-01
14.000	22.250	3.5301e-01
14.000	22.500	2.6558e-01
14.000	22.750	2.0456e-01
14.000	23.000	2.3582e-01
14.000	23.250	2.4247e-01
14.000	23.500	2.3644e-01
14.000	23.750	2.1402e-01
14.000	24.000	1.6787e-01
