InwC 3648.00A  relative to Inci 1215.00A scaled to 1215A.
Hden   Phi(H)  Eq_Width (A)
 7.000	17.000	2.9566e-02
 7.000	17.250	3.0909e-02
 7.000	17.500	3.1694e-02
 7.000	17.750	3.1708e-02
 7.000	18.000	3.1723e-02
 7.000	18.250	3.1741e-02
 7.000	18.500	3.1749e-02
 7.000	18.750	3.1753e-02
 7.000	19.000	3.1757e-02
 7.000	19.250	3.1760e-02
 7.000	19.500	3.1761e-02
 7.000	19.750	3.1761e-02
 7.000	20.000	3.1761e-02
 7.000	20.250	3.1762e-02
 7.000	20.500	3.1762e-02
 7.000	20.750	3.1762e-02
 7.000	21.000	3.1762e-02
 7.000	21.250	3.1762e-02
 7.000	21.500	3.1762e-02
 7.000	21.750	3.1762e-02
 7.000	22.000	3.1763e-02
 7.000	22.250	3.1763e-02
 7.000	22.500	3.1763e-02
 7.000	22.750	3.1764e-02
 7.000	23.000	3.1764e-02
 7.000	23.250	3.1764e-02
 7.000	23.500	3.1764e-02
 7.000	23.750	3.1764e-02
 7.000	24.000	3.1764e-02
 7.250	17.000	2.2036e-02
 7.250	17.250	2.9671e-02
 7.250	17.500	3.0915e-02
 7.250	17.750	3.1694e-02
 7.250	18.000	3.1708e-02
 7.250	18.250	3.1723e-02
 7.250	18.500	3.1740e-02
 7.250	18.750	3.1749e-02
 7.250	19.000	3.1753e-02
 7.250	19.250	3.1757e-02
 7.250	19.500	3.1760e-02
 7.250	19.750	3.1761e-02
 7.250	20.000	3.1761e-02
 7.250	20.250	3.1761e-02
 7.250	20.500	3.1762e-02
 7.250	20.750	3.1762e-02
 7.250	21.000	3.1762e-02
 7.250	21.250	3.1762e-02
 7.250	21.500	3.1762e-02
 7.250	21.750	3.1762e-02
 7.250	22.000	3.1762e-02
 7.250	22.250	3.1762e-02
 7.250	22.500	3.1762e-02
 7.250	22.750	3.1762e-02
 7.250	23.000	3.1763e-02
 7.250	23.250	3.1763e-02
 7.250	23.500	3.1763e-02
 7.250	23.750	3.1763e-02
 7.250	24.000	3.1763e-02
 7.500	17.000	1.6261e-02
 7.500	17.250	2.2315e-02
 7.500	17.500	2.9751e-02
 7.500	17.750	3.0921e-02
 7.500	18.000	3.1694e-02
 7.500	18.250	3.1708e-02
 7.500	18.500	3.1723e-02
 7.500	18.750	3.1740e-02
 7.500	19.000	3.1749e-02
 7.500	19.250	3.1753e-02
 7.500	19.500	3.1757e-02
 7.500	19.750	3.1760e-02
 7.500	20.000	3.1761e-02
 7.500	20.250	3.1761e-02
 7.500	20.500	3.1761e-02
 7.500	20.750	3.1761e-02
 7.500	21.000	3.1762e-02
 7.500	21.250	3.1762e-02
 7.500	21.500	3.1762e-02
 7.500	21.750	3.1762e-02
 7.500	22.000	3.1762e-02
 7.500	22.250	3.1762e-02
 7.500	22.500	3.1762e-02
 7.500	22.750	3.1762e-02
 7.500	23.000	3.1762e-02
 7.500	23.250	3.1762e-02
 7.500	23.500	3.1764e-02
 7.500	23.750	3.1762e-02
 7.500	24.000	3.1762e-02
 7.750	17.000	1.1473e-02
 7.750	17.250	1.6596e-02
 7.750	17.500	2.2542e-02
 7.750	17.750	2.9810e-02
 7.750	18.000	3.0926e-02
 7.750	18.250	3.1694e-02
 7.750	18.500	3.1708e-02
 7.750	18.750	3.1723e-02
 7.750	19.000	3.1740e-02
 7.750	19.250	3.1749e-02
 7.750	19.500	3.1753e-02
 7.750	19.750	3.1757e-02
 7.750	20.000	3.1760e-02
 7.750	20.250	3.1761e-02
 7.750	20.500	3.1761e-02
 7.750	20.750	3.1761e-02
 7.750	21.000	3.1761e-02
 7.750	21.250	3.1762e-02
 7.750	21.500	3.1762e-02
 7.750	21.750	3.1762e-02
 7.750	22.000	3.1762e-02
 7.750	22.250	3.1762e-02
 7.750	22.500	3.1762e-02
 7.750	22.750	3.1762e-02
 7.750	23.000	3.1762e-02
 7.750	23.250	3.1762e-02
 7.750	23.500	3.1762e-02
 7.750	23.750	3.1762e-02
 7.750	24.000	3.1762e-02
 8.000	17.000	7.8820e-03
 8.000	17.250	1.1683e-02
 8.000	17.500	1.6868e-02
 8.000	17.750	2.2646e-02
 8.000	18.000	2.9733e-02
 8.000	18.250	3.0924e-02
 8.000	18.500	3.1694e-02
 8.000	18.750	3.1708e-02
 8.000	19.000	3.1723e-02
 8.000	19.250	3.1741e-02
 8.000	19.500	3.1749e-02
 8.000	19.750	3.1753e-02
 8.000	20.000	3.1757e-02
 8.000	20.250	3.1760e-02
 8.000	20.500	3.1761e-02
 8.000	20.750	3.1761e-02
 8.000	21.000	3.1761e-02
 8.000	21.250	3.1761e-02
 8.000	21.500	3.1762e-02
 8.000	21.750	3.1762e-02
 8.000	22.000	3.1762e-02
 8.000	22.250	3.1762e-02
 8.000	22.500	3.1762e-02
 8.000	22.750	3.1762e-02
 8.000	23.000	3.1762e-02
 8.000	23.250	3.1762e-02
 8.000	23.500	3.1762e-02
 8.000	23.750	3.1762e-02
 8.000	24.000	3.1762e-02
 8.250	17.000	5.5016e-03
 8.250	17.250	8.0706e-03
 8.250	17.500	1.2004e-02
 8.250	17.750	1.7263e-02
 8.250	18.000	2.2996e-02
 8.250	18.250	2.9799e-02
 8.250	18.500	3.0929e-02
 8.250	18.750	3.1695e-02
 8.250	19.000	3.1709e-02
 8.250	19.250	3.1723e-02
 8.250	19.500	3.1740e-02
 8.250	19.750	3.1749e-02
 8.250	20.000	3.1753e-02
 8.250	20.250	3.1757e-02
 8.250	20.500	3.1760e-02
 8.250	20.750	3.1761e-02
 8.250	21.000	3.1761e-02
 8.250	21.250	3.1761e-02
 8.250	21.500	3.1761e-02
 8.250	21.750	3.1762e-02
 8.250	22.000	3.1762e-02
 8.250	22.250	3.1762e-02
 8.250	22.500	3.1762e-02
 8.250	22.750	3.1762e-02
 8.250	23.000	3.1762e-02
 8.250	23.250	3.1762e-02
 8.250	23.500	3.1762e-02
 8.250	23.750	3.1762e-02
 8.250	24.000	3.1762e-02
 8.500	17.000	3.9096e-03
 8.500	17.250	5.6403e-03
 8.500	17.500	8.3212e-03
 8.500	17.750	1.2459e-02
 8.500	18.000	1.7929e-02
 8.500	18.250	2.3508e-02
 8.500	18.500	2.9918e-02
 8.500	18.750	3.0933e-02
 8.500	19.000	3.1695e-02
 8.500	19.250	3.1709e-02
 8.500	19.500	3.1723e-02
 8.500	19.750	3.1741e-02
 8.500	20.000	3.1749e-02
 8.500	20.250	3.1753e-02
 8.500	20.500	3.1757e-02
 8.500	20.750	3.1760e-02
 8.500	21.000	3.1761e-02
 8.500	21.250	3.1761e-02
 8.500	21.500	3.1761e-02
 8.500	21.750	3.1762e-02
 8.500	22.000	3.1762e-02
 8.500	22.250	3.1762e-02
 8.500	22.500	3.1762e-02
 8.500	22.750	3.1762e-02
 8.500	23.000	3.1762e-02
 8.500	23.250	3.1762e-02
 8.500	23.500	3.1762e-02
 8.500	23.750	3.1762e-02
 8.500	24.000	3.1762e-02
 8.750	17.000	2.8110e-03
 8.750	17.250	4.0095e-03
 8.750	17.500	5.8356e-03
 8.750	17.750	8.7385e-03
 8.750	18.000	1.3221e-02
 8.750	18.250	1.8958e-02
 8.750	18.500	2.4506e-02
 8.750	18.750	2.9980e-02
 8.750	19.000	3.0937e-02
 8.750	19.250	3.1695e-02
 8.750	19.500	3.1709e-02
 8.750	19.750	3.1724e-02
 8.750	20.000	3.1741e-02
 8.750	20.250	3.1749e-02
 8.750	20.500	3.1753e-02
 8.750	20.750	3.1757e-02
 8.750	21.000	3.1760e-02
 8.750	21.250	3.1761e-02
 8.750	21.500	3.1761e-02
 8.750	21.750	3.1761e-02
 8.750	22.000	3.1762e-02
 8.750	22.250	3.1761e-02
 8.750	22.500	3.1762e-02
 8.750	22.750	3.1762e-02
 8.750	23.000	3.1762e-02
 8.750	23.250	3.1762e-02
 8.750	23.500	3.1762e-02
 8.750	23.750	3.1762e-02
 8.750	24.000	3.1762e-02
 9.000	17.000	2.0411e-03
 9.000	17.250	2.8845e-03
 9.000	17.500	4.1635e-03
 9.000	17.750	6.1697e-03
 9.000	18.000	9.4481e-03
 9.000	18.250	1.4480e-02
 9.000	18.500	2.0382e-02
 9.000	18.750	2.5295e-02
 9.000	19.000	2.9975e-02
 9.000	19.250	3.0938e-02
 9.000	19.500	3.1695e-02
 9.000	19.750	3.1709e-02
 9.000	20.000	3.1724e-02
 9.000	20.250	3.1741e-02
 9.000	20.500	3.1749e-02
 9.000	20.750	3.1753e-02
 9.000	21.000	3.1757e-02
 9.000	21.250	3.1760e-02
 9.000	21.500	3.1761e-02
 9.000	21.750	3.1761e-02
 9.000	22.000	3.1761e-02
 9.000	22.250	3.1761e-02
 9.000	22.500	3.1761e-02
 9.000	22.750	3.1761e-02
 9.000	23.000	3.1762e-02
 9.000	23.250	3.1762e-02
 9.000	23.500	3.1762e-02
 9.000	23.750	3.1762e-02
 9.000	24.000	3.1762e-02
 9.250	17.000	1.4968e-03
 9.250	17.250	2.0940e-03
 9.250	17.500	3.0049e-03
 9.250	17.750	4.4414e-03
 9.250	18.000	6.8258e-03
 9.250	18.250	1.0682e-02
 9.250	18.500	1.6150e-02
 9.250	18.750	2.2001e-02
 9.250	19.000	2.6777e-02
 9.250	19.250	2.9964e-02
 9.250	19.500	3.0935e-02
 9.250	19.750	3.1695e-02
 9.250	20.000	3.1709e-02
 9.250	20.250	3.1724e-02
 9.250	20.500	3.1740e-02
 9.250	20.750	3.1749e-02
 9.250	21.000	3.1753e-02
 9.250	21.250	3.1757e-02
 9.250	21.500	3.1754e-02
 9.250	21.750	3.1751e-02
 9.250	22.000	3.1751e-02
 9.250	22.250	3.1752e-02
 9.250	22.500	3.1761e-02
 9.250	22.750	3.1761e-02
 9.250	23.000	3.1761e-02
 9.250	23.250	3.1761e-02
 9.250	23.500	3.1761e-02
 9.250	23.750	3.1762e-02
 9.250	24.000	3.1762e-02
 9.500	17.000	1.1105e-03
 9.500	17.250	1.5365e-03
 9.500	17.500	2.1882e-03
 9.500	17.750	3.2361e-03
 9.500	18.000	5.0167e-03
 9.500	18.250	7.9147e-03
 9.500	18.500	1.2273e-02
 9.500	18.750	1.7900e-02
 9.500	19.000	2.3292e-02
 9.500	19.250	2.8005e-02
 9.500	19.500	2.9946e-02
 9.500	19.750	3.0927e-02
 9.500	20.000	3.1694e-02
 9.500	20.250	3.1709e-02
 9.500	20.500	3.1724e-02
 9.500	20.750	3.1740e-02
 9.500	21.000	3.1742e-02
 9.500	21.250	3.1744e-02
 9.500	21.500	3.1747e-02
 9.500	21.750	3.1747e-02
 9.500	22.000	3.1744e-02
 9.500	22.250	3.1745e-02
 9.500	22.500	3.1745e-02
 9.500	22.750	3.1744e-02
 9.500	23.000	3.1744e-02
 9.500	23.250	3.1745e-02
 9.500	23.500	3.1749e-02
 9.500	23.750	3.1749e-02
 9.500	24.000	3.1749e-02
 9.750	17.000	8.3605e-04
 9.750	17.250	1.1389e-03
 9.750	17.500	1.6075e-03
 9.750	17.750	2.3773e-03
 9.750	18.000	3.7079e-03
 9.750	18.250	5.9330e-03
 9.750	18.500	9.2648e-03
 9.750	18.750	1.3868e-02
 9.750	19.000	1.9463e-02
 9.750	19.250	2.4773e-02
 9.750	19.500	2.9356e-02
 9.750	19.750	2.9923e-02
 9.750	20.000	3.0914e-02
 9.750	20.250	3.1694e-02
 9.750	20.500	3.1709e-02
 9.750	20.750	3.1724e-02
 9.750	21.000	3.1740e-02
 9.750	21.250	3.1747e-02
 9.750	21.500	3.1746e-02
 9.750	21.750	3.1748e-02
 9.750	22.000	3.1749e-02
 9.750	22.250	3.1746e-02
 9.750	22.500	3.1744e-02
 9.750	22.750	3.1745e-02
 9.750	23.000	3.1745e-02
 9.750	23.250	3.1745e-02
 9.750	23.500	3.1745e-02
 9.750	23.750	3.1744e-02
 9.750	24.000	3.1744e-02
10.000	17.000	6.4008e-04
10.000	17.250	8.5712e-04
10.000	17.500	1.1947e-03
10.000	17.750	1.7624e-03
10.000	18.000	2.7742e-03
10.000	18.250	4.4675e-03
10.000	18.500	6.9985e-03
10.000	18.750	1.0543e-02
10.000	19.000	1.5357e-02
10.000	19.250	2.0832e-02
10.000	19.500	2.6375e-02
10.000	19.750	2.9369e-02
10.000	20.000	2.9899e-02
10.000	20.250	3.0892e-02
10.000	20.500	3.1691e-02
10.000	20.750	3.1709e-02
10.000	21.000	3.1724e-02
10.000	21.250	3.1740e-02
10.000	21.500	3.1748e-02
10.000	21.750	3.1750e-02
10.000	22.000	3.1748e-02
10.000	22.250	3.1750e-02
10.000	22.500	3.1748e-02
10.000	22.750	3.1746e-02
10.000	23.000	3.1744e-02
10.000	23.250	3.1745e-02
10.000	23.500	3.1745e-02
10.000	23.750	3.1745e-02
10.000	24.000	3.1745e-02
10.250	17.000	5.0082e-04
10.250	17.250	6.5654e-04
10.250	17.500	9.0148e-04
10.250	17.750	1.3225e-03
10.250	18.000	2.0854e-03
10.250	18.250	3.3628e-03
10.250	18.500	5.2446e-03
10.250	18.750	7.9386e-03
10.250	19.000	1.1641e-02
10.250	19.250	1.6478e-02
10.250	19.500	2.2096e-02
10.250	19.750	2.7490e-02
10.250	20.000	2.9336e-02
10.250	20.250	2.9872e-02
10.250	20.500	3.0878e-02
10.250	20.750	3.1688e-02
10.250	21.000	3.1709e-02
10.250	21.250	3.1724e-02
10.250	21.500	3.1740e-02
10.250	21.750	3.1749e-02
10.250	22.000	3.1752e-02
10.250	22.250	3.1752e-02
10.250	22.500	3.1750e-02
10.250	22.750	3.1750e-02
10.250	23.000	3.1748e-02
10.250	23.250	3.1746e-02
10.250	23.500	3.1745e-02
10.250	23.750	3.1744e-02
10.250	24.000	3.1744e-02
10.500	17.000	4.0214e-04
10.500	17.250	5.1407e-04
10.500	17.500	6.9292e-04
10.500	17.750	1.0076e-03
10.500	18.000	1.5793e-03
10.500	18.250	2.5304e-03
10.500	18.500	3.9094e-03
10.500	18.750	5.9049e-03
10.500	19.000	8.6680e-03
10.500	19.250	1.2431e-02
10.500	19.500	1.7302e-02
10.500	19.750	2.3114e-02
10.500	20.000	2.8467e-02
10.500	20.250	2.9313e-02
10.500	20.500	2.9865e-02
10.500	20.750	3.0882e-02
10.500	21.000	3.1681e-02
10.500	21.250	3.1707e-02
10.500	21.500	3.1724e-02
10.500	21.750	3.1740e-02
10.500	22.000	3.1749e-02
10.500	22.250	3.1753e-02
10.500	22.500	3.1755e-02
10.500	22.750	3.1750e-02
10.500	23.000	3.1751e-02
10.500	23.250	3.1750e-02
10.500	23.500	3.1748e-02
10.500	23.750	3.1747e-02
10.500	24.000	3.1746e-02
10.750	17.000	3.3193e-04
10.750	17.250	4.1259e-04
10.750	17.500	5.4395e-04
10.750	17.750	7.7877e-04
10.750	18.000	1.2033e-03
10.750	18.250	1.8927e-03
10.750	18.500	2.8976e-03
10.750	18.750	4.3487e-03
10.750	19.000	6.3821e-03
10.750	19.250	9.1958e-03
10.750	19.500	1.3046e-02
10.750	19.750	1.8091e-02
10.750	20.000	2.4170e-02
10.750	20.250	2.8946e-02
10.750	20.500	2.9295e-02
10.750	20.750	2.9858e-02
10.750	21.000	3.0913e-02
10.750	21.250	3.1673e-02
10.750	21.500	3.1705e-02
10.750	21.750	3.1723e-02
10.750	22.000	3.1740e-02
10.750	22.250	3.1749e-02
10.750	22.500	3.1753e-02
10.750	22.750	3.1756e-02
10.750	23.000	3.1752e-02
10.750	23.250	3.1751e-02
10.750	23.500	3.1751e-02
10.750	23.750	3.1750e-02
10.750	24.000	3.1749e-02
11.000	17.000	2.8165e-04
11.000	17.250	3.3959e-04
11.000	17.500	4.3605e-04
11.000	17.750	6.1004e-04
11.000	18.000	9.2082e-04
11.000	18.250	1.4142e-03
11.000	18.500	2.1423e-03
11.000	18.750	3.2118e-03
11.000	19.000	4.6902e-03
11.000	19.250	6.7249e-03
11.000	19.500	9.6122e-03
11.000	19.750	1.3614e-02
11.000	20.000	1.8860e-02
11.000	20.250	2.5177e-02
11.000	20.500	2.8920e-02
11.000	20.750	2.9284e-02
11.000	21.000	2.9886e-02
11.000	21.250	3.1003e-02
11.000	21.500	3.1665e-02
11.000	21.750	3.1701e-02
11.000	22.000	3.1721e-02
11.000	22.250	3.1739e-02
11.000	22.500	3.1749e-02
11.000	22.750	3.1753e-02
11.000	23.000	3.1757e-02
11.000	23.250	3.1757e-02
11.000	23.500	3.1751e-02
11.000	23.750	3.1751e-02
11.000	24.000	3.1751e-02
11.250	17.000	2.4568e-04
11.250	17.250	2.8675e-04
11.250	17.500	3.5671e-04
11.250	17.750	4.8436e-04
11.250	18.000	7.0840e-04
11.250	18.250	1.0587e-03
11.250	18.500	1.5730e-03
11.250	18.750	2.3348e-03
11.250	19.000	3.3974e-03
11.250	19.250	4.8984e-03
11.250	19.500	6.9909e-03
11.250	19.750	9.9783e-03
11.250	20.000	1.4101e-02
11.250	20.250	1.9587e-02
11.250	20.500	2.6171e-02
11.250	20.750	2.8877e-02
11.250	21.000	2.9289e-02
11.250	21.250	2.9970e-02
11.250	21.500	3.1189e-02
11.250	21.750	3.1658e-02
11.250	22.000	3.1695e-02
11.250	22.250	3.1718e-02
11.250	22.500	3.1737e-02
11.250	22.750	3.1748e-02
11.250	23.000	3.1753e-02
11.250	23.250	3.1757e-02
11.250	23.500	3.1759e-02
11.250	23.750	3.1753e-02
11.250	24.000	3.1752e-02
11.500	17.000	2.2033e-04
11.500	17.250	2.4905e-04
11.500	17.500	2.9901e-04
11.500	17.750	3.9053e-04
11.500	18.000	5.4914e-04
11.500	18.250	7.9646e-04
11.500	18.500	1.1585e-03
11.500	18.750	1.6994e-03
11.500	19.000	2.4531e-03
11.500	19.250	3.5323e-03
11.500	19.500	5.0495e-03
11.500	19.750	7.2146e-03
11.500	20.000	1.0296e-02
11.500	20.250	1.4594e-02
11.500	20.500	2.0317e-02
11.500	20.750	2.6941e-02
11.500	21.000	2.8850e-02
11.500	21.250	2.9339e-02
11.500	21.500	3.0161e-02
11.500	21.750	3.1439e-02
11.500	22.000	3.1648e-02
11.500	22.250	3.1689e-02
11.500	22.500	3.1713e-02
11.500	22.750	3.1735e-02
11.500	23.000	3.1747e-02
11.500	23.250	3.1752e-02
11.500	23.500	3.1756e-02
11.500	23.750	3.1759e-02
11.500	24.000	3.1757e-02
11.750	17.000	2.0296e-04
11.750	17.250	2.2230e-04
11.750	17.500	2.5728e-04
11.750	17.750	3.2123e-04
11.750	18.000	4.3119e-04
11.750	18.250	6.0280e-04
11.750	18.500	8.5687e-04
11.750	18.750	1.2305e-03
11.750	19.000	1.7767e-03
11.750	19.250	2.5437e-03
11.750	19.500	3.6455e-03
11.750	19.750	5.2043e-03
11.750	20.000	7.4227e-03
11.750	20.250	1.0600e-02
11.750	20.500	1.5099e-02
11.750	20.750	2.1064e-02
11.750	21.000	2.7769e-02
11.750	21.250	2.8839e-02
11.750	21.500	2.9449e-02
11.750	21.750	3.0464e-02
11.750	22.000	3.1566e-02
11.750	22.250	3.1635e-02
11.750	22.500	3.1681e-02
11.750	22.750	3.1707e-02
11.750	23.000	3.1731e-02
11.750	23.250	3.1746e-02
11.750	23.500	3.1752e-02
11.750	23.750	3.1756e-02
11.750	24.000	3.1760e-02
12.000	17.000	1.9070e-04
12.000	17.250	2.0370e-04
12.000	17.500	2.2724e-04
12.000	17.750	2.7053e-04
12.000	18.000	3.4486e-04
12.000	18.250	4.6173e-04
12.000	18.500	6.3984e-04
12.000	18.750	9.0428e-04
12.000	19.000	1.2918e-03
12.000	19.250	1.8411e-03
12.000	19.500	2.6246e-03
12.000	19.750	3.7380e-03
12.000	20.000	5.3216e-03
12.000	20.250	7.6105e-03
12.000	20.500	1.0907e-02
12.000	20.750	1.5605e-02
12.000	21.000	2.1828e-02
12.000	21.250	2.7589e-02
12.000	21.500	2.8835e-02
12.000	21.750	2.9608e-02
12.000	22.000	3.0793e-02
12.000	22.250	3.1550e-02
12.000	22.500	3.1621e-02
12.000	22.750	3.1670e-02
12.000	23.000	3.1700e-02
12.000	23.250	3.1727e-02
12.000	23.500	3.1745e-02
12.000	23.750	3.1751e-02
12.000	24.000	3.1756e-02
12.250	17.000	1.8255e-04
12.250	17.250	1.9103e-04
12.250	17.500	2.0609e-04
12.250	17.750	2.3407e-04
12.250	18.000	2.8329e-04
12.250	18.250	3.6337e-04
12.250	18.500	4.8774e-04
12.250	18.750	6.7457e-04
12.250	19.000	9.4831e-04
12.250	19.250	1.3424e-03
12.250	19.500	1.8977e-03
12.250	19.750	2.6879e-03
12.250	20.000	3.8200e-03
12.250	20.250	5.4448e-03
12.250	20.500	7.7846e-03
12.250	20.750	1.1216e-02
12.250	21.000	1.6151e-02
12.250	21.250	2.2607e-02
12.250	21.500	2.7792e-02
12.250	21.750	2.8848e-02
12.250	22.000	2.9822e-02
12.250	22.250	3.1099e-02
12.250	22.500	3.1526e-02
12.250	22.750	3.1602e-02
12.250	23.000	3.1656e-02
12.250	23.250	3.1688e-02
12.250	23.500	3.1720e-02
12.250	23.750	3.1742e-02
12.250	24.000	3.1749e-02
12.500	17.000	1.3942e-04
12.500	17.250	1.8305e-04
12.500	17.500	1.9284e-04
12.500	17.750	2.1029e-04
12.500	18.000	2.4140e-04
12.500	18.250	2.9457e-04
12.500	18.500	3.8066e-04
12.500	18.750	5.1235e-04
12.500	19.000	7.0584e-04
12.500	19.250	9.8461e-04
12.500	19.500	1.3827e-03
12.500	19.750	1.9456e-03
12.500	20.000	2.7476e-03
12.500	20.250	3.9054e-03
12.500	20.500	5.5494e-03
12.500	20.750	7.9816e-03
12.500	21.000	1.1582e-02
12.500	21.250	1.6778e-02
12.500	21.500	2.3097e-02
12.500	21.750	2.7688e-02
12.500	22.000	2.8883e-02
12.500	22.250	3.0059e-02
12.500	22.500	3.1250e-02
12.500	22.750	3.1492e-02
12.500	23.000	3.1575e-02
12.500	23.250	3.1634e-02
12.500	23.500	3.1671e-02
12.500	23.750	3.1710e-02
12.500	24.000	3.1739e-02
12.750	17.000	7.6872e-05
12.750	17.250	1.5407e-04
12.750	17.500	1.8428e-04
12.750	17.750	1.9539e-04
12.750	18.000	2.1465e-04
12.750	18.250	2.4922e-04
12.750	18.500	3.0675e-04
12.750	18.750	3.9794e-04
12.750	19.000	5.3374e-04
12.750	19.250	7.3267e-04
12.750	19.500	1.0137e-03
12.750	19.750	1.4146e-03
12.750	20.000	1.9786e-03
12.750	20.250	2.7986e-03
12.750	20.500	3.9654e-03
12.750	20.750	5.6528e-03
12.750	21.000	8.2056e-03
12.750	21.250	1.2007e-02
12.750	21.500	1.7177e-02
12.750	21.750	2.3774e-02
12.750	22.000	2.7594e-02
12.750	22.250	2.8921e-02
12.750	22.500	3.0282e-02
12.750	22.750	3.1262e-02
12.750	23.000	3.1440e-02
12.750	23.250	3.1536e-02
12.750	23.500	3.1602e-02
12.750	23.750	3.1646e-02
12.750	24.000	3.1694e-02
13.000	17.000	1.3580e-05
13.000	17.250	3.2428e-05
13.000	17.500	1.1646e-04
13.000	17.750	1.8198e-04
13.000	18.000	1.9770e-04
13.000	18.250	2.1984e-04
13.000	18.500	2.5737e-04
13.000	18.750	3.1877e-04
13.000	19.000	4.1292e-04
13.000	19.250	5.5218e-04
13.000	19.500	7.5169e-04
13.000	19.750	1.0356e-03
13.000	20.000	1.4393e-03
13.000	20.250	2.0104e-03
13.000	20.500	2.8449e-03
13.000	20.750	4.0564e-03
13.000	21.000	5.8379e-03
13.000	21.250	8.5209e-03
13.000	21.500	1.2356e-02
13.000	21.750	1.7923e-02
13.000	22.000	2.4220e-02
13.000	22.250	2.7411e-02
13.000	22.500	2.8919e-02
13.000	22.750	3.0330e-02
13.000	23.000	3.1177e-02
13.000	23.250	3.1362e-02
13.000	23.500	3.1478e-02
13.000	23.750	3.1554e-02
13.000	24.000	3.1606e-02
13.250	17.000	8.0658e-06
13.250	17.250	1.5309e-05
13.250	17.500	3.7695e-05
13.250	17.750	9.0370e-05
13.250	18.000	1.4510e-04
13.250	18.250	2.0107e-04
13.250	18.500	2.2519e-04
13.250	18.750	2.6519e-04
13.250	19.000	3.2823e-04
13.250	19.250	4.2519e-04
13.250	19.500	5.6551e-04
13.250	19.750	7.6626e-04
13.250	20.000	1.0512e-03
13.250	20.250	1.4603e-03
13.250	20.500	2.0444e-03
13.250	20.750	2.8950e-03
13.250	21.000	4.1657e-03
13.250	21.250	6.0424e-03
13.250	21.500	8.7165e-03
13.250	21.750	1.2914e-02
13.250	22.000	1.8669e-02
13.250	22.250	2.4392e-02
13.250	22.500	2.7036e-02
13.250	22.750	2.8615e-02
13.250	23.000	3.0050e-02
13.250	23.250	3.1008e-02
13.250	23.500	3.1241e-02
13.250	23.750	3.1387e-02
13.250	24.000	3.1480e-02
13.500	17.000	4.7737e-06
13.500	17.250	9.4650e-06
13.500	17.500	2.1399e-05
13.500	17.750	4.8313e-05
13.500	18.000	1.0716e-04
13.500	18.250	1.5556e-04
13.500	18.500	2.0453e-04
13.500	18.750	2.2979e-04
13.500	19.000	2.7144e-04
13.500	19.250	3.3564e-04
13.500	19.500	4.3333e-04
13.500	19.750	5.7399e-04
13.500	20.000	7.7630e-04
13.500	20.250	1.0648e-03
13.500	20.500	1.4820e-03
13.500	20.750	2.0814e-03
13.500	21.000	2.9663e-03
13.500	21.250	4.2974e-03
13.500	21.500	6.1758e-03
13.500	21.750	9.1738e-03
13.500	22.000	1.3650e-02
13.500	22.250	1.9236e-02
13.500	22.500	2.4110e-02
13.500	22.750	2.6451e-02
13.500	23.000	2.8111e-02
13.500	23.250	2.9683e-02
13.500	23.500	3.0757e-02
13.500	23.750	3.1055e-02
13.500	24.000	3.1245e-02
13.750	17.000	2.8807e-06
13.750	17.250	5.8436e-06
13.750	17.500	1.2675e-05
13.750	17.750	2.5432e-05
13.750	18.000	6.1152e-05
13.750	18.250	1.2354e-04
13.750	18.500	1.6099e-04
13.750	18.750	2.0741e-04
13.750	19.000	2.3366e-04
13.750	19.250	2.7621e-04
13.750	19.500	3.4173e-04
13.750	19.750	4.3942e-04
13.750	20.000	5.8148e-04
13.750	20.250	7.8551e-04
13.750	20.500	1.0797e-03
13.750	20.750	1.5062e-03
13.750	21.000	2.1281e-03
13.750	21.250	3.0608e-03
13.750	21.500	4.4015e-03
13.750	21.750	6.5193e-03
13.750	22.000	9.6929e-03
13.750	22.250	1.4125e-02
13.750	22.500	1.9319e-02
13.750	22.750	2.3561e-02
13.750	23.000	2.5685e-02
13.750	23.250	2.7483e-02
13.750	23.500	2.9156e-02
13.750	23.750	3.0387e-02
13.750	24.000	3.0777e-02
14.000	17.000	1.7284e-06
14.000	17.250	3.4568e-06
14.000	17.500	7.6543e-06
14.000	17.750	1.5473e-05
14.000	18.000	3.1605e-05
14.000	18.250	7.2840e-05
14.000	18.500	1.3210e-04
14.000	18.750	1.7885e-04
14.000	19.000	2.0955e-04
14.000	19.250	2.3638e-04
14.000	19.500	2.7942e-04
14.000	19.750	3.4543e-04
14.000	20.000	4.4477e-04
14.000	20.250	5.8807e-04
14.000	20.500	7.9630e-04
14.000	20.750	1.0992e-03
14.000	21.000	1.5442e-03
14.000	21.250	2.2075e-03
14.000	21.500	3.1554e-03
14.000	21.750	4.6773e-03
14.000	22.000	6.9700e-03
14.000	22.250	1.0081e-02
14.000	22.500	1.4016e-02
14.000	22.750	1.8864e-02
14.000	23.000	2.2692e-02
14.000	23.250	2.4820e-02
14.000	23.500	2.6737e-02
14.000	23.750	2.8567e-02
14.000	24.000	2.9847e-02
