InwC 1218.08A  relative to Inci 1215.00A scaled to 1215A.
Hden   Phi(H)  Eq_Width (A)
 7.000	17.000	9.6915e-01
 7.000	17.250	4.6966e-02
 7.000	17.500	4.5099e-02
 7.000	17.750	4.4475e-02
 7.000	18.000	4.4303e-02
 7.000	18.250	4.4230e-02
 7.000	18.500	4.4184e-02
 7.000	18.750	4.4178e-02
 7.000	19.000	4.4179e-02
 7.000	19.250	4.4181e-02
 7.000	19.500	4.4182e-02
 7.000	19.750	4.4183e-02
 7.000	20.000	4.4183e-02
 7.000	20.250	4.4183e-02
 7.000	20.500	4.4183e-02
 7.000	20.750	4.4184e-02
 7.000	21.000	4.4184e-02
 7.000	21.250	4.4184e-02
 7.000	21.500	4.4184e-02
 7.000	21.750	4.4184e-02
 7.000	22.000	4.4185e-02
 7.000	22.250	4.4185e-02
 7.000	22.500	4.4186e-02
 7.000	22.750	4.4186e-02
 7.000	23.000	4.4186e-02
 7.000	23.250	4.4186e-02
 7.000	23.500	4.4186e-02
 7.000	23.750	4.4186e-02
 7.000	24.000	4.4186e-02
 7.250	17.000	9.7468e-01
 7.250	17.250	9.6758e-01
 7.250	17.500	4.6928e-02
 7.250	17.750	4.5089e-02
 7.250	18.000	4.4471e-02
 7.250	18.250	4.4302e-02
 7.250	18.500	4.4229e-02
 7.250	18.750	4.4184e-02
 7.250	19.000	4.4178e-02
 7.250	19.250	4.4179e-02
 7.250	19.500	4.4181e-02
 7.250	19.750	4.4182e-02
 7.250	20.000	4.4183e-02
 7.250	20.250	4.4183e-02
 7.250	20.500	4.4183e-02
 7.250	20.750	4.4183e-02
 7.250	21.000	4.4184e-02
 7.250	21.250	4.4184e-02
 7.250	21.500	4.4184e-02
 7.250	21.750	4.4184e-02
 7.250	22.000	4.4184e-02
 7.250	22.250	4.4184e-02
 7.250	22.500	4.4184e-02
 7.250	22.750	4.4184e-02
 7.250	23.000	4.4185e-02
 7.250	23.250	4.4185e-02
 7.250	23.500	4.4185e-02
 7.250	23.750	4.4185e-02
 7.250	24.000	4.4185e-02
 7.500	17.000	9.7936e-01
 7.500	17.250	9.7466e-01
 7.500	17.500	9.6340e-01
 7.500	17.750	4.6900e-02
 7.500	18.000	4.5080e-02
 7.500	18.250	4.4467e-02
 7.500	18.500	4.4301e-02
 7.500	18.750	4.4229e-02
 7.500	19.000	4.4184e-02
 7.500	19.250	4.4178e-02
 7.500	19.500	4.4179e-02
 7.500	19.750	4.4181e-02
 7.500	20.000	4.4182e-02
 7.500	20.250	4.4183e-02
 7.500	20.500	4.4183e-02
 7.500	20.750	4.4183e-02
 7.500	21.000	4.4183e-02
 7.500	21.250	4.4183e-02
 7.500	21.500	4.4183e-02
 7.500	21.750	4.4183e-02
 7.500	22.000	4.4184e-02
 7.500	22.250	4.4184e-02
 7.500	22.500	4.4184e-02
 7.500	22.750	4.4184e-02
 7.500	23.000	4.4184e-02
 7.500	23.250	4.4184e-02
 7.500	23.500	4.4186e-02
 7.500	23.750	4.4184e-02
 7.500	24.000	4.4184e-02
 7.750	17.000	9.8390e-01
 7.750	17.250	9.7926e-01
 7.750	17.500	9.7458e-01
 7.750	17.750	9.5284e-01
 7.750	18.000	4.6883e-02
 7.750	18.250	4.5071e-02
 7.750	18.500	4.4463e-02
 7.750	18.750	4.4300e-02
 7.750	19.000	4.4229e-02
 7.750	19.250	4.4184e-02
 7.750	19.500	4.4178e-02
 7.750	19.750	4.4179e-02
 7.750	20.000	4.4181e-02
 7.750	20.250	4.4182e-02
 7.750	20.500	4.4183e-02
 7.750	20.750	4.4183e-02
 7.750	21.000	4.4183e-02
 7.750	21.250	4.4183e-02
 7.750	21.500	4.4183e-02
 7.750	21.750	4.4183e-02
 7.750	22.000	4.4183e-02
 7.750	22.250	4.4183e-02
 7.750	22.500	4.4183e-02
 7.750	22.750	4.4183e-02
 7.750	23.000	4.4184e-02
 7.750	23.250	4.4184e-02
 7.750	23.500	4.4184e-02
 7.750	23.750	4.4184e-02
 7.750	24.000	4.4184e-02
 8.000	17.000	9.8810e-01
 8.000	17.250	9.8396e-01
 8.000	17.500	9.7932e-01
 8.000	17.750	9.7462e-01
 8.000	18.000	9.6441e-01
 8.000	18.250	4.6890e-02
 8.000	18.500	4.5062e-02
 8.000	18.750	4.4457e-02
 8.000	19.000	4.4298e-02
 8.000	19.250	4.4228e-02
 8.000	19.500	4.4184e-02
 8.000	19.750	4.4178e-02
 8.000	20.000	4.4179e-02
 8.000	20.250	4.4181e-02
 8.000	20.500	4.4182e-02
 8.000	20.750	4.4183e-02
 8.000	21.000	4.4183e-02
 8.000	21.250	4.4183e-02
 8.000	21.500	4.4183e-02
 8.000	21.750	4.4183e-02
 8.000	22.000	4.4183e-02
 8.000	22.250	4.4183e-02
 8.000	22.500	4.4183e-02
 8.000	22.750	4.4184e-02
 8.000	23.000	4.4183e-02
 8.000	23.250	4.4184e-02
 8.000	23.500	4.4183e-02
 8.000	23.750	4.4183e-02
 8.000	24.000	4.4183e-02
 8.250	17.000	9.9139e-01
 8.250	17.250	9.8796e-01
 8.250	17.500	9.8377e-01
 8.250	17.750	9.7919e-01
 8.250	18.000	9.7420e-01
 8.250	18.250	9.5308e-01
 8.250	18.500	4.6896e-02
 8.250	18.750	4.5051e-02
 8.250	19.000	4.4452e-02
 8.250	19.250	4.4296e-02
 8.250	19.500	4.4227e-02
 8.250	19.750	4.4184e-02
 8.250	20.000	4.4178e-02
 8.250	20.250	4.4179e-02
 8.250	20.500	4.4181e-02
 8.250	20.750	4.4182e-02
 8.250	21.000	4.4183e-02
 8.250	21.250	4.4183e-02
 8.250	21.500	4.4183e-02
 8.250	21.750	4.4183e-02
 8.250	22.000	4.4183e-02
 8.250	22.250	4.4183e-02
 8.250	22.500	4.4183e-02
 8.250	22.750	4.4183e-02
 8.250	23.000	4.4183e-02
 8.250	23.250	4.4183e-02
 8.250	23.500	4.4183e-02
 8.250	23.750	4.4183e-02
 8.250	24.000	4.4183e-02
 8.500	17.000	9.9386e-01
 8.500	17.250	9.9123e-01
 8.500	17.500	9.8774e-01
 8.500	17.750	9.8351e-01
 8.500	18.000	9.7860e-01
 8.500	18.250	9.7323e-01
 8.500	18.500	7.8694e-01
 8.500	18.750	4.6904e-02
 8.500	19.000	4.5042e-02
 8.500	19.250	4.4445e-02
 8.500	19.500	4.4294e-02
 8.500	19.750	4.4227e-02
 8.500	20.000	4.4184e-02
 8.500	20.250	4.4178e-02
 8.500	20.500	4.4179e-02
 8.500	20.750	4.4181e-02
 8.500	21.000	4.4182e-02
 8.500	21.250	4.4183e-02
 8.500	21.500	4.4183e-02
 8.500	21.750	4.4183e-02
 8.500	22.000	4.4183e-02
 8.500	22.250	4.4183e-02
 8.500	22.500	4.4183e-02
 8.500	22.750	4.4183e-02
 8.500	23.000	4.4183e-02
 8.500	23.250	4.4184e-02
 8.500	23.500	4.4183e-02
 8.500	23.750	4.4183e-02
 8.500	24.000	4.4183e-02
 8.750	17.000	9.9555e-01
 8.750	17.250	9.9365e-01
 8.750	17.500	9.9095e-01
 8.750	17.750	9.8733e-01
 8.750	18.000	9.8280e-01
 8.750	18.250	9.7740e-01
 8.750	18.500	9.7115e-01
 8.750	18.750	1.5675e-01
 8.750	19.000	4.6907e-02
 8.750	19.250	4.5032e-02
 8.750	19.500	4.4439e-02
 8.750	19.750	4.4292e-02
 8.750	20.000	4.4227e-02
 8.750	20.250	4.4184e-02
 8.750	20.500	4.4178e-02
 8.750	20.750	4.4179e-02
 8.750	21.000	4.4181e-02
 8.750	21.250	4.4182e-02
 8.750	21.500	4.4183e-02
 8.750	21.750	4.4183e-02
 8.750	22.000	4.4183e-02
 8.750	22.250	4.4183e-02
 8.750	22.500	4.4183e-02
 8.750	22.750	4.4183e-02
 8.750	23.000	4.4183e-02
 8.750	23.250	4.4183e-02
 8.750	23.500	4.4184e-02
 8.750	23.750	4.4184e-02
 8.750	24.000	4.4183e-02
 9.000	17.000	9.9661e-01
 9.000	17.250	9.9528e-01
 9.000	17.500	9.9329e-01
 9.000	17.750	9.9041e-01
 9.000	18.000	9.8648e-01
 9.000	18.250	9.8127e-01
 9.000	18.500	9.7475e-01
 9.000	18.750	9.6707e-01
 9.000	19.000	9.1981e-02
 9.000	19.250	4.6879e-02
 9.000	19.500	4.5023e-02
 9.000	19.750	4.4429e-02
 9.000	20.000	4.4289e-02
 9.000	20.250	4.4226e-02
 9.000	20.500	4.4184e-02
 9.000	20.750	4.4178e-02
 9.000	21.000	4.4179e-02
 9.000	21.250	4.4181e-02
 9.000	21.500	4.4182e-02
 9.000	21.750	4.4183e-02
 9.000	22.000	4.4183e-02
 9.000	22.250	4.4183e-02
 9.000	22.500	4.4183e-02
 9.000	22.750	4.4183e-02
 9.000	23.000	4.4183e-02
 9.000	23.250	4.4183e-02
 9.000	23.500	4.4183e-02
 9.000	23.750	4.4183e-02
 9.000	24.000	4.4184e-02
 9.250	17.000	9.9721e-01
 9.250	17.250	9.9627e-01
 9.250	17.500	9.9482e-01
 9.250	17.750	9.9263e-01
 9.250	18.000	9.8942e-01
 9.250	18.250	9.8488e-01
 9.250	18.500	9.7860e-01
 9.250	18.750	9.7010e-01
 9.250	19.000	9.5979e-01
 9.250	19.250	6.7875e-02
 9.250	19.500	4.6791e-02
 9.250	19.750	4.5014e-02
 9.250	20.000	4.4421e-02
 9.250	20.250	4.4286e-02
 9.250	20.500	4.4225e-02
 9.250	20.750	4.4183e-02
 9.250	21.000	4.4178e-02
 9.250	21.250	4.4179e-02
 9.250	21.500	4.4173e-02
 9.250	21.750	4.4169e-02
 9.250	22.000	4.4169e-02
 9.250	22.250	4.4170e-02
 9.250	22.500	4.4183e-02
 9.250	22.750	4.4183e-02
 9.250	23.000	4.4183e-02
 9.250	23.250	4.4183e-02
 9.250	23.500	4.4183e-02
 9.250	23.750	4.4183e-02
 9.250	24.000	4.4183e-02
 9.500	17.000	9.9754e-01
 9.500	17.250	9.9681e-01
 9.500	17.500	9.9571e-01
 9.500	17.750	9.9404e-01
 9.500	18.000	9.9152e-01
 9.500	18.250	9.8771e-01
 9.500	18.500	9.8207e-01
 9.500	18.750	9.7394e-01
 9.500	19.000	9.6329e-01
 9.500	19.250	9.5141e-01
 9.500	19.500	5.5661e-02
 9.500	19.750	4.6566e-02
 9.500	20.000	4.5003e-02
 9.500	20.250	4.4414e-02
 9.500	20.500	4.4284e-02
 9.500	20.750	4.4223e-02
 9.500	21.000	4.4174e-02
 9.500	21.250	4.4165e-02
 9.500	21.500	4.4165e-02
 9.500	21.750	4.4164e-02
 9.500	22.000	4.4159e-02
 9.500	22.250	4.4160e-02
 9.500	22.500	4.4160e-02
 9.500	22.750	4.4159e-02
 9.500	23.000	4.4160e-02
 9.500	23.250	4.4160e-02
 9.500	23.500	4.4165e-02
 9.500	23.750	4.4166e-02
 9.500	24.000	4.4165e-02
 9.750	17.000	9.9766e-01
 9.750	17.250	9.9705e-01
 9.750	17.500	9.9615e-01
 9.750	17.750	9.9482e-01
 9.750	18.000	9.9289e-01
 9.750	18.250	9.8981e-01
 9.750	18.500	9.8497e-01
 9.750	18.750	9.7768e-01
 9.750	19.000	9.6734e-01
 9.750	19.250	9.5514e-01
 9.750	19.500	5.2157e-01
 9.750	19.750	5.0155e-02
 9.750	20.000	4.6215e-02
 9.750	20.250	4.4987e-02
 9.750	20.500	4.4408e-02
 9.750	20.750	4.4281e-02
 9.750	21.000	4.4222e-02
 9.750	21.250	4.4179e-02
 9.750	21.500	4.4167e-02
 9.750	21.750	4.4166e-02
 9.750	22.000	4.4166e-02
 9.750	22.250	4.4162e-02
 9.750	22.500	4.4159e-02
 9.750	22.750	4.4160e-02
 9.750	23.000	4.4160e-02
 9.750	23.250	4.4160e-02
 9.750	23.500	4.4160e-02
 9.750	23.750	4.4160e-02
 9.750	24.000	4.4159e-02
10.000	17.000	9.9768e-01
10.000	17.250	9.9712e-01
10.000	17.500	9.9635e-01
10.000	17.750	9.9525e-01
10.000	18.000	9.9374e-01
10.000	18.250	9.9131e-01
10.000	18.500	9.8736e-01
10.000	18.750	9.8129e-01
10.000	19.000	9.7275e-01
10.000	19.250	9.6171e-01
10.000	19.500	9.4763e-01
10.000	19.750	7.0876e-02
10.000	20.000	4.7632e-02
10.000	20.250	4.5538e-02
10.000	20.500	4.4950e-02
10.000	20.750	4.4401e-02
10.000	21.000	4.4278e-02
10.000	21.250	4.4221e-02
10.000	21.500	4.4182e-02
10.000	21.750	4.4173e-02
10.000	22.000	4.4167e-02
10.000	22.250	4.4167e-02
10.000	22.500	4.4165e-02
10.000	22.750	4.4161e-02
10.000	23.000	4.4159e-02
10.000	23.250	4.4160e-02
10.000	23.500	4.4160e-02
10.000	23.750	4.4160e-02
10.000	24.000	4.4160e-02
10.250	17.000	9.9767e-01
10.250	17.250	9.9711e-01
10.250	17.500	9.9642e-01
10.250	17.750	9.9552e-01
10.250	18.000	9.9427e-01
10.250	18.250	9.9236e-01
10.250	18.500	9.8923e-01
10.250	18.750	9.8445e-01
10.250	19.000	9.7761e-01
10.250	19.250	9.6786e-01
10.250	19.500	9.5541e-01
10.250	19.750	9.3967e-01
10.250	20.000	5.0387e-02
10.250	20.250	4.6122e-02
10.250	20.500	4.5147e-02
10.250	20.750	4.4905e-02
10.250	21.000	4.4393e-02
10.250	21.250	4.4274e-02
10.250	21.500	4.4220e-02
10.250	21.750	4.4182e-02
10.250	22.000	4.4176e-02
10.250	22.250	4.4171e-02
10.250	22.500	4.4168e-02
10.250	22.750	4.4167e-02
10.250	23.000	4.4164e-02
10.250	23.250	4.4162e-02
10.250	23.500	4.4160e-02
10.250	23.750	4.4159e-02
10.250	24.000	4.4159e-02
10.500	17.000	9.9767e-01
10.500	17.250	9.9710e-01
10.500	17.500	9.9647e-01
10.500	17.750	9.9573e-01
10.500	18.000	9.9470e-01
10.500	18.250	9.9321e-01
10.500	18.500	9.9086e-01
10.500	18.750	9.8726e-01
10.500	19.000	9.8190e-01
10.500	19.250	9.7426e-01
10.500	19.500	9.6305e-01
10.500	19.750	9.4796e-01
10.500	20.000	9.2456e-01
10.500	20.250	4.8288e-02
10.500	20.500	4.5502e-02
10.500	20.750	4.4847e-02
10.500	21.000	4.4830e-02
10.500	21.250	4.4380e-02
10.500	21.500	4.4270e-02
10.500	21.750	4.4219e-02
10.500	22.000	4.4182e-02
10.500	22.250	4.4177e-02
10.500	22.500	4.4176e-02
10.500	22.750	4.4168e-02
10.500	23.000	4.4168e-02
10.500	23.250	4.4167e-02
10.500	23.500	4.4165e-02
10.500	23.750	4.4163e-02
10.500	24.000	4.4162e-02
10.750	17.000	9.9768e-01
10.750	17.250	9.9711e-01
10.750	17.500	9.9649e-01
10.750	17.750	9.9578e-01
10.750	18.000	9.9498e-01
10.750	18.250	9.9385e-01
10.750	18.500	9.9202e-01
10.750	18.750	9.8920e-01
10.750	19.000	9.8497e-01
10.750	19.250	9.7861e-01
10.750	19.500	9.6912e-01
10.750	19.750	9.5485e-01
10.750	20.000	9.3504e-01
10.750	20.250	5.2302e-02
10.750	20.500	4.6743e-02
10.750	20.750	4.4661e-02
10.750	21.000	4.4561e-02
10.750	21.250	4.4739e-02
10.750	21.500	4.4363e-02
10.750	21.750	4.4264e-02
10.750	22.000	4.4217e-02
10.750	22.250	4.4181e-02
10.750	22.500	4.4177e-02
10.750	22.750	4.4178e-02
10.750	23.000	4.4171e-02
10.750	23.250	4.4169e-02
10.750	23.500	4.4168e-02
10.750	23.750	4.4167e-02
10.750	24.000	4.4166e-02
11.000	17.000	9.9766e-01
11.000	17.250	9.9710e-01
11.000	17.500	9.9637e-01
11.000	17.750	9.9560e-01
11.000	18.000	9.9492e-01
11.000	18.250	9.9405e-01
11.000	18.500	9.9263e-01
11.000	18.750	9.9041e-01
11.000	19.000	9.8699e-01
11.000	19.250	9.8171e-01
11.000	19.500	9.7359e-01
11.000	19.750	9.6109e-01
11.000	20.000	9.4295e-01
11.000	20.250	9.1734e-01
11.000	20.500	5.0264e-02
11.000	20.750	4.5160e-02
11.000	21.000	4.4271e-02
11.000	21.250	4.4501e-02
11.000	21.500	4.4643e-02
11.000	21.750	4.4340e-02
11.000	22.000	4.4257e-02
11.000	22.250	4.4214e-02
11.000	22.500	4.4181e-02
11.000	22.750	4.4177e-02
11.000	23.000	4.4178e-02
11.000	23.250	4.4177e-02
11.000	23.500	4.4169e-02
11.000	23.750	4.4169e-02
11.000	24.000	4.4169e-02
11.250	17.000	9.9758e-01
11.250	17.250	9.9700e-01
11.250	17.500	9.9612e-01
11.250	17.750	9.9525e-01
11.250	18.000	9.9455e-01
11.250	18.250	9.9382e-01
11.250	18.500	9.9276e-01
11.250	18.750	9.9103e-01
11.250	19.000	9.8827e-01
11.250	19.250	9.8394e-01
11.250	19.500	9.7716e-01
11.250	19.750	9.6653e-01
11.250	20.000	9.5067e-01
11.250	20.250	9.2740e-01
11.250	20.500	8.9638e-01
11.250	20.750	4.6301e-02
11.250	21.000	4.4202e-02
11.250	21.250	4.3755e-02
11.250	21.500	4.4540e-02
11.250	21.750	4.4575e-02
11.250	22.000	4.4316e-02
11.250	22.250	4.4246e-02
11.250	22.500	4.4210e-02
11.250	22.750	4.4180e-02
11.250	23.000	4.4176e-02
11.250	23.250	4.4178e-02
11.250	23.500	4.4180e-02
11.250	23.750	4.4171e-02
11.250	24.000	4.4170e-02
11.500	17.000	9.9743e-01
11.500	17.250	9.9677e-01
11.500	17.500	9.9580e-01
11.500	17.750	9.9486e-01
11.500	18.000	9.9406e-01
11.500	18.250	9.9336e-01
11.500	18.500	9.9252e-01
11.500	18.750	9.9122e-01
11.500	19.000	9.8907e-01
11.500	19.250	9.8560e-01
11.500	19.500	9.8009e-01
11.500	19.750	9.7142e-01
11.500	20.000	9.5820e-01
11.500	20.250	9.3856e-01
11.500	20.500	9.1045e-01
11.500	20.750	8.7286e-01
11.500	21.000	4.5458e-02
11.500	21.250	4.3828e-02
11.500	21.500	4.3731e-02
11.500	21.750	4.4709e-02
11.500	22.000	4.4472e-02
11.500	22.250	4.4293e-02
11.500	22.500	4.4234e-02
11.500	22.750	4.4204e-02
11.500	23.000	4.4179e-02
11.500	23.250	4.4176e-02
11.500	23.500	4.4178e-02
11.500	23.750	4.4181e-02
11.500	24.000	4.4178e-02
11.750	17.000	9.9710e-01
11.750	17.250	9.9643e-01
11.750	17.500	9.9549e-01
11.750	17.750	9.9451e-01
11.750	18.000	9.9362e-01
11.750	18.250	9.9285e-01
11.750	18.500	9.9211e-01
11.750	18.750	9.9115e-01
11.750	19.000	9.8955e-01
11.750	19.250	9.8687e-01
11.750	19.500	9.8258e-01
11.750	19.750	9.7580e-01
11.750	20.000	9.6527e-01
11.750	20.250	9.4928e-01
11.750	20.500	9.2581e-01
11.750	20.750	8.9255e-01
11.750	21.000	6.7378e-01
11.750	21.250	4.4561e-02
11.750	21.500	4.3539e-02
11.750	21.750	4.3842e-02
11.750	22.000	4.4692e-02
11.750	22.250	4.4404e-02
11.750	22.500	4.4262e-02
11.750	22.750	4.4223e-02
11.750	23.000	4.4199e-02
11.750	23.250	4.4177e-02
11.750	23.500	4.4175e-02
11.750	23.750	4.4178e-02
11.750	24.000	4.4181e-02
12.000	17.000	9.9659e-01
12.000	17.250	9.9606e-01
12.000	17.500	9.9519e-01
12.000	17.750	9.9419e-01
12.000	18.000	9.9326e-01
12.000	18.250	9.9244e-01
12.000	18.500	9.9170e-01
12.000	18.750	9.9092e-01
12.000	19.000	9.8978e-01
12.000	19.250	9.8783e-01
12.000	19.500	9.8462e-01
12.000	19.750	9.7955e-01
12.000	20.000	9.7157e-01
12.000	20.250	9.5924e-01
12.000	20.500	9.4054e-01
12.000	20.750	9.1323e-01
12.000	21.000	8.7506e-01
12.000	21.250	8.1736e-01
12.000	21.500	4.4180e-02
12.000	21.750	4.3498e-02
12.000	22.000	4.4086e-02
12.000	22.250	4.4572e-02
12.000	22.500	4.4365e-02
12.000	22.750	4.4235e-02
12.000	23.000	4.4210e-02
12.000	23.250	4.4193e-02
12.000	23.500	4.4175e-02
12.000	23.750	4.4174e-02
12.000	24.000	4.4178e-02
12.250	17.000	9.9600e-01
12.250	17.250	9.9566e-01
12.250	17.500	9.9487e-01
12.250	17.750	9.9385e-01
12.250	18.000	9.9290e-01
12.250	18.250	9.9210e-01
12.250	18.500	9.9141e-01
12.250	18.750	9.9072e-01
12.250	19.000	9.8986e-01
12.250	19.250	9.8852e-01
12.250	19.500	9.8625e-01
12.250	19.750	9.8255e-01
12.250	20.000	9.7677e-01
12.250	20.250	9.6774e-01
12.250	20.500	9.5375e-01
12.250	20.750	9.3248e-01
12.250	21.000	9.0136e-01
12.250	21.250	8.5868e-01
12.250	21.500	4.9191e-02
12.250	21.750	4.3655e-02
12.250	22.000	4.3462e-02
12.250	22.250	4.4329e-02
12.250	22.500	4.4462e-02
12.250	22.750	4.4306e-02
12.250	23.000	4.4214e-02
12.250	23.250	4.4197e-02
12.250	23.500	4.4187e-02
12.250	23.750	4.4173e-02
12.250	24.000	4.4173e-02
12.500	17.000	9.9537e-01
12.500	17.250	9.9518e-01
12.500	17.500	9.9447e-01
12.500	17.750	9.9345e-01
12.500	18.000	9.9245e-01
12.500	18.250	9.9167e-01
12.500	18.500	9.9111e-01
12.500	18.750	9.9060e-01
12.500	19.000	9.8997e-01
12.500	19.250	9.8904e-01
12.500	19.500	9.8749e-01
12.500	19.750	9.8491e-01
12.500	20.000	9.8081e-01
12.500	20.250	9.7443e-01
12.500	20.500	9.6448e-01
12.500	20.750	9.4899e-01
12.500	21.000	9.2538e-01
12.500	21.250	8.9077e-01
12.500	21.500	8.4381e-01
12.500	21.750	4.5681e-02
12.500	22.000	4.3478e-02
12.500	22.250	4.3579e-02
12.500	22.500	4.4440e-02
12.500	22.750	4.4400e-02
12.500	23.000	4.4264e-02
12.500	23.250	4.4194e-02
12.500	23.500	4.4184e-02
12.500	23.750	4.4180e-02
12.500	24.000	4.4171e-02
12.750	17.000	9.9461e-01
12.750	17.250	9.9456e-01
12.750	17.500	9.9394e-01
12.750	17.750	9.9293e-01
12.750	18.000	9.9188e-01
12.750	18.250	9.9107e-01
12.750	18.500	9.9059e-01
12.750	18.750	9.9032e-01
12.750	19.000	9.9000e-01
12.750	19.250	9.8944e-01
12.750	19.500	9.8844e-01
12.750	19.750	9.8670e-01
12.750	20.000	9.8383e-01
12.750	20.250	9.7940e-01
12.750	20.500	9.7250e-01
12.750	20.750	9.6177e-01
12.750	21.000	9.4480e-01
12.750	21.250	9.1904e-01
12.750	21.500	8.8169e-01
12.750	21.750	8.3131e-01
12.750	22.000	4.4861e-02
12.750	22.250	4.3371e-02
12.750	22.500	4.3753e-02
12.750	22.750	4.4461e-02
12.750	23.000	4.4341e-02
12.750	23.250	4.4238e-02
12.750	23.500	4.4170e-02
12.750	23.750	4.4172e-02
12.750	24.000	4.4173e-02
13.000	17.000	9.9368e-01
13.000	17.250	9.9378e-01
13.000	17.500	9.9325e-01
13.000	17.750	9.9228e-01
13.000	18.000	9.9117e-01
13.000	18.250	9.9028e-01
13.000	18.500	9.8981e-01
13.000	18.750	9.8971e-01
13.000	19.000	9.8969e-01
13.000	19.250	9.8952e-01
13.000	19.500	9.8900e-01
13.000	19.750	9.8794e-01
13.000	20.000	9.8604e-01
13.000	20.250	9.8296e-01
13.000	20.500	9.7820e-01
13.000	20.750	9.7087e-01
13.000	21.000	9.5939e-01
13.000	21.250	9.4121e-01
13.000	21.500	9.1351e-01
13.000	21.750	8.7442e-01
13.000	22.000	8.2225e-01
13.000	22.250	4.4150e-02
13.000	22.500	4.3345e-02
13.000	22.750	4.3956e-02
13.000	23.000	4.4433e-02
13.000	23.250	4.4314e-02
13.000	23.500	4.4186e-02
13.000	23.750	4.4153e-02
13.000	24.000	4.4159e-02
13.250	17.000	9.9255e-01
13.250	17.250	9.9279e-01
13.250	17.500	9.9240e-01
13.250	17.750	9.9144e-01
13.250	18.000	9.9031e-01
13.250	18.250	9.8935e-01
13.250	18.500	9.8886e-01
13.250	18.750	9.8883e-01
13.250	19.000	9.8904e-01
13.250	19.250	9.8920e-01
13.250	19.500	9.8909e-01
13.250	19.750	9.8853e-01
13.250	20.000	9.8737e-01
13.250	20.250	9.8533e-01
13.250	20.500	9.8211e-01
13.250	20.750	9.7710e-01
13.250	21.000	9.6937e-01
13.250	21.250	9.5725e-01
13.250	21.500	9.3869e-01
13.250	21.750	9.0996e-01
13.250	22.000	8.6858e-01
13.250	22.250	8.1409e-01
13.250	22.500	4.3730e-02
13.250	22.750	4.3262e-02
13.250	23.000	4.3889e-02
13.250	23.250	4.4386e-02
13.250	23.500	4.4266e-02
13.250	23.750	4.4166e-02
13.250	24.000	4.4144e-02
13.500	17.000	9.9124e-01
13.500	17.250	9.9152e-01
13.500	17.500	9.9124e-01
13.500	17.750	9.9036e-01
13.500	18.000	9.8921e-01
13.500	18.250	9.8821e-01
13.500	18.500	9.8766e-01
13.500	18.750	9.8768e-01
13.500	19.000	9.8805e-01
13.500	19.250	9.8849e-01
13.500	19.500	9.8874e-01
13.500	19.750	9.8859e-01
13.500	20.000	9.8794e-01
13.500	20.250	9.8661e-01
13.500	20.500	9.8441e-01
13.500	20.750	9.8101e-01
13.500	21.000	9.7585e-01
13.500	21.250	9.6783e-01
13.500	21.500	9.5555e-01
13.500	21.750	9.3624e-01
13.500	22.000	9.0618e-01
13.500	22.250	8.6258e-01
13.500	22.500	7.9951e-01
13.500	22.750	4.3346e-02
13.500	23.000	4.3076e-02
13.500	23.250	4.3705e-02
13.500	23.500	4.4306e-02
13.500	23.750	4.4208e-02
13.500	24.000	4.4140e-02
13.750	17.000	9.8986e-01
13.750	17.250	9.9007e-01
13.750	17.500	9.8977e-01
13.750	17.750	9.8898e-01
13.750	18.000	9.8787e-01
13.750	18.250	9.8683e-01
13.750	18.500	9.8625e-01
13.750	18.750	9.8629e-01
13.750	19.000	9.8681e-01
13.750	19.250	9.8747e-01
13.750	19.500	9.8803e-01
13.750	19.750	9.8823e-01
13.750	20.000	9.8796e-01
13.750	20.250	9.8711e-01
13.750	20.500	9.8554e-01
13.750	20.750	9.8307e-01
13.750	21.000	9.7940e-01
13.750	21.250	9.7397e-01
13.750	21.500	9.6583e-01
13.750	21.750	9.5295e-01
13.750	22.000	9.3273e-01
13.750	22.250	9.0070e-01
13.750	22.500	8.5187e-01
13.750	22.750	4.4221e-01
13.750	23.000	4.3201e-02
13.750	23.250	4.2924e-02
13.750	23.500	4.3550e-02
13.750	23.750	4.4205e-02
13.750	24.000	4.4155e-02
14.000	17.000	9.8770e-01
14.000	17.250	9.8855e-01
14.000	17.500	9.8811e-01
14.000	17.750	9.8724e-01
14.000	18.000	9.8619e-01
14.000	18.250	9.8515e-01
14.000	18.500	9.8455e-01
14.000	18.750	9.8465e-01
14.000	19.000	9.8531e-01
14.000	19.250	9.8620e-01
14.000	19.500	9.8702e-01
14.000	19.750	9.8753e-01
14.000	20.000	9.8756e-01
14.000	20.250	9.8706e-01
14.000	20.500	9.8593e-01
14.000	20.750	9.8402e-01
14.000	21.000	9.8114e-01
14.000	21.250	9.7699e-01
14.000	21.500	9.7116e-01
14.000	21.750	9.6220e-01
14.000	22.000	9.4818e-01
14.000	22.250	9.2555e-01
14.000	22.500	8.8816e-01
14.000	22.750	8.2738e-01
14.000	23.000	5.5428e-02
14.000	23.250	4.3071e-02
14.000	23.500	4.2700e-02
14.000	23.750	4.3491e-02
14.000	24.000	4.4083e-02
