nFnu 575.146A  relative to Inci 1215.00A scaled to 1215A.
Hden   Phi(H)  Eq_Width (A)
 7.000	17.000	5.8524e-02
 7.000	17.250	1.3569e-01
 7.000	17.500	1.6235e-01
 7.000	17.750	1.2056e-01
 7.000	18.000	8.2445e-02
 7.000	18.250	6.0172e-02
 7.000	18.500	4.8773e-02
 7.000	18.750	4.5004e-02
 7.000	19.000	4.3211e-02
 7.000	19.250	4.2238e-02
 7.000	19.500	4.1831e-02
 7.000	19.750	4.1656e-02
 7.000	20.000	4.1579e-02
 7.000	20.250	4.1542e-02
 7.000	20.500	4.1523e-02
 7.000	20.750	4.1514e-02
 7.000	21.000	4.1508e-02
 7.000	21.250	4.1506e-02
 7.000	21.500	4.1504e-02
 7.000	21.750	4.1504e-02
 7.000	22.000	4.1504e-02
 7.000	22.250	4.1504e-02
 7.000	22.500	4.1504e-02
 7.000	22.750	4.1504e-02
 7.000	23.000	4.1504e-02
 7.000	23.250	4.1504e-02
 7.000	23.500	4.1504e-02
 7.000	23.750	4.1504e-02
 7.000	24.000	4.1504e-02
 7.250	17.000	4.0547e-02
 7.250	17.250	5.8245e-02
 7.250	17.500	1.3521e-01
 7.250	17.750	1.6132e-01
 7.250	18.000	1.1986e-01
 7.250	18.250	8.2064e-02
 7.250	18.500	6.0006e-02
 7.250	18.750	4.8713e-02
 7.250	19.000	4.4979e-02
 7.250	19.250	4.3203e-02
 7.250	19.500	4.2237e-02
 7.250	19.750	4.1831e-02
 7.250	20.000	4.1656e-02
 7.250	20.250	4.1579e-02
 7.250	20.500	4.1542e-02
 7.250	20.750	4.1523e-02
 7.250	21.000	4.1513e-02
 7.250	21.250	4.1508e-02
 7.250	21.500	4.1505e-02
 7.250	21.750	4.1504e-02
 7.250	22.000	4.1503e-02
 7.250	22.250	4.1503e-02
 7.250	22.500	4.1503e-02
 7.250	22.750	4.1503e-02
 7.250	23.000	4.1503e-02
 7.250	23.250	4.1503e-02
 7.250	23.500	4.1503e-02
 7.250	23.750	4.1503e-02
 7.250	24.000	4.1503e-02
 7.500	17.000	2.9438e-02
 7.500	17.250	4.0475e-02
 7.500	17.500	5.8178e-02
 7.500	17.750	1.3529e-01
 7.500	18.000	1.6082e-01
 7.500	18.250	1.1944e-01
 7.500	18.500	8.1803e-02
 7.500	18.750	5.9899e-02
 7.500	19.000	4.8673e-02
 7.500	19.250	4.4963e-02
 7.500	19.500	4.3197e-02
 7.500	19.750	4.2235e-02
 7.500	20.000	4.1831e-02
 7.500	20.250	4.1656e-02
 7.500	20.500	4.1579e-02
 7.500	20.750	4.1542e-02
 7.500	21.000	4.1523e-02
 7.500	21.250	4.1513e-02
 7.500	21.500	4.1508e-02
 7.500	21.750	4.1505e-02
 7.500	22.000	4.1504e-02
 7.500	22.250	4.1503e-02
 7.500	22.500	4.1502e-02
 7.500	22.750	4.1502e-02
 7.500	23.000	4.1502e-02
 7.500	23.250	4.1502e-02
 7.500	23.500	4.1504e-02
 7.500	23.750	4.1502e-02
 7.500	24.000	4.1502e-02
 7.750	17.000	2.2133e-02
 7.750	17.250	2.9504e-02
 7.750	17.500	4.0486e-02
 7.750	17.750	5.8207e-02
 7.750	18.000	1.3554e-01
 7.750	18.250	1.6065e-01
 7.750	18.500	1.1920e-01
 7.750	18.750	8.1618e-02
 7.750	19.000	5.9831e-02
 7.750	19.250	4.8649e-02
 7.750	19.500	4.4953e-02
 7.750	19.750	4.3194e-02
 7.750	20.000	4.2235e-02
 7.750	20.250	4.1830e-02
 7.750	20.500	4.1656e-02
 7.750	20.750	4.1579e-02
 7.750	21.000	4.1542e-02
 7.750	21.250	4.1523e-02
 7.750	21.500	4.1513e-02
 7.750	21.750	4.1508e-02
 7.750	22.000	4.1505e-02
 7.750	22.250	4.1504e-02
 7.750	22.500	4.1503e-02
 7.750	22.750	4.1502e-02
 7.750	23.000	4.1502e-02
 7.750	23.250	4.1502e-02
 7.750	23.500	4.1502e-02
 7.750	23.750	4.1502e-02
 7.750	24.000	4.1502e-02
 8.000	17.000	1.6879e-02
 8.000	17.250	2.2114e-02
 8.000	17.500	2.9423e-02
 8.000	17.750	4.0384e-02
 8.000	18.000	5.8121e-02
 8.000	18.250	1.3549e-01
 8.000	18.500	1.6069e-01
 8.000	18.750	1.1908e-01
 8.000	19.000	8.1474e-02
 8.000	19.250	5.9789e-02
 8.000	19.500	4.8634e-02
 8.000	19.750	4.4947e-02
 8.000	20.000	4.3191e-02
 8.000	20.250	4.2234e-02
 8.000	20.500	4.1830e-02
 8.000	20.750	4.1656e-02
 8.000	21.000	4.1579e-02
 8.000	21.250	4.1542e-02
 8.000	21.500	4.1523e-02
 8.000	21.750	4.1513e-02
 8.000	22.000	4.1508e-02
 8.000	22.250	4.1505e-02
 8.000	22.500	4.1504e-02
 8.000	22.750	4.1503e-02
 8.000	23.000	4.1502e-02
 8.000	23.250	4.1503e-02
 8.000	23.500	4.1502e-02
 8.000	23.750	4.1502e-02
 8.000	24.000	4.1502e-02
 8.250	17.000	1.3127e-02
 8.250	17.250	1.6958e-02
 8.250	17.500	2.2176e-02
 8.250	17.750	2.9456e-02
 8.250	18.000	4.0399e-02
 8.250	18.250	5.8161e-02
 8.250	18.500	1.3570e-01
 8.250	18.750	1.6088e-01
 8.250	19.000	1.1902e-01
 8.250	19.250	8.1349e-02
 8.250	19.500	5.9765e-02
 8.250	19.750	4.8626e-02
 8.250	20.000	4.4944e-02
 8.250	20.250	4.3190e-02
 8.250	20.500	4.2234e-02
 8.250	20.750	4.1830e-02
 8.250	21.000	4.1656e-02
 8.250	21.250	4.1579e-02
 8.250	21.500	4.1542e-02
 8.250	21.750	4.1523e-02
 8.250	22.000	4.1513e-02
 8.250	22.250	4.1508e-02
 8.250	22.500	4.1505e-02
 8.250	22.750	4.1504e-02
 8.250	23.000	4.1503e-02
 8.250	23.250	4.1502e-02
 8.250	23.500	4.1502e-02
 8.250	23.750	4.1502e-02
 8.250	24.000	4.1502e-02
 8.500	17.000	1.0407e-02
 8.500	17.250	1.3181e-02
 8.500	17.500	1.7004e-02
 8.500	17.750	2.2205e-02
 8.500	18.000	2.9477e-02
 8.500	18.250	4.0387e-02
 8.500	18.500	5.8192e-02
 8.500	18.750	1.3589e-01
 8.500	19.000	1.6112e-01
 8.500	19.250	1.1899e-01
 8.500	19.500	8.1231e-02
 8.500	19.750	5.9739e-02
 8.500	20.000	4.8621e-02
 8.500	20.250	4.4943e-02
 8.500	20.500	4.3190e-02
 8.500	20.750	4.2234e-02
 8.500	21.000	4.1830e-02
 8.500	21.250	4.1656e-02
 8.500	21.500	4.1579e-02
 8.500	21.750	4.1542e-02
 8.500	22.000	4.1523e-02
 8.500	22.250	4.1513e-02
 8.500	22.500	4.1508e-02
 8.500	22.750	4.1505e-02
 8.500	23.000	4.1504e-02
 8.500	23.250	4.1503e-02
 8.500	23.500	4.1502e-02
 8.500	23.750	4.1502e-02
 8.500	24.000	4.1502e-02
 8.750	17.000	8.4067e-03
 8.750	17.250	1.0461e-02
 8.750	17.500	1.3226e-02
 8.750	17.750	1.7036e-02
 8.750	18.000	2.2232e-02
 8.750	18.250	2.9494e-02
 8.750	18.500	4.0398e-02
 8.750	18.750	5.8283e-02
 8.750	19.000	1.3611e-01
 8.750	19.250	1.6138e-01
 8.750	19.500	1.1898e-01
 8.750	19.750	8.1113e-02
 8.750	20.000	5.9722e-02
 8.750	20.250	4.8618e-02
 8.750	20.500	4.4942e-02
 8.750	20.750	4.3190e-02
 8.750	21.000	4.2234e-02
 8.750	21.250	4.1830e-02
 8.750	21.500	4.1656e-02
 8.750	21.750	4.1579e-02
 8.750	22.000	4.1542e-02
 8.750	22.250	4.1523e-02
 8.750	22.500	4.1513e-02
 8.750	22.750	4.1508e-02
 8.750	23.000	4.1505e-02
 8.750	23.250	4.1504e-02
 8.750	23.500	4.1503e-02
 8.750	23.750	4.1502e-02
 8.750	24.000	4.1502e-02
 9.000	17.000	6.7872e-03
 9.000	17.250	8.5059e-03
 9.000	17.500	1.0547e-02
 9.000	17.750	1.3296e-02
 9.000	18.000	1.7097e-02
 9.000	18.250	2.2283e-02
 9.000	18.500	2.9536e-02
 9.000	18.750	4.0481e-02
 9.000	19.000	5.8872e-02
 9.000	19.250	1.3641e-01
 9.000	19.500	1.6163e-01
 9.000	19.750	1.1900e-01
 9.000	20.000	8.1000e-02
 9.000	20.250	5.9708e-02
 9.000	20.500	4.8617e-02
 9.000	20.750	4.4943e-02
 9.000	21.000	4.3190e-02
 9.000	21.250	4.2234e-02
 9.000	21.500	4.1830e-02
 9.000	21.750	4.1656e-02
 9.000	22.000	4.1579e-02
 9.000	22.250	4.1542e-02
 9.000	22.500	4.1523e-02
 9.000	22.750	4.1513e-02
 9.000	23.000	4.1508e-02
 9.000	23.250	4.1505e-02
 9.000	23.500	4.1504e-02
 9.000	23.750	4.1503e-02
 9.000	24.000	4.1502e-02
 9.250	17.000	5.3196e-03
 9.250	17.250	6.9427e-03
 9.250	17.500	8.6816e-03
 9.250	17.750	1.0718e-02
 9.250	18.000	1.3439e-02
 9.250	18.250	1.7214e-02
 9.250	18.500	2.2398e-02
 9.250	18.750	2.9714e-02
 9.250	19.000	4.0824e-02
 9.250	19.250	6.2311e-02
 9.250	19.500	1.3705e-01
 9.250	19.750	1.6185e-01
 9.250	20.000	1.1900e-01
 9.250	20.250	8.0892e-02
 9.250	20.500	5.9701e-02
 9.250	20.750	4.8618e-02
 9.250	21.000	4.4944e-02
 9.250	21.250	4.3190e-02
 9.250	21.500	4.2226e-02
 9.250	21.750	4.1818e-02
 9.250	22.000	4.1643e-02
 9.250	22.250	4.1566e-02
 9.250	22.500	4.1541e-02
 9.250	22.750	4.1523e-02
 9.250	23.000	4.1513e-02
 9.250	23.250	4.1508e-02
 9.250	23.500	4.1505e-02
 9.250	23.750	4.1504e-02
 9.250	24.000	4.1503e-02
 9.500	17.000	3.9141e-03
 9.500	17.250	5.5119e-03
 9.500	17.500	7.2107e-03
 9.500	17.750	8.9787e-03
 9.500	18.000	1.0993e-02
 9.500	18.250	1.3679e-02
 9.500	18.500	1.7455e-02
 9.500	18.750	2.2730e-02
 9.500	19.000	3.0218e-02
 9.500	19.250	4.1709e-02
 9.500	19.500	7.3512e-02
 9.500	19.750	1.3858e-01
 9.500	20.000	1.6202e-01
 9.500	20.250	1.1900e-01
 9.500	20.500	8.0797e-02
 9.500	20.750	5.9690e-02
 9.500	21.000	4.8604e-02
 9.500	21.250	4.4930e-02
 9.500	21.500	4.3176e-02
 9.500	21.750	4.2217e-02
 9.500	22.000	4.1808e-02
 9.500	22.250	4.1634e-02
 9.500	22.500	4.1557e-02
 9.500	22.750	4.1519e-02
 9.500	23.000	4.1501e-02
 9.500	23.250	4.1491e-02
 9.500	23.500	4.1491e-02
 9.500	23.750	4.1488e-02
 9.500	24.000	4.1487e-02
 9.750	17.000	2.6036e-03
 9.750	17.250	4.0817e-03
 9.750	17.500	5.8119e-03
 9.750	17.750	7.6078e-03
 9.750	18.000	9.3920e-03
 9.750	18.250	1.1398e-02
 9.750	18.500	1.4121e-02
 9.750	18.750	1.8013e-02
 9.750	19.000	2.3528e-02
 9.750	19.250	3.1428e-02
 9.750	19.500	4.3592e-02
 9.750	19.750	8.7774e-02
 9.750	20.000	1.4124e-01
 9.750	20.250	1.6219e-01
 9.750	20.500	1.1901e-01
 9.750	20.750	8.0728e-02
 9.750	21.000	5.9687e-02
 9.750	21.250	4.8614e-02
 9.750	21.500	4.4934e-02
 9.750	21.750	4.3178e-02
 9.750	22.000	4.2219e-02
 9.750	22.250	4.1811e-02
 9.750	22.500	4.1633e-02
 9.750	22.750	4.1557e-02
 9.750	23.000	4.1520e-02
 9.750	23.250	4.1501e-02
 9.750	23.500	4.1491e-02
 9.750	23.750	4.1486e-02
 9.750	24.000	4.1483e-02
10.000	17.000	1.4589e-03
10.000	17.250	2.7103e-03
10.000	17.500	4.3379e-03
10.000	17.750	6.2120e-03
10.000	18.000	8.1053e-03
10.000	18.250	9.9526e-03
10.000	18.500	1.2053e-02
10.000	18.750	1.4956e-02
10.000	19.000	1.9151e-02
10.000	19.250	2.5077e-02
10.000	19.500	3.3604e-02
10.000	19.750	4.8523e-02
10.000	20.000	9.9628e-02
10.000	20.250	1.4685e-01
10.000	20.500	1.6263e-01
10.000	20.750	1.1905e-01
10.000	21.000	8.0683e-02
10.000	21.250	5.9689e-02
10.000	21.500	4.8619e-02
10.000	21.750	4.4943e-02
10.000	22.000	4.3179e-02
10.000	22.250	4.2221e-02
10.000	22.500	4.1814e-02
10.000	22.750	4.1636e-02
10.000	23.000	4.1556e-02
10.000	23.250	4.1520e-02
10.000	23.500	4.1501e-02
10.000	23.750	4.1492e-02
10.000	24.000	4.1487e-02
10.250	17.000	7.7383e-04
10.250	17.250	1.5178e-03
10.250	17.500	2.8834e-03
10.250	17.750	4.6611e-03
10.250	18.000	6.7021e-03
10.250	18.250	8.7727e-03
10.250	18.500	1.0820e-02
10.250	18.750	1.3201e-02
10.250	19.000	1.6434e-02
10.250	19.250	2.1052e-02
10.250	19.500	2.7565e-02
10.250	19.750	3.7008e-02
10.250	20.000	7.3322e-02
10.250	20.250	1.1047e-01
10.250	20.500	1.5169e-01
10.250	20.750	1.6332e-01
10.250	21.000	1.1914e-01
10.250	21.250	8.0681e-02
10.250	21.500	5.9697e-02
10.250	21.750	4.8622e-02
10.250	22.000	4.4948e-02
10.250	22.250	4.3185e-02
10.250	22.500	4.2222e-02
10.250	22.750	4.1816e-02
10.250	23.000	4.1639e-02
10.250	23.250	4.1558e-02
10.250	23.500	4.1520e-02
10.250	23.750	4.1500e-02
10.250	24.000	4.1491e-02
10.500	17.000	4.1416e-04
10.500	17.250	7.9967e-04
10.500	17.500	1.6138e-03
10.500	17.750	3.1108e-03
10.500	18.000	5.0861e-03
10.500	18.250	7.3909e-03
10.500	18.500	9.7586e-03
10.500	18.750	1.2138e-02
10.500	19.000	1.4864e-02
10.500	19.250	1.8539e-02
10.500	19.500	2.3733e-02
10.500	19.750	3.0997e-02
10.500	20.000	4.1635e-02
10.500	20.250	8.5752e-02
10.500	20.500	1.1985e-01
10.500	20.750	1.5773e-01
10.500	21.000	1.6470e-01
10.500	21.250	1.1933e-01
10.500	21.500	8.0716e-02
10.500	21.750	5.9721e-02
10.500	22.000	4.8626e-02
10.500	22.250	4.4952e-02
10.500	22.500	4.3192e-02
10.500	22.750	4.2222e-02
10.500	23.000	4.1817e-02
10.500	23.250	4.1641e-02
10.500	23.500	4.1561e-02
10.500	23.750	4.1523e-02
10.500	24.000	4.1503e-02
10.750	17.000	2.5580e-04
10.750	17.250	4.2856e-04
10.750	17.500	8.5202e-04
10.750	17.750	1.7917e-03
10.750	18.000	3.4402e-03
10.750	18.250	5.7282e-03
10.750	18.500	8.3691e-03
10.750	18.750	1.1062e-02
10.750	19.000	1.3768e-02
10.750	19.250	1.6933e-02
10.750	19.500	2.1194e-02
10.750	19.750	2.7125e-02
10.750	20.000	3.5312e-02
10.750	20.250	6.0461e-02
10.750	20.500	9.9435e-02
10.750	20.750	1.3325e-01
10.750	21.000	1.6628e-01
10.750	21.250	1.6678e-01
10.750	21.500	1.1961e-01
10.750	21.750	8.0810e-02
10.750	22.000	5.9769e-02
10.750	22.250	4.8631e-02
10.750	22.500	4.4956e-02
10.750	22.750	4.3195e-02
10.750	23.000	4.2225e-02
10.750	23.250	4.1818e-02
10.750	23.500	4.1643e-02
10.750	23.750	4.1564e-02
10.750	24.000	4.1526e-02
11.000	17.000	1.9045e-04
11.000	17.250	2.6815e-04
11.000	17.500	4.6041e-04
11.000	17.750	9.5704e-04
11.000	18.000	2.0456e-03
11.000	18.250	3.9132e-03
11.000	18.500	6.5249e-03
11.000	18.750	9.4914e-03
11.000	19.000	1.2452e-02
11.000	19.250	1.5555e-02
11.000	19.500	1.9324e-02
11.000	19.750	2.4396e-02
11.000	20.000	3.1253e-02
11.000	20.250	4.0514e-02
11.000	20.500	7.2847e-02
11.000	20.750	1.1724e-01
11.000	21.000	1.4814e-01
11.000	21.250	1.7724e-01
11.000	21.500	1.6941e-01
11.000	21.750	1.2001e-01
11.000	22.000	8.0978e-02
11.000	22.250	5.9829e-02
11.000	22.500	4.8639e-02
11.000	22.750	4.4962e-02
11.000	23.000	4.3198e-02
11.000	23.250	4.2231e-02
11.000	23.500	4.1819e-02
11.000	23.750	4.1644e-02
11.000	24.000	4.1565e-02
11.250	17.000	1.6099e-04
11.250	17.250	2.0222e-04
11.250	17.500	2.9498e-04
11.250	17.750	5.3185e-04
11.250	18.000	1.1193e-03
11.250	18.250	2.3411e-03
11.250	18.500	4.4350e-03
11.250	18.750	7.3514e-03
11.250	19.000	1.0567e-02
11.250	19.250	1.3849e-02
11.250	19.500	1.7531e-02
11.250	19.750	2.2171e-02
11.250	20.000	2.8278e-02
11.250	20.250	3.6262e-02
11.250	20.500	4.6821e-02
11.250	20.750	9.3923e-02
11.250	21.000	1.3684e-01
11.250	21.250	1.6911e-01
11.250	21.500	1.9296e-01
11.250	21.750	1.7230e-01
11.250	22.000	1.2044e-01
11.250	22.250	8.1234e-02
11.250	22.500	5.9911e-02
11.250	22.750	4.8651e-02
11.250	23.000	4.4969e-02
11.250	23.250	4.3202e-02
11.250	23.500	4.2235e-02
11.250	23.750	4.1821e-02
11.250	24.000	4.1644e-02
11.500	17.000	1.4782e-04
11.500	17.250	1.7407e-04
11.500	17.500	2.2905e-04
11.500	17.750	3.5276e-04
11.500	18.000	6.4510e-04
11.500	18.250	1.2918e-03
11.500	18.500	2.6109e-03
11.500	18.750	4.9267e-03
11.500	19.000	8.1312e-03
11.500	19.250	1.1618e-02
11.500	19.500	1.5368e-02
11.500	19.750	1.9892e-02
11.500	20.000	2.5658e-02
11.500	20.250	3.2967e-02
11.500	20.500	4.2194e-02
11.500	20.750	5.4250e-02
11.500	21.000	1.1023e-01
11.500	21.250	1.6058e-01
11.500	21.500	1.9438e-01
11.500	21.750	2.1304e-01
11.500	22.000	1.7571e-01
11.500	22.250	1.2083e-01
11.500	22.500	8.1530e-02
11.500	22.750	6.0036e-02
11.500	23.000	4.8669e-02
11.500	23.250	4.4978e-02
11.500	23.500	4.3207e-02
11.500	23.750	4.2237e-02
11.500	24.000	4.1827e-02
11.750	17.000	1.4123e-04
11.750	17.250	1.6016e-04
11.750	17.500	1.9984e-04
11.750	17.750	2.7844e-04
11.750	18.000	4.3975e-04
11.750	18.250	7.6420e-04
11.750	18.500	1.4357e-03
11.750	18.750	2.8467e-03
11.750	19.000	5.4011e-03
11.750	19.250	8.9100e-03
11.750	19.500	1.2780e-02
11.750	19.750	1.7215e-02
11.750	20.000	2.2831e-02
11.750	20.250	2.9903e-02
11.750	20.500	3.8554e-02
11.750	20.750	4.9233e-02
11.750	21.000	6.3226e-02
11.750	21.250	1.3285e-01
11.750	21.500	1.9023e-01
11.750	21.750	2.2540e-01
11.750	22.000	2.3274e-01
11.750	22.250	1.7831e-01
11.750	22.500	1.2116e-01
11.750	22.750	8.1824e-02
11.750	23.000	6.0184e-02
11.750	23.250	4.8693e-02
11.750	23.500	4.4991e-02
11.750	23.750	4.3212e-02
11.750	24.000	4.2238e-02
12.000	17.000	1.3761e-04
12.000	17.250	1.5202e-04
12.000	17.500	1.8247e-04
12.000	17.750	2.4066e-04
12.000	18.000	3.4601e-04
12.000	18.250	5.3350e-04
12.000	18.500	8.6494e-04
12.000	18.750	1.5557e-03
12.000	19.000	3.0872e-03
12.000	19.250	5.9300e-03
12.000	19.500	9.8142e-03
12.000	19.750	1.4200e-02
12.000	20.000	1.9593e-02
12.000	20.250	2.6558e-02
12.000	20.500	3.5093e-02
12.000	20.750	4.5226e-02
12.000	21.000	5.8205e-02
12.000	21.250	7.4886e-02
12.000	21.500	1.5861e-01
12.000	21.750	2.2693e-01
12.000	22.000	2.5738e-01
12.000	22.250	2.4559e-01
12.000	22.500	1.8027e-01
12.000	22.750	1.2128e-01
12.000	23.000	8.2109e-02
12.000	23.250	6.0342e-02
12.000	23.500	4.8722e-02
12.000	23.750	4.5004e-02
12.000	24.000	4.3218e-02
12.250	17.000	1.3638e-04
12.250	17.250	1.4650e-04
12.250	17.500	1.6840e-04
12.250	17.750	2.1333e-04
12.250	18.000	2.9004e-04
12.250	18.250	4.1860e-04
12.250	18.500	6.2082e-04
12.250	18.750	9.5918e-04
12.250	19.000	1.6852e-03
12.250	19.250	3.4001e-03
12.250	19.500	6.5994e-03
12.250	19.750	1.0962e-02
12.250	20.000	1.6091e-02
12.250	20.250	2.2710e-02
12.250	20.500	3.1169e-02
12.250	20.750	4.1404e-02
12.250	21.000	5.3944e-02
12.250	21.250	6.9912e-02
12.250	21.500	1.0787e-01
12.250	21.750	1.9499e-01
12.250	22.000	2.6996e-01
12.250	22.250	2.9016e-01
12.250	22.500	2.5633e-01
12.250	22.750	1.8183e-01
12.250	23.000	1.2114e-01
12.250	23.250	8.2331e-02
12.250	23.500	6.0486e-02
12.250	23.750	4.8748e-02
12.250	24.000	4.5016e-02
12.500	17.000	1.3300e-04
12.500	17.250	1.4255e-04
12.500	17.500	1.5802e-04
12.500	17.750	1.8996e-04
12.500	18.000	2.4757e-04
12.500	18.250	3.4156e-04
12.500	18.500	4.8971e-04
12.500	18.750	7.0807e-04
12.500	19.000	1.0683e-03
12.500	19.250	1.8855e-03
12.500	19.500	3.8656e-03
12.500	19.750	7.5341e-03
12.500	20.000	1.2500e-02
12.500	20.250	1.8610e-02
12.500	20.500	2.6721e-02
12.500	20.750	3.7127e-02
12.500	21.000	5.0129e-02
12.500	21.250	6.6095e-02
12.500	21.500	8.4682e-02
12.500	21.750	1.4855e-01
12.500	22.000	2.3835e-01
12.500	22.250	3.1488e-01
12.500	22.500	3.2028e-01
12.500	22.750	2.6519e-01
12.500	23.000	1.8289e-01
12.500	23.250	1.2075e-01
12.500	23.500	8.2457e-02
12.500	23.750	6.0611e-02
12.500	24.000	4.8766e-02
12.750	17.000	1.2741e-04
12.750	17.250	1.3449e-04
12.750	17.500	1.4848e-04
12.750	17.750	1.7243e-04
12.750	18.000	2.1432e-04
12.750	18.250	2.8346e-04
12.750	18.500	3.9547e-04
12.750	18.750	5.6403e-04
12.750	19.000	8.0675e-04
12.750	19.250	1.2225e-03
12.750	19.500	2.1920e-03
12.750	19.750	4.4941e-03
12.750	20.000	8.6502e-03
12.750	20.250	1.4486e-02
12.750	20.500	2.1885e-02
12.750	20.750	3.1690e-02
12.750	21.000	4.4837e-02
12.750	21.250	6.1331e-02
12.750	21.500	7.9601e-02
12.750	21.750	1.0267e-01
12.750	22.000	1.8985e-01
12.750	22.250	2.8818e-01
12.750	22.500	3.6076e-01
12.750	22.750	3.4843e-01
12.750	23.000	2.7133e-01
12.750	23.250	1.8326e-01
12.750	23.500	1.2020e-01
12.750	23.750	8.2448e-02
12.750	24.000	6.0681e-02
13.000	17.000	1.2099e-04
13.000	17.250	1.2551e-04
13.000	17.500	1.3572e-04
13.000	17.750	1.5333e-04
13.000	18.000	1.8527e-04
13.000	18.250	2.3844e-04
13.000	18.500	3.2510e-04
13.000	18.750	4.5860e-04
13.000	19.000	6.5366e-04
13.000	19.250	9.3860e-04
13.000	19.500	1.4311e-03
13.000	19.750	2.5742e-03
13.000	20.000	5.2227e-03
13.000	20.250	9.9223e-03
13.000	20.500	1.6792e-02
13.000	20.750	2.5979e-02
13.000	21.000	3.8314e-02
13.000	21.250	5.5389e-02
13.000	21.500	7.5565e-02
13.000	21.750	9.5697e-02
13.000	22.000	1.2026e-01
13.000	22.250	2.3880e-01
13.000	22.500	3.4121e-01
13.000	22.750	3.9797e-01
13.000	23.000	3.7290e-01
13.000	23.250	2.7722e-01
13.000	23.500	1.8398e-01
13.000	23.750	1.1935e-01
13.000	24.000	8.2299e-02
13.250	17.000	1.1383e-04
13.250	17.250	1.1638e-04
13.250	17.500	1.2354e-04
13.250	17.750	1.3695e-04
13.250	18.000	1.6082e-04
13.250	18.250	2.0272e-04
13.250	18.500	2.7202e-04
13.250	18.750	3.8123e-04
13.250	19.000	5.4296e-04
13.250	19.250	7.7770e-04
13.250	19.500	1.1295e-03
13.250	19.750	1.7547e-03
13.250	20.000	3.1035e-03
13.250	20.250	5.9696e-03
13.250	20.500	1.1080e-02
13.250	20.750	1.9196e-02
13.250	21.000	3.0171e-02
13.250	21.250	4.5434e-02
13.250	21.500	6.2312e-02
13.250	21.750	8.4778e-02
13.250	22.000	1.1151e-01
13.250	22.250	1.4004e-01
13.250	22.500	2.8893e-01
13.250	22.750	3.8995e-01
13.250	23.000	4.3621e-01
13.250	23.250	3.9612e-01
13.250	23.500	2.8157e-01
13.250	23.750	1.8287e-01
13.250	24.000	1.1846e-01
13.500	17.000	1.0626e-04
13.500	17.250	1.0741e-04
13.500	17.500	1.1309e-04
13.500	17.750	1.2247e-04
13.500	18.000	1.4091e-04
13.500	18.250	1.7399e-04
13.500	18.500	2.3169e-04
13.500	18.750	3.2510e-04
13.500	19.000	4.6757e-04
13.500	19.250	6.7366e-04
13.500	19.500	9.7712e-04
13.500	19.750	1.4489e-03
13.500	20.000	2.2575e-03
13.500	20.250	3.8535e-03
13.500	20.500	6.9495e-03
13.500	20.750	1.2547e-02
13.500	21.000	2.0912e-02
13.500	21.250	3.3575e-02
13.500	21.500	4.8581e-02
13.500	21.750	7.0132e-02
13.500	22.000	9.8248e-02
13.500	22.250	1.2689e-01
13.500	22.500	1.6141e-01
13.500	22.750	3.5096e-01
13.500	23.000	4.5196e-01
13.500	23.250	4.8100e-01
13.500	23.500	4.1840e-01
13.500	23.750	2.8449e-01
13.500	24.000	1.8132e-01
13.750	17.000	1.0008e-04
13.750	17.250	9.8930e-05
13.750	17.500	1.0321e-04
13.750	17.750	1.1012e-04
13.750	18.000	1.2453e-04
13.750	18.250	1.5177e-04
13.750	18.500	1.9984e-04
13.750	18.750	2.8165e-04
13.750	19.000	4.1218e-04
13.750	19.250	6.0716e-04
13.750	19.500	8.9029e-04
13.750	19.750	1.3142e-03
13.750	20.000	1.9817e-03
13.750	20.250	3.0978e-03
13.750	20.500	5.0845e-03
13.750	20.750	8.6635e-03
13.750	21.000	1.4690e-02
13.750	21.250	2.3594e-02
13.750	21.500	3.6439e-02
13.750	21.750	5.3802e-02
13.750	22.000	7.6547e-02
13.750	22.250	1.0748e-01
13.750	22.500	1.4649e-01
13.750	22.750	1.9307e-01
13.750	23.000	4.3413e-01
13.750	23.250	5.2866e-01
13.750	23.500	5.3049e-01
13.750	23.750	4.3827e-01
13.750	24.000	2.8564e-01
14.000	17.000	9.4074e-05
14.000	17.250	9.2428e-05
14.000	17.500	9.2757e-05
14.000	17.750	9.9506e-05
14.000	18.000	1.1095e-04
14.000	18.250	1.3374e-04
14.000	18.500	1.7572e-04
14.000	18.750	2.4790e-04
14.000	19.000	3.6683e-04
14.000	19.250	5.5473e-04
14.000	19.500	8.3416e-04
14.000	19.750	1.2428e-03
14.000	20.000	1.8579e-03
14.000	20.250	2.8240e-03
14.000	20.500	4.3974e-03
14.000	20.750	7.0128e-03
14.000	21.000	1.1382e-02
14.000	21.250	1.8438e-02
14.000	21.500	2.8365e-02
14.000	21.750	4.2501e-02
14.000	22.000	6.1612e-02
14.000	22.250	8.8526e-02
14.000	22.500	1.2637e-01
14.000	22.750	1.7846e-01
14.000	23.000	2.6992e-01
14.000	23.250	5.6264e-01
14.000	23.500	6.3423e-01
14.000	23.750	5.8550e-01
14.000	24.000	4.5171e-01
