nFnu 2052.68A  relative to Inci 1215.00A scaled to 1215A.
Hden   Phi(H)  Eq_Width (A)
 7.000	17.000	1.6636e-01
 7.000	17.250	1.3137e-01
 7.000	17.500	9.4790e-02
 7.000	17.750	6.6527e-02
 7.000	18.000	5.3371e-02
 7.000	18.250	4.7192e-02
 7.000	18.500	4.3942e-02
 7.000	18.750	4.2625e-02
 7.000	19.000	4.1960e-02
 7.000	19.250	4.1586e-02
 7.000	19.500	4.1434e-02
 7.000	19.750	4.1371e-02
 7.000	20.000	4.1344e-02
 7.000	20.250	4.1332e-02
 7.000	20.500	4.1326e-02
 7.000	20.750	4.1322e-02
 7.000	21.000	4.1321e-02
 7.000	21.250	4.1320e-02
 7.000	21.500	4.1320e-02
 7.000	21.750	4.1319e-02
 7.000	22.000	4.1320e-02
 7.000	22.250	4.1320e-02
 7.000	22.500	4.1320e-02
 7.000	22.750	4.1321e-02
 7.000	23.000	4.1321e-02
 7.000	23.250	4.1321e-02
 7.000	23.500	4.1321e-02
 7.000	23.750	4.1321e-02
 7.000	24.000	4.1321e-02
 7.250	17.000	1.6260e-01
 7.250	17.250	1.6680e-01
 7.250	17.500	1.3121e-01
 7.250	17.750	9.4595e-02
 7.250	18.000	6.6436e-02
 7.250	18.250	5.3340e-02
 7.250	18.500	4.7182e-02
 7.250	18.750	4.3939e-02
 7.250	19.000	4.2623e-02
 7.250	19.250	4.1959e-02
 7.250	19.500	4.1586e-02
 7.250	19.750	4.1434e-02
 7.250	20.000	4.1371e-02
 7.250	20.250	4.1344e-02
 7.250	20.500	4.1332e-02
 7.250	20.750	4.1326e-02
 7.250	21.000	4.1322e-02
 7.250	21.250	4.1320e-02
 7.250	21.500	4.1320e-02
 7.250	21.750	4.1319e-02
 7.250	22.000	4.1319e-02
 7.250	22.250	4.1319e-02
 7.250	22.500	4.1319e-02
 7.250	22.750	4.1319e-02
 7.250	23.000	4.1319e-02
 7.250	23.250	4.1320e-02
 7.250	23.500	4.1320e-02
 7.250	23.750	4.1320e-02
 7.250	24.000	4.1320e-02
 7.500	17.000	1.6030e-01
 7.500	17.250	1.6361e-01
 7.500	17.500	1.6702e-01
 7.500	17.750	1.3111e-01
 7.500	18.000	9.4446e-02
 7.500	18.250	6.6357e-02
 7.500	18.500	5.3312e-02
 7.500	18.750	4.7175e-02
 7.500	19.000	4.3936e-02
 7.500	19.250	4.2622e-02
 7.500	19.500	4.1959e-02
 7.500	19.750	4.1586e-02
 7.500	20.000	4.1434e-02
 7.500	20.250	4.1371e-02
 7.500	20.500	4.1344e-02
 7.500	20.750	4.1332e-02
 7.500	21.000	4.1325e-02
 7.500	21.250	4.1322e-02
 7.500	21.500	4.1320e-02
 7.500	21.750	4.1319e-02
 7.500	22.000	4.1319e-02
 7.500	22.250	4.1319e-02
 7.500	22.500	4.1319e-02
 7.500	22.750	4.1319e-02
 7.500	23.000	4.1319e-02
 7.500	23.250	4.1319e-02
 7.500	23.500	4.1321e-02
 7.500	23.750	4.1319e-02
 7.500	24.000	4.1319e-02
 7.750	17.000	1.5620e-01
 7.750	17.250	1.6166e-01
 7.750	17.500	1.6438e-01
 7.750	17.750	1.6717e-01
 7.750	18.000	1.3106e-01
 7.750	18.250	9.4327e-02
 7.750	18.500	6.6281e-02
 7.750	18.750	5.3286e-02
 7.750	19.000	4.7170e-02
 7.750	19.250	4.3934e-02
 7.750	19.500	4.2622e-02
 7.750	19.750	4.1959e-02
 7.750	20.000	4.1586e-02
 7.750	20.250	4.1434e-02
 7.750	20.500	4.1371e-02
 7.750	20.750	4.1344e-02
 7.750	21.000	4.1332e-02
 7.750	21.250	4.1326e-02
 7.750	21.500	4.1322e-02
 7.750	21.750	4.1320e-02
 7.750	22.000	4.1319e-02
 7.750	22.250	4.1319e-02
 7.750	22.500	4.1319e-02
 7.750	22.750	4.1318e-02
 7.750	23.000	4.1319e-02
 7.750	23.250	4.1318e-02
 7.750	23.500	4.1318e-02
 7.750	23.750	4.1319e-02
 7.750	24.000	4.1318e-02
 8.000	17.000	1.4954e-01
 8.000	17.250	1.5565e-01
 8.000	17.500	1.6150e-01
 8.000	17.750	1.6363e-01
 8.000	18.000	1.6613e-01
 8.000	18.250	1.3085e-01
 8.000	18.500	9.4224e-02
 8.000	18.750	6.6203e-02
 8.000	19.000	5.3258e-02
 8.000	19.250	4.7166e-02
 8.000	19.500	4.3933e-02
 8.000	19.750	4.2621e-02
 8.000	20.000	4.1959e-02
 8.000	20.250	4.1586e-02
 8.000	20.500	4.1434e-02
 8.000	20.750	4.1371e-02
 8.000	21.000	4.1344e-02
 8.000	21.250	4.1332e-02
 8.000	21.500	4.1325e-02
 8.000	21.750	4.1322e-02
 8.000	22.000	4.1320e-02
 8.000	22.250	4.1319e-02
 8.000	22.500	4.1319e-02
 8.000	22.750	4.1319e-02
 8.000	23.000	4.1318e-02
 8.000	23.250	4.1319e-02
 8.000	23.500	4.1318e-02
 8.000	23.750	4.1318e-02
 8.000	24.000	4.1318e-02
 8.250	17.000	1.4544e-01
 8.250	17.250	1.5074e-01
 8.250	17.500	1.5749e-01
 8.250	17.750	1.6342e-01
 8.250	18.000	1.6507e-01
 8.250	18.250	1.6644e-01
 8.250	18.500	1.3091e-01
 8.250	18.750	9.4127e-02
 8.250	19.000	6.6119e-02
 8.250	19.250	5.3229e-02
 8.250	19.500	4.7162e-02
 8.250	19.750	4.3932e-02
 8.250	20.000	4.2621e-02
 8.250	20.250	4.1959e-02
 8.250	20.500	4.1586e-02
 8.250	20.750	4.1434e-02
 8.250	21.000	4.1371e-02
 8.250	21.250	4.1344e-02
 8.250	21.500	4.1332e-02
 8.250	21.750	4.1325e-02
 8.250	22.000	4.1322e-02
 8.250	22.250	4.1320e-02
 8.250	22.500	4.1319e-02
 8.250	22.750	4.1319e-02
 8.250	23.000	4.1319e-02
 8.250	23.250	4.1318e-02
 8.250	23.500	4.1318e-02
 8.250	23.750	4.1318e-02
 8.250	24.000	4.1318e-02
 8.500	17.000	1.4187e-01
 8.500	17.250	1.4667e-01
 8.500	17.500	1.5268e-01
 8.500	17.750	1.6042e-01
 8.500	18.000	1.6722e-01
 8.500	18.250	1.6751e-01
 8.500	18.500	1.6713e-01
 8.500	18.750	1.3101e-01
 8.500	19.000	9.4032e-02
 8.500	19.250	6.6025e-02
 8.500	19.500	5.3198e-02
 8.500	19.750	4.7158e-02
 8.500	20.000	4.3931e-02
 8.500	20.250	4.2621e-02
 8.500	20.500	4.1959e-02
 8.500	20.750	4.1586e-02
 8.500	21.000	4.1434e-02
 8.500	21.250	4.1371e-02
 8.500	21.500	4.1344e-02
 8.500	21.750	4.1332e-02
 8.500	22.000	4.1325e-02
 8.500	22.250	4.1322e-02
 8.500	22.500	4.1320e-02
 8.500	22.750	4.1319e-02
 8.500	23.000	4.1319e-02
 8.500	23.250	4.1319e-02
 8.500	23.500	4.1318e-02
 8.500	23.750	4.1318e-02
 8.500	24.000	4.1318e-02
 8.750	17.000	1.3827e-01
 8.750	17.250	1.4324e-01
 8.750	17.500	1.4885e-01
 8.750	17.750	1.5625e-01
 8.750	18.000	1.6602e-01
 8.750	18.250	1.7362e-01
 8.750	18.500	1.7278e-01
 8.750	18.750	1.6747e-01
 8.750	19.000	1.3112e-01
 8.750	19.250	9.3941e-02
 8.750	19.500	6.5923e-02
 8.750	19.750	5.3164e-02
 8.750	20.000	4.7154e-02
 8.750	20.250	4.3931e-02
 8.750	20.500	4.2621e-02
 8.750	20.750	4.1959e-02
 8.750	21.000	4.1586e-02
 8.750	21.250	4.1434e-02
 8.750	21.500	4.1371e-02
 8.750	21.750	4.1344e-02
 8.750	22.000	4.1332e-02
 8.750	22.250	4.1325e-02
 8.750	22.500	4.1322e-02
 8.750	22.750	4.1320e-02
 8.750	23.000	4.1319e-02
 8.750	23.250	4.1319e-02
 8.750	23.500	4.1319e-02
 8.750	23.750	4.1319e-02
 8.750	24.000	4.1318e-02
 9.000	17.000	1.3420e-01
 9.000	17.250	1.3982e-01
 9.000	17.500	1.4580e-01
 9.000	17.750	1.5310e-01
 9.000	18.000	1.6314e-01
 9.000	18.250	1.7576e-01
 9.000	18.500	1.8340e-01
 9.000	18.750	1.7863e-01
 9.000	19.000	1.6722e-01
 9.000	19.250	1.3122e-01
 9.000	19.500	9.3860e-02
 9.000	19.750	6.5820e-02
 9.000	20.000	5.3129e-02
 9.000	20.250	4.7150e-02
 9.000	20.500	4.3930e-02
 9.000	20.750	4.2621e-02
 9.000	21.000	4.1959e-02
 9.000	21.250	4.1586e-02
 9.000	21.500	4.1434e-02
 9.000	21.750	4.1371e-02
 9.000	22.000	4.1344e-02
 9.000	22.250	4.1332e-02
 9.000	22.500	4.1325e-02
 9.000	22.750	4.1322e-02
 9.000	23.000	4.1320e-02
 9.000	23.250	4.1319e-02
 9.000	23.500	4.1319e-02
 9.000	23.750	4.1318e-02
 9.000	24.000	4.1318e-02
 9.250	17.000	1.2927e-01
 9.250	17.250	1.3587e-01
 9.250	17.500	1.4293e-01
 9.250	17.750	1.5113e-01
 9.250	18.000	1.6174e-01
 9.250	18.250	1.7562e-01
 9.250	18.500	1.9014e-01
 9.250	18.750	1.9649e-01
 9.250	19.000	1.9084e-01
 9.250	19.250	1.6667e-01
 9.250	19.500	1.3128e-01
 9.250	19.750	9.3797e-02
 9.250	20.000	6.5723e-02
 9.250	20.250	5.3095e-02
 9.250	20.500	4.7146e-02
 9.250	20.750	4.3929e-02
 9.250	21.000	4.2621e-02
 9.250	21.250	4.1959e-02
 9.250	21.500	4.1578e-02
 9.250	21.750	4.1422e-02
 9.250	22.000	4.1358e-02
 9.250	22.250	4.1332e-02
 9.250	22.500	4.1331e-02
 9.250	22.750	4.1325e-02
 9.250	23.000	4.1322e-02
 9.250	23.250	4.1320e-02
 9.250	23.500	4.1319e-02
 9.250	23.750	4.1319e-02
 9.250	24.000	4.1319e-02
 9.500	17.000	1.2318e-01
 9.500	17.250	1.3120e-01
 9.500	17.500	1.3972e-01
 9.500	17.750	1.4960e-01
 9.500	18.000	1.6190e-01
 9.500	18.250	1.7707e-01
 9.500	18.500	1.9369e-01
 9.500	18.750	2.0771e-01
 9.500	19.000	2.1014e-01
 9.500	19.250	2.0414e-01
 9.500	19.500	1.6597e-01
 9.500	19.750	1.3125e-01
 9.500	20.000	9.3759e-02
 9.500	20.250	6.5641e-02
 9.500	20.500	5.3064e-02
 9.500	20.750	4.7141e-02
 9.500	21.000	4.3919e-02
 9.500	21.250	4.2608e-02
 9.500	21.500	4.1946e-02
 9.500	21.750	4.1570e-02
 9.500	22.000	4.1412e-02
 9.500	22.250	4.1350e-02
 9.500	22.500	4.1322e-02
 9.500	22.750	4.1309e-02
 9.500	23.000	4.1303e-02
 9.500	23.250	4.1300e-02
 9.500	23.500	4.1304e-02
 9.500	23.750	4.1303e-02
 9.500	24.000	4.1302e-02
 9.750	17.000	1.1506e-01
 9.750	17.250	1.2515e-01
 9.750	17.500	1.3564e-01
 9.750	17.750	1.4779e-01
 9.750	18.000	1.6289e-01
 9.750	18.250	1.8068e-01
 9.750	18.500	1.9828e-01
 9.750	18.750	2.1372e-01
 9.750	19.000	2.2469e-01
 9.750	19.250	2.2702e-01
 9.750	19.500	2.2208e-01
 9.750	19.750	1.6554e-01
 9.750	20.000	1.3120e-01
 9.750	20.250	9.3746e-02
 9.750	20.500	6.5577e-02
 9.750	20.750	5.3039e-02
 9.750	21.000	4.7137e-02
 9.750	21.250	4.3924e-02
 9.750	21.500	4.2610e-02
 9.750	21.750	4.1946e-02
 9.750	22.000	4.1572e-02
 9.750	22.250	4.1415e-02
 9.750	22.500	4.1349e-02
 9.750	22.750	4.1323e-02
 9.750	23.000	4.1310e-02
 9.750	23.250	4.1304e-02
 9.750	23.500	4.1300e-02
 9.750	23.750	4.1298e-02
 9.750	24.000	4.1297e-02
10.000	17.000	1.0377e-01
10.000	17.250	1.1717e-01
10.000	17.500	1.3035e-01
10.000	17.750	1.4550e-01
10.000	18.000	1.6453e-01
10.000	18.250	1.8529e-01
10.000	18.500	2.0369e-01
10.000	18.750	2.1884e-01
10.000	19.000	2.3100e-01
10.000	19.250	2.3854e-01
10.000	19.500	2.4618e-01
10.000	19.750	2.2530e-01
10.000	20.000	1.6575e-01
10.000	20.250	1.3107e-01
10.000	20.500	9.3745e-02
10.000	20.750	6.5527e-02
10.000	21.000	5.3017e-02
10.000	21.250	4.7134e-02
10.000	21.500	4.3926e-02
10.000	21.750	4.2616e-02
10.000	22.000	4.1947e-02
10.000	22.250	4.1573e-02
10.000	22.500	4.1418e-02
10.000	22.750	4.1351e-02
10.000	23.000	4.1322e-02
10.000	23.250	4.1310e-02
10.000	23.500	4.1304e-02
10.000	23.750	4.1301e-02
10.000	24.000	4.1299e-02
10.250	17.000	9.1348e-02
10.250	17.250	1.0628e-01
10.250	17.500	1.2350e-01
10.250	17.750	1.4260e-01
10.250	18.000	1.6557e-01
10.250	18.250	1.8917e-01
10.250	18.500	2.0847e-01
10.250	18.750	2.2322e-01
10.250	19.000	2.3331e-01
10.250	19.250	2.4192e-01
10.250	19.500	2.5485e-01
10.250	19.750	2.7063e-01
10.250	20.000	2.2425e-01
10.250	20.250	1.6630e-01
10.250	20.500	1.3124e-01
10.250	20.750	9.3724e-02
10.250	21.000	6.5490e-02
10.250	21.250	5.3000e-02
10.250	21.500	4.7132e-02
10.250	21.750	4.3925e-02
10.250	22.000	4.2619e-02
10.250	22.250	4.1952e-02
10.250	22.500	4.1573e-02
10.250	22.750	4.1420e-02
10.250	23.000	4.1354e-02
10.250	23.250	4.1324e-02
10.250	23.500	4.1310e-02
10.250	23.750	4.1303e-02
10.250	24.000	4.1300e-02
10.500	17.000	7.8887e-02
10.500	17.250	9.4439e-02
10.500	17.500	1.1425e-01
10.500	17.750	1.3876e-01
10.500	18.000	1.6523e-01
10.500	18.250	1.9063e-01
10.500	18.500	2.1107e-01
10.500	18.750	2.2645e-01
10.500	19.000	2.3827e-01
10.500	19.250	2.4957e-01
10.500	19.500	2.6126e-01
10.500	19.750	2.7697e-01
10.500	20.000	2.9414e-01
10.500	20.250	2.2663e-01
10.500	20.500	1.6767e-01
10.500	20.750	1.3171e-01
10.500	21.000	9.3650e-02
10.500	21.250	6.5464e-02
10.500	21.500	5.2990e-02
10.500	21.750	4.7130e-02
10.500	22.000	4.3925e-02
10.500	22.250	4.2620e-02
10.500	22.500	4.1957e-02
10.500	22.750	4.1574e-02
10.500	23.000	4.1421e-02
10.500	23.250	4.1356e-02
10.500	23.500	4.1327e-02
10.500	23.750	4.1313e-02
10.500	24.000	4.1306e-02
10.750	17.000	6.8171e-02
10.750	17.250	8.2685e-02
10.750	17.500	1.0436e-01
10.750	17.750	1.3247e-01
10.750	18.000	1.6224e-01
10.750	18.250	1.8879e-01
10.750	18.500	2.1020e-01
10.750	18.750	2.2752e-01
10.750	19.000	2.4202e-01
10.750	19.250	2.5459e-01
10.750	19.500	2.6610e-01
10.750	19.750	2.7831e-01
10.750	20.000	2.9532e-01
10.750	20.250	3.0181e-01
10.750	20.500	2.2798e-01
10.750	20.750	1.6898e-01
10.750	21.000	1.3254e-01
10.750	21.250	9.3446e-02
10.750	21.500	6.5438e-02
10.750	21.750	5.2985e-02
10.750	22.000	4.7131e-02
10.750	22.250	4.3923e-02
10.750	22.500	4.2620e-02
10.750	22.750	4.1958e-02
10.750	23.000	4.1576e-02
10.750	23.250	4.1422e-02
10.750	23.500	4.1358e-02
10.750	23.750	4.1330e-02
10.750	24.000	4.1316e-02
11.000	17.000	5.9760e-02
11.000	17.250	7.2574e-02
11.000	17.500	9.3824e-02
11.000	17.750	1.2332e-01
11.000	18.000	1.5456e-01
11.000	18.250	1.8208e-01
11.000	18.500	2.0518e-01
11.000	18.750	2.2499e-01
11.000	19.000	2.4184e-01
11.000	19.250	2.5561e-01
11.000	19.500	2.6732e-01
11.000	19.750	2.7796e-01
11.000	20.000	2.8934e-01
11.000	20.250	3.0633e-01
11.000	20.500	3.0818e-01
11.000	20.750	2.2912e-01
11.000	21.000	1.7123e-01
11.000	21.250	1.3442e-01
11.000	21.500	9.3064e-02
11.000	21.750	6.5403e-02
11.000	22.000	5.2986e-02
11.000	22.250	4.7131e-02
11.000	22.500	4.3922e-02
11.000	22.750	4.2620e-02
11.000	23.000	4.1959e-02
11.000	23.250	4.1582e-02
11.000	23.500	4.1422e-02
11.000	23.750	4.1359e-02
11.000	24.000	4.1331e-02
11.250	17.000	5.3334e-02
11.250	17.250	6.4648e-02
11.250	17.500	8.3862e-02
11.250	17.750	1.1134e-01
11.250	18.000	1.4221e-01
11.250	18.250	1.7063e-01
11.250	18.500	1.9563e-01
11.250	18.750	2.1786e-01
11.250	19.000	2.3679e-01
11.250	19.250	2.5262e-01
11.250	19.500	2.6509e-01
11.250	19.750	2.7538e-01
11.250	20.000	2.8462e-01
11.250	20.250	2.9588e-01
11.250	20.500	3.1379e-01
11.250	20.750	3.0173e-01
11.250	21.000	2.3152e-01
11.250	21.250	1.7494e-01
11.250	21.500	1.3806e-01
11.250	21.750	9.2395e-02
11.250	22.000	6.5337e-02
11.250	22.250	5.2994e-02
11.250	22.500	4.7130e-02
11.250	22.750	4.3920e-02
11.250	23.000	4.2620e-02
11.250	23.250	4.1959e-02
11.250	23.500	4.1585e-02
11.250	23.750	4.1424e-02
11.250	24.000	4.1359e-02
11.500	17.000	4.8597e-02
11.500	17.250	5.8667e-02
11.500	17.500	7.5513e-02
11.500	17.750	9.9117e-02
11.500	18.000	1.2698e-01
11.500	18.250	1.5546e-01
11.500	18.500	1.8226e-01
11.500	18.750	2.0702e-01
11.500	19.000	2.2848e-01
11.500	19.250	2.4599e-01
11.500	19.500	2.5990e-01
11.500	19.750	2.7127e-01
11.500	20.000	2.8111e-01
11.500	20.250	2.9036e-01
11.500	20.500	3.0227e-01
11.500	20.750	3.2091e-01
11.500	21.000	3.0362e-01
11.500	21.250	2.3787e-01
11.500	21.500	1.8329e-01
11.500	21.750	1.4228e-01
11.500	22.000	9.1559e-02
11.500	22.250	6.5220e-02
11.500	22.500	5.3004e-02
11.500	22.750	4.7132e-02
11.500	23.000	4.3918e-02
11.500	23.250	4.2619e-02
11.500	23.500	4.1959e-02
11.500	23.750	4.1585e-02
11.500	24.000	4.1430e-02
11.750	17.000	4.5156e-02
11.750	17.250	5.3996e-02
11.750	17.500	6.8685e-02
11.750	17.750	8.8736e-02
11.750	18.000	1.1234e-01
11.750	18.250	1.3884e-01
11.750	18.500	1.6677e-01
11.750	18.750	1.9362e-01
11.750	19.000	2.1804e-01
11.750	19.250	2.3803e-01
11.750	19.500	2.5386e-01
11.750	19.750	2.6661e-01
11.750	20.000	2.7749e-01
11.750	20.250	2.8763e-01
11.750	20.500	2.9819e-01
11.750	20.750	3.1207e-01
11.750	21.000	3.2695e-01
11.750	21.250	3.0831e-01
11.750	21.500	2.4784e-01
11.750	21.750	1.9631e-01
11.750	22.000	1.4245e-01
11.750	22.250	9.0680e-02
11.750	22.500	6.5032e-02
11.750	22.750	5.3014e-02
11.750	23.000	4.7136e-02
11.750	23.250	4.3915e-02
11.750	23.500	4.2618e-02
11.750	23.750	4.1959e-02
11.750	24.000	4.1586e-02
12.000	17.000	4.2590e-02
12.000	17.250	5.0172e-02
12.000	17.500	6.2726e-02
12.000	17.750	8.0030e-02
12.000	18.000	1.0042e-01
12.000	18.250	1.2411e-01
12.000	18.500	1.5124e-01
12.000	18.750	1.7991e-01
12.000	19.000	2.0656e-01
12.000	19.250	2.2990e-01
12.000	19.500	2.4808e-01
12.000	19.750	2.6230e-01
12.000	20.000	2.7445e-01
12.000	20.250	2.8597e-01
12.000	20.500	2.9759e-01
12.000	20.750	3.1125e-01
12.000	21.000	3.3124e-01
12.000	21.250	3.4409e-01
12.000	21.500	3.1684e-01
12.000	21.750	2.6293e-01
12.000	22.000	2.0992e-01
12.000	22.250	1.3919e-01
12.000	22.500	8.9641e-02
12.000	22.750	6.4772e-02
12.000	23.000	5.3018e-02
12.000	23.250	4.7141e-02
12.000	23.500	4.3911e-02
12.000	23.750	4.2617e-02
12.000	24.000	4.1959e-02
12.250	17.000	4.0735e-02
12.250	17.250	4.6842e-02
12.250	17.500	5.7164e-02
12.250	17.750	7.2128e-02
12.250	18.000	9.0739e-02
12.250	18.250	1.1296e-01
12.250	18.500	1.3910e-01
12.250	18.750	1.6758e-01
12.250	19.000	1.9538e-01
12.250	19.250	2.2134e-01
12.250	19.500	2.4288e-01
12.250	19.750	2.5965e-01
12.250	20.000	2.7312e-01
12.250	20.250	2.8583e-01
12.250	20.500	2.9870e-01
12.250	20.750	3.1417e-01
12.250	21.000	3.3560e-01
12.250	21.250	3.6424e-01
12.250	21.500	3.6736e-01
12.250	21.750	3.3340e-01
12.250	22.000	2.8296e-01
12.250	22.250	2.2143e-01
12.250	22.500	1.3614e-01
12.250	22.750	8.8553e-02
12.250	23.000	6.4479e-02
12.250	23.250	5.3010e-02
12.250	23.500	4.7143e-02
12.250	23.750	4.3906e-02
12.250	24.000	4.2615e-02
12.500	17.000	3.7062e-02
12.500	17.250	4.3782e-02
12.500	17.500	5.2142e-02
12.500	17.750	6.4975e-02
12.500	18.000	8.2352e-02
12.500	18.250	1.0398e-01
12.500	18.500	1.2982e-01
12.500	18.750	1.5845e-01
12.500	19.000	1.8668e-01
12.500	19.250	2.1332e-01
12.500	19.500	2.3776e-01
12.500	19.750	2.5838e-01
12.500	20.000	2.7456e-01
12.500	20.250	2.8831e-01
12.500	20.500	3.0207e-01
12.500	20.750	3.1975e-01
12.500	21.000	3.4468e-01
12.500	21.250	3.7900e-01
12.500	21.500	4.0475e-01
12.500	21.750	4.0497e-01
12.500	22.000	3.6105e-01
12.500	22.250	3.0743e-01
12.500	22.500	2.2506e-01
12.500	22.750	1.3314e-01
12.500	23.000	8.7342e-02
12.500	23.250	6.4180e-02
12.500	23.500	5.2986e-02
12.500	23.750	4.7141e-02
12.500	24.000	4.3900e-02
12.750	17.000	3.0658e-02
12.750	17.250	3.9220e-02
12.750	17.500	4.7556e-02
12.750	17.750	5.8895e-02
12.750	18.000	7.5029e-02
12.750	18.250	9.5972e-02
12.750	18.500	1.2147e-01
12.750	18.750	1.5047e-01
12.750	19.000	1.7987e-01
12.750	19.250	2.0788e-01
12.750	19.500	2.3326e-01
12.750	19.750	2.5628e-01
12.750	20.000	2.7609e-01
12.750	20.250	2.9375e-01
12.750	20.500	3.0912e-01
12.750	20.750	3.2627e-01
12.750	21.000	3.5273e-01
12.750	21.250	3.9041e-01
12.750	21.500	4.2280e-01
12.750	21.750	4.6973e-01
12.750	22.000	4.5486e-01
12.750	22.250	3.9562e-01
12.750	22.500	3.3425e-01
12.750	22.750	2.2214e-01
12.750	23.000	1.3066e-01
12.750	23.250	8.6129e-02
12.750	23.500	6.3781e-02
12.750	23.750	5.2939e-02
12.750	24.000	4.7129e-02
13.000	17.000	2.0161e-02
13.000	17.250	2.7117e-02
13.000	17.500	3.9953e-02
13.000	17.750	5.3168e-02
13.000	18.000	6.8303e-02
13.000	18.250	8.8434e-02
13.000	18.500	1.1338e-01
13.000	18.750	1.4214e-01
13.000	19.000	1.7268e-01
13.000	19.250	2.0203e-01
13.000	19.500	2.2827e-01
13.000	19.750	2.5371e-01
13.000	20.000	2.7712e-01
13.000	20.250	2.9792e-01
13.000	20.500	3.1888e-01
13.000	20.750	3.4015e-01
13.000	21.000	3.6628e-01
13.000	21.250	4.0755e-01
13.000	21.500	4.4784e-01
13.000	21.750	4.9438e-01
13.000	22.000	5.4031e-01
13.000	22.250	5.1267e-01
13.000	22.500	4.4500e-01
13.000	22.750	3.4832e-01
13.000	23.000	2.1697e-01
13.000	23.250	1.2784e-01
13.000	23.500	8.4722e-02
13.000	23.750	6.3416e-02
13.000	24.000	5.2858e-02
13.250	17.000	1.6667e-02
13.250	17.250	2.1876e-02
13.250	17.500	3.0781e-02
13.250	17.750	4.4118e-02
13.250	18.000	6.0583e-02
13.250	18.250	8.1413e-02
13.250	18.500	1.0547e-01
13.250	18.750	1.3360e-01
13.250	19.000	1.6411e-01
13.250	19.250	1.9475e-01
13.250	19.500	2.2314e-01
13.250	19.750	2.5082e-01
13.250	20.000	2.7717e-01
13.250	20.250	3.0055e-01
13.250	20.500	3.2354e-01
13.250	20.750	3.5041e-01
13.250	21.000	3.7914e-01
13.250	21.250	4.1680e-01
13.250	21.500	4.4656e-01
13.250	21.750	4.9823e-01
13.250	22.000	5.6540e-01
13.250	22.250	6.2117e-01
13.250	22.500	5.6016e-01
13.250	22.750	4.5492e-01
13.250	23.000	3.3543e-01
13.250	23.250	2.1013e-01
13.250	23.500	1.2521e-01
13.250	23.750	8.3639e-02
13.250	24.000	6.3194e-02
13.500	17.000	1.3982e-02
13.500	17.250	1.8573e-02
13.500	17.500	2.6117e-02
13.500	17.750	3.7411e-02
13.500	18.000	5.3935e-02
13.500	18.250	7.3752e-02
13.500	18.500	9.8031e-02
13.500	18.750	1.2530e-01
13.500	19.000	1.5560e-01
13.500	19.250	1.8660e-01
13.500	19.500	2.1666e-01
13.500	19.750	2.4524e-01
13.500	20.000	2.7339e-01
13.500	20.250	3.0205e-01
13.500	20.500	3.2719e-01
13.500	20.750	3.5356e-01
13.500	21.000	3.8057e-01
13.500	21.250	4.1702e-01
13.500	21.500	4.4126e-01
13.500	21.750	4.9120e-01
13.500	22.000	5.6201e-01
13.500	22.250	6.3423e-01
13.500	22.500	6.9082e-01
13.500	22.750	5.8791e-01
13.500	23.000	4.4192e-01
13.500	23.250	3.2454e-01
13.500	23.500	2.0316e-01
13.500	23.750	1.2258e-01
13.500	24.000	8.2650e-02
13.750	17.000	1.1994e-02
13.750	17.250	1.5909e-02
13.750	17.500	2.2427e-02
13.750	17.750	3.1987e-02
13.750	18.000	4.6933e-02
13.750	18.250	6.7056e-02
13.750	18.500	9.0058e-02
13.750	18.750	1.1759e-01
13.750	19.000	1.4746e-01
13.750	19.250	1.7930e-01
13.750	19.500	2.1082e-01
13.750	19.750	2.4099e-01
13.750	20.000	2.7054e-01
13.750	20.250	3.0046e-01
13.750	20.500	3.3039e-01
13.750	20.750	3.5855e-01
13.750	21.000	3.8587e-01
13.750	21.250	4.1328e-01
13.750	21.500	4.3975e-01
13.750	21.750	4.8026e-01
13.750	22.000	5.3617e-01
13.750	22.250	6.1224e-01
13.750	22.500	7.0640e-01
13.750	22.750	7.8084e-01
13.750	23.000	5.9101e-01
13.750	23.250	4.3391e-01
13.750	23.500	3.1008e-01
13.750	23.750	1.9630e-01
13.750	24.000	1.2010e-01
14.000	17.000	1.0429e-02
14.000	17.250	1.3726e-02
14.000	17.500	1.9296e-02
14.000	17.750	2.7894e-02
14.000	18.000	4.0734e-02
14.000	18.250	5.9527e-02
14.000	18.500	8.3189e-02
14.000	18.750	1.1012e-01
14.000	19.000	1.3994e-01
14.000	19.250	1.7219e-01
14.000	19.500	2.0553e-01
14.000	19.750	2.3828e-01
14.000	20.000	2.6962e-01
14.000	20.250	3.0051e-01
14.000	20.500	3.3229e-01
14.000	20.750	3.6393e-01
14.000	21.000	3.9464e-01
14.000	21.250	4.2540e-01
14.000	21.500	4.4777e-01
14.000	21.750	4.8487e-01
14.000	22.000	5.3377e-01
14.000	22.250	5.9712e-01
14.000	22.500	6.7440e-01
14.000	22.750	8.0155e-01
14.000	23.000	8.5571e-01
14.000	23.250	6.1409e-01
14.000	23.500	4.3593e-01
14.000	23.750	3.0751e-01
14.000	24.000	1.8998e-01
