Inwd 1215.23A  relative to Inci 1215.00A scaled to 1215A.
Hden   Phi(H)  Eq_Width (A)
 7.000	17.000	1.0763e-02
 7.000	17.250	6.0321e-03
 7.000	17.500	3.1657e-03
 7.000	17.750	9.9333e-04
 7.000	18.000	3.3440e-04
 7.000	18.250	1.3794e-04
 7.000	18.500	4.0165e-05
 7.000	18.750	1.2510e-05
 7.000	19.000	3.4568e-06
 7.000	19.250	1.0000e-07
 7.000	19.500	1.0000e-07
 7.000	19.750	1.0000e-07
 7.000	20.000	1.0000e-07
 7.000	20.250	1.0000e-07
 7.000	20.500	1.0000e-07
 7.000	20.750	1.0000e-07
 7.000	21.000	1.0000e-07
 7.000	21.250	1.0000e-07
 7.000	21.500	1.0000e-07
 7.000	21.750	1.0000e-07
 7.000	22.000	1.0000e-07
 7.000	22.250	1.0000e-07
 7.000	22.500	1.0000e-07
 7.000	22.750	1.0000e-07
 7.000	23.000	1.0000e-07
 7.000	23.250	1.0000e-07
 7.000	23.500	1.0000e-07
 7.000	23.750	1.0000e-07
 7.000	24.000	1.0000e-07
 7.250	17.000	1.0603e-02
 7.250	17.250	1.0650e-02
 7.250	17.500	6.2067e-03
 7.250	17.750	3.1449e-03
 7.250	18.000	9.8329e-04
 7.250	18.250	3.3432e-04
 7.250	18.500	1.3844e-04
 7.250	18.750	4.0247e-05
 7.250	19.000	1.2593e-05
 7.250	19.250	3.4568e-06
 7.250	19.500	1.0000e-07
 7.250	19.750	1.0000e-07
 7.250	20.000	1.0000e-07
 7.250	20.250	1.0000e-07
 7.250	20.500	1.0000e-07
 7.250	20.750	1.0000e-07
 7.250	21.000	1.0000e-07
 7.250	21.250	1.0000e-07
 7.250	21.500	1.0000e-07
 7.250	21.750	1.0000e-07
 7.250	22.000	1.0000e-07
 7.250	22.250	1.0000e-07
 7.250	22.500	1.0000e-07
 7.250	22.750	1.0000e-07
 7.250	23.000	1.0000e-07
 7.250	23.250	1.0000e-07
 7.250	23.500	1.0000e-07
 7.250	23.750	1.0000e-07
 7.250	24.000	1.0000e-07
 7.500	17.000	1.0357e-02
 7.500	17.250	1.0455e-02
 7.500	17.500	1.0499e-02
 7.500	17.750	6.4770e-03
 7.500	18.000	3.1296e-03
 7.500	18.250	9.7712e-04
 7.500	18.500	3.3350e-04
 7.500	18.750	1.3860e-04
 7.500	19.000	4.0329e-05
 7.500	19.250	1.2675e-05
 7.500	19.500	3.4568e-06
 7.500	19.750	1.0000e-07
 7.500	20.000	1.0000e-07
 7.500	20.250	1.0000e-07
 7.500	20.500	1.0000e-07
 7.500	20.750	1.0000e-07
 7.500	21.000	1.0000e-07
 7.500	21.250	1.0000e-07
 7.500	21.500	1.0000e-07
 7.500	21.750	1.0000e-07
 7.500	22.000	1.0000e-07
 7.500	22.250	1.0000e-07
 7.500	22.500	1.0000e-07
 7.500	22.750	1.0000e-07
 7.500	23.000	1.0000e-07
 7.500	23.250	1.0000e-07
 7.500	23.500	1.0000e-07
 7.500	23.750	1.0000e-07
 7.500	24.000	1.0000e-07
 7.750	17.000	1.0045e-02
 7.750	17.250	1.0170e-02
 7.750	17.500	1.0269e-02
 7.750	17.750	1.0305e-02
 7.750	18.000	6.8634e-03
 7.750	18.250	3.1069e-03
 7.750	18.500	9.6551e-04
 7.750	18.750	3.3243e-04
 7.750	19.000	1.3877e-04
 7.750	19.250	4.0494e-05
 7.750	19.500	1.2675e-05
 7.750	19.750	3.5391e-06
 7.750	20.000	1.0000e-07
 7.750	20.250	1.0000e-07
 7.750	20.500	1.0000e-07
 7.750	20.750	1.0000e-07
 7.750	21.000	1.0000e-07
 7.750	21.250	1.0000e-07
 7.750	21.500	1.0000e-07
 7.750	21.750	1.0000e-07
 7.750	22.000	1.0000e-07
 7.750	22.250	1.0000e-07
 7.750	22.500	1.0000e-07
 7.750	22.750	1.0000e-07
 7.750	23.000	1.0000e-07
 7.750	23.250	1.0000e-07
 7.750	23.500	1.0000e-07
 7.750	23.750	1.0000e-07
 7.750	24.000	1.0000e-07
 8.000	17.000	9.5320e-03
 8.000	17.250	9.6940e-03
 8.000	17.500	9.8349e-03
 8.000	17.750	9.9585e-03
 8.000	18.000	1.0023e-02
 8.000	18.250	7.3162e-03
 8.000	18.500	3.0847e-03
 8.000	18.750	9.7325e-04
 8.000	19.000	3.3119e-04
 8.000	19.250	1.3893e-04
 8.000	19.500	4.0576e-05
 8.000	19.750	1.2757e-05
 8.000	20.000	3.5391e-06
 8.000	20.250	1.0000e-07
 8.000	20.500	1.0000e-07
 8.000	20.750	1.0000e-07
 8.000	21.000	1.0000e-07
 8.000	21.250	1.0000e-07
 8.000	21.500	1.0000e-07
 8.000	21.750	1.0000e-07
 8.000	22.000	1.0000e-07
 8.000	22.250	1.0000e-07
 8.000	22.500	1.0000e-07
 8.000	22.750	1.0000e-07
 8.000	23.000	1.0000e-07
 8.000	23.250	1.0000e-07
 8.000	23.500	1.0000e-07
 8.000	23.750	1.0000e-07
 8.000	24.000	1.0000e-07
 8.250	17.000	9.1397e-03
 8.250	17.250	9.3078e-03
 8.250	17.500	9.4597e-03
 8.250	17.750	9.5863e-03
 8.250	18.000	9.6956e-03
 8.250	18.250	9.7325e-03
 8.250	18.500	7.8399e-03
 8.250	18.750	3.0475e-03
 8.250	19.000	9.3613e-04
 8.250	19.250	3.2889e-04
 8.250	19.500	1.3918e-04
 8.250	19.750	4.0658e-05
 8.250	20.000	1.2840e-05
 8.250	20.250	3.5391e-06
 8.250	20.500	1.0000e-07
 8.250	20.750	1.0000e-07
 8.250	21.000	1.0000e-07
 8.250	21.250	1.0000e-07
 8.250	21.500	1.0000e-07
 8.250	21.750	1.0000e-07
 8.250	22.000	1.0000e-07
 8.250	22.250	1.0000e-07
 8.250	22.500	1.0000e-07
 8.250	22.750	1.0000e-07
 8.250	23.000	1.0000e-07
 8.250	23.250	1.0000e-07
 8.250	23.500	1.0000e-07
 8.250	23.750	1.0000e-07
 8.250	24.000	1.0000e-07
 8.500	17.000	8.7460e-03
 8.500	17.250	8.9156e-03
 8.500	17.500	9.0733e-03
 8.500	17.750	9.2049e-03
 8.500	18.000	9.3061e-03
 8.500	18.250	9.3863e-03
 8.500	18.500	9.3439e-03
 8.500	18.750	8.2360e-03
 8.500	19.000	3.0140e-03
 8.500	19.250	9.3860e-04
 8.500	19.500	3.2650e-04
 8.500	19.750	1.3877e-04
 8.500	20.000	4.0741e-05
 8.500	20.250	1.2840e-05
 8.500	20.500	3.5391e-06
 8.500	20.750	1.0000e-07
 8.500	21.000	1.0000e-07
 8.500	21.250	1.0000e-07
 8.500	21.500	1.0000e-07
 8.500	21.750	1.0000e-07
 8.500	22.000	1.0000e-07
 8.500	22.250	1.0000e-07
 8.500	22.500	1.0000e-07
 8.500	22.750	1.0000e-07
 8.500	23.000	1.0000e-07
 8.500	23.250	1.0000e-07
 8.500	23.500	1.0000e-07
 8.500	23.750	1.0000e-07
 8.500	24.000	1.0000e-07
 8.750	17.000	8.3487e-03
 8.750	17.250	8.5309e-03
 8.750	17.500	8.6955e-03
 8.750	17.750	8.8289e-03
 8.750	18.000	8.9324e-03
 8.750	18.250	8.9920e-03
 8.750	18.500	9.0235e-03
 8.750	18.750	8.5874e-03
 8.750	19.000	8.3097e-03
 8.750	19.250	2.9739e-03
 8.750	19.500	9.2041e-04
 8.750	19.750	3.2280e-04
 8.750	20.000	1.3827e-04
 8.750	20.250	4.0741e-05
 8.750	20.500	1.2840e-05
 8.750	20.750	3.6214e-06
 8.750	21.000	1.0000e-07
 8.750	21.250	1.0000e-07
 8.750	21.500	1.0000e-07
 8.750	21.750	1.0000e-07
 8.750	22.000	1.0000e-07
 8.750	22.250	1.0000e-07
 8.750	22.500	1.0000e-07
 8.750	22.750	1.0000e-07
 8.750	23.000	1.0000e-07
 8.750	23.250	1.0000e-07
 8.750	23.500	1.0000e-07
 8.750	23.750	1.0000e-07
 8.750	24.000	1.0000e-07
 9.000	17.000	7.9510e-03
 9.000	17.250	8.1502e-03
 9.000	17.500	8.3290e-03
 9.000	17.750	8.4759e-03
 9.000	18.000	8.5792e-03
 9.000	18.250	8.6345e-03
 9.000	18.500	8.6332e-03
 9.000	18.750	8.5919e-03
 9.000	19.000	8.1764e-03
 9.000	19.250	8.0269e-03
 9.000	19.500	2.9278e-03
 9.000	19.750	8.8519e-04
 9.000	20.000	3.1893e-04
 9.000	20.250	1.3753e-04
 9.000	20.500	4.0658e-05
 9.000	20.750	1.2840e-05
 9.000	21.000	3.6214e-06
 9.000	21.250	1.0000e-07
 9.000	21.500	1.0000e-07
 9.000	21.750	1.0000e-07
 9.000	22.000	1.0000e-07
 9.000	22.250	1.0000e-07
 9.000	22.500	1.0000e-07
 9.000	22.750	1.0000e-07
 9.000	23.000	1.0000e-07
 9.000	23.250	1.0000e-07
 9.000	23.500	1.0000e-07
 9.000	23.750	1.0000e-07
 9.000	24.000	1.0000e-07
 9.250	17.000	7.5235e-03
 9.250	17.250	7.7622e-03
 9.250	17.500	7.9714e-03
 9.250	17.750	8.1373e-03
 9.250	18.000	8.2537e-03
 9.250	18.250	8.3117e-03
 9.250	18.500	8.2902e-03
 9.250	18.750	8.2030e-03
 9.250	19.000	8.0656e-03
 9.250	19.250	7.7166e-03
 9.250	19.500	7.4774e-03
 9.250	19.750	2.8779e-03
 9.250	20.000	8.5490e-04
 9.250	20.250	3.1457e-04
 9.250	20.500	1.3679e-04
 9.250	20.750	4.0576e-05
 9.250	21.000	1.2840e-05
 9.250	21.250	3.6214e-06
 9.250	21.500	1.0000e-07
 9.250	21.750	1.0000e-07
 9.250	22.000	1.0000e-07
 9.250	22.250	1.0000e-07
 9.250	22.500	1.0000e-07
 9.250	22.750	1.0000e-07
 9.250	23.000	1.0000e-07
 9.250	23.250	1.0000e-07
 9.250	23.500	1.0000e-07
 9.250	23.750	1.0000e-07
 9.250	24.000	1.0000e-07
 9.500	17.000	7.0104e-03
 9.500	17.250	7.3415e-03
 9.500	17.500	7.5961e-03
 9.500	17.750	7.8012e-03
 9.500	18.000	7.9401e-03
 9.500	18.250	8.0038e-03
 9.500	18.500	7.9845e-03
 9.500	18.750	7.8651e-03
 9.500	19.000	7.6653e-03
 9.500	19.250	7.4295e-03
 9.500	19.500	7.0924e-03
 9.500	19.750	6.7718e-03
 9.500	20.000	2.8209e-03
 9.500	20.250	8.3243e-04
 9.500	20.500	3.1004e-04
 9.500	20.750	1.3580e-04
 9.500	21.000	4.0658e-05
 9.500	21.250	1.2922e-05
 9.500	21.500	3.6214e-06
 9.500	21.750	1.0000e-07
 9.500	22.000	1.0000e-07
 9.500	22.250	1.0000e-07
 9.500	22.500	1.0000e-07
 9.500	22.750	1.0000e-07
 9.500	23.000	1.0000e-07
 9.500	23.250	1.0000e-07
 9.500	23.500	1.0000e-07
 9.500	23.750	1.0000e-07
 9.500	24.000	1.0000e-07
 9.750	17.000	6.3133e-03
 9.750	17.250	6.8378e-03
 9.750	17.500	7.2000e-03
 9.750	17.750	7.4496e-03
 9.750	18.000	7.6318e-03
 9.750	18.250	7.7224e-03
 9.750	18.500	7.7045e-03
 9.750	18.750	7.5709e-03
 9.750	19.000	7.3216e-03
 9.750	19.250	7.0252e-03
 9.750	19.500	6.6835e-03
 9.750	19.750	6.4109e-03
 9.750	20.000	6.1048e-03
 9.750	20.250	2.7368e-03
 9.750	20.500	8.1193e-04
 9.750	20.750	3.0510e-04
 9.750	21.000	1.3465e-04
 9.750	21.250	4.0576e-05
 9.750	21.500	1.3004e-05
 9.750	21.750	3.6214e-06
 9.750	22.000	1.0000e-07
 9.750	22.250	1.0000e-07
 9.750	22.500	1.0000e-07
 9.750	22.750	1.0000e-07
 9.750	23.000	1.0000e-07
 9.750	23.250	1.0000e-07
 9.750	23.500	1.0000e-07
 9.750	23.750	1.0000e-07
 9.750	24.000	1.0000e-07
10.000	17.000	5.3737e-03
10.000	17.250	6.1709e-03
10.000	17.500	6.7324e-03
10.000	17.750	7.0938e-03
10.000	18.000	7.3277e-03
10.000	18.250	7.4626e-03
10.000	18.500	7.4654e-03
10.000	18.750	7.3214e-03
10.000	19.000	7.0383e-03
10.000	19.250	6.6945e-03
10.000	19.500	6.3568e-03
10.000	19.750	6.0459e-03
10.000	20.000	5.8981e-03
10.000	20.250	5.7216e-03
10.000	20.500	2.6151e-03
10.000	20.750	7.9185e-04
10.000	21.000	2.9885e-04
10.000	21.250	1.3342e-04
10.000	21.500	4.0741e-05
10.000	21.750	1.3086e-05
10.000	22.000	3.6214e-06
10.000	22.250	1.0000e-07
10.000	22.500	1.0000e-07
10.000	22.750	1.0000e-07
10.000	23.000	1.0000e-07
10.000	23.250	1.0000e-07
10.000	23.500	1.0000e-07
10.000	23.750	1.0000e-07
10.000	24.000	1.0000e-07
10.250	17.000	4.3003e-03
10.250	17.250	5.2796e-03
10.250	17.500	6.1193e-03
10.250	17.750	6.6944e-03
10.250	18.000	7.0456e-03
10.250	18.250	7.2395e-03
10.250	18.500	7.2712e-03
10.250	18.750	7.1344e-03
10.250	19.000	6.8237e-03
10.250	19.250	6.4412e-03
10.250	19.500	6.0864e-03
10.250	19.750	5.8340e-03
10.250	20.000	5.7281e-03
10.250	20.250	5.7485e-03
10.250	20.500	5.7688e-03
10.250	20.750	2.4586e-03
10.250	21.000	7.7276e-04
10.250	21.250	2.9218e-04
10.250	21.500	1.3210e-04
10.250	21.750	4.1070e-05
10.250	22.000	1.3333e-05
10.250	22.250	3.7037e-06
10.250	22.500	1.0000e-07
10.250	22.750	1.0000e-07
10.250	23.000	1.0000e-07
10.250	23.250	1.0000e-07
10.250	23.500	1.0000e-07
10.250	23.750	1.0000e-07
10.250	24.000	1.0000e-07
10.500	17.000	3.2542e-03
10.500	17.250	4.2439e-03
10.500	17.500	5.3088e-03
10.500	17.750	6.2015e-03
10.500	18.000	6.7603e-03
10.500	18.250	7.0514e-03
10.500	18.500	7.1349e-03
10.500	18.750	7.0159e-03
10.500	19.000	6.6992e-03
10.500	19.250	6.2680e-03
10.500	19.500	5.8788e-03
10.500	19.750	5.6653e-03
10.500	20.000	5.6650e-03
10.500	20.250	5.7452e-03
10.500	20.500	5.9820e-03
10.500	20.750	6.3802e-03
10.500	21.000	2.3585e-03
10.500	21.250	7.6724e-04
10.500	21.500	2.8337e-04
10.500	21.750	1.3021e-04
10.500	22.000	4.1646e-05
10.500	22.250	1.3745e-05
10.500	22.500	3.8683e-06
10.500	22.750	1.0000e-07
10.500	23.000	1.0000e-07
10.500	23.250	1.0000e-07
10.500	23.500	1.0000e-07
10.500	23.750	1.0000e-07
10.500	24.000	1.0000e-07
10.750	17.000	2.3798e-03
10.750	17.250	3.2008e-03
10.750	17.500	4.3449e-03
10.750	17.750	5.5193e-03
10.750	18.000	6.3767e-03
10.750	18.250	6.8797e-03
10.750	18.500	7.0384e-03
10.750	18.750	6.9618e-03
10.750	19.000	6.6463e-03
10.750	19.250	6.1871e-03
10.750	19.500	5.7644e-03
10.750	19.750	5.5778e-03
10.750	20.000	5.6466e-03
10.750	20.250	5.7598e-03
10.750	20.500	6.0298e-03
10.750	20.750	6.7760e-03
10.750	21.000	7.6998e-03
10.750	21.250	2.4834e-03
10.750	21.500	7.5136e-04
10.750	21.750	2.7490e-04
10.750	22.000	1.2724e-04
10.750	22.250	4.2305e-05
10.750	22.500	1.4239e-05
10.750	22.750	4.0329e-06
10.750	23.000	1.0000e-07
10.750	23.250	1.0000e-07
10.750	23.500	1.0000e-07
10.750	23.750	1.0000e-07
10.750	24.000	1.0000e-07
11.000	17.000	1.7097e-03
11.000	17.250	2.2965e-03
11.000	17.500	3.2701e-03
11.000	17.750	4.6284e-03
11.000	18.000	5.8265e-03
11.000	18.250	6.6058e-03
11.000	18.500	6.9579e-03
11.000	18.750	6.9594e-03
11.000	19.000	6.6574e-03
11.000	19.250	6.1779e-03
11.000	19.500	5.7083e-03
11.000	19.750	5.4895e-03
11.000	20.000	5.5775e-03
11.000	20.250	5.8141e-03
11.000	20.500	6.0757e-03
11.000	20.750	6.9145e-03
11.000	21.000	8.0721e-03
11.000	21.250	9.2186e-03
11.000	21.500	2.9629e-03
11.000	21.750	7.6543e-04
11.000	22.000	2.6774e-04
11.000	22.250	1.2280e-04
11.000	22.500	4.2963e-05
11.000	22.750	1.4733e-05
11.000	23.000	4.1975e-06
11.000	23.250	1.0000e-07
11.000	23.500	1.0000e-07
11.000	23.750	1.0000e-07
11.000	24.000	1.0000e-07
11.250	17.000	1.2112e-03
11.250	17.250	1.5960e-03
11.250	17.500	2.2856e-03
11.250	17.750	3.5043e-03
11.250	18.000	4.9659e-03
11.250	18.250	6.1344e-03
11.250	18.500	6.7891e-03
11.250	18.750	6.9682e-03
11.250	19.000	6.7267e-03
11.250	19.250	6.2346e-03
11.250	19.500	5.7077e-03
11.250	19.750	5.4294e-03
11.250	20.000	5.5601e-03
11.250	20.250	5.7944e-03
11.250	20.500	6.1374e-03
11.250	20.750	6.8719e-03
11.250	21.000	8.1221e-03
11.250	21.250	9.0786e-03
11.250	21.500	9.4108e-03
11.250	21.750	3.3359e-03
11.250	22.000	8.4346e-04
11.250	22.250	2.6872e-04
11.250	22.500	1.1770e-04
11.250	22.750	4.3374e-05
11.250	23.000	1.5226e-05
11.250	23.250	4.4444e-06
11.250	23.500	1.0000e-07
11.250	23.750	1.0000e-07
11.250	24.000	1.0000e-07
11.500	17.000	8.4551e-04
11.500	17.250	1.0885e-03
11.500	17.500	1.5167e-03
11.500	17.750	2.3704e-03
11.500	18.000	3.7822e-03
11.500	18.250	5.3296e-03
11.500	18.500	6.4391e-03
11.500	18.750	6.9161e-03
11.500	19.000	6.8221e-03
11.500	19.250	6.3274e-03
11.500	19.500	5.7695e-03
11.500	19.750	5.4058e-03
11.500	20.000	5.4921e-03
11.500	20.250	5.8276e-03
11.500	20.500	6.1463e-03
11.500	20.750	7.0629e-03
11.500	21.000	8.0730e-03
11.500	21.250	8.7119e-03
11.500	21.500	8.8763e-03
11.500	21.750	8.4227e-03
11.500	22.000	3.4152e-03
11.500	22.250	9.7753e-04
11.500	22.500	2.8667e-04
11.500	22.750	1.1325e-04
11.500	23.000	4.3210e-05
11.500	23.250	1.5391e-05
11.500	23.500	4.5267e-06
11.500	23.750	1.0000e-07
11.500	24.000	1.0000e-07
11.750	17.000	5.8313e-04
11.750	17.250	7.3300e-04
11.750	17.500	9.8436e-04
11.750	17.750	1.4989e-03
11.750	18.000	2.5360e-03
11.750	18.250	4.1509e-03
11.750	18.500	5.7733e-03
11.750	18.750	6.7109e-03
11.750	19.000	6.8993e-03
11.750	19.250	6.5174e-03
11.750	19.500	5.8626e-03
11.750	19.750	5.4377e-03
11.750	20.000	5.4370e-03
11.750	20.250	5.8087e-03
11.750	20.500	6.2546e-03
11.750	20.750	7.2612e-03
11.750	21.000	7.9626e-03
11.750	21.250	8.3733e-03
11.750	21.500	8.2473e-03
11.750	21.750	7.8295e-03
11.750	22.000	6.4222e-03
11.750	22.250	3.1872e-03
11.750	22.500	1.2026e-03
11.750	22.750	3.3449e-04
11.750	23.000	1.1259e-04
11.750	23.250	4.2305e-05
11.750	23.500	1.5226e-05
11.750	23.750	4.5267e-06
11.750	24.000	1.0000e-07
12.000	17.000	4.0346e-04
12.000	17.250	4.9440e-04
12.000	17.500	6.3745e-04
12.000	17.750	9.2617e-04
12.000	18.000	1.5567e-03
12.000	18.250	2.8398e-03
12.000	18.500	4.6669e-03
12.000	18.750	6.2724e-03
12.000	19.000	6.9057e-03
12.000	19.250	6.7636e-03
12.000	19.500	6.1247e-03
12.000	19.750	5.4446e-03
12.000	20.000	5.4358e-03
12.000	20.250	5.7979e-03
12.000	20.500	6.3519e-03
12.000	20.750	7.6540e-03
12.000	21.000	7.8741e-03
12.000	21.250	7.9723e-03
12.000	21.500	7.5965e-03
12.000	21.750	6.9403e-03
12.000	22.000	6.2470e-03
12.000	22.250	4.5680e-03
12.000	22.500	2.4680e-03
12.000	22.750	1.2096e-03
12.000	23.000	4.2222e-04
12.000	23.250	1.2255e-04
12.000	23.500	4.0658e-05
12.000	23.750	1.4650e-05
12.000	24.000	4.3621e-06
12.250	17.000	2.8008e-04
12.250	17.250	3.3786e-04
12.250	17.500	4.2033e-04
12.250	17.750	5.7877e-04
12.250	18.000	9.3119e-04
12.250	18.250	1.7612e-03
12.250	18.500	3.3578e-03
12.250	18.750	5.3611e-03
12.250	19.000	6.6573e-03
12.250	19.250	6.9864e-03
12.250	19.500	6.5222e-03
12.250	19.750	5.7723e-03
12.250	20.000	5.2914e-03
12.250	20.250	5.8391e-03
12.250	20.500	6.4630e-03
12.250	20.750	7.6952e-03
12.250	21.000	8.5014e-03
12.250	21.250	7.9003e-03
12.250	21.500	6.9970e-03
12.250	21.750	6.1686e-03
12.250	22.000	5.4047e-03
12.250	22.250	4.5861e-03
12.250	22.500	3.1841e-03
12.250	22.750	1.9159e-03
12.250	23.000	1.0310e-03
12.250	23.250	4.5539e-04
12.250	23.500	1.4016e-04
12.250	23.750	3.8354e-05
12.250	24.000	1.3663e-05
12.500	17.000	1.9531e-04
12.500	17.250	2.3407e-04
12.500	17.500	2.8494e-04
12.500	17.750	3.7235e-04
12.500	18.000	5.6206e-04
12.500	18.250	1.0312e-03
12.500	18.500	2.1459e-03
12.500	18.750	4.0871e-03
12.500	19.000	5.9802e-03
12.500	19.250	6.9676e-03
12.500	19.500	6.9027e-03
12.500	19.750	6.3187e-03
12.500	20.000	5.6816e-03
12.500	20.250	5.5291e-03
12.500	20.500	5.8638e-03
12.500	20.750	7.7283e-03
12.500	21.000	8.3519e-03
12.500	21.250	7.5097e-03
12.500	21.500	6.7087e-03
12.500	21.750	5.5714e-03
12.500	22.000	4.6974e-03
12.500	22.250	3.9542e-03
12.500	22.500	3.1579e-03
12.500	22.750	2.2107e-03
12.500	23.000	1.3743e-03
12.500	23.250	8.1432e-04
12.500	23.500	4.2379e-04
12.500	23.750	1.5416e-04
12.500	24.000	3.5638e-05
12.750	17.000	1.3679e-04
12.750	17.250	1.6444e-04
12.750	17.500	1.9745e-04
12.750	17.750	2.4971e-04
12.750	18.000	3.5210e-04
12.750	18.250	6.0066e-04
12.750	18.500	1.2497e-03
12.750	18.750	2.6795e-03
12.750	19.000	4.7456e-03
12.750	19.250	6.5305e-03
12.750	19.500	7.1619e-03
12.750	19.750	6.8504e-03
12.750	20.000	6.1711e-03
12.750	20.250	6.0928e-03
12.750	20.500	6.3126e-03
12.750	20.750	6.7702e-03
12.750	21.000	7.5134e-03
12.750	21.250	7.4661e-03
12.750	21.500	6.4987e-03
12.750	21.750	5.3726e-03
12.750	22.000	4.2020e-03
12.750	22.250	3.4133e-03
12.750	22.500	2.7941e-03
12.750	22.750	2.1084e-03
12.750	23.000	1.4952e-03
12.750	23.250	9.8675e-04
12.750	23.500	6.3070e-04
12.750	23.750	3.5802e-04
12.750	24.000	1.5021e-04
13.000	17.000	9.6214e-05
13.000	17.250	1.1638e-04
13.000	17.500	1.3934e-04
13.000	17.750	1.7259e-04
13.000	18.000	2.3218e-04
13.000	18.250	3.6420e-04
13.000	18.500	7.0765e-04
13.000	18.750	1.5538e-03
13.000	19.000	3.1640e-03
13.000	19.250	5.1847e-03
13.000	19.500	6.5974e-03
13.000	19.750	7.2032e-03
13.000	20.000	7.0074e-03
13.000	20.250	6.4447e-03
13.000	20.500	6.7053e-03
13.000	20.750	7.5276e-03
13.000	21.000	7.6972e-03
13.000	21.250	7.6048e-03
13.000	21.500	6.5151e-03
13.000	21.750	5.3436e-03
13.000	22.000	4.0338e-03
13.000	22.250	3.1164e-03
13.000	22.500	2.5240e-03
13.000	22.750	1.9472e-03
13.000	23.000	1.4399e-03
13.000	23.250	1.0170e-03
13.000	23.500	7.0074e-04
13.000	23.750	4.5893e-04
13.000	24.000	2.9070e-04
13.250	17.000	6.7572e-05
13.250	17.250	8.2963e-05
13.250	17.500	9.9506e-05
13.250	17.750	1.2181e-04
13.250	18.000	1.5918e-04
13.250	18.250	2.3383e-04
13.250	18.500	4.0798e-04
13.250	18.750	8.3424e-04
13.250	19.000	1.7342e-03
13.250	19.250	3.2762e-03
13.250	19.500	5.0473e-03
13.250	19.750	6.7021e-03
13.250	20.000	7.5337e-03
13.250	20.250	7.3108e-03
13.250	20.500	6.9686e-03
13.250	20.750	7.7792e-03
13.250	21.000	8.4536e-03
13.250	21.250	7.9325e-03
13.250	21.500	6.8513e-03
13.250	21.750	5.4415e-03
13.250	22.000	4.1255e-03
13.250	22.250	3.1445e-03
13.250	22.500	2.2982e-03
13.250	22.750	1.8029e-03
13.250	23.000	1.3453e-03
13.250	23.250	1.0013e-03
13.250	23.500	7.2123e-04
13.250	23.750	4.9235e-04
13.250	24.000	3.3416e-04
13.500	17.000	4.7160e-05
13.500	17.250	5.9012e-05
13.500	17.500	7.1605e-05
13.500	17.750	8.7325e-05
13.500	18.000	1.1202e-04
13.500	18.250	1.5745e-04
13.500	18.500	2.4889e-04
13.500	18.750	4.4626e-04
13.500	19.000	8.6988e-04
13.500	19.250	1.6351e-03
13.500	19.500	2.8316e-03
13.500	19.750	4.3883e-03
13.500	20.000	5.6199e-03
13.500	20.250	6.9297e-03
13.500	20.500	6.9579e-03
13.500	20.750	7.2359e-03
13.500	21.000	7.5206e-03
13.500	21.250	8.1699e-03
13.500	21.500	7.0696e-03
13.500	21.750	5.6048e-03
13.500	22.000	4.3919e-03
13.500	22.250	3.3053e-03
13.500	22.500	2.3179e-03
13.500	22.750	1.7541e-03
13.500	23.000	1.2604e-03
13.500	23.250	9.7498e-04
13.500	23.500	7.2708e-04
13.500	23.750	5.2198e-04
13.500	24.000	3.5391e-04
13.750	17.000	3.2675e-05
13.750	17.250	4.1893e-05
13.750	17.500	5.1605e-05
13.750	17.750	6.3210e-05
13.750	18.000	8.0082e-05
13.750	18.250	1.0848e-04
13.750	18.500	1.5918e-04
13.750	18.750	2.5136e-04
13.750	19.000	4.1959e-04
13.750	19.250	7.2247e-04
13.750	19.500	1.2115e-03
13.750	19.750	1.9352e-03
13.750	20.000	2.9198e-03
13.750	20.250	3.7631e-03
13.750	20.500	4.7062e-03
13.750	20.750	5.3505e-03
13.750	21.000	5.6986e-03
13.750	21.250	5.3634e-03
13.750	21.500	5.9863e-03
13.750	21.750	5.4107e-03
13.750	22.000	4.4900e-03
13.750	22.250	3.5640e-03
13.750	22.500	2.6935e-03
13.750	22.750	1.7985e-03
13.750	23.000	1.2550e-03
13.750	23.250	9.6988e-04
13.750	23.500	7.3753e-04
13.750	23.750	5.5753e-04
13.750	24.000	3.9860e-04
14.000	17.000	2.2387e-05
14.000	17.250	2.9465e-05
14.000	17.500	3.7037e-05
14.000	17.750	4.5761e-05
14.000	18.000	5.7531e-05
14.000	18.250	7.5391e-05
14.000	18.500	1.0337e-04
14.000	18.750	1.4708e-04
14.000	19.000	2.1399e-04
14.000	19.250	3.1465e-04
14.000	19.500	4.7366e-04
14.000	19.750	7.1309e-04
14.000	20.000	1.0472e-03
14.000	20.250	1.4826e-03
14.000	20.500	1.9269e-03
14.000	20.750	2.3154e-03
14.000	21.000	2.8063e-03
14.000	21.250	3.3407e-03
14.000	21.500	3.2499e-03
14.000	21.750	3.5719e-03
14.000	22.000	3.7729e-03
14.000	22.250	3.7353e-03
14.000	22.500	3.2631e-03
14.000	22.750	2.5183e-03
14.000	23.000	1.5498e-03
14.000	23.250	1.0743e-03
14.000	23.500	8.0519e-04
14.000	23.750	6.1152e-04
14.000	24.000	4.5202e-04
