InwC 2052.68A  relative to Inci 1215.00A scaled to 1215A.
Hden   Phi(H)  Eq_Width (A)
 7.000	17.000	3.7710e-02
 7.000	17.250	4.0017e-02
 7.000	17.500	4.1230e-02
 7.000	17.750	4.1248e-02
 7.000	18.000	4.1267e-02
 7.000	18.250	4.1290e-02
 7.000	18.500	4.1302e-02
 7.000	18.750	4.1307e-02
 7.000	19.000	4.1312e-02
 7.000	19.250	4.1316e-02
 7.000	19.500	4.1317e-02
 7.000	19.750	4.1318e-02
 7.000	20.000	4.1318e-02
 7.000	20.250	4.1318e-02
 7.000	20.500	4.1318e-02
 7.000	20.750	4.1318e-02
 7.000	21.000	4.1318e-02
 7.000	21.250	4.1319e-02
 7.000	21.500	4.1319e-02
 7.000	21.750	4.1319e-02
 7.000	22.000	4.1320e-02
 7.000	22.250	4.1320e-02
 7.000	22.500	4.1320e-02
 7.000	22.750	4.1321e-02
 7.000	23.000	4.1321e-02
 7.000	23.250	4.1321e-02
 7.000	23.500	4.1321e-02
 7.000	23.750	4.1321e-02
 7.000	24.000	4.1321e-02
 7.250	17.000	2.8637e-02
 7.250	17.250	3.7828e-02
 7.250	17.500	4.0028e-02
 7.250	17.750	4.1230e-02
 7.250	18.000	4.1248e-02
 7.250	18.250	4.1267e-02
 7.250	18.500	4.1290e-02
 7.250	18.750	4.1302e-02
 7.250	19.000	4.1307e-02
 7.250	19.250	4.1312e-02
 7.250	19.500	4.1316e-02
 7.250	19.750	4.1317e-02
 7.250	20.000	4.1318e-02
 7.250	20.250	4.1318e-02
 7.250	20.500	4.1318e-02
 7.250	20.750	4.1318e-02
 7.250	21.000	4.1318e-02
 7.250	21.250	4.1318e-02
 7.250	21.500	4.1318e-02
 7.250	21.750	4.1318e-02
 7.250	22.000	4.1319e-02
 7.250	22.250	4.1319e-02
 7.250	22.500	4.1319e-02
 7.250	22.750	4.1319e-02
 7.250	23.000	4.1319e-02
 7.250	23.250	4.1320e-02
 7.250	23.500	4.1320e-02
 7.250	23.750	4.1320e-02
 7.250	24.000	4.1320e-02
 7.500	17.000	2.1885e-02
 7.500	17.250	2.8946e-02
 7.500	17.500	3.7915e-02
 7.500	17.750	4.0038e-02
 7.500	18.000	4.1230e-02
 7.500	18.250	4.1248e-02
 7.500	18.500	4.1267e-02
 7.500	18.750	4.1290e-02
 7.500	19.000	4.1302e-02
 7.500	19.250	4.1307e-02
 7.500	19.500	4.1312e-02
 7.500	19.750	4.1316e-02
 7.500	20.000	4.1317e-02
 7.500	20.250	4.1318e-02
 7.500	20.500	4.1318e-02
 7.500	20.750	4.1318e-02
 7.500	21.000	4.1318e-02
 7.500	21.250	4.1318e-02
 7.500	21.500	4.1318e-02
 7.500	21.750	4.1318e-02
 7.500	22.000	4.1318e-02
 7.500	22.250	4.1318e-02
 7.500	22.500	4.1318e-02
 7.500	22.750	4.1318e-02
 7.500	23.000	4.1318e-02
 7.500	23.250	4.1319e-02
 7.500	23.500	4.1321e-02
 7.500	23.750	4.1319e-02
 7.500	24.000	4.1319e-02
 7.750	17.000	1.6381e-02
 7.750	17.250	2.2248e-02
 7.750	17.500	2.9188e-02
 7.750	17.750	3.7977e-02
 7.750	18.000	4.0049e-02
 7.750	18.250	4.1230e-02
 7.750	18.500	4.1248e-02
 7.750	18.750	4.1267e-02
 7.750	19.000	4.1290e-02
 7.750	19.250	4.1302e-02
 7.750	19.500	4.1307e-02
 7.750	19.750	4.1312e-02
 7.750	20.000	4.1316e-02
 7.750	20.250	4.1317e-02
 7.750	20.500	4.1318e-02
 7.750	20.750	4.1318e-02
 7.750	21.000	4.1318e-02
 7.750	21.250	4.1318e-02
 7.750	21.500	4.1318e-02
 7.750	21.750	4.1318e-02
 7.750	22.000	4.1318e-02
 7.750	22.250	4.1318e-02
 7.750	22.500	4.1318e-02
 7.750	22.750	4.1318e-02
 7.750	23.000	4.1318e-02
 7.750	23.250	4.1318e-02
 7.750	23.500	4.1318e-02
 7.750	23.750	4.1318e-02
 7.750	24.000	4.1318e-02
 8.000	17.000	1.2272e-02
 8.000	17.250	1.6600e-02
 8.000	17.500	2.2525e-02
 8.000	17.750	2.9277e-02
 8.000	18.000	3.7888e-02
 8.000	18.250	4.0045e-02
 8.000	18.500	4.1229e-02
 8.000	18.750	4.1248e-02
 8.000	19.000	4.1268e-02
 8.000	19.250	4.1290e-02
 8.000	19.500	4.1302e-02
 8.000	19.750	4.1307e-02
 8.000	20.000	4.1312e-02
 8.000	20.250	4.1316e-02
 8.000	20.500	4.1317e-02
 8.000	20.750	4.1318e-02
 8.000	21.000	4.1318e-02
 8.000	21.250	4.1318e-02
 8.000	21.500	4.1318e-02
 8.000	21.750	4.1318e-02
 8.000	22.000	4.1318e-02
 8.000	22.250	4.1318e-02
 8.000	22.500	4.1318e-02
 8.000	22.750	4.1318e-02
 8.000	23.000	4.1318e-02
 8.000	23.250	4.1319e-02
 8.000	23.500	4.1318e-02
 8.000	23.750	4.1318e-02
 8.000	24.000	4.1318e-02
 8.250	17.000	9.5434e-03
 8.250	17.250	1.2464e-02
 8.250	17.500	1.6925e-02
 8.250	17.750	2.2916e-02
 8.250	18.000	2.9619e-02
 8.250	18.250	3.7941e-02
 8.250	18.500	4.0051e-02
 8.250	18.750	4.1229e-02
 8.250	19.000	4.1248e-02
 8.250	19.250	4.1268e-02
 8.250	19.500	4.1290e-02
 8.250	19.750	4.1302e-02
 8.250	20.000	4.1307e-02
 8.250	20.250	4.1312e-02
 8.250	20.500	4.1316e-02
 8.250	20.750	4.1317e-02
 8.250	21.000	4.1318e-02
 8.250	21.250	4.1318e-02
 8.250	21.500	4.1318e-02
 8.250	21.750	4.1318e-02
 8.250	22.000	4.1318e-02
 8.250	22.250	4.1318e-02
 8.250	22.500	4.1318e-02
 8.250	22.750	4.1318e-02
 8.250	23.000	4.1318e-02
 8.250	23.250	4.1318e-02
 8.250	23.500	4.1318e-02
 8.250	23.750	4.1318e-02
 8.250	24.000	4.1318e-02
 8.500	17.000	7.7118e-03
 8.500	17.250	9.6760e-03
 8.500	17.500	1.2705e-02
 8.500	17.750	1.7364e-02
 8.500	18.000	2.3556e-02
 8.500	18.250	3.0099e-02
 8.500	18.500	3.8037e-02
 8.500	18.750	4.0055e-02
 8.500	19.000	4.1228e-02
 8.500	19.250	4.1248e-02
 8.500	19.500	4.1268e-02
 8.500	19.750	4.1290e-02
 8.500	20.000	4.1302e-02
 8.500	20.250	4.1307e-02
 8.500	20.500	4.1312e-02
 8.500	20.750	4.1316e-02
 8.500	21.000	4.1317e-02
 8.500	21.250	4.1318e-02
 8.500	21.500	4.1318e-02
 8.500	21.750	4.1318e-02
 8.500	22.000	4.1318e-02
 8.500	22.250	4.1318e-02
 8.500	22.500	4.1318e-02
 8.500	22.750	4.1318e-02
 8.500	23.000	4.1318e-02
 8.500	23.250	4.1318e-02
 8.500	23.500	4.1318e-02
 8.500	23.750	4.1318e-02
 8.500	24.000	4.1318e-02
 8.750	17.000	6.4401e-03
 8.750	17.250	7.7969e-03
 8.750	17.500	9.8500e-03
 8.750	17.750	1.3094e-02
 8.750	18.000	1.8080e-02
 8.750	18.250	2.4517e-02
 8.750	18.500	3.1051e-02
 8.750	18.750	3.8047e-02
 8.750	19.000	4.0056e-02
 8.750	19.250	4.1226e-02
 8.750	19.500	4.1248e-02
 8.750	19.750	4.1268e-02
 8.750	20.000	4.1291e-02
 8.750	20.250	4.1302e-02
 8.750	20.500	4.1307e-02
 8.750	20.750	4.1312e-02
 8.750	21.000	4.1316e-02
 8.750	21.250	4.1317e-02
 8.750	21.500	4.1318e-02
 8.750	21.750	4.1318e-02
 8.750	22.000	4.1318e-02
 8.750	22.250	4.1318e-02
 8.750	22.500	4.1318e-02
 8.750	22.750	4.1318e-02
 8.750	23.000	4.1318e-02
 8.750	23.250	4.1318e-02
 8.750	23.500	4.1318e-02
 8.750	23.750	4.1318e-02
 8.750	24.000	4.1318e-02
 9.000	17.000	5.5437e-03
 9.000	17.250	6.4927e-03
 9.000	17.500	7.9202e-03
 9.000	17.750	1.0140e-02
 9.000	18.000	1.3737e-02
 9.000	18.250	1.9241e-02
 9.000	18.500	2.5822e-02
 9.000	18.750	3.1762e-02
 9.000	19.000	3.8000e-02
 9.000	19.250	4.0047e-02
 9.000	19.500	4.1223e-02
 9.000	19.750	4.1248e-02
 9.000	20.000	4.1268e-02
 9.000	20.250	4.1291e-02
 9.000	20.500	4.1302e-02
 9.000	20.750	4.1307e-02
 9.000	21.000	4.1312e-02
 9.000	21.250	4.1316e-02
 9.000	21.500	4.1317e-02
 9.000	21.750	4.1318e-02
 9.000	22.000	4.1318e-02
 9.000	22.250	4.1318e-02
 9.000	22.500	4.1318e-02
 9.000	22.750	4.1318e-02
 9.000	23.000	4.1318e-02
 9.000	23.250	4.1318e-02
 9.000	23.500	4.1318e-02
 9.000	23.750	4.1318e-02
 9.000	24.000	4.1318e-02
 9.250	17.000	4.9072e-03
 9.250	17.250	5.5710e-03
 9.250	17.500	6.5751e-03
 9.250	17.750	8.1427e-03
 9.250	18.000	1.0721e-02
 9.250	18.250	1.4869e-02
 9.250	18.500	2.0764e-02
 9.250	18.750	2.7296e-02
 9.250	19.000	3.3236e-02
 9.250	19.250	3.7941e-02
 9.250	19.500	4.0027e-02
 9.250	19.750	4.1219e-02
 9.250	20.000	4.1247e-02
 9.250	20.250	4.1268e-02
 9.250	20.500	4.1290e-02
 9.250	20.750	4.1302e-02
 9.250	21.000	4.1307e-02
 9.250	21.250	4.1312e-02
 9.250	21.500	4.1308e-02
 9.250	21.750	4.1305e-02
 9.250	22.000	4.1305e-02
 9.250	22.250	4.1306e-02
 9.250	22.500	4.1317e-02
 9.250	22.750	4.1317e-02
 9.250	23.000	4.1318e-02
 9.250	23.250	4.1318e-02
 9.250	23.500	4.1318e-02
 9.250	23.750	4.1318e-02
 9.250	24.000	4.1318e-02
 9.500	17.000	4.4536e-03
 9.500	17.250	4.9184e-03
 9.500	17.500	5.6227e-03
 9.500	17.750	6.7444e-03
 9.500	18.000	8.6376e-03
 9.500	18.250	1.1701e-02
 9.500	18.500	1.6270e-02
 9.500	18.750	2.2221e-02
 9.500	19.000	2.8368e-02
 9.500	19.250	3.4502e-02
 9.500	19.500	3.7888e-02
 9.500	19.750	3.9990e-02
 9.500	20.000	4.1211e-02
 9.500	20.250	4.1246e-02
 9.500	20.500	4.1267e-02
 9.500	20.750	4.1289e-02
 9.500	21.000	4.1293e-02
 9.500	21.250	4.1295e-02
 9.500	21.500	4.1299e-02
 9.500	21.750	4.1300e-02
 9.500	22.000	4.1295e-02
 9.500	22.250	4.1296e-02
 9.500	22.500	4.1296e-02
 9.500	22.750	4.1295e-02
 9.500	23.000	4.1296e-02
 9.500	23.250	4.1296e-02
 9.500	23.500	4.1301e-02
 9.500	23.750	4.1301e-02
 9.500	24.000	4.1301e-02
 9.750	17.000	4.1305e-03
 9.750	17.250	4.4515e-03
 9.750	17.500	4.9440e-03
 9.750	17.750	5.7463e-03
 9.750	18.000	7.1302e-03
 9.750	18.250	9.4209e-03
 9.750	18.500	1.2800e-02
 9.750	18.750	1.7448e-02
 9.750	19.000	2.3293e-02
 9.750	19.250	2.9729e-02
 9.750	19.500	3.6034e-02
 9.750	19.750	3.7860e-02
 9.750	20.000	3.9941e-02
 9.750	20.250	4.1199e-02
 9.750	20.500	4.1243e-02
 9.750	20.750	4.1267e-02
 9.750	21.000	4.1289e-02
 9.750	21.250	4.1298e-02
 9.750	21.500	4.1297e-02
 9.750	21.750	4.1300e-02
 9.750	22.000	4.1302e-02
 9.750	22.250	4.1298e-02
 9.750	22.500	4.1295e-02
 9.750	22.750	4.1296e-02
 9.750	23.000	4.1297e-02
 9.750	23.250	4.1296e-02
 9.750	23.500	4.1296e-02
 9.750	23.750	4.1296e-02
 9.750	24.000	4.1296e-02
10.000	17.000	3.8997e-03
10.000	17.250	4.1209e-03
10.000	17.500	4.4622e-03
10.000	17.750	5.0325e-03
10.000	18.000	6.0506e-03
10.000	18.250	7.7300e-03
10.000	18.500	1.0187e-02
10.000	18.750	1.3586e-02
10.000	19.000	1.8272e-02
10.000	19.250	2.4139e-02
10.000	19.500	3.1364e-02
10.000	19.750	3.6156e-02
10.000	20.000	3.7848e-02
10.000	20.250	3.9891e-02
10.000	20.500	4.1180e-02
10.000	20.750	4.1239e-02
10.000	21.000	4.1266e-02
10.000	21.250	4.1289e-02
10.000	21.500	4.1301e-02
10.000	21.750	4.1303e-02
10.000	22.000	4.1301e-02
10.000	22.250	4.1303e-02
10.000	22.500	4.1301e-02
10.000	22.750	4.1297e-02
10.000	23.000	4.1295e-02
10.000	23.250	4.1296e-02
10.000	23.500	4.1296e-02
10.000	23.750	4.1297e-02
10.000	24.000	4.1297e-02
10.250	17.000	3.7356e-03
10.250	17.250	3.8858e-03
10.250	17.500	4.1198e-03
10.250	17.750	4.5219e-03
10.250	18.000	5.2506e-03
10.250	18.250	6.4584e-03
10.250	18.500	8.1933e-03
10.250	18.750	1.0630e-02
10.250	19.000	1.3986e-02
10.250	19.250	1.8770e-02
10.250	19.500	2.5332e-02
10.250	19.750	3.2852e-02
10.250	20.000	3.6214e-02
10.250	20.250	3.7832e-02
10.250	20.500	3.9850e-02
10.250	20.750	4.1155e-02
10.250	21.000	4.1233e-02
10.250	21.250	4.1263e-02
10.250	21.500	4.1288e-02
10.250	21.750	4.1301e-02
10.250	22.000	4.1306e-02
10.250	22.250	4.1305e-02
10.250	22.500	4.1303e-02
10.250	22.750	4.1303e-02
10.250	23.000	4.1300e-02
10.250	23.250	4.1298e-02
10.250	23.500	4.1296e-02
10.250	23.750	4.1295e-02
10.250	24.000	4.1295e-02
10.500	17.000	3.6186e-03
10.500	17.250	3.7186e-03
10.500	17.500	3.8760e-03
10.500	17.750	4.1543e-03
10.500	18.000	4.6640e-03
10.500	18.250	5.5137e-03
10.500	18.500	6.7337e-03
10.500	18.750	8.5063e-03
10.500	19.000	1.1052e-02
10.500	19.250	1.4714e-02
10.500	19.500	1.9799e-02
10.500	19.750	2.6730e-02
10.500	20.000	3.4059e-02
10.500	20.250	3.6306e-02
10.500	20.500	3.7813e-02
10.500	20.750	3.9824e-02
10.500	21.000	4.1126e-02
10.500	21.250	4.1223e-02
10.500	21.500	4.1260e-02
10.500	21.750	4.1287e-02
10.500	22.000	4.1301e-02
10.500	22.250	4.1307e-02
10.500	22.500	4.1310e-02
10.500	22.750	4.1304e-02
10.500	23.000	4.1304e-02
10.500	23.250	4.1303e-02
10.500	23.500	4.1301e-02
10.500	23.750	4.1299e-02
10.500	24.000	4.1298e-02
10.750	17.000	3.5330e-03
10.750	17.250	3.5977e-03
10.750	17.500	3.6998e-03
10.750	17.750	3.8845e-03
10.750	18.000	4.2349e-03
10.750	18.250	4.8237e-03
10.750	18.500	5.7019e-03
10.750	18.750	7.0192e-03
10.750	19.000	8.9277e-03
10.750	19.250	1.1619e-02
10.750	19.500	1.5412e-02
10.750	19.750	2.0721e-02
10.750	20.000	2.7961e-02
10.750	20.250	3.4506e-02
10.750	20.500	3.6264e-02
10.750	20.750	3.7814e-02
10.750	21.000	3.9824e-02
10.750	21.250	4.1095e-02
10.750	21.500	4.1210e-02
10.750	21.750	4.1254e-02
10.750	22.000	4.1285e-02
10.750	22.250	4.1301e-02
10.750	22.500	4.1307e-02
10.750	22.750	4.1311e-02
10.750	23.000	4.1306e-02
10.750	23.250	4.1305e-02
10.750	23.500	4.1304e-02
10.750	23.750	4.1303e-02
10.750	24.000	4.1302e-02
11.000	17.000	3.4667e-03
11.000	17.250	3.5069e-03
11.000	17.500	3.5679e-03
11.000	17.750	3.6858e-03
11.000	18.000	3.9210e-03
11.000	18.250	4.3286e-03
11.000	18.500	4.9727e-03
11.000	18.750	5.9708e-03
11.000	19.000	7.3710e-03
11.000	19.250	9.3001e-03
11.000	19.500	1.2058e-02
11.000	19.750	1.5968e-02
11.000	20.000	2.1446e-02
11.000	20.250	2.8889e-02
11.000	20.500	3.4538e-02
11.000	20.750	3.6203e-02
11.000	21.000	3.7825e-02
11.000	21.250	3.9882e-02
11.000	21.500	4.1057e-02
11.000	21.750	4.1195e-02
11.000	22.000	4.1247e-02
11.000	22.250	4.1283e-02
11.000	22.500	4.1300e-02
11.000	22.750	4.1306e-02
11.000	23.000	4.1312e-02
11.000	23.250	4.1312e-02
11.000	23.500	4.1305e-02
11.000	23.750	4.1305e-02
11.000	24.000	4.1304e-02
11.250	17.000	3.4138e-03
11.250	17.250	3.4344e-03
11.250	17.500	3.4669e-03
11.250	17.750	3.5374e-03
11.250	18.000	3.6914e-03
11.250	18.250	3.9761e-03
11.250	18.500	4.4421e-03
11.250	18.750	5.1663e-03
11.250	19.000	6.1787e-03
11.250	19.250	7.5983e-03
11.250	19.500	9.5653e-03
11.250	19.750	1.2376e-02
11.250	20.000	1.6334e-02
11.250	20.250	2.1953e-02
11.250	20.500	2.9639e-02
11.250	20.750	3.4289e-02
11.250	21.000	3.6196e-02
11.250	21.250	3.7866e-02
11.250	21.500	4.0040e-02
11.250	21.750	4.1001e-02
11.250	22.000	4.1177e-02
11.250	22.250	4.1238e-02
11.250	22.500	4.1279e-02
11.250	22.750	4.1300e-02
11.250	23.000	4.1306e-02
11.250	23.250	4.1312e-02
11.250	23.500	4.1314e-02
11.250	23.750	4.1307e-02
11.250	24.000	4.1305e-02
11.500	17.000	3.3740e-03
11.500	17.250	3.3767e-03
11.500	17.500	3.3884e-03
11.500	17.750	3.4254e-03
11.500	18.000	3.5243e-03
11.500	18.250	3.7267e-03
11.500	18.500	4.0629e-03
11.500	18.750	4.5847e-03
11.500	19.000	5.3043e-03
11.500	19.250	6.3258e-03
11.500	19.500	7.7442e-03
11.500	19.750	9.7462e-03
11.500	20.000	1.2589e-02
11.500	20.250	1.6618e-02
11.500	20.500	2.2366e-02
11.500	20.750	3.0066e-02
11.500	21.000	3.4192e-02
11.500	21.250	3.6209e-02
11.500	21.500	3.8036e-02
11.500	21.750	4.0279e-02
11.500	22.000	4.0936e-02
11.500	22.250	4.1155e-02
11.500	22.500	4.1229e-02
11.500	22.750	4.1275e-02
11.500	23.000	4.1298e-02
11.500	23.250	4.1305e-02
11.500	23.500	4.1311e-02
11.500	23.750	4.1315e-02
11.500	24.000	4.1313e-02
11.750	17.000	3.3483e-03
11.750	17.250	3.3336e-03
11.750	17.500	3.3276e-03
11.750	17.750	3.3416e-03
11.750	18.000	3.4050e-03
11.750	18.250	3.5492e-03
11.750	18.500	3.7899e-03
11.750	18.750	4.1517e-03
11.750	19.000	4.6779e-03
11.750	19.250	5.4040e-03
11.750	19.500	6.4359e-03
11.750	19.750	7.8705e-03
11.750	20.000	9.8839e-03
11.750	20.250	1.2747e-02
11.750	20.500	1.6862e-02
11.750	20.750	2.2736e-02
11.750	21.000	3.0267e-02
11.750	21.250	3.4082e-02
11.750	21.500	3.6305e-02
11.750	21.750	3.8324e-02
11.750	22.000	4.0376e-02
11.750	22.250	4.0869e-02
11.750	22.500	4.1124e-02
11.750	22.750	4.1218e-02
11.750	23.000	4.1271e-02
11.750	23.250	4.1297e-02
11.750	23.500	4.1305e-02
11.750	23.750	4.1311e-02
11.750	24.000	4.1315e-02
12.000	17.000	3.3349e-03
12.000	17.250	3.3072e-03
12.000	17.500	3.2849e-03
12.000	17.750	3.2823e-03
12.000	18.000	3.3228e-03
12.000	18.250	3.4245e-03
12.000	18.500	3.5954e-03
12.000	18.750	3.8523e-03
12.000	19.000	4.2267e-03
12.000	19.250	4.7486e-03
12.000	19.500	5.4840e-03
12.000	19.750	6.5137e-03
12.000	20.000	7.9495e-03
12.000	20.250	9.9883e-03
12.000	20.500	1.2893e-02
12.000	20.750	1.7091e-02
12.000	21.000	2.3144e-02
12.000	21.250	2.9855e-02
12.000	21.500	3.4037e-02
12.000	21.750	3.6471e-02
12.000	22.000	3.8630e-02
12.000	22.250	4.0285e-02
12.000	22.500	4.0791e-02
12.000	22.750	4.1082e-02
12.000	23.000	4.1201e-02
12.000	23.250	4.1265e-02
12.000	23.500	4.1295e-02
12.000	23.750	4.1304e-02
12.000	24.000	4.1311e-02
12.250	17.000	3.3309e-03
12.250	17.250	3.2975e-03
12.250	17.500	3.2644e-03
12.250	17.750	3.2486e-03
12.250	18.000	3.2719e-03
12.250	18.250	3.3423e-03
12.250	18.500	3.4615e-03
12.250	18.750	3.6409e-03
12.250	19.000	3.9049e-03
12.250	19.250	4.2813e-03
12.250	19.500	4.8056e-03
12.250	19.750	5.5400e-03
12.250	20.000	6.5751e-03
12.250	20.250	8.0268e-03
12.250	20.500	1.0076e-02
12.250	20.750	1.3040e-02
12.250	21.000	1.7376e-02
12.250	21.250	2.3660e-02
12.250	21.500	3.0077e-02
12.250	21.750	3.4127e-02
12.250	22.000	3.6684e-02
12.250	22.250	3.8937e-02
12.250	22.500	4.0188e-02
12.250	22.750	4.0718e-02
12.250	23.000	4.1036e-02
12.250	23.250	4.1180e-02
12.250	23.500	4.1258e-02
12.250	23.750	4.1293e-02
12.250	24.000	4.1303e-02
12.500	17.000	2.5920e-03
12.500	17.250	3.3011e-03
12.500	17.500	3.2677e-03
12.500	17.750	3.2465e-03
12.500	18.000	3.2514e-03
12.500	18.250	3.2905e-03
12.500	18.500	3.3679e-03
12.500	18.750	3.4911e-03
12.500	19.000	3.6753e-03
12.500	19.250	3.9428e-03
12.500	19.500	4.3213e-03
12.500	19.750	4.8489e-03
12.500	20.000	5.5874e-03
12.500	20.250	6.6341e-03
12.500	20.500	8.0845e-03
12.500	20.750	1.0185e-02
12.500	21.000	1.3253e-02
12.500	21.250	1.7797e-02
12.500	21.500	2.3981e-02
12.500	21.750	3.0349e-02
12.500	22.000	3.4327e-02
12.500	22.250	3.6903e-02
12.500	22.500	3.9109e-02
12.500	22.750	4.0112e-02
12.500	23.000	4.0656e-02
12.500	23.250	4.0993e-02
12.500	23.500	4.1154e-02
12.500	23.750	4.1248e-02
12.500	24.000	4.1291e-02
12.750	17.000	1.4325e-03
12.750	17.250	2.8531e-03
12.750	17.500	3.2832e-03
12.750	17.750	3.2627e-03
12.750	18.000	3.2529e-03
12.750	18.250	3.2645e-03
12.750	18.500	3.3052e-03
12.750	18.750	3.3853e-03
12.750	19.000	3.5119e-03
12.750	19.250	3.7020e-03
12.750	19.500	3.9701e-03
12.750	19.750	4.3489e-03
12.750	20.000	4.8716e-03
12.750	20.250	5.6198e-03
12.750	20.500	6.6616e-03
12.750	20.750	8.1310e-03
12.750	21.000	1.0305e-02
12.750	21.250	1.3521e-02
12.750	21.500	1.8026e-02
12.750	21.750	2.4731e-02
12.750	22.000	3.0747e-02
12.750	22.250	3.4564e-02
12.750	22.500	3.7141e-02
12.750	22.750	3.9176e-02
12.750	23.000	4.0071e-02
12.750	23.250	4.0614e-02
12.750	23.500	4.0946e-02
12.750	23.750	4.1128e-02
12.750	24.000	4.1235e-02
13.000	17.000	2.3621e-04
13.000	17.250	5.7053e-04
13.000	17.500	2.1218e-03
13.000	17.750	3.2243e-03
13.000	18.000	3.2640e-03
13.000	18.250	3.2584e-03
13.000	18.500	3.2705e-03
13.000	18.750	3.3145e-03
13.000	19.000	3.3972e-03
13.000	19.250	3.5280e-03
13.000	19.500	3.7172e-03
13.000	19.750	3.9863e-03
13.000	20.000	4.3635e-03
13.000	20.250	4.8857e-03
13.000	20.500	5.6351e-03
13.000	20.750	6.7002e-03
13.000	21.000	8.2274e-03
13.000	21.250	1.0484e-02
13.000	21.500	1.3690e-02
13.000	21.750	1.8635e-02
13.000	22.000	2.5520e-02
13.000	22.250	3.1182e-02
13.000	22.500	3.4779e-02
13.000	22.750	3.7311e-02
13.000	23.000	3.9205e-02
13.000	23.250	4.0051e-02
13.000	23.500	4.0579e-02
13.000	23.750	4.0908e-02
13.000	24.000	4.1094e-02
13.250	17.000	1.4115e-04
13.250	17.250	2.6807e-04
13.250	17.500	6.6798e-04
13.250	17.750	1.6043e-03
13.250	18.000	2.4926e-03
13.250	18.250	3.2668e-03
13.250	18.500	3.2606e-03
13.250	18.750	3.2735e-03
13.250	19.000	3.3187e-03
13.250	19.250	3.4047e-03
13.250	19.500	3.5356e-03
13.250	19.750	3.7241e-03
13.250	20.000	3.9895e-03
13.250	20.250	4.3645e-03
13.250	20.500	4.8874e-03
13.250	20.750	5.6314e-03
13.250	21.000	6.7205e-03
13.250	21.250	8.2867e-03
13.250	21.500	1.0475e-02
13.250	21.750	1.3929e-02
13.250	22.000	1.9216e-02
13.250	22.250	2.6310e-02
13.250	22.500	3.1436e-02
13.250	22.750	3.4787e-02
13.250	23.000	3.7281e-02
13.250	23.250	3.9200e-02
13.250	23.500	4.0022e-02
13.250	23.750	4.0540e-02
13.250	24.000	4.0870e-02
13.500	17.000	8.4609e-05
13.500	17.250	1.6782e-04
13.500	17.500	3.8058e-04
13.500	17.750	8.6222e-04
13.500	18.000	1.9016e-03
13.500	18.250	2.6477e-03
13.500	18.500	3.2677e-03
13.500	18.750	3.2602e-03
13.500	19.000	3.2735e-03
13.500	19.250	3.3192e-03
13.500	19.500	3.4053e-03
13.500	19.750	3.5340e-03
13.500	20.000	3.7197e-03
13.500	20.250	3.9801e-03
13.500	20.500	4.3494e-03
13.500	20.750	4.8653e-03
13.500	21.000	5.6071e-03
13.500	21.250	6.6943e-03
13.500	21.500	8.1778e-03
13.500	21.750	1.0502e-02
13.500	22.000	1.4083e-02
13.500	22.250	1.9619e-02
13.500	22.500	2.6878e-02
13.500	22.750	3.1514e-02
13.500	23.000	3.4773e-02
13.500	23.250	3.7242e-02
13.500	23.500	3.9168e-02
13.500	23.750	3.9972e-02
13.500	24.000	4.0492e-02
13.750	17.000	5.1687e-05
13.750	17.250	1.0453e-04
13.750	17.500	2.2807e-04
13.750	17.750	4.5300e-04
13.750	18.000	1.0947e-03
13.750	18.250	2.1890e-03
13.750	18.500	2.7111e-03
13.750	18.750	3.2670e-03
13.750	19.000	3.2583e-03
13.750	19.250	3.2711e-03
13.750	19.500	3.3168e-03
13.750	19.750	3.3999e-03
13.750	20.000	3.5251e-03
13.750	20.250	3.7035e-03
13.750	20.500	3.9550e-03
13.750	20.750	4.3091e-03
13.750	21.000	4.8085e-03
13.750	21.250	5.5323e-03
13.750	21.500	6.5340e-03
13.750	21.750	8.0381e-03
13.750	22.000	1.0240e-02
13.750	22.250	1.3730e-02
13.750	22.500	1.9824e-02
13.750	22.750	2.7433e-02
13.750	23.000	3.1630e-02
13.750	23.250	3.4697e-02
13.750	23.500	3.7133e-02
13.750	23.750	3.9091e-02
13.750	24.000	3.9893e-02
14.000	17.000	3.1358e-05
14.000	17.250	6.1646e-05
14.000	17.500	1.3835e-04
14.000	17.750	2.7827e-04
14.000	18.000	5.6502e-04
14.000	18.250	1.3072e-03
14.000	18.500	2.3299e-03
14.000	18.750	3.0159e-03
14.000	19.000	3.2645e-03
14.000	19.250	3.2542e-03
14.000	19.500	3.2653e-03
14.000	19.750	3.3085e-03
14.000	20.000	3.3877e-03
14.000	20.250	3.5048e-03
14.000	20.500	3.6719e-03
14.000	20.750	3.9074e-03
14.000	21.000	4.2394e-03
14.000	21.250	4.7108e-03
14.000	21.500	5.3506e-03
14.000	21.750	6.3051e-03
14.000	22.000	7.6268e-03
14.000	22.250	9.5437e-03
14.000	22.500	1.3074e-02
14.000	22.750	2.0172e-02
14.000	23.000	2.7736e-02
14.000	23.250	3.1659e-02
14.000	23.500	3.4550e-02
14.000	23.750	3.7034e-02
14.000	24.000	3.8920e-02
