nFnu 1175.06A  relative to Inci 1215.00A scaled to 1215A.
Hden   Phi(H)  Eq_Width (A)
 7.000	17.000	1.0011e-01
 7.000	17.250	8.3495e-02
 7.000	17.500	7.9933e-02
 7.000	17.750	6.7891e-02
 7.000	18.000	5.8367e-02
 7.000	18.250	5.2024e-02
 7.000	18.500	4.8047e-02
 7.000	18.750	4.6166e-02
 7.000	19.000	4.5188e-02
 7.000	19.250	4.4629e-02
 7.000	19.500	4.4394e-02
 7.000	19.750	4.4295e-02
 7.000	20.000	4.4252e-02
 7.000	20.250	4.4232e-02
 7.000	20.500	4.4221e-02
 7.000	20.750	4.4216e-02
 7.000	21.000	4.4213e-02
 7.000	21.250	4.4212e-02
 7.000	21.500	4.4211e-02
 7.000	21.750	4.4211e-02
 7.000	22.000	4.4212e-02
 7.000	22.250	4.4212e-02
 7.000	22.500	4.4212e-02
 7.000	22.750	4.4213e-02
 7.000	23.000	4.4212e-02
 7.000	23.250	4.4212e-02
 7.000	23.500	4.4212e-02
 7.000	23.750	4.4212e-02
 7.000	24.000	4.4212e-02
 7.250	17.000	3.3679e-01
 7.250	17.250	9.4364e-02
 7.250	17.500	8.2754e-02
 7.250	17.750	7.9657e-02
 7.250	18.000	6.7748e-02
 7.250	18.250	5.8292e-02
 7.250	18.500	5.1988e-02
 7.250	18.750	4.8034e-02
 7.250	19.000	4.6161e-02
 7.250	19.250	4.5186e-02
 7.250	19.500	4.4628e-02
 7.250	19.750	4.4394e-02
 7.250	20.000	4.4295e-02
 7.250	20.250	4.4252e-02
 7.250	20.500	4.4232e-02
 7.250	20.750	4.4221e-02
 7.250	21.000	4.4216e-02
 7.250	21.250	4.4213e-02
 7.250	21.500	4.4212e-02
 7.250	21.750	4.4211e-02
 7.250	22.000	4.4211e-02
 7.250	22.250	4.4210e-02
 7.250	22.500	4.4210e-02
 7.250	22.750	4.4211e-02
 7.250	23.000	4.4211e-02
 7.250	23.250	4.4211e-02
 7.250	23.500	4.4211e-02
 7.250	23.750	4.4211e-02
 7.250	24.000	4.4211e-02
 7.500	17.000	4.8361e-01
 7.500	17.250	3.2538e-01
 7.500	17.500	8.9611e-02
 7.500	17.750	8.2214e-02
 7.500	18.000	7.9514e-02
 7.500	18.250	6.7676e-02
 7.500	18.500	5.8246e-02
 7.500	18.750	5.1965e-02
 7.500	19.000	4.8026e-02
 7.500	19.250	4.6157e-02
 7.500	19.500	4.5185e-02
 7.500	19.750	4.4628e-02
 7.500	20.000	4.4394e-02
 7.500	20.250	4.4295e-02
 7.500	20.500	4.4252e-02
 7.500	20.750	4.4232e-02
 7.500	21.000	4.4221e-02
 7.500	21.250	4.4216e-02
 7.500	21.500	4.4213e-02
 7.500	21.750	4.4212e-02
 7.500	22.000	4.4211e-02
 7.500	22.250	4.4210e-02
 7.500	22.500	4.4210e-02
 7.500	22.750	4.4210e-02
 7.500	23.000	4.4210e-02
 7.500	23.250	4.4210e-02
 7.500	23.500	4.4213e-02
 7.500	23.750	4.4210e-02
 7.500	24.000	4.4210e-02
 7.750	17.000	5.8515e-01
 7.750	17.250	4.7236e-01
 7.750	17.500	3.1575e-01
 7.750	17.750	8.5892e-02
 7.750	18.000	8.1801e-02
 7.750	18.250	7.9452e-02
 7.750	18.500	6.7648e-02
 7.750	18.750	5.8220e-02
 7.750	19.000	5.1951e-02
 7.750	19.250	4.8020e-02
 7.750	19.500	4.6155e-02
 7.750	19.750	4.5184e-02
 7.750	20.000	4.4628e-02
 7.750	20.250	4.4394e-02
 7.750	20.500	4.4295e-02
 7.750	20.750	4.4252e-02
 7.750	21.000	4.4231e-02
 7.750	21.250	4.4221e-02
 7.750	21.500	4.4216e-02
 7.750	21.750	4.4213e-02
 7.750	22.000	4.4212e-02
 7.750	22.250	4.4211e-02
 7.750	22.500	4.4210e-02
 7.750	22.750	4.4210e-02
 7.750	23.000	4.4210e-02
 7.750	23.250	4.4210e-02
 7.750	23.500	4.4210e-02
 7.750	23.750	4.4210e-02
 7.750	24.000	4.4210e-02
 8.000	17.000	6.4923e-01
 8.000	17.250	5.7818e-01
 8.000	17.500	4.6238e-01
 8.000	17.750	3.0966e-01
 8.000	18.000	8.7155e-02
 8.000	18.250	8.1479e-02
 8.000	18.500	7.9441e-02
 8.000	18.750	6.7649e-02
 8.000	19.000	5.8206e-02
 8.000	19.250	5.1942e-02
 8.000	19.500	4.8017e-02
 8.000	19.750	4.6154e-02
 8.000	20.000	4.5184e-02
 8.000	20.250	4.4628e-02
 8.000	20.500	4.4394e-02
 8.000	20.750	4.4295e-02
 8.000	21.000	4.4252e-02
 8.000	21.250	4.4232e-02
 8.000	21.500	4.4221e-02
 8.000	21.750	4.4216e-02
 8.000	22.000	4.4213e-02
 8.000	22.250	4.4212e-02
 8.000	22.500	4.4211e-02
 8.000	22.750	4.4210e-02
 8.000	23.000	4.4210e-02
 8.000	23.250	4.4211e-02
 8.000	23.500	4.4210e-02
 8.000	23.750	4.4210e-02
 8.000	24.000	4.4210e-02
 8.250	17.000	6.8603e-01
 8.250	17.250	6.4379e-01
 8.250	17.500	5.6938e-01
 8.250	17.750	4.4965e-01
 8.250	18.000	2.9598e-01
 8.250	18.250	8.3892e-02
 8.250	18.500	8.1328e-02
 8.250	18.750	7.9460e-02
 8.250	19.000	6.7671e-02
 8.250	19.250	5.8199e-02
 8.250	19.500	5.1936e-02
 8.250	19.750	4.8014e-02
 8.250	20.000	4.6153e-02
 8.250	20.250	4.5183e-02
 8.250	20.500	4.4628e-02
 8.250	20.750	4.4394e-02
 8.250	21.000	4.4295e-02
 8.250	21.250	4.4252e-02
 8.250	21.500	4.4232e-02
 8.250	21.750	4.4221e-02
 8.250	22.000	4.4216e-02
 8.250	22.250	4.4213e-02
 8.250	22.500	4.4211e-02
 8.250	22.750	4.4211e-02
 8.250	23.000	4.4210e-02
 8.250	23.250	4.4210e-02
 8.250	23.500	4.4210e-02
 8.250	23.750	4.4210e-02
 8.250	24.000	4.4210e-02
 8.500	17.000	7.0805e-01
 8.500	17.250	6.8200e-01
 8.500	17.500	6.3744e-01
 8.500	17.750	5.5732e-01
 8.500	18.000	4.2915e-01
 8.500	18.250	2.7641e-01
 8.500	18.500	7.8955e-02
 8.500	18.750	8.1256e-02
 8.500	19.000	7.9499e-02
 8.500	19.250	6.7706e-02
 8.500	19.500	5.8197e-02
 8.500	19.750	5.1932e-02
 8.500	20.000	4.8013e-02
 8.500	20.250	4.6153e-02
 8.500	20.500	4.5183e-02
 8.500	20.750	4.4628e-02
 8.500	21.000	4.4393e-02
 8.500	21.250	4.4295e-02
 8.500	21.500	4.4252e-02
 8.500	21.750	4.4232e-02
 8.500	22.000	4.4221e-02
 8.500	22.250	4.4216e-02
 8.500	22.500	4.4213e-02
 8.500	22.750	4.4212e-02
 8.500	23.000	4.4211e-02
 8.500	23.250	4.4210e-02
 8.500	23.500	4.4210e-02
 8.500	23.750	4.4210e-02
 8.500	24.000	4.4210e-02
 8.750	17.000	7.2167e-01
 8.750	17.250	7.0492e-01
 8.750	17.500	6.7707e-01
 8.750	17.750	6.2762e-01
 8.750	18.000	5.3778e-01
 8.750	18.250	3.9666e-01
 8.750	18.500	2.3783e-01
 8.750	18.750	7.6214e-02
 8.750	19.000	8.1228e-02
 8.750	19.250	7.9545e-02
 8.750	19.500	6.7752e-02
 8.750	19.750	5.8197e-02
 8.750	20.000	5.1929e-02
 8.750	20.250	4.8011e-02
 8.750	20.500	4.6152e-02
 8.750	20.750	4.5183e-02
 8.750	21.000	4.4628e-02
 8.750	21.250	4.4393e-02
 8.750	21.500	4.4295e-02
 8.750	21.750	4.4252e-02
 8.750	22.000	4.4232e-02
 8.750	22.250	4.4221e-02
 8.750	22.500	4.4216e-02
 8.750	22.750	4.4213e-02
 8.750	23.000	4.4212e-02
 8.750	23.250	4.4211e-02
 8.750	23.500	4.4210e-02
 8.750	23.750	4.4210e-02
 8.750	24.000	4.4210e-02
 9.000	17.000	7.3010e-01
 9.000	17.250	7.1910e-01
 9.000	17.500	7.0076e-01
 9.000	17.750	6.6929e-01
 9.000	18.000	6.1127e-01
 9.000	18.250	5.0436e-01
 9.000	18.500	3.4988e-01
 9.000	18.750	2.0913e-01
 9.000	19.000	7.5777e-02
 9.000	19.250	8.1191e-02
 9.000	19.500	7.9587e-02
 9.000	19.750	6.7799e-02
 9.000	20.000	5.8198e-02
 9.000	20.250	5.1927e-02
 9.000	20.500	4.8010e-02
 9.000	20.750	4.6152e-02
 9.000	21.000	4.5183e-02
 9.000	21.250	4.4628e-02
 9.000	21.500	4.4394e-02
 9.000	21.750	4.4295e-02
 9.000	22.000	4.4252e-02
 9.000	22.250	4.4232e-02
 9.000	22.500	4.4221e-02
 9.000	22.750	4.4216e-02
 9.000	23.000	4.4213e-02
 9.000	23.250	4.4212e-02
 9.000	23.500	4.4211e-02
 9.000	23.750	4.4210e-02
 9.000	24.000	4.4210e-02
 9.250	17.000	7.3500e-01
 9.250	17.250	7.2780e-01
 9.250	17.500	7.1548e-01
 9.250	17.750	6.9394e-01
 9.250	18.000	6.5489e-01
 9.250	18.250	5.8320e-01
 9.250	18.500	4.5865e-01
 9.250	18.750	2.9469e-01
 9.250	19.000	1.5546e-01
 9.250	19.250	7.5344e-02
 9.250	19.500	8.1120e-02
 9.250	19.750	7.9615e-02
 9.250	20.000	6.7843e-02
 9.250	20.250	5.8199e-02
 9.250	20.500	5.1924e-02
 9.250	20.750	4.8009e-02
 9.250	21.000	4.6152e-02
 9.250	21.250	4.5183e-02
 9.250	21.500	4.4619e-02
 9.250	21.750	4.4381e-02
 9.250	22.000	4.4281e-02
 9.250	22.250	4.4239e-02
 9.250	22.500	4.4231e-02
 9.250	22.750	4.4221e-02
 9.250	23.000	4.4216e-02
 9.250	23.250	4.4213e-02
 9.250	23.500	4.4211e-02
 9.250	23.750	4.4211e-02
 9.250	24.000	4.4210e-02
 9.500	17.000	7.3733e-01
 9.500	17.250	7.3282e-01
 9.500	17.500	7.2447e-01
 9.500	17.750	7.0933e-01
 9.500	18.000	6.8166e-01
 9.500	18.250	6.3206e-01
 9.500	18.500	5.4472e-01
 9.500	18.750	4.0609e-01
 9.500	19.000	2.5078e-01
 9.500	19.250	1.1366e-01
 9.500	19.500	7.4879e-02
 9.500	19.750	8.0977e-02
 9.500	20.000	7.9620e-02
 9.500	20.250	6.7880e-02
 9.500	20.500	5.8200e-02
 9.500	20.750	5.1921e-02
 9.500	21.000	4.7999e-02
 9.500	21.250	4.6139e-02
 9.500	21.500	4.5169e-02
 9.500	21.750	4.4611e-02
 9.500	22.000	4.4370e-02
 9.500	22.250	4.4272e-02
 9.500	22.500	4.4228e-02
 9.500	22.750	4.4207e-02
 9.500	23.000	4.4197e-02
 9.500	23.250	4.4192e-02
 9.500	23.500	4.4195e-02
 9.500	23.750	4.4194e-02
 9.500	24.000	4.4193e-02
 9.750	17.000	7.3787e-01
 9.750	17.250	7.3522e-01
 9.750	17.500	7.2959e-01
 9.750	17.750	7.1880e-01
 9.750	18.000	6.9862e-01
 9.750	18.250	6.6193e-01
 9.750	18.500	6.0029e-01
 9.750	18.750	5.0106e-01
 9.750	19.000	3.5583e-01
 9.750	19.250	2.0061e-01
 9.750	19.500	7.1931e-02
 9.750	19.750	7.4547e-02
 9.750	20.000	8.0801e-02
 9.750	20.250	7.9599e-02
 9.750	20.500	6.7906e-02
 9.750	20.750	5.8201e-02
 9.750	21.000	5.1920e-02
 9.750	21.250	4.8004e-02
 9.750	21.500	4.6141e-02
 9.750	21.750	4.5170e-02
 9.750	22.000	4.4613e-02
 9.750	22.250	4.4373e-02
 9.750	22.500	4.4271e-02
 9.750	22.750	4.4229e-02
 9.750	23.000	4.4209e-02
 9.750	23.250	4.4198e-02
 9.750	23.500	4.4192e-02
 9.750	23.750	4.4189e-02
 9.750	24.000	4.4187e-02
10.000	17.000	7.3713e-01
10.000	17.250	7.3571e-01
10.000	17.500	7.3198e-01
10.000	17.750	7.2393e-01
10.000	18.000	7.0831e-01
10.000	18.250	6.8027e-01
10.000	18.500	6.3514e-01
10.000	18.750	5.6524e-01
10.000	19.000	4.5576e-01
10.000	19.250	3.1045e-01
10.000	19.500	1.4568e-01
10.000	19.750	7.1528e-02
10.000	20.000	7.4517e-02
10.000	20.250	8.0584e-02
10.000	20.500	7.9557e-02
10.000	20.750	6.7924e-02
10.000	21.000	5.8202e-02
10.000	21.250	5.1919e-02
10.000	21.500	4.8006e-02
10.000	21.750	4.6147e-02
10.000	22.000	4.5171e-02
10.000	22.250	4.4614e-02
10.000	22.500	4.4376e-02
10.000	22.750	4.4273e-02
10.000	23.000	4.4228e-02
10.000	23.250	4.4208e-02
10.000	23.500	4.4198e-02
10.000	23.750	4.4193e-02
10.000	24.000	4.4190e-02
10.250	17.000	7.3554e-01
10.250	17.250	7.3481e-01
10.250	17.500	7.3227e-01
10.250	17.750	7.2606e-01
10.250	18.000	7.1333e-01
10.250	18.250	6.9135e-01
10.250	18.500	6.5745e-01
10.250	18.750	6.0620e-01
10.250	19.000	5.2925e-01
10.250	19.250	4.1869e-01
10.250	19.500	2.6986e-01
10.250	19.750	1.1103e-01
10.250	20.000	7.1155e-02
10.250	20.250	7.4800e-02
10.250	20.500	8.0655e-02
10.250	20.750	7.9523e-02
10.250	21.000	6.7934e-02
10.250	21.250	5.8202e-02
10.250	21.500	5.1918e-02
10.250	21.750	4.8005e-02
10.250	22.000	4.6150e-02
10.250	22.250	4.5176e-02
10.250	22.500	4.4614e-02
10.250	22.750	4.4378e-02
10.250	23.000	4.4276e-02
10.250	23.250	4.4230e-02
10.250	23.500	4.4208e-02
10.250	23.750	4.4197e-02
10.250	24.000	4.4192e-02
10.500	17.000	7.3319e-01
10.500	17.250	7.3294e-01
10.500	17.500	7.3098e-01
10.500	17.750	7.2575e-01
10.500	18.000	7.1486e-01
10.500	18.250	6.9672e-01
10.500	18.500	6.7108e-01
10.500	18.750	6.3391e-01
10.500	19.000	5.8247e-01
10.500	19.250	5.0887e-01
10.500	19.500	3.9781e-01
10.500	19.750	2.3951e-01
10.500	20.000	8.1425e-02
10.500	20.250	7.2288e-02
10.500	20.500	7.5803e-02
10.500	20.750	8.1164e-02
10.500	21.000	7.9533e-02
10.500	21.250	6.7938e-02
10.500	21.500	5.8203e-02
10.500	21.750	5.1917e-02
10.500	22.000	4.8005e-02
10.500	22.250	4.6151e-02
10.500	22.500	4.5181e-02
10.500	22.750	4.4615e-02
10.500	23.000	4.4380e-02
10.500	23.250	4.4279e-02
10.500	23.500	4.4233e-02
10.500	23.750	4.4212e-02
10.500	24.000	4.4200e-02
10.750	17.000	7.2985e-01
10.750	17.250	7.3001e-01
10.750	17.500	7.2832e-01
10.750	17.750	7.2324e-01
10.750	18.000	7.1337e-01
10.750	18.250	6.9840e-01
10.750	18.500	6.7860e-01
10.750	18.750	6.5326e-01
10.750	19.000	6.1944e-01
10.750	19.250	5.7033e-01
10.750	19.500	4.9464e-01
10.750	19.750	3.7675e-01
10.750	20.000	2.0552e-01
10.750	20.250	6.8470e-02
10.750	20.500	7.3736e-02
10.750	20.750	7.7250e-02
10.750	21.000	8.2309e-02
10.750	21.250	7.9650e-02
10.750	21.500	6.7940e-02
10.750	21.750	5.8203e-02
10.750	22.000	5.1918e-02
10.750	22.250	4.8004e-02
10.750	22.500	4.6152e-02
10.750	22.750	4.5183e-02
10.750	23.000	4.4617e-02
10.750	23.250	4.4380e-02
10.750	23.500	4.4280e-02
10.750	23.750	4.4236e-02
10.750	24.000	4.4214e-02
11.000	17.000	7.2450e-01
11.000	17.250	7.2575e-01
11.000	17.500	7.2407e-01
11.000	17.750	7.1873e-01
11.000	18.000	7.0933e-01
11.000	18.250	6.9660e-01
11.000	18.500	6.8085e-01
11.000	18.750	6.6350e-01
11.000	19.000	6.4238e-01
11.000	19.250	6.1030e-01
11.000	19.500	5.6007e-01
11.000	19.750	4.7983e-01
11.000	20.000	3.5391e-01
11.000	20.250	1.7044e-01
11.000	20.500	7.0589e-02
11.000	20.750	7.5674e-02
11.000	21.000	7.9865e-02
11.000	21.250	8.4607e-02
11.000	21.500	7.9911e-02
11.000	21.750	6.7949e-02
11.000	22.000	5.8203e-02
11.000	22.250	5.1919e-02
11.000	22.500	4.8003e-02
11.000	22.750	4.6152e-02
11.000	23.000	4.5184e-02
11.000	23.250	4.4623e-02
11.000	23.500	4.4381e-02
11.000	23.750	4.4281e-02
11.000	24.000	4.4237e-02
11.250	17.000	7.1633e-01
11.250	17.250	7.1912e-01
11.250	17.500	7.1773e-01
11.250	17.750	7.1186e-01
11.250	18.000	7.0240e-01
11.250	18.250	6.9089e-01
11.250	18.500	6.7904e-01
11.250	18.750	6.6729e-01
11.250	19.000	6.5411e-01
11.250	19.250	6.3393e-01
11.250	19.500	6.0153e-01
11.250	19.750	5.4926e-01
11.250	20.000	4.6519e-01
11.250	20.250	3.3012e-01
11.250	20.500	1.3463e-01
11.250	20.750	7.1963e-02
11.250	21.000	7.8727e-02
11.250	21.250	8.3776e-02
11.250	21.500	8.8380e-02
11.250	21.750	8.0378e-02
11.250	22.000	6.7976e-02
11.250	22.250	5.8203e-02
11.250	22.500	5.1919e-02
11.250	22.750	4.8001e-02
11.250	23.000	4.6152e-02
11.250	23.250	4.5184e-02
11.250	23.500	4.4627e-02
11.250	23.750	4.4383e-02
11.250	24.000	4.4282e-02
11.500	17.000	7.0584e-01
11.500	17.250	7.0920e-01
11.500	17.500	7.0820e-01
11.500	17.750	7.0177e-01
11.500	18.000	6.9161e-01
11.500	18.250	6.8084e-01
11.500	18.500	6.7212e-01
11.500	18.750	6.6441e-01
11.500	19.000	6.5614e-01
11.500	19.250	6.4440e-01
11.500	19.500	6.2495e-01
11.500	19.750	5.9204e-01
11.500	20.000	5.3855e-01
11.500	20.250	4.4943e-01
11.500	20.500	3.0490e-01
11.500	20.750	1.0627e-01
11.500	21.000	7.5291e-02
11.500	21.250	8.4131e-02
11.500	21.500	9.0220e-02
11.500	21.750	9.3516e-02
11.500	22.000	8.0960e-02
11.500	22.250	6.8031e-02
11.500	22.500	5.8202e-02
11.500	22.750	5.1921e-02
11.500	23.000	4.8000e-02
11.500	23.250	4.6151e-02
11.500	23.500	4.5184e-02
11.500	23.750	4.4627e-02
11.500	24.000	4.4389e-02
11.750	17.000	6.9309e-01
11.750	17.250	6.9550e-01
11.750	17.500	6.9427e-01
11.750	17.750	6.8689e-01
11.750	18.000	6.7572e-01
11.750	18.250	6.6607e-01
11.750	18.500	6.5986e-01
11.750	18.750	6.5514e-01
11.750	19.000	6.5013e-01
11.750	19.250	6.4331e-01
11.750	19.500	6.3295e-01
11.750	19.750	6.1429e-01
11.750	20.000	5.8226e-01
11.750	20.250	5.2738e-01
11.750	20.500	4.3286e-01
11.750	20.750	2.7769e-01
11.750	21.000	7.1976e-02
11.750	21.250	8.0536e-02
11.750	21.500	9.1610e-02
11.750	21.750	9.8813e-02
11.750	22.000	9.7871e-02
11.750	22.250	8.1560e-02
11.750	22.500	6.8112e-02
11.750	22.750	5.8201e-02
11.750	23.000	5.1924e-02
11.750	23.250	4.7998e-02
11.750	23.500	4.6151e-02
11.750	23.750	4.5185e-02
11.750	24.000	4.4628e-02
12.000	17.000	6.7751e-01
12.000	17.250	6.7759e-01
12.000	17.500	6.7419e-01
12.000	17.750	6.6530e-01
12.000	18.000	6.5404e-01
12.000	18.250	6.4654e-01
12.000	18.500	6.4204e-01
12.000	18.750	6.3906e-01
12.000	19.000	6.3649e-01
12.000	19.250	6.3361e-01
12.000	19.500	6.2887e-01
12.000	19.750	6.2103e-01
12.000	20.000	6.0455e-01
12.000	20.250	5.7282e-01
12.000	20.500	5.1603e-01
12.000	20.750	4.1530e-01
12.000	21.000	2.4957e-01
12.000	21.250	8.2714e-02
12.000	21.500	8.8005e-02
12.000	21.750	1.0186e-01
12.000	22.000	1.0817e-01
12.000	22.250	1.0049e-01
12.000	22.500	8.2243e-02
12.000	22.750	6.8218e-02
12.000	23.000	5.8197e-02
12.000	23.250	5.1927e-02
12.000	23.500	4.7995e-02
12.000	23.750	4.6150e-02
12.000	24.000	4.5185e-02
12.250	17.000	6.5330e-01
12.250	17.250	6.5321e-01
12.250	17.500	6.4672e-01
12.250	17.750	6.3620e-01
12.250	18.000	6.2692e-01
12.250	18.250	6.2132e-01
12.250	18.500	6.1898e-01
12.250	18.750	6.1773e-01
12.250	19.000	6.1749e-01
12.250	19.250	6.1781e-01
12.250	19.500	6.1781e-01
12.250	19.750	6.1603e-01
12.250	20.000	6.1077e-01
12.250	20.250	5.9502e-01
12.250	20.500	5.6352e-01
12.250	20.750	5.0419e-01
12.250	21.000	3.9667e-01
12.250	21.250	2.2093e-01
12.250	21.500	8.3588e-02
12.250	21.750	9.8122e-02
12.250	22.000	1.1409e-01
12.250	22.250	1.1768e-01
12.250	22.500	1.0289e-01
12.250	22.750	8.2930e-02
12.250	23.000	6.8323e-02
12.250	23.250	5.8192e-02
12.250	23.500	5.1929e-02
12.250	23.750	4.7992e-02
12.250	24.000	4.6149e-02
12.500	17.000	5.6734e-01
12.500	17.250	6.1825e-01
12.500	17.500	6.1131e-01
12.500	17.750	6.0180e-01
12.500	18.000	5.9491e-01
12.500	18.250	5.9191e-01
12.500	18.500	5.9135e-01
12.500	18.750	5.9291e-01
12.500	19.000	5.9569e-01
12.500	19.250	5.9927e-01
12.500	19.500	6.0272e-01
12.500	19.750	6.0526e-01
12.500	20.000	6.0535e-01
12.500	20.250	6.0080e-01
12.500	20.500	5.8595e-01
12.500	20.750	5.5373e-01
12.500	21.000	4.9146e-01
12.500	21.250	3.7662e-01
12.500	21.500	2.0216e-01
12.500	21.750	9.4614e-02
12.500	22.000	1.1137e-01
12.500	22.250	1.2771e-01
12.500	22.500	1.2564e-01
12.500	22.750	1.0526e-01
12.500	23.000	8.3693e-02
12.500	23.250	6.8417e-02
12.500	23.500	5.8186e-02
12.500	23.750	5.1930e-02
12.500	24.000	4.7987e-02
12.750	17.000	4.1172e-01
12.750	17.250	5.4980e-01
12.750	17.500	5.7213e-01
12.750	17.750	5.6393e-01
12.750	18.000	5.5620e-01
12.750	18.250	5.5508e-01
12.750	18.500	5.5873e-01
12.750	18.750	5.6452e-01
12.750	19.000	5.7134e-01
12.750	19.250	5.7831e-01
12.750	19.500	5.8508e-01
12.750	19.750	5.9079e-01
12.750	20.000	5.9467e-01
12.750	20.250	5.9547e-01
12.750	20.500	5.9144e-01
12.750	20.750	5.7634e-01
12.750	21.000	5.4276e-01
12.750	21.250	4.7697e-01
12.750	21.500	3.6079e-01
12.750	21.750	1.7677e-01
12.750	22.000	1.0848e-01
12.750	22.250	1.2667e-01
12.750	22.500	1.4215e-01
12.750	22.750	1.3262e-01
12.750	23.000	1.0724e-01
12.750	23.250	8.4440e-02
12.750	23.500	6.8554e-02
12.750	23.750	5.8180e-02
12.750	24.000	5.1927e-02
13.000	17.000	1.2156e-01
13.000	17.250	2.2193e-01
13.000	17.500	4.4903e-01
13.000	17.750	5.1009e-01
13.000	18.000	5.1087e-01
13.000	18.250	5.1242e-01
13.000	18.500	5.1973e-01
13.000	18.750	5.3090e-01
13.000	19.000	5.4310e-01
13.000	19.250	5.5478e-01
13.000	19.500	5.6455e-01
13.000	19.750	5.7323e-01
13.000	20.000	5.8001e-01
13.000	20.250	5.8432e-01
13.000	20.500	5.8530e-01
13.000	20.750	5.8109e-01
13.000	21.000	5.6457e-01
13.000	21.250	5.2943e-01
13.000	21.500	4.6358e-01
13.000	21.750	3.3281e-01
13.000	22.000	1.5489e-01
13.000	22.250	1.2358e-01
13.000	22.500	1.4288e-01
13.000	22.750	1.5383e-01
13.000	23.000	1.3859e-01
13.000	23.250	1.0953e-01
13.000	23.500	8.5332e-02
13.000	23.750	6.8656e-02
13.000	24.000	5.8168e-02
13.250	17.000	9.1136e-02
13.250	17.250	1.3354e-01
13.250	17.500	2.4091e-01
13.250	17.750	3.7322e-01
13.250	18.000	4.3244e-01
13.250	18.250	4.6546e-01
13.250	18.500	4.7498e-01
13.250	18.750	4.8972e-01
13.250	19.000	5.0784e-01
13.250	19.250	5.2534e-01
13.250	19.500	5.4047e-01
13.250	19.750	5.5258e-01
13.250	20.000	5.6207e-01
13.250	20.250	5.6923e-01
13.250	20.500	5.7337e-01
13.250	20.750	5.7382e-01
13.250	21.000	5.6832e-01
13.250	21.250	5.4966e-01
13.250	21.500	5.1305e-01
13.250	21.750	4.3424e-01
13.250	22.000	2.9363e-01
13.250	22.250	1.4074e-01
13.250	22.500	1.3768e-01
13.250	22.750	1.5516e-01
13.250	23.000	1.6223e-01
13.250	23.250	1.4449e-01
13.250	23.500	1.1151e-01
13.250	23.750	8.5896e-02
13.250	24.000	6.8659e-02
13.500	17.000	7.2168e-02
13.500	17.250	1.0374e-01
13.500	17.500	1.7051e-01
13.500	17.750	2.6505e-01
13.500	18.000	3.6102e-01
13.500	18.250	3.9782e-01
13.500	18.500	4.2614e-01
13.500	18.750	4.4327e-01
13.500	19.000	4.6478e-01
13.500	19.250	4.8767e-01
13.500	19.500	5.0899e-01
13.500	19.750	5.2674e-01
13.500	20.000	5.4047e-01
13.500	20.250	5.5044e-01
13.500	20.500	5.5724e-01
13.500	20.750	5.6069e-01
13.500	21.000	5.5918e-01
13.500	21.250	5.5090e-01
13.500	21.500	5.2956e-01
13.500	21.750	4.8177e-01
13.500	22.000	3.8981e-01
13.500	22.250	2.4368e-01
13.500	22.500	1.3804e-01
13.500	22.750	1.5318e-01
13.500	23.000	1.6813e-01
13.500	23.250	1.7173e-01
13.500	23.500	1.5045e-01
13.500	23.750	1.1338e-01
13.500	24.000	8.6328e-02
13.750	17.000	6.1015e-02
13.750	17.250	8.4165e-02
13.750	17.500	1.2885e-01
13.750	17.750	1.8378e-01
13.750	18.000	2.7240e-01
13.750	18.250	3.3675e-01
13.750	18.500	3.6387e-01
13.750	18.750	3.9303e-01
13.750	19.000	4.1629e-01
13.750	19.250	4.4237e-01
13.750	19.500	4.6901e-01
13.750	19.750	4.9298e-01
13.750	20.000	5.1261e-01
13.750	20.250	5.2760e-01
13.750	20.500	5.3811e-01
13.750	20.750	5.4390e-01
13.750	21.000	5.4532e-01
13.750	21.250	5.4054e-01
13.750	21.500	5.2938e-01
13.750	21.750	4.9662e-01
13.750	22.000	4.3430e-01
13.750	22.250	3.2928e-01
13.750	22.500	1.9782e-01
13.750	22.750	1.5565e-01
13.750	23.000	1.7268e-01
13.750	23.250	1.8495e-01
13.750	23.500	1.8251e-01
13.750	23.750	1.5623e-01
13.750	24.000	1.1492e-01
14.000	17.000	5.3579e-02
14.000	17.250	6.8955e-02
14.000	17.500	1.0257e-01
14.000	17.750	1.4273e-01
14.000	18.000	1.9443e-01
14.000	18.250	2.6311e-01
14.000	18.500	3.0741e-01
14.000	18.750	3.3771e-01
14.000	19.000	3.6524e-01
14.000	19.250	3.9230e-01
14.000	19.500	4.2203e-01
14.000	19.750	4.5108e-01
14.000	20.000	4.7668e-01
14.000	20.250	4.9770e-01
14.000	20.500	5.1341e-01
14.000	20.750	5.2397e-01
14.000	21.000	5.2857e-01
14.000	21.250	5.2647e-01
14.000	21.500	5.1966e-01
14.000	21.750	4.9645e-01
14.000	22.000	4.4892e-01
14.000	22.250	3.7238e-01
14.000	22.500	2.7062e-01
14.000	22.750	1.7824e-01
14.000	23.000	1.9108e-01
14.000	23.250	2.0570e-01
14.000	23.500	2.0952e-01
14.000	23.750	1.9716e-01
14.000	24.000	1.6093e-01
