InwT 1650.00A  relative to Inci 1215.00A scaled to 1215A.
Hden   Phi(H)  Eq_Width (A)
 7.000	17.000	8.1929e-02
 7.000	17.250	7.6489e-02
 7.000	17.500	6.7299e-02
 7.000	17.750	5.5886e-02
 7.000	18.000	4.9694e-02
 7.000	18.250	4.6451e-02
 7.000	18.500	4.4646e-02
 7.000	18.750	4.3880e-02
 7.000	19.000	4.3490e-02
 7.000	19.250	4.3271e-02
 7.000	19.500	4.3180e-02
 7.000	19.750	4.3143e-02
 7.000	20.000	4.3126e-02
 7.000	20.250	4.3119e-02
 7.000	20.500	4.3115e-02
 7.000	20.750	4.3113e-02
 7.000	21.000	4.3112e-02
 7.000	21.250	4.3112e-02
 7.000	21.500	4.3112e-02
 7.000	21.750	4.3112e-02
 7.000	22.000	4.3112e-02
 7.000	22.250	4.3112e-02
 7.000	22.500	4.3113e-02
 7.000	22.750	4.3113e-02
 7.000	23.000	4.3113e-02
 7.000	23.250	4.3113e-02
 7.000	23.500	4.3113e-02
 7.000	23.750	4.3113e-02
 7.000	24.000	4.3113e-02
 7.250	17.000	7.3926e-02
 7.250	17.250	8.1924e-02
 7.250	17.500	7.6395e-02
 7.250	17.750	6.7207e-02
 7.250	18.000	5.5837e-02
 7.250	18.250	4.9672e-02
 7.250	18.500	4.6442e-02
 7.250	18.750	4.4643e-02
 7.250	19.000	4.3879e-02
 7.250	19.250	4.3490e-02
 7.250	19.500	4.3271e-02
 7.250	19.750	4.3180e-02
 7.250	20.000	4.3143e-02
 7.250	20.250	4.3126e-02
 7.250	20.500	4.3119e-02
 7.250	20.750	4.3115e-02
 7.250	21.000	4.3113e-02
 7.250	21.250	4.3112e-02
 7.250	21.500	4.3111e-02
 7.250	21.750	4.3111e-02
 7.250	22.000	4.3111e-02
 7.250	22.250	4.3111e-02
 7.250	22.500	4.3111e-02
 7.250	22.750	4.3112e-02
 7.250	23.000	4.3112e-02
 7.250	23.250	4.3112e-02
 7.250	23.500	4.3112e-02
 7.250	23.750	4.3112e-02
 7.250	24.000	4.3112e-02
 7.500	17.000	6.8143e-02
 7.500	17.250	7.3988e-02
 7.500	17.500	8.1828e-02
 7.500	17.750	7.6340e-02
 7.500	18.000	6.7147e-02
 7.500	18.250	5.5802e-02
 7.500	18.500	4.9656e-02
 7.500	18.750	4.6436e-02
 7.500	19.000	4.4641e-02
 7.500	19.250	4.3878e-02
 7.500	19.500	4.3490e-02
 7.500	19.750	4.3271e-02
 7.500	20.000	4.3180e-02
 7.500	20.250	4.3143e-02
 7.500	20.500	4.3126e-02
 7.500	20.750	4.3119e-02
 7.500	21.000	4.3115e-02
 7.500	21.250	4.3113e-02
 7.500	21.500	4.3112e-02
 7.500	21.750	4.3111e-02
 7.500	22.000	4.3111e-02
 7.500	22.250	4.3111e-02
 7.500	22.500	4.3111e-02
 7.500	22.750	4.3111e-02
 7.500	23.000	4.3111e-02
 7.500	23.250	4.3111e-02
 7.500	23.500	4.3113e-02
 7.500	23.750	4.3111e-02
 7.500	24.000	4.3111e-02
 7.750	17.000	6.3009e-02
 7.750	17.250	6.8180e-02
 7.750	17.500	7.3988e-02
 7.750	17.750	8.1731e-02
 7.750	18.000	7.6311e-02
 7.750	18.250	6.7107e-02
 7.750	18.500	5.5774e-02
 7.750	18.750	4.9643e-02
 7.750	19.000	4.6433e-02
 7.750	19.250	4.4640e-02
 7.750	19.500	4.3877e-02
 7.750	19.750	4.3489e-02
 7.750	20.000	4.3271e-02
 7.750	20.250	4.3180e-02
 7.750	20.500	4.3143e-02
 7.750	20.750	4.3126e-02
 7.750	21.000	4.3119e-02
 7.750	21.250	4.3115e-02
 7.750	21.500	4.3113e-02
 7.750	21.750	4.3112e-02
 7.750	22.000	4.3111e-02
 7.750	22.250	4.3111e-02
 7.750	22.500	4.3111e-02
 7.750	22.750	4.3111e-02
 7.750	23.000	4.3111e-02
 7.750	23.250	4.3111e-02
 7.750	23.500	4.3111e-02
 7.750	23.750	4.3111e-02
 7.750	24.000	4.3111e-02
 8.000	17.000	5.8079e-02
 8.000	17.250	6.2432e-02
 8.000	17.500	6.7796e-02
 8.000	17.750	7.3539e-02
 8.000	18.000	8.1263e-02
 8.000	18.250	7.6225e-02
 8.000	18.500	6.7079e-02
 8.000	18.750	5.5749e-02
 8.000	19.000	4.9632e-02
 8.000	19.250	4.6430e-02
 8.000	19.500	4.4639e-02
 8.000	19.750	4.3877e-02
 8.000	20.000	4.3489e-02
 8.000	20.250	4.3271e-02
 8.000	20.500	4.3180e-02
 8.000	20.750	4.3143e-02
 8.000	21.000	4.3126e-02
 8.000	21.250	4.3119e-02
 8.000	21.500	4.3115e-02
 8.000	21.750	4.3113e-02
 8.000	22.000	4.3112e-02
 8.000	22.250	4.3111e-02
 8.000	22.500	4.3111e-02
 8.000	22.750	4.3111e-02
 8.000	23.000	4.3111e-02
 8.000	23.250	4.3112e-02
 8.000	23.500	4.3111e-02
 8.000	23.750	4.3111e-02
 8.000	24.000	4.3111e-02
 8.250	17.000	5.4563e-02
 8.250	17.250	5.8003e-02
 8.250	17.500	6.2601e-02
 8.250	17.750	6.8052e-02
 8.250	18.000	7.3825e-02
 8.250	18.250	8.1302e-02
 8.250	18.500	7.6250e-02
 8.250	18.750	6.7057e-02
 8.250	19.000	5.5726e-02
 8.250	19.250	4.9620e-02
 8.250	19.500	4.6428e-02
 8.250	19.750	4.4638e-02
 8.250	20.000	4.3877e-02
 8.250	20.250	4.3489e-02
 8.250	20.500	4.3271e-02
 8.250	20.750	4.3180e-02
 8.250	21.000	4.3143e-02
 8.250	21.250	4.3126e-02
 8.250	21.500	4.3119e-02
 8.250	21.750	4.3115e-02
 8.250	22.000	4.3113e-02
 8.250	22.250	4.3112e-02
 8.250	22.500	4.3111e-02
 8.250	22.750	4.3111e-02
 8.250	23.000	4.3111e-02
 8.250	23.250	4.3111e-02
 8.250	23.500	4.3111e-02
 8.250	23.750	4.3111e-02
 8.250	24.000	4.3111e-02
 8.500	17.000	5.1772e-02
 8.500	17.250	5.4534e-02
 8.500	17.500	5.8194e-02
 8.500	17.750	6.3072e-02
 8.500	18.000	6.8839e-02
 8.500	18.250	7.4406e-02
 8.500	18.500	8.1473e-02
 8.500	18.750	7.6289e-02
 8.500	19.000	6.7037e-02
 8.500	19.250	5.5701e-02
 8.500	19.500	4.9609e-02
 8.500	19.750	4.6426e-02
 8.500	20.000	4.4638e-02
 8.500	20.250	4.3877e-02
 8.500	20.500	4.3489e-02
 8.500	20.750	4.3271e-02
 8.500	21.000	4.3180e-02
 8.500	21.250	4.3143e-02
 8.500	21.500	4.3126e-02
 8.500	21.750	4.3119e-02
 8.500	22.000	4.3115e-02
 8.500	22.250	4.3113e-02
 8.500	22.500	4.3112e-02
 8.500	22.750	4.3111e-02
 8.500	23.000	4.3111e-02
 8.500	23.250	4.3111e-02
 8.500	23.500	4.3111e-02
 8.500	23.750	4.3111e-02
 8.500	24.000	4.3111e-02
 8.750	17.000	4.9441e-02
 8.750	17.250	5.1827e-02
 8.750	17.500	5.4792e-02
 8.750	17.750	5.8783e-02
 8.750	18.000	6.4144e-02
 8.750	18.250	7.0189e-02
 8.750	18.500	7.5750e-02
 8.750	18.750	8.1479e-02
 8.750	19.000	7.6336e-02
 8.750	19.250	6.7018e-02
 8.750	19.500	5.5675e-02
 8.750	19.750	4.9596e-02
 8.750	20.000	4.6424e-02
 8.750	20.250	4.4637e-02
 8.750	20.500	4.3877e-02
 8.750	20.750	4.3489e-02
 8.750	21.000	4.3271e-02
 8.750	21.250	4.3180e-02
 8.750	21.500	4.3143e-02
 8.750	21.750	4.3126e-02
 8.750	22.000	4.3119e-02
 8.750	22.250	4.3115e-02
 8.750	22.500	4.3113e-02
 8.750	22.750	4.3112e-02
 8.750	23.000	4.3111e-02
 8.750	23.250	4.3111e-02
 8.750	23.500	4.3111e-02
 8.750	23.750	4.3111e-02
 8.750	24.000	4.3111e-02
 9.000	17.000	4.7311e-02
 9.000	17.250	4.9591e-02
 9.000	17.500	5.2188e-02
 9.000	17.750	5.5490e-02
 9.000	18.000	6.0006e-02
 9.000	18.250	6.5956e-02
 9.000	18.500	7.2214e-02
 9.000	18.750	7.7226e-02
 9.000	19.000	8.1294e-02
 9.000	19.250	7.6366e-02
 9.000	19.500	6.7000e-02
 9.000	19.750	5.5648e-02
 9.000	20.000	4.9584e-02
 9.000	20.250	4.6422e-02
 9.000	20.500	4.4637e-02
 9.000	20.750	4.3876e-02
 9.000	21.000	4.3489e-02
 9.000	21.250	4.3271e-02
 9.000	21.500	4.3180e-02
 9.000	21.750	4.3143e-02
 9.000	22.000	4.3126e-02
 9.000	22.250	4.3119e-02
 9.000	22.500	4.3115e-02
 9.000	22.750	4.3113e-02
 9.000	23.000	4.3112e-02
 9.000	23.250	4.3111e-02
 9.000	23.500	4.3111e-02
 9.000	23.750	4.3111e-02
 9.000	24.000	4.3111e-02
 9.250	17.000	4.5133e-02
 9.250	17.250	4.7518e-02
 9.250	17.500	5.0076e-02
 9.250	17.750	5.3056e-02
 9.250	18.000	5.6911e-02
 9.250	18.250	6.2091e-02
 9.250	18.500	6.8564e-02
 9.250	18.750	7.4955e-02
 9.250	19.000	8.0428e-02
 9.250	19.250	8.0948e-02
 9.250	19.500	7.6366e-02
 9.250	19.750	6.6983e-02
 9.250	20.000	5.5623e-02
 9.250	20.250	4.9572e-02
 9.250	20.500	4.6420e-02
 9.250	20.750	4.4637e-02
 9.250	21.000	4.3876e-02
 9.250	21.250	4.3489e-02
 9.250	21.500	4.3262e-02
 9.250	21.750	4.3167e-02
 9.250	22.000	4.3129e-02
 9.250	22.250	4.3114e-02
 9.250	22.500	4.3118e-02
 9.250	22.750	4.3114e-02
 9.250	23.000	4.3113e-02
 9.250	23.250	4.3112e-02
 9.250	23.500	4.3111e-02
 9.250	23.750	4.3111e-02
 9.250	24.000	4.3111e-02
 9.500	17.000	4.2709e-02
 9.500	17.250	4.5362e-02
 9.500	17.500	4.8121e-02
 9.500	17.750	5.1142e-02
 9.500	18.000	5.4710e-02
 9.500	18.250	5.9253e-02
 9.500	18.500	6.5091e-02
 9.500	18.750	7.1869e-02
 9.500	19.000	7.8088e-02
 9.500	19.250	8.4171e-02
 9.500	19.500	8.0513e-02
 9.500	19.750	7.6312e-02
 9.500	20.000	6.6968e-02
 9.500	20.250	5.5601e-02
 9.500	20.500	4.9560e-02
 9.500	20.750	4.6417e-02
 9.500	21.000	4.4627e-02
 9.500	21.250	4.3864e-02
 9.500	21.500	4.3476e-02
 9.500	21.750	4.3254e-02
 9.500	22.000	4.3157e-02
 9.500	22.250	4.3120e-02
 9.500	22.500	4.3104e-02
 9.500	22.750	4.3095e-02
 9.500	23.000	4.3092e-02
 9.500	23.250	4.3090e-02
 9.500	23.500	4.3094e-02
 9.500	23.750	4.3094e-02
 9.500	24.000	4.3093e-02
 9.750	17.000	3.9855e-02
 9.750	17.250	4.2862e-02
 9.750	17.500	4.5992e-02
 9.750	17.750	4.9337e-02
 9.750	18.000	5.3048e-02
 9.750	18.250	5.7454e-02
 9.750	18.500	6.2591e-02
 9.750	18.750	6.8549e-02
 9.750	19.000	7.5299e-02
 9.750	19.250	8.2258e-02
 9.750	19.500	8.8860e-02
 9.750	19.750	8.0245e-02
 9.750	20.000	7.6239e-02
 9.750	20.250	6.6953e-02
 9.750	20.500	5.5583e-02
 9.750	20.750	4.9551e-02
 9.750	21.000	4.6416e-02
 9.750	21.250	4.4632e-02
 9.750	21.500	4.3866e-02
 9.750	21.750	4.3476e-02
 9.750	22.000	4.3256e-02
 9.750	22.250	4.3160e-02
 9.750	22.500	4.3119e-02
 9.750	22.750	4.3104e-02
 9.750	23.000	4.3096e-02
 9.750	23.250	4.3092e-02
 9.750	23.500	4.3090e-02
 9.750	23.750	4.3089e-02
 9.750	24.000	4.3088e-02
10.000	17.000	3.6472e-02
10.000	17.250	3.9870e-02
10.000	17.500	4.3424e-02
10.000	17.750	4.7300e-02
10.000	18.000	5.1603e-02
10.000	18.250	5.6229e-02
10.000	18.500	6.0884e-02
10.000	18.750	6.5922e-02
10.000	19.000	7.1793e-02
10.000	19.250	7.8694e-02
10.000	19.500	8.7439e-02
10.000	19.750	9.0079e-02
10.000	20.000	8.0358e-02
10.000	20.250	7.6111e-02
10.000	20.500	6.6936e-02
10.000	20.750	5.5568e-02
10.000	21.000	4.9543e-02
10.000	21.250	4.6414e-02
10.000	21.500	4.4634e-02
10.000	21.750	4.3872e-02
10.000	22.000	4.3477e-02
10.000	22.250	4.3257e-02
10.000	22.500	4.3163e-02
10.000	22.750	4.3121e-02
10.000	23.000	4.3103e-02
10.000	23.250	4.3096e-02
10.000	23.500	4.3092e-02
10.000	23.750	4.3090e-02
10.000	24.000	4.3089e-02
10.250	17.000	3.3259e-02
10.250	17.250	3.6374e-02
10.250	17.500	4.0399e-02
10.250	17.750	4.4862e-02
10.250	18.000	4.9876e-02
10.250	18.250	5.4920e-02
10.250	18.500	5.9442e-02
10.250	18.750	6.3796e-02
10.250	19.000	6.8467e-02
10.250	19.250	7.4473e-02
10.250	19.500	8.2774e-02
10.250	19.750	9.3260e-02
10.250	20.000	8.9639e-02
10.250	20.250	8.0750e-02
10.250	20.500	7.6208e-02
10.250	20.750	6.6915e-02
10.250	21.000	5.5556e-02
10.250	21.250	4.9536e-02
10.250	21.500	4.6413e-02
10.250	21.750	4.4634e-02
10.250	22.000	4.3875e-02
10.250	22.250	4.3482e-02
10.250	22.500	4.3258e-02
10.250	22.750	4.3165e-02
10.250	23.000	4.3125e-02
10.250	23.250	4.3105e-02
10.250	23.500	4.3096e-02
10.250	23.750	4.3091e-02
10.250	24.000	4.3089e-02
10.500	17.000	3.0534e-02
10.500	17.250	3.3100e-02
10.500	17.500	3.6924e-02
10.500	17.750	4.2008e-02
10.500	18.000	4.7536e-02
10.500	18.250	5.2867e-02
10.500	18.500	5.7526e-02
10.500	18.750	6.1640e-02
10.500	19.000	6.5804e-02
10.500	19.250	7.0937e-02
10.500	19.500	7.7742e-02
10.500	19.750	8.7103e-02
10.500	20.000	9.8617e-02
10.500	20.250	9.1018e-02
10.500	20.500	8.1751e-02
10.500	20.750	7.6565e-02
10.500	21.000	6.6889e-02
10.500	21.250	5.5545e-02
10.500	21.500	4.9532e-02
10.500	21.750	4.6412e-02
10.500	22.000	4.4634e-02
10.500	22.250	4.3876e-02
10.500	22.500	4.3487e-02
10.500	22.750	4.3258e-02
10.500	23.000	4.3167e-02
10.500	23.250	4.3127e-02
10.500	23.500	4.3109e-02
10.500	23.750	4.3099e-02
10.500	24.000	4.3094e-02
10.750	17.000	2.8515e-02
10.750	17.250	3.0425e-02
10.750	17.500	3.3756e-02
10.750	17.750	3.8716e-02
10.750	18.000	4.4387e-02
10.750	18.250	4.9761e-02
10.750	18.500	5.4504e-02
10.750	18.750	5.8732e-02
10.750	19.000	6.2820e-02
10.750	19.250	6.7378e-02
10.750	19.500	7.3032e-02
10.750	19.750	8.0389e-02
10.750	20.000	9.0368e-02
10.750	20.250	9.9508e-02
10.750	20.500	9.2302e-02
10.750	20.750	8.2873e-02
10.750	21.000	7.7245e-02
10.750	21.250	6.6852e-02
10.750	21.500	5.5534e-02
10.750	21.750	4.9529e-02
10.750	22.000	4.6413e-02
10.750	22.250	4.4633e-02
10.750	22.500	4.3876e-02
10.750	22.750	4.3489e-02
10.750	23.000	4.3260e-02
10.750	23.250	4.3167e-02
10.750	23.500	4.3129e-02
10.750	23.750	4.3111e-02
10.750	24.000	4.3102e-02
11.000	17.000	2.7111e-02
11.000	17.250	2.8519e-02
11.000	17.500	3.1146e-02
11.000	17.750	3.5299e-02
11.000	18.000	4.0400e-02
11.000	18.250	4.5482e-02
11.000	18.500	5.0288e-02
11.000	18.750	5.4783e-02
11.000	19.000	5.9067e-02
11.000	19.250	6.3432e-02
11.000	19.500	6.8311e-02
11.000	19.750	7.4278e-02
11.000	20.000	8.1892e-02
11.000	20.250	9.2233e-02
11.000	20.500	1.0216e-01
11.000	20.750	9.3703e-02
11.000	21.000	8.4710e-02
11.000	21.250	7.8632e-02
11.000	21.500	6.6793e-02
11.000	21.750	5.5520e-02
11.000	22.000	4.9528e-02
11.000	22.250	4.6412e-02
11.000	22.500	4.4633e-02
11.000	22.750	4.3876e-02
11.000	23.000	4.3489e-02
11.000	23.250	4.3266e-02
11.000	23.500	4.3168e-02
11.000	23.750	4.3129e-02
11.000	24.000	4.3112e-02
11.250	17.000	2.6161e-02
11.250	17.250	2.7276e-02
11.250	17.500	2.9162e-02
11.250	17.750	3.2136e-02
11.250	18.000	3.6089e-02
11.250	18.250	4.0493e-02
11.250	18.500	4.5159e-02
11.250	18.750	4.9947e-02
11.250	19.000	5.4545e-02
11.250	19.250	5.9008e-02
11.250	19.500	6.3573e-02
11.250	19.750	6.8683e-02
11.250	20.000	7.4850e-02
11.250	20.250	8.2858e-02
11.250	20.500	9.3803e-02
11.250	20.750	1.0133e-01
11.250	21.000	9.5779e-02
11.250	21.250	8.7293e-02
11.250	21.500	8.0975e-02
11.250	21.750	6.6692e-02
11.250	22.000	5.5499e-02
11.250	22.250	4.9529e-02
11.250	22.500	4.6411e-02
11.250	22.750	4.4631e-02
11.250	23.000	4.3876e-02
11.250	23.250	4.3489e-02
11.250	23.500	4.3269e-02
11.250	23.750	4.3170e-02
11.250	24.000	4.3130e-02
11.500	17.000	2.5583e-02
11.500	17.250	2.6442e-02
11.500	17.500	2.7715e-02
11.500	17.750	2.9581e-02
11.500	18.000	3.2145e-02
11.500	18.250	3.5502e-02
11.500	18.500	3.9691e-02
11.500	18.750	4.4536e-02
11.500	19.000	4.9561e-02
11.500	19.250	5.4242e-02
11.500	19.500	5.8772e-02
11.500	19.750	6.3566e-02
11.500	20.000	6.9057e-02
11.500	20.250	7.5632e-02
11.500	20.500	8.4156e-02
11.500	20.750	9.5818e-02
11.500	21.000	1.0341e-01
11.500	21.250	9.9944e-02
11.500	21.500	9.1953e-02
11.500	21.750	8.3928e-02
11.500	22.000	6.6555e-02
11.500	22.250	5.5465e-02
11.500	22.500	4.9531e-02
11.500	22.750	4.6411e-02
11.500	23.000	4.4630e-02
11.500	23.250	4.3875e-02
11.500	23.500	4.3490e-02
11.500	23.750	4.3270e-02
11.500	24.000	4.3176e-02
11.750	17.000	2.5287e-02
11.750	17.250	2.5826e-02
11.750	17.500	2.6600e-02
11.750	17.750	2.7650e-02
11.750	18.000	2.9060e-02
11.750	18.250	3.1279e-02
11.750	18.500	3.4666e-02
11.750	18.750	3.9131e-02
11.750	19.000	4.4297e-02
11.750	19.250	4.9424e-02
11.750	19.500	5.4143e-02
11.750	19.750	5.8845e-02
11.750	20.000	6.4003e-02
11.750	20.250	6.9956e-02
11.750	20.500	7.7146e-02
11.750	20.750	8.6486e-02
11.750	21.000	9.7972e-02
11.750	21.250	1.0711e-01
11.750	21.500	1.0561e-01
11.750	21.750	9.8449e-02
11.750	22.000	8.5403e-02
11.750	22.250	6.6393e-02
11.750	22.500	5.5409e-02
11.750	22.750	4.9532e-02
11.750	23.000	4.6413e-02
11.750	23.250	4.4628e-02
11.750	23.500	4.3875e-02
11.750	23.750	4.3489e-02
11.750	24.000	4.3270e-02
12.000	17.000	2.5121e-02
12.000	17.250	2.5321e-02
12.000	17.500	2.5619e-02
12.000	17.750	2.6113e-02
12.000	18.000	2.6851e-02
12.000	18.250	2.8240e-02
12.000	18.500	3.0708e-02
12.000	18.750	3.4438e-02
12.000	19.000	3.9233e-02
12.000	19.250	4.4645e-02
12.000	19.500	4.9795e-02
12.000	19.750	5.4587e-02
12.000	20.000	5.9601e-02
12.000	20.250	6.5266e-02
12.000	20.500	7.1847e-02
12.000	20.750	7.9996e-02
12.000	21.000	9.1405e-02
12.000	21.250	1.0416e-01
12.000	21.500	1.1257e-01
12.000	21.750	1.1364e-01
12.000	22.000	1.0524e-01
12.000	22.250	8.5183e-02
12.000	22.500	6.6183e-02
12.000	22.750	5.5330e-02
12.000	23.000	4.9530e-02
12.000	23.250	4.6414e-02
12.000	23.500	4.4626e-02
12.000	23.750	4.3874e-02
12.000	24.000	4.3489e-02
12.250	17.000	2.4984e-02
12.250	17.250	2.4816e-02
12.250	17.500	2.4675e-02
12.250	17.750	2.4758e-02
12.250	18.000	2.5190e-02
12.250	18.250	2.6220e-02
12.250	18.500	2.8137e-02
12.250	18.750	3.1082e-02
12.250	19.000	3.5067e-02
12.250	19.250	4.0155e-02
12.250	19.500	4.5651e-02
12.250	19.750	5.0882e-02
12.250	20.000	5.5896e-02
12.250	20.250	6.1382e-02
12.250	20.500	6.7650e-02
12.250	20.750	7.5361e-02
12.250	21.000	8.5863e-02
12.250	21.250	1.0017e-01
12.250	21.500	1.1288e-01
12.250	21.750	1.2122e-01
12.250	22.000	1.2341e-01
12.250	22.250	1.1140e-01
12.250	22.500	8.4881e-02
12.250	22.750	6.5943e-02
12.250	23.000	5.5237e-02
12.250	23.250	4.9521e-02
12.250	23.500	4.6414e-02
12.250	23.750	4.4624e-02
12.250	24.000	4.3873e-02
12.500	17.000	2.0831e-02
12.500	17.250	2.4170e-02
12.500	17.500	2.3739e-02
12.500	17.750	2.3545e-02
12.500	18.000	2.3825e-02
12.500	18.250	2.4777e-02
12.500	18.500	2.6559e-02
12.500	18.750	2.9161e-02
12.500	19.000	3.2452e-02
12.500	19.250	3.6667e-02
12.500	19.500	4.1909e-02
12.500	19.750	4.7584e-02
12.500	20.000	5.3008e-02
12.500	20.250	5.8375e-02
12.500	20.500	6.4442e-02
12.500	20.750	7.2111e-02
12.500	21.000	8.2629e-02
12.500	21.250	9.7165e-02
12.500	21.500	1.1236e-01
12.500	21.750	1.2602e-01
12.500	22.000	1.3391e-01
12.500	22.250	1.3458e-01
12.500	22.500	1.1490e-01
12.500	22.750	8.4536e-02
12.500	23.000	6.5677e-02
12.500	23.250	5.5137e-02
12.500	23.500	4.9506e-02
12.500	23.750	4.6411e-02
12.500	24.000	4.4620e-02
12.750	17.000	1.3616e-02
12.750	17.250	2.0762e-02
12.750	17.500	2.2630e-02
12.750	17.750	2.2395e-02
12.750	18.000	2.2653e-02
12.750	18.250	2.3590e-02
12.750	18.500	2.5408e-02
12.750	18.750	2.7999e-02
12.750	19.000	3.1106e-02
12.750	19.250	3.4761e-02
12.750	19.500	3.9216e-02
12.750	19.750	4.4573e-02
12.750	20.000	5.0369e-02
12.750	20.250	5.6357e-02
12.750	20.500	6.2397e-02
12.750	20.750	6.9470e-02
12.750	21.000	7.9711e-02
12.750	21.250	9.4132e-02
12.750	21.500	1.0952e-01
12.750	21.750	1.3075e-01
12.750	22.000	1.4364e-01
12.750	22.250	1.4915e-01
12.750	22.500	1.4636e-01
12.750	22.750	1.1634e-01
12.750	23.000	8.4175e-02
12.750	23.250	6.5409e-02
12.750	23.500	5.5011e-02
12.750	23.750	4.9481e-02
12.750	24.000	4.6403e-02
13.000	17.000	4.6412e-03
13.000	17.250	6.7746e-03
13.000	17.500	1.5233e-02
13.000	17.750	2.0914e-02
13.000	18.000	2.1547e-02
13.000	18.250	2.2582e-02
13.000	18.500	2.4424e-02
13.000	18.750	2.7036e-02
13.000	19.000	3.0258e-02
13.000	19.250	3.3827e-02
13.000	19.500	3.7716e-02
13.000	19.750	4.2503e-02
13.000	20.000	4.8177e-02
13.000	20.250	5.4345e-02
13.000	20.500	6.1273e-02
13.000	20.750	6.8959e-02
13.000	21.000	7.8608e-02
13.000	21.250	9.3435e-02
13.000	21.500	1.1045e-01
13.000	21.750	1.2904e-01
13.000	22.000	1.5037e-01
13.000	22.250	1.6439e-01
13.000	22.500	1.6757e-01
13.000	22.750	1.5374e-01
13.000	23.000	1.1663e-01
13.000	23.250	8.3792e-02
13.000	23.500	6.5110e-02
13.000	23.750	5.4888e-02
13.000	24.000	4.9441e-02
13.250	17.000	3.0491e-03
13.250	17.250	3.9702e-03
13.250	17.500	6.4449e-03
13.250	17.750	1.1643e-02
13.250	18.000	1.6711e-02
13.250	18.250	2.1704e-02
13.250	18.500	2.3541e-02
13.250	18.750	2.6127e-02
13.250	19.000	2.9388e-02
13.250	19.250	3.3116e-02
13.250	19.500	3.7100e-02
13.250	19.750	4.1646e-02
13.250	20.000	4.6926e-02
13.250	20.250	5.2782e-02
13.250	20.500	5.9478e-02
13.250	20.750	6.7974e-02
13.250	21.000	7.7698e-02
13.250	21.250	9.0742e-02
13.250	21.500	1.0332e-01
13.250	21.750	1.2251e-01
13.250	22.000	1.4866e-01
13.250	22.250	1.7438e-01
13.250	22.500	1.8248e-01
13.250	22.750	1.7545e-01
13.250	23.000	1.5353e-01
13.250	23.250	1.1630e-01
13.250	23.500	8.3359e-02
13.250	23.750	6.4824e-02
13.250	24.000	5.4794e-02
13.500	17.000	2.0435e-03
13.500	17.250	2.7374e-03
13.500	17.500	4.2212e-03
13.500	17.750	7.1775e-03
13.500	18.000	1.3052e-02
13.500	18.250	1.7903e-02
13.500	18.500	2.2765e-02
13.500	18.750	2.5305e-02
13.500	19.000	2.8542e-02
13.500	19.250	3.2336e-02
13.500	19.500	3.6523e-02
13.500	19.750	4.1098e-02
13.500	20.000	4.6255e-02
13.500	20.250	5.2307e-02
13.500	20.500	5.8693e-02
13.500	20.750	6.6250e-02
13.500	21.000	7.4754e-02
13.500	21.250	8.6534e-02
13.500	21.500	9.6703e-02
13.500	21.750	1.1423e-01
13.500	22.000	1.4018e-01
13.500	22.250	1.6932e-01
13.500	22.500	1.9772e-01
13.500	22.750	1.9800e-01
13.500	23.000	1.7885e-01
13.500	23.250	1.5385e-01
13.500	23.500	1.1576e-01
13.500	23.750	8.2859e-02
13.500	24.000	6.4533e-02
13.750	17.000	1.4178e-03
13.750	17.250	1.9233e-03
13.750	17.500	2.9207e-03
13.750	17.750	4.5856e-03
13.750	18.000	8.5568e-03
13.750	18.250	1.5039e-02
13.750	18.500	1.9388e-02
13.750	18.750	2.4565e-02
13.750	19.000	2.7763e-02
13.750	19.250	3.1625e-02
13.750	19.500	3.5982e-02
13.750	19.750	4.0749e-02
13.750	20.000	4.6069e-02
13.750	20.250	5.2145e-02
13.750	20.500	5.9009e-02
13.750	20.750	6.6405e-02
13.750	21.000	7.4454e-02
13.750	21.250	8.3164e-02
13.750	21.500	9.3102e-02
13.750	21.750	1.0684e-01
13.750	22.000	1.2662e-01
13.750	22.250	1.5679e-01
13.750	22.500	1.9694e-01
13.750	22.750	2.3289e-01
13.750	23.000	2.1041e-01
13.750	23.250	1.8404e-01
13.750	23.500	1.5331e-01
13.750	23.750	1.1495e-01
13.750	24.000	8.2289e-02
14.000	17.000	1.0109e-03
14.000	17.250	1.3650e-03
14.000	17.500	2.0807e-03
14.000	17.750	3.3057e-03
14.000	18.000	5.5248e-03
14.000	18.250	1.0318e-02
14.000	18.500	1.6947e-02
14.000	18.750	2.2661e-02
14.000	19.000	2.7057e-02
14.000	19.250	3.0945e-02
14.000	19.500	3.5482e-02
14.000	19.750	4.0547e-02
14.000	20.000	4.6080e-02
14.000	20.250	5.2281e-02
14.000	20.500	5.9391e-02
14.000	20.750	6.7293e-02
14.000	21.000	7.5855e-02
14.000	21.250	8.5195e-02
14.000	21.500	9.3779e-02
14.000	21.750	1.0614e-01
14.000	22.000	1.2323e-01
14.000	22.250	1.4936e-01
14.000	22.500	1.8801e-01
14.000	22.750	2.4127e-01
14.000	23.000	2.7148e-01
14.000	23.250	2.3213e-01
14.000	23.500	1.9345e-01
14.000	23.750	1.5654e-01
14.000	24.000	1.1384e-01
