InwT 4400.00A  relative to Inci 1215.00A scaled to 1215A.
Hden   Phi(H)  Eq_Width (A)
 7.000	17.000	5.7796e-02
 7.000	17.250	4.7323e-02
 7.000	17.500	3.9400e-02
 7.000	17.750	3.3546e-02
 7.000	18.000	3.0540e-02
 7.000	18.250	2.9007e-02
 7.000	18.500	2.8152e-02
 7.000	18.750	2.7788e-02
 7.000	19.000	2.7604e-02
 7.000	19.250	2.7501e-02
 7.000	19.500	2.7460e-02
 7.000	19.750	2.7444e-02
 7.000	20.000	2.7437e-02
 7.000	20.250	2.7434e-02
 7.000	20.500	2.7432e-02
 7.000	20.750	2.7431e-02
 7.000	21.000	2.7431e-02
 7.000	21.250	2.7431e-02
 7.000	21.500	2.7431e-02
 7.000	21.750	2.7431e-02
 7.000	22.000	2.7431e-02
 7.000	22.250	2.7432e-02
 7.000	22.500	2.7432e-02
 7.000	22.750	2.7432e-02
 7.000	23.000	2.7432e-02
 7.000	23.250	2.7432e-02
 7.000	23.500	2.7432e-02
 7.000	23.750	2.7432e-02
 7.000	24.000	2.7432e-02
 7.250	17.000	5.4026e-02
 7.250	17.250	5.8053e-02
 7.250	17.500	4.7325e-02
 7.250	17.750	3.9383e-02
 7.250	18.000	3.3537e-02
 7.250	18.250	3.0537e-02
 7.250	18.500	2.9006e-02
 7.250	18.750	2.8151e-02
 7.250	19.000	2.7788e-02
 7.250	19.250	2.7604e-02
 7.250	19.500	2.7501e-02
 7.250	19.750	2.7460e-02
 7.250	20.000	2.7444e-02
 7.250	20.250	2.7437e-02
 7.250	20.500	2.7434e-02
 7.250	20.750	2.7432e-02
 7.250	21.000	2.7431e-02
 7.250	21.250	2.7431e-02
 7.250	21.500	2.7431e-02
 7.250	21.750	2.7431e-02
 7.250	22.000	2.7431e-02
 7.250	22.250	2.7431e-02
 7.250	22.500	2.7431e-02
 7.250	22.750	2.7431e-02
 7.250	23.000	2.7431e-02
 7.250	23.250	2.7431e-02
 7.250	23.500	2.7431e-02
 7.250	23.750	2.7431e-02
 7.250	24.000	2.7431e-02
 7.500	17.000	5.1351e-02
 7.500	17.250	5.4707e-02
 7.500	17.500	5.8242e-02
 7.500	17.750	4.7329e-02
 7.500	18.000	3.9369e-02
 7.500	18.250	3.3528e-02
 7.500	18.500	3.0533e-02
 7.500	18.750	2.9005e-02
 7.500	19.000	2.8151e-02
 7.500	19.250	2.7788e-02
 7.500	19.500	2.7604e-02
 7.500	19.750	2.7501e-02
 7.500	20.000	2.7460e-02
 7.500	20.250	2.7444e-02
 7.500	20.500	2.7437e-02
 7.500	20.750	2.7434e-02
 7.500	21.000	2.7432e-02
 7.500	21.250	2.7431e-02
 7.500	21.500	2.7431e-02
 7.500	21.750	2.7431e-02
 7.500	22.000	2.7430e-02
 7.500	22.250	2.7430e-02
 7.500	22.500	2.7430e-02
 7.500	22.750	2.7430e-02
 7.500	23.000	2.7431e-02
 7.500	23.250	2.7431e-02
 7.500	23.500	2.7432e-02
 7.500	23.750	2.7431e-02
 7.500	24.000	2.7431e-02
 7.750	17.000	4.8146e-02
 7.750	17.250	5.2338e-02
 7.750	17.500	5.5266e-02
 7.750	17.750	5.8384e-02
 7.750	18.000	4.7336e-02
 7.750	18.250	3.9357e-02
 7.750	18.500	3.3518e-02
 7.750	18.750	3.0530e-02
 7.750	19.000	2.9005e-02
 7.750	19.250	2.8151e-02
 7.750	19.500	2.7788e-02
 7.750	19.750	2.7604e-02
 7.750	20.000	2.7501e-02
 7.750	20.250	2.7460e-02
 7.750	20.500	2.7444e-02
 7.750	20.750	2.7437e-02
 7.750	21.000	2.7434e-02
 7.750	21.250	2.7432e-02
 7.750	21.500	2.7431e-02
 7.750	21.750	2.7431e-02
 7.750	22.000	2.7431e-02
 7.750	22.250	2.7430e-02
 7.750	22.500	2.7430e-02
 7.750	22.750	2.7430e-02
 7.750	23.000	2.7431e-02
 7.750	23.250	2.7430e-02
 7.750	23.500	2.7430e-02
 7.750	23.750	2.7430e-02
 7.750	24.000	2.7430e-02
 8.000	17.000	4.4753e-02
 8.000	17.250	4.8672e-02
 8.000	17.500	5.2943e-02
 8.000	17.750	5.5378e-02
 8.000	18.000	5.8148e-02
 8.000	18.250	4.7320e-02
 8.000	18.500	3.9346e-02
 8.000	18.750	3.3508e-02
 8.000	19.000	3.0526e-02
 8.000	19.250	2.9004e-02
 8.000	19.500	2.8151e-02
 8.000	19.750	2.7788e-02
 8.000	20.000	2.7604e-02
 8.000	20.250	2.7501e-02
 8.000	20.500	2.7460e-02
 8.000	20.750	2.7444e-02
 8.000	21.000	2.7437e-02
 8.000	21.250	2.7434e-02
 8.000	21.500	2.7432e-02
 8.000	21.750	2.7431e-02
 8.000	22.000	2.7431e-02
 8.000	22.250	2.7431e-02
 8.000	22.500	2.7430e-02
 8.000	22.750	2.7430e-02
 8.000	23.000	2.7430e-02
 8.000	23.250	2.7431e-02
 8.000	23.500	2.7430e-02
 8.000	23.750	2.7430e-02
 8.000	24.000	2.7430e-02
 8.250	17.000	4.2817e-02
 8.250	17.250	4.5676e-02
 8.250	17.500	4.9900e-02
 8.250	17.750	5.4195e-02
 8.250	18.000	5.6261e-02
 8.250	18.250	5.8314e-02
 8.250	18.500	4.7333e-02
 8.250	18.750	3.9335e-02
 8.250	19.000	3.3496e-02
 8.250	19.250	3.0521e-02
 8.250	19.500	2.9004e-02
 8.250	19.750	2.8151e-02
 8.250	20.000	2.7787e-02
 8.250	20.250	2.7604e-02
 8.250	20.500	2.7501e-02
 8.250	20.750	2.7460e-02
 8.250	21.000	2.7444e-02
 8.250	21.250	2.7437e-02
 8.250	21.500	2.7434e-02
 8.250	21.750	2.7432e-02
 8.250	22.000	2.7431e-02
 8.250	22.250	2.7431e-02
 8.250	22.500	2.7431e-02
 8.250	22.750	2.7430e-02
 8.250	23.000	2.7430e-02
 8.250	23.250	2.7430e-02
 8.250	23.500	2.7430e-02
 8.250	23.750	2.7430e-02
 8.250	24.000	2.7430e-02
 8.500	17.000	4.1661e-02
 8.500	17.250	4.3733e-02
 8.500	17.500	4.6942e-02
 8.500	17.750	5.1727e-02
 8.500	18.000	5.6407e-02
 8.500	18.250	5.7636e-02
 8.500	18.500	5.8622e-02
 8.500	18.750	4.7347e-02
 8.500	19.000	3.9324e-02
 8.500	19.250	3.3483e-02
 8.500	19.500	3.0516e-02
 8.500	19.750	2.9003e-02
 8.500	20.000	2.8150e-02
 8.500	20.250	2.7787e-02
 8.500	20.500	2.7604e-02
 8.500	20.750	2.7501e-02
 8.500	21.000	2.7460e-02
 8.500	21.250	2.7444e-02
 8.500	21.500	2.7437e-02
 8.500	21.750	2.7434e-02
 8.500	22.000	2.7432e-02
 8.500	22.250	2.7431e-02
 8.500	22.500	2.7431e-02
 8.500	22.750	2.7431e-02
 8.500	23.000	2.7430e-02
 8.500	23.250	2.7430e-02
 8.500	23.500	2.7430e-02
 8.500	23.750	2.7430e-02
 8.500	24.000	2.7430e-02
 8.750	17.000	4.0908e-02
 8.750	17.250	4.2623e-02
 8.750	17.500	4.5106e-02
 8.750	17.750	4.9120e-02
 8.750	18.000	5.5000e-02
 8.750	18.250	6.0060e-02
 8.750	18.500	6.0430e-02
 8.750	18.750	5.8781e-02
 8.750	19.000	4.7362e-02
 8.750	19.250	3.9313e-02
 8.750	19.500	3.3468e-02
 8.750	19.750	3.0510e-02
 8.750	20.000	2.9002e-02
 8.750	20.250	2.8150e-02
 8.750	20.500	2.7787e-02
 8.750	20.750	2.7604e-02
 8.750	21.000	2.7501e-02
 8.750	21.250	2.7460e-02
 8.750	21.500	2.7444e-02
 8.750	21.750	2.7437e-02
 8.750	22.000	2.7434e-02
 8.750	22.250	2.7432e-02
 8.750	22.500	2.7431e-02
 8.750	22.750	2.7431e-02
 8.750	23.000	2.7431e-02
 8.750	23.250	2.7430e-02
 8.750	23.500	2.7430e-02
 8.750	23.750	2.7430e-02
 8.750	24.000	2.7430e-02
 9.000	17.000	4.0312e-02
 9.000	17.250	4.1963e-02
 9.000	17.500	4.4198e-02
 9.000	17.750	4.7608e-02
 9.000	18.000	5.3169e-02
 9.000	18.250	6.0782e-02
 9.000	18.500	6.5525e-02
 9.000	18.750	6.3085e-02
 9.000	19.000	5.8755e-02
 9.000	19.250	4.7372e-02
 9.000	19.500	3.9304e-02
 9.000	19.750	3.3453e-02
 9.000	20.000	3.0504e-02
 9.000	20.250	2.9001e-02
 9.000	20.500	2.8150e-02
 9.000	20.750	2.7787e-02
 9.000	21.000	2.7604e-02
 9.000	21.250	2.7501e-02
 9.000	21.500	2.7460e-02
 9.000	21.750	2.7444e-02
 9.000	22.000	2.7437e-02
 9.000	22.250	2.7434e-02
 9.000	22.500	2.7432e-02
 9.000	22.750	2.7431e-02
 9.000	23.000	2.7431e-02
 9.000	23.250	2.7431e-02
 9.000	23.500	2.7430e-02
 9.000	23.750	2.7430e-02
 9.000	24.000	2.7430e-02
 9.250	17.000	3.9733e-02
 9.250	17.250	4.1494e-02
 9.250	17.500	4.3848e-02
 9.250	17.750	4.7286e-02
 9.250	18.000	5.2754e-02
 9.250	18.250	6.0726e-02
 9.250	18.500	6.9228e-02
 9.250	18.750	7.2367e-02
 9.250	19.000	6.8209e-02
 9.250	19.250	5.8690e-02
 9.250	19.500	4.7374e-02
 9.250	19.750	3.9296e-02
 9.250	20.000	3.3439e-02
 9.250	20.250	3.0498e-02
 9.250	20.500	2.9000e-02
 9.250	20.750	2.8150e-02
 9.250	21.000	2.7787e-02
 9.250	21.250	2.7604e-02
 9.250	21.500	2.7496e-02
 9.250	21.750	2.7452e-02
 9.250	22.000	2.7435e-02
 9.250	22.250	2.7429e-02
 9.250	22.500	2.7433e-02
 9.250	22.750	2.7432e-02
 9.250	23.000	2.7431e-02
 9.250	23.250	2.7431e-02
 9.250	23.500	2.7430e-02
 9.250	23.750	2.7430e-02
 9.250	24.000	2.7430e-02
 9.500	17.000	3.9171e-02
 9.500	17.250	4.1163e-02
 9.500	17.500	4.3828e-02
 9.500	17.750	4.7717e-02
 9.500	18.000	5.3771e-02
 9.500	18.250	6.2089e-02
 9.500	18.500	7.1552e-02
 9.500	18.750	7.9142e-02
 9.500	19.000	7.8717e-02
 9.500	19.250	7.3068e-02
 9.500	19.500	5.8590e-02
 9.500	19.750	4.7360e-02
 9.500	20.000	3.9291e-02
 9.500	20.250	3.3427e-02
 9.500	20.500	3.0493e-02
 9.500	20.750	2.8999e-02
 9.500	21.000	2.8144e-02
 9.500	21.250	2.7779e-02
 9.500	21.500	2.7596e-02
 9.500	21.750	2.7491e-02
 9.500	22.000	2.7446e-02
 9.500	22.250	2.7430e-02
 9.500	22.500	2.7422e-02
 9.500	22.750	2.7419e-02
 9.500	23.000	2.7417e-02
 9.500	23.250	2.7417e-02
 9.500	23.500	2.7420e-02
 9.500	23.750	2.7420e-02
 9.500	24.000	2.7419e-02
 9.750	17.000	3.8506e-02
 9.750	17.250	4.0796e-02
 9.750	17.500	4.3935e-02
 9.750	17.750	4.8605e-02
 9.750	18.000	5.5775e-02
 9.750	18.250	6.5195e-02
 9.750	18.500	7.4920e-02
 9.750	18.750	8.3599e-02
 9.750	19.000	8.8806e-02
 9.750	19.250	8.6160e-02
 9.750	19.500	7.8779e-02
 9.750	19.750	5.8495e-02
 9.750	20.000	4.7336e-02
 9.750	20.250	3.9289e-02
 9.750	20.500	3.3418e-02
 9.750	20.750	3.0488e-02
 9.750	21.000	2.8998e-02
 9.750	21.250	2.8147e-02
 9.750	21.500	2.7781e-02
 9.750	21.750	2.7596e-02
 9.750	22.000	2.7492e-02
 9.750	22.250	2.7448e-02
 9.750	22.500	2.7429e-02
 9.750	22.750	2.7423e-02
 9.750	23.000	2.7420e-02
 9.750	23.250	2.7418e-02
 9.750	23.500	2.7417e-02
 9.750	23.750	2.7416e-02
 9.750	24.000	2.7416e-02
10.000	17.000	3.7660e-02
10.000	17.250	4.0457e-02
10.000	17.500	4.4219e-02
10.000	17.750	4.9966e-02
10.000	18.000	5.8845e-02
10.000	18.250	6.9494e-02
10.000	18.500	7.9452e-02
10.000	18.750	8.8013e-02
10.000	19.000	9.5103e-02
10.000	19.250	9.7212e-02
10.000	19.500	9.4314e-02
10.000	19.750	7.9061e-02
10.000	20.000	5.8449e-02
10.000	20.250	4.7285e-02
10.000	20.500	3.9287e-02
10.000	20.750	3.3411e-02
10.000	21.000	3.0485e-02
10.000	21.250	2.8998e-02
10.000	21.500	2.8148e-02
10.000	21.750	2.7785e-02
10.000	22.000	2.7597e-02
10.000	22.250	2.7493e-02
10.000	22.500	2.7450e-02
10.000	22.750	2.7431e-02
10.000	23.000	2.7422e-02
10.000	23.250	2.7419e-02
10.000	23.500	2.7418e-02
10.000	23.750	2.7417e-02
10.000	24.000	2.7417e-02
10.250	17.000	3.7249e-02
10.250	17.250	4.0122e-02
10.250	17.500	4.4817e-02
10.250	17.750	5.1971e-02
10.250	18.000	6.2495e-02
10.250	18.250	7.4262e-02
10.250	18.500	8.4290e-02
10.250	18.750	9.2623e-02
10.250	19.000	9.9069e-02
10.250	19.250	1.0363e-01
10.250	19.500	1.0541e-01
10.250	19.750	1.0242e-01
10.250	20.000	7.8832e-02
10.250	20.250	5.8423e-02
10.250	20.500	4.7267e-02
10.250	20.750	3.9283e-02
10.250	21.000	3.3406e-02
10.250	21.250	3.0482e-02
10.250	21.500	2.8997e-02
10.250	21.750	2.8149e-02
10.250	22.000	2.7787e-02
10.250	22.250	2.7600e-02
10.250	22.500	2.7493e-02
10.250	22.750	2.7451e-02
10.250	23.000	2.7433e-02
10.250	23.250	2.7424e-02
10.250	23.500	2.7419e-02
10.250	23.750	2.7417e-02
10.250	24.000	2.7416e-02
10.500	17.000	3.7515e-02
10.500	17.250	4.0467e-02
10.500	17.500	4.5892e-02
10.500	17.750	5.4871e-02
10.500	18.000	6.6708e-02
10.500	18.250	7.9024e-02
10.500	18.500	8.8968e-02
10.500	18.750	9.7065e-02
10.500	19.000	1.0351e-01
10.500	19.250	1.0901e-01
10.500	19.500	1.1280e-01
10.500	19.750	1.1429e-01
10.500	20.000	1.0987e-01
10.500	20.250	7.8932e-02
10.500	20.500	5.8513e-02
10.500	20.750	4.7304e-02
10.500	21.000	3.9267e-02
10.500	21.250	3.3401e-02
10.500	21.500	3.0481e-02
10.500	21.750	2.8997e-02
10.500	22.000	2.8148e-02
10.500	22.250	2.7787e-02
10.500	22.500	2.7603e-02
10.500	22.750	2.7493e-02
10.500	23.000	2.7452e-02
10.500	23.250	2.7434e-02
10.500	23.500	2.7426e-02
10.500	23.750	2.7421e-02
10.500	24.000	2.7419e-02
10.750	17.000	3.8620e-02
10.750	17.250	4.1675e-02
10.750	17.500	4.8081e-02
10.750	17.750	5.8456e-02
10.750	18.000	7.1273e-02
10.750	18.250	8.3445e-02
10.750	18.500	9.3298e-02
10.750	18.750	1.0144e-01
10.750	19.000	1.0823e-01
10.750	19.250	1.1385e-01
10.750	19.500	1.1849e-01
10.750	19.750	1.2179e-01
10.750	20.000	1.2310e-01
10.750	20.250	1.1256e-01
10.750	20.500	7.9013e-02
10.750	20.750	5.8587e-02
10.750	21.000	4.7409e-02
10.750	21.250	3.9238e-02
10.750	21.500	3.3396e-02
10.750	21.750	3.0480e-02
10.750	22.000	2.8997e-02
10.750	22.250	2.8148e-02
10.750	22.500	2.7787e-02
10.750	22.750	2.7604e-02
10.750	23.000	2.7495e-02
10.750	23.250	2.7452e-02
10.750	23.500	2.7435e-02
10.750	23.750	2.7427e-02
10.750	24.000	2.7423e-02
11.000	17.000	4.0583e-02
11.000	17.250	4.3766e-02
11.000	17.500	5.1095e-02
11.000	17.750	6.2552e-02
11.000	18.000	7.5611e-02
11.000	18.250	8.7377e-02
11.000	18.500	9.7215e-02
11.000	18.750	1.0580e-01
11.000	19.000	1.1273e-01
11.000	19.250	1.1814e-01
11.000	19.500	1.2279e-01
11.000	19.750	1.2691e-01
11.000	20.000	1.2987e-01
11.000	20.250	1.3060e-01
11.000	20.500	1.1324e-01
11.000	20.750	7.9112e-02
11.000	21.000	5.8814e-02
11.000	21.250	4.7690e-02
11.000	21.500	3.9190e-02
11.000	21.750	3.3388e-02
11.000	22.000	3.0479e-02
11.000	22.250	2.8996e-02
11.000	22.500	2.8147e-02
11.000	22.750	2.7787e-02
11.000	23.000	2.7604e-02
11.000	23.250	2.7499e-02
11.000	23.500	2.7453e-02
11.000	23.750	2.7436e-02
11.000	24.000	2.7428e-02
11.250	17.000	4.3284e-02
11.250	17.250	4.6594e-02
11.250	17.500	5.4583e-02
11.250	17.750	6.6637e-02
11.250	18.000	7.9583e-02
11.250	18.250	9.0868e-02
11.250	18.500	1.0049e-01
11.250	18.750	1.0913e-01
11.250	19.000	1.1614e-01
11.250	19.250	1.2190e-01
11.250	19.500	1.2639e-01
11.250	19.750	1.3040e-01
11.250	20.000	1.3393e-01
11.250	20.250	1.3690e-01
11.250	20.500	1.3744e-01
11.250	20.750	1.1240e-01
11.250	21.000	7.9332e-02
11.250	21.250	5.9282e-02
11.250	21.500	4.8266e-02
11.250	21.750	3.9116e-02
11.250	22.000	3.3374e-02
11.250	22.250	3.0477e-02
11.250	22.500	2.8995e-02
11.250	22.750	2.8147e-02
11.250	23.000	2.7787e-02
11.250	23.250	2.7604e-02
11.250	23.500	2.7500e-02
11.250	23.750	2.7454e-02
11.250	24.000	2.7436e-02
11.500	17.000	4.6736e-02
11.500	17.250	5.0187e-02
11.500	17.500	5.8450e-02
11.500	17.750	7.0542e-02
11.500	18.000	8.3068e-02
11.500	18.250	9.3945e-02
11.500	18.500	1.0333e-01
11.500	18.750	1.1198e-01
11.500	19.000	1.1907e-01
11.500	19.250	1.2489e-01
11.500	19.500	1.2944e-01
11.500	19.750	1.3334e-01
11.500	20.000	1.3714e-01
11.500	20.250	1.4087e-01
11.500	20.500	1.4409e-01
11.500	20.750	1.4390e-01
11.500	21.000	1.1249e-01
11.500	21.250	8.0050e-02
11.500	21.500	6.0344e-02
11.500	21.750	4.9007e-02
11.500	22.000	3.9017e-02
11.500	22.250	3.3352e-02
11.500	22.500	3.0475e-02
11.500	22.750	2.8993e-02
11.500	23.000	2.8145e-02
11.500	23.250	2.7786e-02
11.500	23.500	2.7604e-02
11.500	23.750	2.7501e-02
11.500	24.000	2.7458e-02
11.750	17.000	5.0876e-02
11.750	17.250	5.4368e-02
11.750	17.500	6.2547e-02
11.750	17.750	7.4220e-02
11.750	18.000	8.6057e-02
11.750	18.250	9.6503e-02
11.750	18.500	1.0593e-01
11.750	18.750	1.1448e-01
11.750	19.000	1.2203e-01
11.750	19.250	1.2794e-01
11.750	19.500	1.3269e-01
11.750	19.750	1.3648e-01
11.750	20.000	1.3998e-01
11.750	20.250	1.4392e-01
11.750	20.500	1.4845e-01
11.750	20.750	1.5234e-01
11.750	21.000	1.5006e-01
11.750	21.250	1.1292e-01
11.750	21.500	8.1247e-02
11.750	21.750	6.2007e-02
11.750	22.000	4.9232e-02
11.750	22.250	3.8902e-02
11.750	22.500	3.3319e-02
11.750	22.750	3.0471e-02
11.750	23.000	2.8990e-02
11.750	23.250	2.8143e-02
11.750	23.500	2.7785e-02
11.750	23.750	2.7603e-02
11.750	24.000	2.7501e-02
12.000	17.000	5.5113e-02
12.000	17.250	5.8779e-02
12.000	17.500	6.6470e-02
12.000	17.750	7.7185e-02
12.000	18.000	8.8157e-02
12.000	18.250	9.8515e-02
12.000	18.500	1.0845e-01
12.000	18.750	1.1767e-01
12.000	19.000	1.2536e-01
12.000	19.250	1.3175e-01
12.000	19.500	1.3634e-01
12.000	19.750	1.3984e-01
12.000	20.000	1.4300e-01
12.000	20.250	1.4676e-01
12.000	20.500	1.5144e-01
12.000	20.750	1.5737e-01
12.000	21.000	1.6275e-01
12.000	21.250	1.5340e-01
12.000	21.500	1.1371e-01
12.000	21.750	8.2983e-02
12.000	22.000	6.3786e-02
12.000	22.250	4.8924e-02
12.000	22.500	3.8764e-02
12.000	22.750	3.3273e-02
12.000	23.000	3.0464e-02
12.000	23.250	2.8986e-02
12.000	23.500	2.8140e-02
12.000	23.750	2.7784e-02
12.000	24.000	2.7603e-02
12.250	17.000	5.8888e-02
12.250	17.250	6.2694e-02
12.250	17.500	6.9290e-02
12.250	17.750	7.8376e-02
12.250	18.000	8.8920e-02
12.250	18.250	1.0021e-01
12.250	18.500	1.1161e-01
12.250	18.750	1.2170e-01
12.250	19.000	1.2959e-01
12.250	19.250	1.3616e-01
12.250	19.500	1.4071e-01
12.250	19.750	1.4401e-01
12.250	20.000	1.4681e-01
12.250	20.250	1.5004e-01
12.250	20.500	1.5419e-01
12.250	20.750	1.6046e-01
12.250	21.000	1.6904e-01
12.250	21.250	1.7603e-01
12.250	21.500	1.5790e-01
12.250	21.750	1.1547e-01
12.250	22.000	8.5220e-02
12.250	22.250	6.5369e-02
12.250	22.500	4.8597e-02
12.250	22.750	3.8601e-02
12.250	23.000	3.3215e-02
12.250	23.250	3.0451e-02
12.250	23.500	2.8979e-02
12.250	23.750	2.8137e-02
12.250	24.000	2.7782e-02
12.500	17.000	5.7439e-02
12.500	17.250	6.4602e-02
12.500	17.500	6.9989e-02
12.500	17.750	7.7584e-02
12.500	18.000	8.8315e-02
12.500	18.250	1.0141e-01
12.500	18.500	1.1479e-01
12.500	18.750	1.2632e-01
12.500	19.000	1.3510e-01
12.500	19.250	1.4112e-01
12.500	19.500	1.4586e-01
12.500	19.750	1.4918e-01
12.500	20.000	1.5167e-01
12.500	20.250	1.5437e-01
12.500	20.500	1.5762e-01
12.500	20.750	1.6348e-01
12.500	21.000	1.7276e-01
12.500	21.250	1.8494e-01
12.500	21.500	1.8817e-01
12.500	21.750	1.6275e-01
12.500	22.000	1.1830e-01
12.500	22.250	8.7818e-02
12.500	22.500	6.5991e-02
12.500	22.750	4.8230e-02
12.500	23.000	3.8408e-02
12.500	23.250	3.3145e-02
12.500	23.500	3.0428e-02
12.500	23.750	2.8967e-02
12.500	24.000	2.8131e-02
12.750	17.000	4.7838e-02
12.750	17.250	5.8802e-02
12.750	17.500	6.6797e-02
12.750	17.750	7.5629e-02
12.750	18.000	8.7430e-02
12.750	18.250	1.0255e-01
12.750	18.500	1.1759e-01
12.750	18.750	1.3072e-01
12.750	19.000	1.4045e-01
12.750	19.250	1.4733e-01
12.750	19.500	1.5160e-01
12.750	19.750	1.5472e-01
12.750	20.000	1.5706e-01
12.750	20.250	1.5953e-01
12.750	20.500	1.6230e-01
12.750	20.750	1.6675e-01
12.750	21.000	1.7559e-01
12.750	21.250	1.8883e-01
12.750	21.500	1.9878e-01
12.750	21.750	2.0589e-01
12.750	22.000	1.6842e-01
12.750	22.250	1.2151e-01
12.750	22.500	9.0493e-02
12.750	22.750	6.5776e-02
12.750	23.000	4.7842e-02
12.750	23.250	3.8187e-02
12.750	23.500	3.3047e-02
12.750	23.750	3.0390e-02
12.750	24.000	2.8946e-02
13.000	17.000	3.2465e-02
13.000	17.250	4.1411e-02
13.000	17.500	5.8164e-02
13.000	17.750	7.3619e-02
13.000	18.000	8.8237e-02
13.000	18.250	1.0406e-01
13.000	18.500	1.2000e-01
13.000	18.750	1.3424e-01
13.000	19.000	1.4545e-01
13.000	19.250	1.5299e-01
13.000	19.500	1.5745e-01
13.000	19.750	1.6071e-01
13.000	20.000	1.6305e-01
13.000	20.250	1.6515e-01
13.000	20.500	1.6832e-01
13.000	20.750	1.7280e-01
13.000	21.000	1.8010e-01
13.000	21.250	1.9298e-01
13.000	21.500	2.0551e-01
13.000	21.750	2.2130e-01
13.000	22.000	2.2212e-01
13.000	22.250	1.7359e-01
13.000	22.500	1.2515e-01
13.000	22.750	9.1622e-02
13.000	23.000	6.5081e-02
13.000	23.250	4.7358e-02
13.000	23.500	3.7907e-02
13.000	23.750	3.2926e-02
13.000	24.000	3.0328e-02
13.250	17.000	3.1976e-02
13.250	17.250	3.8100e-02
13.250	17.500	4.9807e-02
13.250	17.750	6.7794e-02
13.250	18.000	8.6029e-02
13.250	18.250	1.0570e-01
13.250	18.500	1.2210e-01
13.250	18.750	1.3717e-01
13.250	19.000	1.4919e-01
13.250	19.250	1.5818e-01
13.250	19.500	1.6345e-01
13.250	19.750	1.6704e-01
13.250	20.000	1.6952e-01
13.250	20.250	1.7148e-01
13.250	20.500	1.7400e-01
13.250	20.750	1.7851e-01
13.250	21.000	1.8537e-01
13.250	21.250	1.9626e-01
13.250	21.500	2.0565e-01
13.250	21.750	2.2579e-01
13.250	22.000	2.4537e-01
13.250	22.250	2.3604e-01
13.250	22.500	1.7569e-01
13.250	22.750	1.2442e-01
13.250	23.000	8.9665e-02
13.250	23.250	6.4013e-02
13.250	23.500	4.6799e-02
13.250	23.750	3.7609e-02
13.250	24.000	3.2786e-02
13.500	17.000	3.1814e-02
13.500	17.250	3.7753e-02
13.500	17.500	4.8180e-02
13.500	17.750	6.3848e-02
13.500	18.000	8.5401e-02
13.500	18.250	1.0485e-01
13.500	18.500	1.2414e-01
13.500	18.750	1.3952e-01
13.500	19.000	1.5289e-01
13.500	19.250	1.6269e-01
13.500	19.500	1.6907e-01
13.500	19.750	1.7291e-01
13.500	20.000	1.7574e-01
13.500	20.250	1.7843e-01
13.500	20.500	1.8072e-01
13.500	20.750	1.8406e-01
13.500	21.000	1.8927e-01
13.500	21.250	1.9893e-01
13.500	21.500	2.0637e-01
13.500	21.750	2.2615e-01
13.500	22.000	2.5378e-01
13.500	22.250	2.6935e-01
13.500	22.500	2.4265e-01
13.500	22.750	1.7420e-01
13.500	23.000	1.2104e-01
13.500	23.250	8.7477e-02
13.500	23.500	6.2687e-02
13.500	23.750	4.6109e-02
13.500	24.000	3.7240e-02
13.750	17.000	3.2165e-02
13.750	17.250	3.7764e-02
13.750	17.500	4.7452e-02
13.750	17.750	6.1048e-02
13.750	18.000	8.1924e-02
13.750	18.250	1.0507e-01
13.750	18.500	1.2349e-01
13.750	18.750	1.4191e-01
13.750	19.000	1.5588e-01
13.750	19.250	1.6738e-01
13.750	19.500	1.7530e-01
13.750	19.750	1.8000e-01
13.750	20.000	1.8299e-01
13.750	20.250	1.8563e-01
13.750	20.500	1.8841e-01
13.750	20.750	1.9144e-01
13.750	21.000	1.9557e-01
13.750	21.250	2.0220e-01
13.750	21.500	2.0918e-01
13.750	21.750	2.2632e-01
13.750	22.000	2.5215e-01
13.750	22.250	2.8178e-01
13.750	22.500	2.8912e-01
13.750	22.750	2.4556e-01
13.750	23.000	1.6900e-01
13.750	23.250	1.1715e-01
13.750	23.500	8.4373e-02
13.750	23.750	6.1027e-02
13.750	24.000	4.5257e-02
14.000	17.000	3.2849e-02
14.000	17.250	3.7786e-02
14.000	17.500	4.7142e-02
14.000	17.750	6.0289e-02
14.000	18.000	7.8260e-02
14.000	18.250	1.0152e-01
14.000	18.500	1.2415e-01
14.000	18.750	1.4276e-01
14.000	19.000	1.5846e-01
14.000	19.250	1.7112e-01
14.000	19.500	1.8135e-01
14.000	19.750	1.8808e-01
14.000	20.000	1.9197e-01
14.000	20.250	1.9440e-01
14.000	20.500	1.9711e-01
14.000	20.750	2.0030e-01
14.000	21.000	2.0443e-01
14.000	21.250	2.1065e-01
14.000	21.500	2.1557e-01
14.000	21.750	2.3146e-01
14.000	22.000	2.5679e-01
14.000	22.250	2.8736e-01
14.000	22.500	3.0856e-01
14.000	22.750	3.0173e-01
14.000	23.000	2.4147e-01
14.000	23.250	1.6373e-01
14.000	23.500	1.1330e-01
14.000	23.750	8.2037e-02
14.000	24.000	5.9002e-02
