InwC 760.023A  relative to Inci 1215.00A scaled to 1215A.
Hden   Phi(H)  Eq_Width (A)
 7.000	17.000	7.4509e-03
 7.000	17.250	1.6179e-02
 7.000	17.500	2.7748e-02
 7.000	17.750	3.4988e-02
 7.000	18.000	3.8125e-02
 7.000	18.250	4.0578e-02
 7.000	18.500	4.2372e-02
 7.000	18.750	4.2862e-02
 7.000	19.000	4.3069e-02
 7.000	19.250	4.3159e-02
 7.000	19.500	4.3176e-02
 7.000	19.750	4.3180e-02
 7.000	20.000	4.3181e-02
 7.000	20.250	4.3181e-02
 7.000	20.500	4.3181e-02
 7.000	20.750	4.3181e-02
 7.000	21.000	4.3182e-02
 7.000	21.250	4.3182e-02
 7.000	21.500	4.3182e-02
 7.000	21.750	4.3182e-02
 7.000	22.000	4.3183e-02
 7.000	22.250	4.3183e-02
 7.000	22.500	4.3183e-02
 7.000	22.750	4.3184e-02
 7.000	23.000	4.3184e-02
 7.000	23.250	4.3184e-02
 7.000	23.500	4.3184e-02
 7.000	23.750	4.3184e-02
 7.000	24.000	4.3184e-02
 7.250	17.000	3.6465e-03
 7.250	17.250	7.4928e-03
 7.250	17.500	1.6272e-02
 7.250	17.750	2.7854e-02
 7.250	18.000	3.5046e-02
 7.250	18.250	3.8140e-02
 7.250	18.500	4.0579e-02
 7.250	18.750	4.2373e-02
 7.250	19.000	4.2862e-02
 7.250	19.250	4.3069e-02
 7.250	19.500	4.3159e-02
 7.250	19.750	4.3176e-02
 7.250	20.000	4.3179e-02
 7.250	20.250	4.3181e-02
 7.250	20.500	4.3181e-02
 7.250	20.750	4.3181e-02
 7.250	21.000	4.3181e-02
 7.250	21.250	4.3181e-02
 7.250	21.500	4.3181e-02
 7.250	21.750	4.3182e-02
 7.250	22.000	4.3182e-02
 7.250	22.250	4.3182e-02
 7.250	22.500	4.3182e-02
 7.250	22.750	4.3182e-02
 7.250	23.000	4.3183e-02
 7.250	23.250	4.3183e-02
 7.250	23.500	4.3183e-02
 7.250	23.750	4.3183e-02
 7.250	24.000	4.3183e-02
 7.500	17.000	1.8784e-03
 7.500	17.250	3.6605e-03
 7.500	17.500	7.5250e-03
 7.500	17.750	1.6356e-02
 7.500	18.000	2.7963e-02
 7.500	18.250	3.5112e-02
 7.500	18.500	3.8165e-02
 7.500	18.750	4.0586e-02
 7.500	19.000	4.2374e-02
 7.500	19.250	4.2862e-02
 7.500	19.500	4.3069e-02
 7.500	19.750	4.3159e-02
 7.500	20.000	4.3176e-02
 7.500	20.250	4.3180e-02
 7.500	20.500	4.3181e-02
 7.500	20.750	4.3181e-02
 7.500	21.000	4.3181e-02
 7.500	21.250	4.3181e-02
 7.500	21.500	4.3181e-02
 7.500	21.750	4.3181e-02
 7.500	22.000	4.3181e-02
 7.500	22.250	4.3181e-02
 7.500	22.500	4.3181e-02
 7.500	22.750	4.3181e-02
 7.500	23.000	4.3182e-02
 7.500	23.250	4.3182e-02
 7.500	23.500	4.3184e-02
 7.500	23.750	4.3182e-02
 7.500	24.000	4.3182e-02
 7.750	17.000	9.8683e-04
 7.750	17.250	1.8844e-03
 7.750	17.500	3.6697e-03
 7.750	17.750	7.5511e-03
 7.750	18.000	1.6434e-02
 7.750	18.250	2.8078e-02
 7.750	18.500	3.5193e-02
 7.750	18.750	3.8194e-02
 7.750	19.000	4.0595e-02
 7.750	19.250	4.2376e-02
 7.750	19.500	4.2863e-02
 7.750	19.750	4.3069e-02
 7.750	20.000	4.3159e-02
 7.750	20.250	4.3176e-02
 7.750	20.500	4.3180e-02
 7.750	20.750	4.3180e-02
 7.750	21.000	4.3181e-02
 7.750	21.250	4.3181e-02
 7.750	21.500	4.3181e-02
 7.750	21.750	4.3181e-02
 7.750	22.000	4.3181e-02
 7.750	22.250	4.3181e-02
 7.750	22.500	4.3181e-02
 7.750	22.750	4.3181e-02
 7.750	23.000	4.3181e-02
 7.750	23.250	4.3181e-02
 7.750	23.500	4.3181e-02
 7.750	23.750	4.3182e-02
 7.750	24.000	4.3181e-02
 8.000	17.000	5.1844e-04
 8.000	17.250	9.8519e-04
 8.000	17.500	1.8805e-03
 8.000	17.750	3.6668e-03
 8.000	18.000	7.5552e-03
 8.000	18.250	1.6484e-02
 8.000	18.500	2.8203e-02
 8.000	18.750	3.5286e-02
 8.000	19.000	3.8230e-02
 8.000	19.250	4.0606e-02
 8.000	19.500	4.2379e-02
 8.000	19.750	4.2863e-02
 8.000	20.000	4.3069e-02
 8.000	20.250	4.3159e-02
 8.000	20.500	4.3176e-02
 8.000	20.750	4.3179e-02
 8.000	21.000	4.3180e-02
 8.000	21.250	4.3181e-02
 8.000	21.500	4.3181e-02
 8.000	21.750	4.3181e-02
 8.000	22.000	4.3181e-02
 8.000	22.250	4.3181e-02
 8.000	22.500	4.3181e-02
 8.000	22.750	4.3181e-02
 8.000	23.000	4.3181e-02
 8.000	23.250	4.3182e-02
 8.000	23.500	4.3181e-02
 8.000	23.750	4.3181e-02
 8.000	24.000	4.3181e-02
 8.250	17.000	2.7350e-04
 8.250	17.250	5.1860e-04
 8.250	17.500	9.8576e-04
 8.250	17.750	1.8816e-03
 8.250	18.000	3.6712e-03
 8.250	18.250	7.5685e-03
 8.250	18.500	1.6543e-02
 8.250	18.750	2.8340e-02
 8.250	19.000	3.5390e-02
 8.250	19.250	3.8272e-02
 8.250	19.500	4.0616e-02
 8.250	19.750	4.2382e-02
 8.250	20.000	4.2865e-02
 8.250	20.250	4.3069e-02
 8.250	20.500	4.3159e-02
 8.250	20.750	4.3176e-02
 8.250	21.000	4.3179e-02
 8.250	21.250	4.3181e-02
 8.250	21.500	4.3181e-02
 8.250	21.750	4.3181e-02
 8.250	22.000	4.3181e-02
 8.250	22.250	4.3181e-02
 8.250	22.500	4.3181e-02
 8.250	22.750	4.3181e-02
 8.250	23.000	4.3181e-02
 8.250	23.250	4.3181e-02
 8.250	23.500	4.3181e-02
 8.250	23.750	4.3181e-02
 8.250	24.000	4.3181e-02
 8.500	17.000	1.4477e-04
 8.500	17.250	2.7325e-04
 8.500	17.500	5.1835e-04
 8.500	17.750	9.8593e-04
 8.500	18.000	1.8847e-03
 8.500	18.250	3.6747e-03
 8.500	18.500	7.5792e-03
 8.500	18.750	1.6598e-02
 8.500	19.000	2.8487e-02
 8.500	19.250	3.5508e-02
 8.500	19.500	3.8322e-02
 8.500	19.750	4.0638e-02
 8.500	20.000	4.2387e-02
 8.500	20.250	4.2866e-02
 8.500	20.500	4.3070e-02
 8.500	20.750	4.3159e-02
 8.500	21.000	4.3176e-02
 8.500	21.250	4.3179e-02
 8.500	21.500	4.3181e-02
 8.500	21.750	4.3181e-02
 8.500	22.000	4.3181e-02
 8.500	22.250	4.3181e-02
 8.500	22.500	4.3181e-02
 8.500	22.750	4.3181e-02
 8.500	23.000	4.3181e-02
 8.500	23.250	4.3181e-02
 8.500	23.500	4.3181e-02
 8.500	23.750	4.3181e-02
 8.500	24.000	4.3181e-02
 8.750	17.000	7.7366e-05
 8.750	17.250	1.4453e-04
 8.750	17.500	2.7309e-04
 8.750	17.750	5.1885e-04
 8.750	18.000	9.8831e-04
 8.750	18.250	1.8896e-03
 8.750	18.500	3.6844e-03
 8.750	18.750	7.6028e-03
 8.750	19.000	1.6660e-02
 8.750	19.250	2.8641e-02
 8.750	19.500	3.5637e-02
 8.750	19.750	3.8376e-02
 8.750	20.000	4.0659e-02
 8.750	20.250	4.2393e-02
 8.750	20.500	4.2868e-02
 8.750	20.750	4.3070e-02
 8.750	21.000	4.3159e-02
 8.750	21.250	4.3176e-02
 8.750	21.500	4.3179e-02
 8.750	21.750	4.3180e-02
 8.750	22.000	4.3181e-02
 8.750	22.250	4.3181e-02
 8.750	22.500	4.3181e-02
 8.750	22.750	4.3181e-02
 8.750	23.000	4.3181e-02
 8.750	23.250	4.3181e-02
 8.750	23.500	4.3181e-02
 8.750	23.750	4.3181e-02
 8.750	24.000	4.3181e-02
 9.000	17.000	4.1564e-05
 9.000	17.250	7.7366e-05
 9.000	17.500	1.4469e-04
 9.000	17.750	2.7399e-04
 9.000	18.000	5.2140e-04
 9.000	18.250	9.9350e-04
 9.000	18.500	1.8993e-03
 9.000	18.750	3.7050e-03
 9.000	19.000	7.6507e-03
 9.000	19.250	1.6735e-02
 9.000	19.500	2.8794e-02
 9.000	19.750	3.5776e-02
 9.000	20.000	3.8432e-02
 9.000	20.250	4.0681e-02
 9.000	20.500	4.2399e-02
 9.000	20.750	4.2870e-02
 9.000	21.000	4.3071e-02
 9.000	21.250	4.3160e-02
 9.000	21.500	4.3176e-02
 9.000	21.750	4.3179e-02
 9.000	22.000	4.3180e-02
 9.000	22.250	4.3181e-02
 9.000	22.500	4.3181e-02
 9.000	22.750	4.3181e-02
 9.000	23.000	4.3181e-02
 9.000	23.250	4.3181e-02
 9.000	23.500	4.3181e-02
 9.000	23.750	4.3181e-02
 9.000	24.000	4.3181e-02
 9.250	17.000	2.2222e-05
 9.250	17.250	4.1646e-05
 9.250	17.500	7.7778e-05
 9.250	17.750	1.4601e-04
 9.250	18.000	2.7663e-04
 9.250	18.250	5.2609e-04
 9.250	18.500	1.0023e-03
 9.250	18.750	1.9204e-03
 9.250	19.000	3.7548e-03
 9.250	19.250	7.7616e-03
 9.250	19.500	1.6855e-02
 9.250	19.750	2.8943e-02
 9.250	20.000	3.5908e-02
 9.250	20.250	3.8491e-02
 9.250	20.500	4.0701e-02
 9.250	20.750	4.2406e-02
 9.250	21.000	4.2873e-02
 9.250	21.250	4.3072e-02
 9.250	21.500	4.3151e-02
 9.250	21.750	4.3163e-02
 9.250	22.000	4.3166e-02
 9.250	22.250	4.3168e-02
 9.250	22.500	4.3180e-02
 9.250	22.750	4.3180e-02
 9.250	23.000	4.3181e-02
 9.250	23.250	4.3181e-02
 9.250	23.500	4.3181e-02
 9.250	23.750	4.3181e-02
 9.250	24.000	4.3181e-02
 9.500	17.000	1.1687e-05
 9.500	17.250	2.2469e-05
 9.500	17.500	4.2305e-05
 9.500	17.750	7.9259e-05
 9.500	18.000	1.4856e-04
 9.500	18.250	2.8099e-04
 9.500	18.500	5.3440e-04
 9.500	18.750	1.0222e-03
 9.500	19.000	1.9679e-03
 9.500	19.250	3.8759e-03
 9.500	19.500	8.0258e-03
 9.500	19.750	1.7106e-02
 9.500	20.000	2.9085e-02
 9.500	20.250	3.6031e-02
 9.500	20.500	3.8550e-02
 9.500	20.750	4.0721e-02
 9.500	21.000	4.2396e-02
 9.500	21.250	4.2859e-02
 9.500	21.500	4.3059e-02
 9.500	21.750	4.3143e-02
 9.500	22.000	4.3153e-02
 9.500	22.250	4.3157e-02
 9.500	22.500	4.3158e-02
 9.500	22.750	4.3157e-02
 9.500	23.000	4.3158e-02
 9.500	23.250	4.3158e-02
 9.500	23.500	4.3164e-02
 9.500	23.750	4.3164e-02
 9.500	24.000	4.3164e-02
 9.750	17.000	6.0082e-06
 9.750	17.250	1.1852e-05
 9.750	17.500	2.3045e-05
 9.750	17.750	4.3621e-05
 9.750	18.000	8.1481e-05
 9.750	18.250	1.5243e-04
 9.750	18.500	2.8881e-04
 9.750	18.750	5.5259e-04
 9.750	19.000	1.0686e-03
 9.750	19.250	2.0859e-03
 9.750	19.500	4.1528e-03
 9.750	19.750	8.5361e-03
 9.750	20.000	1.7572e-02
 9.750	20.250	2.9241e-02
 9.750	20.500	3.6142e-02
 9.750	20.750	3.8607e-02
 9.750	21.000	4.0754e-02
 9.750	21.250	4.2416e-02
 9.750	21.500	4.2865e-02
 9.750	21.750	4.3060e-02
 9.750	22.000	4.3145e-02
 9.750	22.250	4.3156e-02
 9.750	22.500	4.3156e-02
 9.750	22.750	4.3158e-02
 9.750	23.000	4.3159e-02
 9.750	23.250	4.3158e-02
 9.750	23.500	4.3158e-02
 9.750	23.750	4.3158e-02
 9.750	24.000	4.3158e-02
10.000	17.000	2.7160e-06
10.000	17.250	6.0905e-06
10.000	17.500	1.2346e-05
10.000	17.750	2.4033e-05
10.000	18.000	4.5432e-05
10.000	18.250	8.4774e-05
10.000	18.500	1.5934e-04
10.000	18.750	3.0519e-04
10.000	19.000	5.9457e-04
10.000	19.250	1.1717e-03
10.000	19.500	2.3181e-03
10.000	19.750	4.5987e-03
10.000	20.000	9.3125e-03
10.000	20.250	1.8433e-02
10.000	20.500	2.9511e-02
10.000	20.750	3.6258e-02
10.000	21.000	3.8669e-02
10.000	21.250	4.0786e-02
10.000	21.500	4.2431e-02
10.000	21.750	4.2878e-02
10.000	22.000	4.3063e-02
10.000	22.250	4.3147e-02
10.000	22.500	4.3159e-02
10.000	22.750	4.3158e-02
10.000	23.000	4.3157e-02
10.000	23.250	4.3158e-02
10.000	23.500	4.3158e-02
10.000	23.750	4.3159e-02
10.000	24.000	4.3159e-02
10.250	17.000	1.3992e-06
10.250	17.250	2.7984e-06
10.250	17.500	6.4198e-06
10.250	17.750	1.3004e-05
10.250	18.000	2.5350e-05
10.250	18.250	4.8230e-05
10.250	18.500	9.1111e-05
10.250	18.750	1.7498e-04
10.250	19.000	3.4313e-04
10.250	19.250	6.8247e-04
10.250	19.500	1.3632e-03
10.250	19.750	2.7081e-03
10.250	20.000	5.3212e-03
10.250	20.250	1.0343e-02
10.250	20.500	1.9439e-02
10.250	20.750	2.9890e-02
10.250	21.000	3.6386e-02
10.250	21.250	3.8743e-02
10.250	21.500	4.0821e-02
10.250	21.750	4.2444e-02
10.250	22.000	4.2886e-02
10.250	22.250	4.3070e-02
10.250	22.500	4.3148e-02
10.250	22.750	4.3161e-02
10.250	23.000	4.3162e-02
10.250	23.250	4.3160e-02
10.250	23.500	4.3158e-02
10.250	23.750	4.3157e-02
10.250	24.000	4.3158e-02
10.500	17.000	1.0000e-07
10.500	17.250	1.3992e-06
10.500	17.500	3.0453e-06
10.500	17.750	6.9136e-06
10.500	18.000	1.4074e-05
10.500	18.250	2.7819e-05
10.500	18.500	5.4321e-05
10.500	18.750	1.0584e-04
10.500	19.000	2.0848e-04
10.500	19.250	4.1580e-04
10.500	19.500	8.3251e-04
10.500	19.750	1.6568e-03
10.500	20.000	3.2685e-03
10.500	20.250	6.1360e-03
10.500	20.500	1.1440e-02
10.500	20.750	2.0605e-02
10.500	21.000	3.0490e-02
10.500	21.250	3.6563e-02
10.500	21.500	3.8818e-02
10.500	21.750	4.0862e-02
10.500	22.000	4.2459e-02
10.500	22.250	4.2893e-02
10.500	22.500	4.3077e-02
10.500	22.750	4.3148e-02
10.500	23.000	4.3163e-02
10.500	23.250	4.3164e-02
10.500	23.500	4.3163e-02
10.500	23.750	4.3161e-02
10.500	24.000	4.3160e-02
10.750	17.000	1.0000e-07
10.750	17.250	1.0000e-07
10.750	17.500	1.5638e-06
10.750	17.750	3.4568e-06
10.750	18.000	7.7366e-06
10.750	18.250	1.6461e-05
10.750	18.500	3.3663e-05
10.750	18.750	6.7737e-05
10.750	19.000	1.3440e-04
10.750	19.250	2.6601e-04
10.750	19.500	5.2774e-04
10.750	19.750	1.0458e-03
10.750	20.000	2.0523e-03
10.750	20.250	3.9359e-03
10.750	20.500	7.1835e-03
10.750	20.750	1.2834e-02
10.750	21.000	2.1911e-02
10.750	21.250	3.1243e-02
10.750	21.500	3.6792e-02
10.750	21.750	3.8923e-02
10.750	22.000	4.0910e-02
10.750	22.250	4.2476e-02
10.750	22.500	4.2901e-02
10.750	22.750	4.3082e-02
10.750	23.000	4.3151e-02
10.750	23.250	4.3164e-02
10.750	23.500	4.3166e-02
10.750	23.750	4.3165e-02
10.750	24.000	4.3164e-02
11.000	17.000	1.0000e-07
11.000	17.250	1.0000e-07
11.000	17.500	1.0000e-07
11.000	17.750	1.7284e-06
11.000	18.000	4.1152e-06
11.000	18.250	9.6296e-06
11.000	18.500	2.1481e-05
11.000	18.750	4.5021e-05
11.000	19.000	9.0123e-05
11.000	19.250	1.7671e-04
11.000	19.500	3.4420e-04
11.000	19.750	6.7259e-04
11.000	20.000	1.3114e-03
11.000	20.250	2.5287e-03
11.000	20.500	4.6728e-03
11.000	20.750	8.3564e-03
11.000	21.000	1.4184e-02
11.000	21.250	2.3264e-02
11.000	21.500	3.2049e-02
11.000	21.750	3.7092e-02
11.000	22.000	3.9068e-02
11.000	22.250	4.0983e-02
11.000	22.500	4.2499e-02
11.000	22.750	4.2911e-02
11.000	23.000	4.3087e-02
11.000	23.250	4.3159e-02
11.000	23.500	4.3164e-02
11.000	23.750	4.3167e-02
11.000	24.000	4.3167e-02
11.250	17.000	1.0000e-07
11.250	17.250	1.0000e-07
11.250	17.500	1.0000e-07
11.250	17.750	9.0535e-07
11.250	18.000	2.2222e-06
11.250	18.250	5.5967e-06
11.250	18.500	1.3416e-05
11.250	18.750	2.9547e-05
11.250	19.000	6.0494e-05
11.250	19.250	1.1844e-04
11.250	19.500	2.2741e-04
11.250	19.750	4.3613e-04
11.250	20.000	8.3934e-04
11.250	20.250	1.6133e-03
11.250	20.500	3.0716e-03
11.250	20.750	5.6087e-03
11.250	21.000	9.6202e-03
11.250	21.250	1.5762e-02
11.250	21.500	2.4846e-02
11.250	21.750	3.2786e-02
11.250	22.000	3.7427e-02
11.250	22.250	3.9278e-02
11.250	22.500	4.1085e-02
11.250	22.750	4.2529e-02
11.250	23.000	4.2925e-02
11.250	23.250	4.3093e-02
11.250	23.500	4.3163e-02
11.250	23.750	4.3167e-02
11.250	24.000	4.3167e-02
11.500	17.000	1.0000e-07
11.500	17.250	1.0000e-07
11.500	17.500	1.0000e-07
11.500	17.750	1.0000e-07
11.500	18.000	1.2346e-06
11.500	18.250	3.1276e-06
11.500	18.500	7.9835e-06
11.500	18.750	1.8354e-05
11.500	19.000	3.9012e-05
11.500	19.250	7.7284e-05
11.500	19.500	1.4798e-04
11.500	19.750	2.8123e-04
11.500	20.000	5.3432e-04
11.500	20.250	1.0151e-03
11.500	20.500	1.9263e-03
11.500	20.750	3.6307e-03
11.500	21.000	6.4914e-03
11.500	21.250	1.0914e-02
11.500	21.500	1.7424e-02
11.500	21.750	2.6457e-02
11.500	22.000	3.3582e-02
11.500	22.250	3.7759e-02
11.500	22.500	3.9514e-02
11.500	22.750	4.1220e-02
11.500	23.000	4.2572e-02
11.500	23.250	4.2945e-02
11.500	23.500	4.3101e-02
11.500	23.750	4.3166e-02
11.500	24.000	4.3173e-02
11.750	17.000	1.0000e-07
11.750	17.250	1.0000e-07
11.750	17.500	1.0000e-07
11.750	17.750	1.0000e-07
11.750	18.000	1.0000e-07
11.750	18.250	1.7284e-06
11.750	18.500	4.4444e-06
11.750	18.750	1.0617e-05
11.750	19.000	2.3374e-05
11.750	19.250	4.7984e-05
11.750	19.500	9.3004e-05
11.750	19.750	1.7613e-04
11.750	20.000	3.3284e-04
11.750	20.250	6.3029e-04
11.750	20.500	1.1895e-03
11.750	20.750	2.2369e-03
11.750	21.000	4.2090e-03
11.750	21.250	7.4448e-03
11.750	21.500	1.2296e-02
11.750	21.750	1.9239e-02
11.750	22.000	2.7804e-02
11.750	22.250	3.4213e-02
11.750	22.500	3.8077e-02
11.750	22.750	3.9738e-02
11.750	23.000	4.1372e-02
11.750	23.250	4.2628e-02
11.750	23.500	4.2971e-02
11.750	23.750	4.3111e-02
11.750	24.000	4.3168e-02
12.000	17.000	1.0000e-07
12.000	17.250	1.0000e-07
12.000	17.500	1.0000e-07
12.000	17.750	1.0000e-07
12.000	18.000	1.0000e-07
12.000	18.250	9.0535e-07
12.000	18.500	2.3045e-06
12.000	18.750	5.6790e-06
12.000	19.000	1.3004e-05
12.000	19.250	2.7819e-05
12.000	19.500	5.5802e-05
12.000	19.750	1.0658e-04
12.000	20.000	2.0099e-04
12.000	20.250	3.8033e-04
12.000	20.500	7.1967e-04
12.000	20.750	1.3544e-03
12.000	21.000	2.5442e-03
12.000	21.250	4.7667e-03
12.000	21.500	8.3749e-03
12.000	21.750	1.3685e-02
12.000	22.000	2.0924e-02
12.000	22.250	2.8827e-02
12.000	22.500	3.4695e-02
12.000	22.750	3.8319e-02
12.000	23.000	3.9948e-02
12.000	23.250	4.1520e-02
12.000	23.500	4.2696e-02
12.000	23.750	4.3001e-02
12.000	24.000	4.3122e-02
12.250	17.000	1.0000e-07
12.250	17.250	1.0000e-07
12.250	17.500	1.0000e-07
12.250	17.750	1.0000e-07
12.250	18.000	1.0000e-07
12.250	18.250	1.0000e-07
12.250	18.500	1.1523e-06
12.250	18.750	2.8807e-06
12.250	19.000	6.6667e-06
12.250	19.250	1.4897e-05
12.250	19.500	3.1358e-05
12.250	19.750	6.2140e-05
12.250	20.000	1.1794e-04
12.250	20.250	2.2305e-04
12.250	20.500	4.2329e-04
12.250	20.750	8.0239e-04
12.250	21.000	1.5167e-03
12.250	21.250	2.8551e-03
12.250	21.500	5.3042e-03
12.250	21.750	9.3265e-03
12.250	22.000	1.5008e-02
12.250	22.250	2.2410e-02
12.250	22.500	2.9648e-02
12.250	22.750	3.5127e-02
12.250	23.000	3.8486e-02
12.250	23.250	4.0119e-02
12.250	23.500	4.1659e-02
12.250	23.750	4.2767e-02
12.250	24.000	4.3029e-02
12.500	17.000	1.0000e-07
12.500	17.250	1.0000e-07
12.500	17.500	1.0000e-07
12.500	17.750	1.0000e-07
12.500	18.000	1.0000e-07
12.500	18.250	1.0000e-07
12.500	18.500	1.0000e-07
12.500	18.750	1.3992e-06
12.500	19.000	3.2099e-06
12.500	19.250	7.4074e-06
12.500	19.500	1.6214e-05
12.500	19.750	3.3992e-05
12.500	20.000	6.7160e-05
12.500	20.250	1.2782e-04
12.500	20.500	2.4305e-04
12.500	20.750	4.6469e-04
12.500	21.000	8.8922e-04
12.500	21.250	1.6906e-03
12.500	21.500	3.1508e-03
12.500	21.750	5.8516e-03
12.500	22.000	1.0225e-02
12.500	22.250	1.6177e-02
12.500	22.500	2.3550e-02
12.500	22.750	3.0267e-02
12.500	23.000	3.5441e-02
12.500	23.250	3.8601e-02
12.500	23.500	4.0243e-02
12.500	23.750	4.1772e-02
12.500	24.000	4.2831e-02
12.750	17.000	1.0000e-07
12.750	17.250	1.0000e-07
12.750	17.500	1.0000e-07
12.750	17.750	1.0000e-07
12.750	18.000	1.0000e-07
12.750	18.250	1.0000e-07
12.750	18.500	1.0000e-07
12.750	18.750	1.0000e-07
12.750	19.000	1.5638e-06
12.750	19.250	3.4568e-06
12.750	19.500	7.8189e-06
12.750	19.750	1.7119e-05
12.750	20.000	3.5720e-05
12.750	20.250	7.1111e-05
12.750	20.500	1.3687e-04
12.750	20.750	2.6222e-04
12.750	21.000	5.0765e-04
12.750	21.250	9.7885e-04
12.750	21.500	1.8393e-03
12.750	21.750	3.4486e-03
12.750	22.000	6.3992e-03
12.750	22.250	1.1069e-02
12.750	22.500	1.7153e-02
12.750	22.750	2.4322e-02
12.750	23.000	3.0750e-02
12.750	23.250	3.5615e-02
12.750	23.500	3.8667e-02
12.750	23.750	4.0333e-02
12.750	24.000	4.1864e-02
13.000	17.000	1.0000e-07
13.000	17.250	1.0000e-07
13.000	17.500	1.0000e-07
13.000	17.750	1.0000e-07
13.000	18.000	1.0000e-07
13.000	18.250	1.0000e-07
13.000	18.500	1.0000e-07
13.000	18.750	1.0000e-07
13.000	19.000	1.0000e-07
13.000	19.250	1.6461e-06
13.000	19.500	3.5391e-06
13.000	19.750	7.9012e-06
13.000	20.000	1.7449e-05
13.000	20.250	3.6872e-05
13.000	20.500	7.4486e-05
13.000	20.750	1.4601e-04
13.000	21.000	2.8395e-04
13.000	21.250	5.5786e-04
13.000	21.500	1.0700e-03
13.000	21.750	1.9954e-03
13.000	22.000	3.7121e-03
13.000	22.250	6.9406e-03
13.000	22.500	1.1827e-02
13.000	22.750	1.7935e-02
13.000	23.000	2.4900e-02
13.000	23.250	3.1065e-02
13.000	23.500	3.5750e-02
13.000	23.750	3.8670e-02
13.000	24.000	4.0396e-02
13.250	17.000	1.0000e-07
13.250	17.250	1.0000e-07
13.250	17.500	1.0000e-07
13.250	17.750	1.0000e-07
13.250	18.000	1.0000e-07
13.250	18.250	1.0000e-07
13.250	18.500	1.0000e-07
13.250	18.750	1.0000e-07
13.250	19.000	1.0000e-07
13.250	19.250	1.0000e-07
13.250	19.500	1.6461e-06
13.250	19.750	3.5391e-06
13.250	20.000	7.9012e-06
13.250	20.250	1.7449e-05
13.250	20.500	3.7284e-05
13.250	20.750	7.7202e-05
13.250	21.000	1.5366e-04
13.250	21.250	3.0428e-04
13.250	21.500	5.8181e-04
13.250	21.750	1.1184e-03
13.250	22.000	2.1256e-03
13.250	22.250	3.9701e-03
13.250	22.500	7.3684e-03
13.250	22.750	1.2374e-02
13.250	23.000	1.8558e-02
13.250	23.250	2.5364e-02
13.250	23.500	3.1322e-02
13.250	23.750	3.5775e-02
13.250	24.000	3.8644e-02
13.500	17.000	1.0000e-07
13.500	17.250	1.0000e-07
13.500	17.500	1.0000e-07
13.500	17.750	1.0000e-07
13.500	18.000	1.0000e-07
13.500	18.250	1.0000e-07
13.500	18.500	1.0000e-07
13.500	18.750	1.0000e-07
13.500	19.000	1.0000e-07
13.500	19.250	1.0000e-07
13.500	19.500	1.0000e-07
13.500	19.750	1.6461e-06
13.500	20.000	3.5391e-06
13.500	20.250	7.8189e-06
13.500	20.500	1.7366e-05
13.500	20.750	3.7613e-05
13.500	21.000	7.7119e-05
13.500	21.250	1.5671e-04
13.500	21.500	3.0568e-04
13.500	21.750	6.0420e-04
13.500	22.000	1.1858e-03
13.500	22.250	2.2436e-03
13.500	22.500	4.2023e-03
13.500	22.750	7.7832e-03
13.500	23.000	1.2875e-02
13.500	23.250	1.9194e-02
13.500	23.500	2.5806e-02
13.500	23.750	3.1501e-02
13.500	24.000	3.5793e-02
13.750	17.000	1.0000e-07
13.750	17.250	1.0000e-07
13.750	17.500	1.0000e-07
13.750	17.750	1.0000e-07
13.750	18.000	1.0000e-07
13.750	18.250	1.0000e-07
13.750	18.500	1.0000e-07
13.750	18.750	1.0000e-07
13.750	19.000	1.0000e-07
13.750	19.250	1.0000e-07
13.750	19.500	1.0000e-07
13.750	19.750	8.2305e-07
13.750	20.000	1.7284e-06
13.750	20.250	3.6214e-06
13.750	20.500	7.9835e-06
13.750	20.750	1.7695e-05
13.750	21.000	3.7942e-05
13.750	21.250	7.7531e-05
13.750	21.500	1.5523e-04
13.750	21.750	3.0848e-04
13.750	22.000	6.1095e-04
13.750	22.250	1.2103e-03
13.750	22.500	2.3596e-03
13.750	22.750	4.4986e-03
13.750	23.000	8.1520e-03
13.750	23.250	1.3483e-02
13.750	23.500	1.9874e-02
13.750	23.750	2.6294e-02
13.750	24.000	3.1737e-02
14.000	17.000	1.0000e-07
14.000	17.250	1.0000e-07
14.000	17.500	1.0000e-07
14.000	17.750	1.0000e-07
14.000	18.000	1.0000e-07
14.000	18.250	1.0000e-07
14.000	18.500	1.0000e-07
14.000	18.750	1.0000e-07
14.000	19.000	1.0000e-07
14.000	19.250	1.0000e-07
14.000	19.500	1.0000e-07
14.000	19.750	1.0000e-07
14.000	20.000	9.0535e-07
14.000	20.250	1.8107e-06
14.000	20.500	3.7860e-06
14.000	20.750	8.3128e-06
14.000	21.000	1.8272e-05
14.000	21.250	3.9177e-05
14.000	21.500	7.9424e-05
14.000	21.750	1.5761e-04
14.000	22.000	3.1152e-04
14.000	22.250	6.2683e-04
14.000	22.500	1.2644e-03
14.000	22.750	2.5222e-03
14.000	23.000	4.8142e-03
14.000	23.250	8.7212e-03
14.000	23.500	1.4286e-02
14.000	23.750	2.0714e-02
14.000	24.000	2.6851e-02
