InwC 1.05000m  relative to Inci 1215.00A scaled to 1215A.
Hden   Phi(H)  Eq_Width (A)
 7.000	17.000	6.3498e-03
 7.000	17.250	6.6388e-03
 7.000	17.500	6.8074e-03
 7.000	17.750	6.8105e-03
 7.000	18.000	6.8136e-03
 7.000	18.250	6.8174e-03
 7.000	18.500	6.8193e-03
 7.000	18.750	6.8202e-03
 7.000	19.000	6.8209e-03
 7.000	19.250	6.8216e-03
 7.000	19.500	6.8217e-03
 7.000	19.750	6.8219e-03
 7.000	20.000	6.8219e-03
 7.000	20.250	6.8219e-03
 7.000	20.500	6.8220e-03
 7.000	20.750	6.8220e-03
 7.000	21.000	6.8220e-03
 7.000	21.250	6.8221e-03
 7.000	21.500	6.8221e-03
 7.000	21.750	6.8221e-03
 7.000	22.000	6.8222e-03
 7.000	22.250	6.8222e-03
 7.000	22.500	6.8223e-03
 7.000	22.750	6.8224e-03
 7.000	23.000	6.8224e-03
 7.000	23.250	6.8224e-03
 7.000	23.500	6.8223e-03
 7.000	23.750	6.8224e-03
 7.000	24.000	6.8224e-03
 7.250	17.000	4.7248e-03
 7.250	17.250	6.3727e-03
 7.250	17.500	6.6402e-03
 7.250	17.750	6.8075e-03
 7.250	18.000	6.8105e-03
 7.250	18.250	6.8136e-03
 7.250	18.500	6.8173e-03
 7.250	18.750	6.8193e-03
 7.250	19.000	6.8202e-03
 7.250	19.250	6.8209e-03
 7.250	19.500	6.8216e-03
 7.250	19.750	6.8217e-03
 7.250	20.000	6.8218e-03
 7.250	20.250	6.8219e-03
 7.250	20.500	6.8219e-03
 7.250	20.750	6.8219e-03
 7.250	21.000	6.8220e-03
 7.250	21.250	6.8220e-03
 7.250	21.500	6.8220e-03
 7.250	21.750	6.8220e-03
 7.250	22.000	6.8220e-03
 7.250	22.250	6.8220e-03
 7.250	22.500	6.8221e-03
 7.250	22.750	6.8221e-03
 7.250	23.000	6.8221e-03
 7.250	23.250	6.8221e-03
 7.250	23.500	6.8221e-03
 7.250	23.750	6.8221e-03
 7.250	24.000	6.8222e-03
 7.500	17.000	3.4779e-03
 7.500	17.250	4.7849e-03
 7.500	17.500	6.3898e-03
 7.500	17.750	6.6414e-03
 7.500	18.000	6.8075e-03
 7.500	18.250	6.8105e-03
 7.500	18.500	6.8137e-03
 7.500	18.750	6.8174e-03
 7.500	19.000	6.8193e-03
 7.500	19.250	6.8202e-03
 7.500	19.500	6.8209e-03
 7.500	19.750	6.8216e-03
 7.500	20.000	6.8217e-03
 7.500	20.250	6.8219e-03
 7.500	20.500	6.8219e-03
 7.500	20.750	6.8219e-03
 7.500	21.000	6.8219e-03
 7.500	21.250	6.8219e-03
 7.500	21.500	6.8220e-03
 7.500	21.750	6.8220e-03
 7.500	22.000	6.8220e-03
 7.500	22.250	6.8220e-03
 7.500	22.500	6.8220e-03
 7.500	22.750	6.8220e-03
 7.500	23.000	6.8220e-03
 7.500	23.250	6.8220e-03
 7.500	23.500	6.8224e-03
 7.500	23.750	6.8220e-03
 7.500	24.000	6.8221e-03
 7.750	17.000	2.4438e-03
 7.750	17.250	3.5502e-03
 7.750	17.500	4.8340e-03
 7.750	17.750	6.4026e-03
 7.750	18.000	6.6425e-03
 7.750	18.250	6.8075e-03
 7.750	18.500	6.8105e-03
 7.750	18.750	6.8137e-03
 7.750	19.000	6.8174e-03
 7.750	19.250	6.8193e-03
 7.750	19.500	6.8202e-03
 7.750	19.750	6.8209e-03
 7.750	20.000	6.8216e-03
 7.750	20.250	6.8217e-03
 7.750	20.500	6.8219e-03
 7.750	20.750	6.8219e-03
 7.750	21.000	6.8219e-03
 7.750	21.250	6.8219e-03
 7.750	21.500	6.8219e-03
 7.750	21.750	6.8220e-03
 7.750	22.000	6.8219e-03
 7.750	22.250	6.8220e-03
 7.750	22.500	6.8219e-03
 7.750	22.750	6.8220e-03
 7.750	23.000	6.8220e-03
 7.750	23.250	6.8220e-03
 7.750	23.500	6.8220e-03
 7.750	23.750	6.8220e-03
 7.750	24.000	6.8220e-03
 8.000	17.000	1.6679e-03
 8.000	17.250	2.4891e-03
 8.000	17.500	3.6089e-03
 8.000	17.750	4.8565e-03
 8.000	18.000	6.3860e-03
 8.000	18.250	6.6421e-03
 8.000	18.500	6.8075e-03
 8.000	18.750	6.8105e-03
 8.000	19.000	6.8137e-03
 8.000	19.250	6.8174e-03
 8.000	19.500	6.8193e-03
 8.000	19.750	6.8202e-03
 8.000	20.000	6.8209e-03
 8.000	20.250	6.8216e-03
 8.000	20.500	6.8217e-03
 8.000	20.750	6.8218e-03
 8.000	21.000	6.8219e-03
 8.000	21.250	6.8219e-03
 8.000	21.500	6.8219e-03
 8.000	21.750	6.8219e-03
 8.000	22.000	6.8219e-03
 8.000	22.250	6.8220e-03
 8.000	22.500	6.8219e-03
 8.000	22.750	6.8220e-03
 8.000	23.000	6.8219e-03
 8.000	23.250	6.8221e-03
 8.000	23.500	6.8219e-03
 8.000	23.750	6.8220e-03
 8.000	24.000	6.8220e-03
 8.250	17.000	1.1536e-03
 8.250	17.250	1.7086e-03
 8.250	17.500	2.5584e-03
 8.250	17.750	3.6943e-03
 8.250	18.000	4.9324e-03
 8.250	18.250	6.4002e-03
 8.250	18.500	6.6430e-03
 8.250	18.750	6.8075e-03
 8.250	19.000	6.8105e-03
 8.250	19.250	6.8137e-03
 8.250	19.500	6.8173e-03
 8.250	19.750	6.8193e-03
 8.250	20.000	6.8202e-03
 8.250	20.250	6.8209e-03
 8.250	20.500	6.8216e-03
 8.250	20.750	6.8217e-03
 8.250	21.000	6.8218e-03
 8.250	21.250	6.8219e-03
 8.250	21.500	6.8219e-03
 8.250	21.750	6.8219e-03
 8.250	22.000	6.8219e-03
 8.250	22.250	6.8219e-03
 8.250	22.500	6.8219e-03
 8.250	22.750	6.8219e-03
 8.250	23.000	6.8219e-03
 8.250	23.250	6.8220e-03
 8.250	23.500	6.8220e-03
 8.250	23.750	6.8220e-03
 8.250	24.000	6.8219e-03
 8.500	17.000	8.0963e-04
 8.500	17.250	1.1835e-03
 8.500	17.500	1.7627e-03
 8.500	17.750	2.6567e-03
 8.500	18.000	3.8385e-03
 8.500	18.250	5.0433e-03
 8.500	18.500	6.4263e-03
 8.500	18.750	6.6440e-03
 8.500	19.000	6.8075e-03
 8.500	19.250	6.8105e-03
 8.500	19.500	6.8137e-03
 8.500	19.750	6.8174e-03
 8.500	20.000	6.8193e-03
 8.500	20.250	6.8202e-03
 8.500	20.500	6.8209e-03
 8.500	20.750	6.8216e-03
 8.500	21.000	6.8217e-03
 8.500	21.250	6.8218e-03
 8.500	21.500	6.8219e-03
 8.500	21.750	6.8219e-03
 8.500	22.000	6.8219e-03
 8.500	22.250	6.8219e-03
 8.500	22.500	6.8219e-03
 8.500	22.750	6.8219e-03
 8.500	23.000	6.8219e-03
 8.500	23.250	6.8220e-03
 8.500	23.500	6.8219e-03
 8.500	23.750	6.8219e-03
 8.500	24.000	6.8219e-03
 8.750	17.000	5.7226e-04
 8.750	17.250	8.3119e-04
 8.750	17.500	1.2257e-03
 8.750	17.750	1.8530e-03
 8.750	18.000	2.8217e-03
 8.750	18.250	4.0612e-03
 8.750	18.500	5.2588e-03
 8.750	18.750	6.4394e-03
 8.750	19.000	6.6446e-03
 8.750	19.250	6.8075e-03
 8.750	19.500	6.8106e-03
 8.750	19.750	6.8137e-03
 8.750	20.000	6.8174e-03
 8.750	20.250	6.8193e-03
 8.750	20.500	6.8202e-03
 8.750	20.750	6.8209e-03
 8.750	21.000	6.8216e-03
 8.750	21.250	6.8217e-03
 8.750	21.500	6.8218e-03
 8.750	21.750	6.8219e-03
 8.750	22.000	6.8219e-03
 8.750	22.250	6.8219e-03
 8.750	22.500	6.8219e-03
 8.750	22.750	6.8219e-03
 8.750	23.000	6.8219e-03
 8.750	23.250	6.8219e-03
 8.750	23.500	6.8220e-03
 8.750	23.750	6.8220e-03
 8.750	24.000	6.8220e-03
 9.000	17.000	4.0593e-04
 9.000	17.250	5.8807e-04
 9.000	17.500	8.6444e-04
 9.000	17.750	1.2979e-03
 9.000	18.000	2.0064e-03
 9.000	18.250	3.0936e-03
 9.000	18.500	4.3681e-03
 9.000	18.750	5.4288e-03
 9.000	19.000	6.4386e-03
 9.000	19.250	6.6449e-03
 9.000	19.500	6.8074e-03
 9.000	19.750	6.8106e-03
 9.000	20.000	6.8137e-03
 9.000	20.250	6.8174e-03
 9.000	20.500	6.8193e-03
 9.000	20.750	6.8201e-03
 9.000	21.000	6.8209e-03
 9.000	21.250	6.8216e-03
 9.000	21.500	6.8217e-03
 9.000	21.750	6.8218e-03
 9.000	22.000	6.8219e-03
 9.000	22.250	6.8219e-03
 9.000	22.500	6.8219e-03
 9.000	22.750	6.8219e-03
 9.000	23.000	6.8219e-03
 9.000	23.250	6.8219e-03
 9.000	23.500	6.8219e-03
 9.000	23.750	6.8219e-03
 9.000	24.000	6.8220e-03
 9.250	17.000	2.8831e-04
 9.250	17.250	4.1728e-04
 9.250	17.500	6.1407e-04
 9.250	17.750	9.2444e-04
 9.250	18.000	1.4397e-03
 9.250	18.250	2.2725e-03
 9.250	18.500	3.4533e-03
 9.250	18.750	4.7156e-03
 9.250	19.000	5.7476e-03
 9.250	19.250	6.4356e-03
 9.250	19.500	6.6441e-03
 9.250	19.750	6.8073e-03
 9.250	20.000	6.8105e-03
 9.250	20.250	6.8137e-03
 9.250	20.500	6.8173e-03
 9.250	20.750	6.8193e-03
 9.250	21.000	6.8201e-03
 9.250	21.250	6.8209e-03
 9.250	21.500	6.8202e-03
 9.250	21.750	6.8198e-03
 9.250	22.000	6.8197e-03
 9.250	22.250	6.8199e-03
 9.250	22.500	6.8218e-03
 9.250	22.750	6.8218e-03
 9.250	23.000	6.8219e-03
 9.250	23.250	6.8219e-03
 9.250	23.500	6.8219e-03
 9.250	23.750	6.8220e-03
 9.250	24.000	6.8220e-03
 9.500	17.000	2.0486e-04
 9.500	17.250	2.9687e-04
 9.500	17.500	4.3761e-04
 9.500	17.750	6.6403e-04
 9.500	18.000	1.0486e-03
 9.500	18.250	1.6744e-03
 9.500	18.500	2.6152e-03
 9.500	18.750	3.8301e-03
 9.500	19.000	4.9942e-03
 9.500	19.250	6.0151e-03
 9.500	19.500	6.4309e-03
 9.500	19.750	6.6421e-03
 9.500	20.000	6.8071e-03
 9.500	20.250	6.8105e-03
 9.500	20.500	6.8137e-03
 9.500	20.750	6.8170e-03
 9.500	21.000	6.8178e-03
 9.500	21.250	6.8181e-03
 9.500	21.500	6.8188e-03
 9.500	21.750	6.8189e-03
 9.500	22.000	6.8181e-03
 9.500	22.250	6.8183e-03
 9.500	22.500	6.8183e-03
 9.500	22.750	6.8182e-03
 9.500	23.000	6.8183e-03
 9.500	23.250	6.8183e-03
 9.500	23.500	6.8192e-03
 9.500	23.750	6.8192e-03
 9.500	24.000	6.8192e-03
 9.750	17.000	1.4560e-04
 9.750	17.250	2.1095e-04
 9.750	17.500	3.1218e-04
 9.750	17.750	4.7844e-04
 9.750	18.000	7.6568e-04
 9.750	18.250	1.2459e-03
 9.750	18.500	1.9650e-03
 9.750	18.750	2.9588e-03
 9.750	19.000	4.1675e-03
 9.750	19.250	5.3145e-03
 9.750	19.500	6.3038e-03
 9.750	19.750	6.4247e-03
 9.750	20.000	6.6386e-03
 9.750	20.250	6.8067e-03
 9.750	20.500	6.8103e-03
 9.750	20.750	6.8136e-03
 9.750	21.000	6.8171e-03
 9.750	21.250	6.8187e-03
 9.750	21.500	6.8184e-03
 9.750	21.750	6.8189e-03
 9.750	22.000	6.8192e-03
 9.750	22.250	6.8186e-03
 9.750	22.500	6.8181e-03
 9.750	22.750	6.8184e-03
 9.750	23.000	6.8184e-03
 9.750	23.250	6.8184e-03
 9.750	23.500	6.8183e-03
 9.750	23.750	6.8183e-03
 9.750	24.000	6.8182e-03
10.000	17.000	1.0329e-04
10.000	17.250	1.5012e-04
10.000	17.500	2.2296e-04
10.000	17.750	3.4551e-04
10.000	18.000	5.6379e-04
10.000	18.250	9.2897e-04
10.000	18.500	1.4748e-03
10.000	18.750	2.2399e-03
10.000	19.000	3.2805e-03
10.000	19.250	4.4649e-03
10.000	19.500	5.6623e-03
10.000	19.750	6.3063e-03
10.000	20.000	6.4183e-03
10.000	20.250	6.6330e-03
10.000	20.500	6.8057e-03
10.000	20.750	6.8100e-03
10.000	21.000	6.8133e-03
10.000	21.250	6.8170e-03
10.000	21.500	6.8190e-03
10.000	21.750	6.8194e-03
10.000	22.000	6.8190e-03
10.000	22.250	6.8194e-03
10.000	22.500	6.8191e-03
10.000	22.750	6.8185e-03
10.000	23.000	6.8182e-03
10.000	23.250	6.8183e-03
10.000	23.500	6.8184e-03
10.000	23.750	6.8184e-03
10.000	24.000	6.8184e-03
10.250	17.000	7.3251e-05
10.250	17.250	1.0683e-04
10.250	17.500	1.5967e-04
10.250	17.750	2.5045e-04
10.250	18.000	4.1481e-04
10.250	18.250	6.8988e-04
10.250	18.500	1.0951e-03
10.250	18.750	1.6759e-03
10.250	19.000	2.4760e-03
10.250	19.250	3.5238e-03
10.250	19.500	4.7402e-03
10.250	19.750	5.9052e-03
10.250	20.000	6.2974e-03
10.250	20.250	6.4118e-03
10.250	20.500	6.6294e-03
10.250	20.750	6.8041e-03
10.250	21.000	6.8095e-03
10.250	21.250	6.8130e-03
10.250	21.500	6.8170e-03
10.250	21.750	6.8190e-03
10.250	22.000	6.8198e-03
10.250	22.250	6.8198e-03
10.250	22.500	6.8195e-03
10.250	22.750	6.8194e-03
10.250	23.000	6.8190e-03
10.250	23.250	6.8186e-03
10.250	23.500	6.8184e-03
10.250	23.750	6.8182e-03
10.250	24.000	6.8182e-03
10.500	17.000	5.2016e-05
10.500	17.250	7.6132e-05
10.500	17.500	1.1465e-04
10.500	17.750	1.8247e-04
10.500	18.000	3.0543e-04
10.500	18.250	5.0963e-04
10.500	18.500	8.0584e-04
10.500	18.750	1.2353e-03
10.500	19.000	1.8321e-03
10.500	19.250	2.6473e-03
10.500	19.500	3.7039e-03
10.500	19.750	4.9624e-03
10.500	20.000	6.1127e-03
10.500	20.250	6.2902e-03
10.500	20.500	6.4060e-03
10.500	20.750	6.6268e-03
10.500	21.000	6.8010e-03
10.500	21.250	6.8083e-03
10.500	21.500	6.8128e-03
10.500	21.750	6.8166e-03
10.500	22.000	6.8189e-03
10.500	22.250	6.8198e-03
10.500	22.500	6.8205e-03
10.500	22.750	6.8195e-03
10.500	23.000	6.8196e-03
10.500	23.250	6.8193e-03
10.500	23.500	6.8191e-03
10.500	23.750	6.8188e-03
10.500	24.000	6.8187e-03
10.750	17.000	3.6955e-05
10.750	17.250	5.4239e-05
10.750	17.500	8.2551e-05
10.750	17.750	1.3309e-04
10.750	18.000	2.2412e-04
10.750	18.250	3.7169e-04
10.750	18.500	5.8691e-04
10.750	18.750	8.9852e-04
10.750	19.000	1.3370e-03
10.750	19.250	1.9461e-03
10.750	19.500	2.7815e-03
10.750	19.750	3.8763e-03
10.750	20.000	5.1912e-03
10.750	20.250	6.2119e-03
10.750	20.500	6.2818e-03
10.750	20.750	6.4015e-03
10.750	21.000	6.6295e-03
10.750	21.250	6.7966e-03
10.750	21.500	6.8073e-03
10.750	21.750	6.8119e-03
10.750	22.000	6.8160e-03
10.750	22.250	6.8188e-03
10.750	22.500	6.8198e-03
10.750	22.750	6.8207e-03
10.750	23.000	6.8198e-03
10.750	23.250	6.8197e-03
10.750	23.500	6.8196e-03
10.750	23.750	6.8194e-03
10.750	24.000	6.8193e-03
11.000	17.000	2.6255e-05
11.000	17.250	3.8683e-05
11.000	17.500	5.9342e-05
11.000	17.750	9.6708e-05
11.000	18.000	1.6321e-04
11.000	18.250	2.6848e-04
11.000	18.500	4.2387e-04
11.000	18.750	6.5292e-04
11.000	19.000	9.7103e-04
11.000	19.250	1.4107e-03
11.000	19.500	2.0362e-03
11.000	19.750	2.9044e-03
11.000	20.000	4.0410e-03
11.000	20.250	5.4030e-03
11.000	20.500	6.1974e-03
11.000	20.750	6.2721e-03
11.000	21.000	6.4007e-03
11.000	21.250	6.6432e-03
11.000	21.500	6.7937e-03
11.000	21.750	6.8047e-03
11.000	22.000	6.8103e-03
11.000	22.250	6.8151e-03
11.000	22.500	6.8184e-03
11.000	22.750	6.8196e-03
11.000	23.000	6.8207e-03
11.000	23.250	6.8208e-03
11.000	23.500	6.8198e-03
11.000	23.750	6.8198e-03
11.000	24.000	6.8197e-03
11.250	17.000	1.8765e-05
11.250	17.250	2.7490e-05
11.250	17.500	4.2469e-05
11.250	17.750	6.9794e-05
11.250	18.000	1.1761e-04
11.250	18.250	1.9218e-04
11.250	18.500	3.0165e-04
11.250	18.750	4.6420e-04
11.250	19.000	6.9210e-04
11.250	19.250	1.0153e-03
11.250	19.500	1.4676e-03
11.250	19.750	2.1140e-03
11.250	20.000	3.0058e-03
11.250	20.250	4.1881e-03
11.250	20.500	5.5985e-03
11.250	20.750	6.1715e-03
11.250	21.000	6.2602e-03
11.250	21.250	6.4076e-03
11.250	21.500	6.6825e-03
11.250	21.750	6.7881e-03
11.250	22.000	6.8007e-03
11.250	22.250	6.8077e-03
11.250	22.500	6.8136e-03
11.250	22.750	6.8179e-03
11.250	23.000	6.8193e-03
11.250	23.250	6.8205e-03
11.250	23.500	6.8212e-03
11.250	23.750	6.8200e-03
11.250	24.000	6.8198e-03
11.500	17.000	1.3498e-05
11.500	17.250	1.9671e-05
11.500	17.500	3.0370e-05
11.500	17.750	4.9959e-05
11.500	18.000	8.3704e-05
11.500	18.250	1.3613e-04
11.500	18.500	2.1300e-04
11.500	18.750	3.2798e-04
11.500	19.000	4.8897e-04
11.500	19.250	7.2041e-04
11.500	19.500	1.0470e-03
11.500	19.750	1.5139e-03
11.500	20.000	2.1780e-03
11.500	20.250	3.1001e-03
11.500	20.500	4.3198e-03
11.500	20.750	5.7253e-03
11.500	21.000	6.1345e-03
11.500	21.250	6.2481e-03
11.500	21.500	6.4467e-03
11.500	21.750	6.7269e-03
11.500	22.000	6.7797e-03
11.500	22.250	6.7952e-03
11.500	22.500	6.8036e-03
11.500	22.750	6.8111e-03
11.500	23.000	6.8170e-03
11.500	23.250	6.8188e-03
11.500	23.500	6.8202e-03
11.500	23.750	6.8212e-03
11.500	24.000	6.8210e-03
11.750	17.000	9.8765e-06
11.750	17.250	1.4156e-05
11.750	17.500	2.1728e-05
11.750	17.750	3.5391e-05
11.750	18.000	5.8765e-05
11.750	18.250	9.5062e-05
11.750	18.500	1.4881e-04
11.750	18.750	2.2790e-04
11.750	19.000	3.4395e-04
11.750	19.250	5.0765e-04
11.750	19.500	7.4370e-04
11.750	19.750	1.0784e-03
11.750	20.000	1.5541e-03
11.750	20.250	2.2317e-03
11.750	20.500	3.1815e-03
11.750	20.750	4.4264e-03
11.750	21.000	5.8251e-03
11.750	21.250	6.0794e-03
11.750	21.500	6.2664e-03
11.750	21.750	6.4913e-03
11.750	22.000	6.7402e-03
11.750	22.250	6.7672e-03
11.750	22.500	6.7869e-03
11.750	22.750	6.7975e-03
11.750	23.000	6.8072e-03
11.750	23.250	6.8156e-03
11.750	23.500	6.8179e-03
11.750	23.750	6.8198e-03
11.750	24.000	6.8212e-03
12.000	17.000	7.2428e-06
12.000	17.250	1.0288e-05
12.000	17.500	1.5556e-05
12.000	17.750	2.4938e-05
12.000	18.000	4.0658e-05
12.000	18.250	6.5267e-05
12.000	18.500	1.0280e-04
12.000	18.750	1.5860e-04
12.000	19.000	2.4049e-04
12.000	19.250	3.5712e-04
12.000	19.500	5.2395e-04
12.000	19.750	7.6165e-04
12.000	20.000	1.0994e-03
12.000	20.250	1.5844e-03
12.000	20.500	2.2738e-03
12.000	20.750	3.2375e-03
12.000	21.000	4.4922e-03
12.000	21.250	5.6756e-03
12.000	21.500	6.0564e-03
12.000	21.750	6.2613e-03
12.000	22.000	6.5302e-03
12.000	22.250	6.7160e-03
12.000	22.500	6.7491e-03
12.000	22.750	6.7745e-03
12.000	23.000	6.7882e-03
12.000	23.250	6.8014e-03
12.000	23.500	6.8133e-03
12.000	23.750	6.8167e-03
12.000	24.000	6.8191e-03
12.250	17.000	5.2675e-06
12.250	17.250	7.4897e-06
12.250	17.500	1.1111e-05
12.250	17.750	1.7284e-05
12.250	18.000	2.7819e-05
12.250	18.250	4.4691e-05
12.250	18.500	7.0782e-05
12.250	18.750	1.1004e-04
12.250	19.000	1.6765e-04
12.250	19.250	2.5070e-04
12.250	19.500	3.6823e-04
12.250	19.750	5.3588e-04
12.250	20.000	7.7580e-04
12.250	20.250	1.1177e-03
12.250	20.500	1.6028e-03
12.250	20.750	2.2967e-03
12.250	21.000	3.2621e-03
12.250	21.250	4.4964e-03
12.250	21.500	5.6374e-03
12.250	21.750	5.9692e-03
12.250	22.000	6.2459e-03
12.250	22.250	6.5487e-03
12.250	22.500	6.6790e-03
12.250	22.750	6.7222e-03
12.250	23.000	6.7552e-03
12.250	23.250	6.7734e-03
12.250	23.500	6.7923e-03
12.250	23.750	6.8100e-03
12.250	24.000	6.8147e-03
12.500	17.000	3.4568e-06
12.500	17.250	5.5144e-06
12.500	17.500	7.9012e-06
12.500	17.750	1.2016e-05
12.500	18.000	1.8848e-05
12.500	18.250	3.0206e-05
12.500	18.500	4.8395e-05
12.500	18.750	7.5967e-05
12.500	19.000	1.1646e-04
12.500	19.250	1.7490e-04
12.500	19.500	2.5860e-04
12.500	19.750	3.7720e-04
12.500	20.000	5.4593e-04
12.500	20.250	7.8782e-04
12.500	20.500	1.1258e-03
12.500	20.750	1.6119e-03
12.500	21.000	2.3013e-03
12.500	21.250	3.2452e-03
12.500	21.500	4.4822e-03
12.500	21.750	5.4319e-03
12.500	22.000	5.8509e-03
12.500	22.250	6.2031e-03
12.500	22.500	6.5130e-03
12.500	22.750	6.6244e-03
12.500	23.000	6.6823e-03
12.500	23.250	6.7249e-03
12.500	23.500	6.7495e-03
12.500	23.750	6.7777e-03
12.500	24.000	6.8049e-03
12.750	17.000	1.8107e-06
12.750	17.250	3.6214e-06
12.750	17.500	5.5967e-06
12.750	17.750	8.3951e-06
12.750	18.000	1.2922e-05
12.750	18.250	2.0658e-05
12.750	18.500	3.2922e-05
12.750	18.750	5.2099e-05
12.750	19.000	8.0412e-05
12.750	19.250	1.2189e-04
12.750	19.500	1.8058e-04
12.750	19.750	2.6444e-04
12.750	20.000	3.8230e-04
12.750	20.250	5.5235e-04
12.750	20.500	7.9037e-04
12.750	20.750	1.1241e-03
12.750	21.000	1.6054e-03
12.750	21.250	2.2737e-03
12.750	21.500	3.2181e-03
12.750	21.750	4.3467e-03
12.750	22.000	5.1715e-03
12.750	22.250	5.6872e-03
12.750	22.500	6.1092e-03
12.750	22.750	6.4192e-03
12.750	23.000	6.5436e-03
12.750	23.250	6.6226e-03
12.750	23.500	6.6781e-03
12.750	23.750	6.7115e-03
12.750	24.000	6.7540e-03
13.000	17.000	1.0000e-07
13.000	17.250	1.1523e-06
13.000	17.500	3.1276e-06
13.000	17.750	5.7613e-06
13.000	18.000	9.0535e-06
13.000	18.250	1.4239e-05
13.000	18.500	2.2551e-05
13.000	18.750	3.5638e-05
13.000	19.000	5.5309e-05
13.000	19.250	8.4198e-05
13.000	19.500	1.2560e-04
13.000	19.750	1.8453e-04
13.000	20.000	2.6823e-04
13.000	20.250	3.8593e-04
13.000	20.500	5.5481e-04
13.000	20.750	7.9243e-04
13.000	21.000	1.1237e-03
13.000	21.250	1.5844e-03
13.000	21.500	2.2578e-03
13.000	21.750	3.1016e-03
13.000	22.000	4.0862e-03
13.000	22.250	4.8516e-03
13.000	22.500	5.4499e-03
13.000	22.750	5.9219e-03
13.000	23.000	6.2639e-03
13.000	23.250	6.4259e-03
13.000	23.500	6.5333e-03
13.000	23.750	6.6054e-03
13.000	24.000	6.6518e-03
13.250	17.000	1.0000e-07
13.250	17.250	1.0000e-07
13.250	17.500	1.3169e-06
13.250	17.750	2.9630e-06
13.250	18.000	5.6790e-06
13.250	18.250	9.9588e-06
13.250	18.500	1.5638e-05
13.250	18.750	2.4362e-05
13.250	19.000	3.7695e-05
13.250	19.250	5.7860e-05
13.250	19.500	8.6831e-05
13.250	19.750	1.2823e-04
13.250	20.000	1.8691e-04
13.250	20.250	2.7053e-04
13.250	20.500	3.8798e-04
13.250	20.750	5.5358e-04
13.250	21.000	7.8774e-04
13.250	21.250	1.1044e-03
13.250	21.500	1.5621e-03
13.250	21.750	2.1511e-03
13.250	22.000	2.8770e-03
13.250	22.250	3.7098e-03
13.250	22.500	4.4246e-03
13.250	22.750	5.0755e-03
13.250	23.000	5.6188e-03
13.250	23.250	6.0376e-03
13.250	23.500	6.2543e-03
13.250	23.750	6.3995e-03
13.250	24.000	6.4935e-03
13.500	17.000	1.0000e-07
13.500	17.250	1.0000e-07
13.500	17.500	1.0000e-07
13.500	17.750	1.5638e-06
13.500	18.000	3.5391e-06
13.500	18.250	6.4198e-06
13.500	18.500	1.0864e-05
13.500	18.750	1.6708e-05
13.500	19.000	2.5844e-05
13.500	19.250	3.9342e-05
13.500	19.500	5.9506e-05
13.500	19.750	8.8395e-05
13.500	20.000	1.2979e-04
13.500	20.250	1.8831e-04
13.500	20.500	2.7169e-04
13.500	20.750	3.8757e-04
13.500	21.000	5.4947e-04
13.500	21.250	7.7169e-04
13.500	21.500	1.0875e-03
13.500	21.750	1.4870e-03
13.500	22.000	1.9667e-03
13.500	22.250	2.5240e-03
13.500	22.500	3.2321e-03
13.500	22.750	3.9151e-03
13.500	23.000	4.6229e-03
13.500	23.250	5.2286e-03
13.500	23.500	5.7263e-03
13.500	23.750	6.0075e-03
13.500	24.000	6.2016e-03
13.750	17.000	1.0000e-07
13.750	17.250	1.0000e-07
13.750	17.500	1.0000e-07
13.750	17.750	8.2305e-07
13.750	18.000	1.9753e-06
13.750	18.250	4.1975e-06
13.750	18.500	6.9959e-06
13.750	18.750	1.1605e-05
13.750	19.000	1.7695e-05
13.750	19.250	2.6914e-05
13.750	19.500	4.0576e-05
13.750	19.750	6.0658e-05
13.750	20.000	8.9547e-05
13.750	20.250	1.3070e-04
13.750	20.500	1.8905e-04
13.750	20.750	2.7111e-04
13.750	21.000	3.8412e-04
13.750	21.250	5.3860e-04
13.750	21.500	7.6123e-04
13.750	21.750	1.0330e-03
13.750	22.000	1.3344e-03
13.750	22.250	1.6477e-03
13.750	22.500	2.0955e-03
13.750	22.750	2.7370e-03
13.750	23.000	3.3835e-03
13.750	23.250	4.0956e-03
13.750	23.500	4.7438e-03
13.750	23.750	5.3083e-03
13.750	24.000	5.6644e-03
14.000	17.000	1.0000e-07
14.000	17.250	1.0000e-07
14.000	17.500	1.0000e-07
14.000	17.750	1.0000e-07
14.000	18.000	1.0700e-06
14.000	18.250	2.3045e-06
14.000	18.500	4.6091e-06
14.000	18.750	7.7366e-06
14.000	19.000	1.2099e-05
14.000	19.250	1.8354e-05
14.000	19.500	2.7654e-05
14.000	19.750	4.1317e-05
14.000	20.000	6.1481e-05
14.000	20.250	9.0288e-05
14.000	20.500	1.3136e-04
14.000	20.750	1.8922e-04
14.000	21.000	2.6955e-04
14.000	21.250	3.7844e-04
14.000	21.500	5.3407e-04
14.000	21.750	7.2387e-04
14.000	22.000	9.2099e-04
14.000	22.250	1.0793e-03
14.000	22.500	1.2798e-03
14.000	22.750	1.6971e-03
14.000	23.000	2.2434e-03
14.000	23.250	2.8396e-03
14.000	23.500	3.5059e-03
14.000	23.750	4.1540e-03
14.000	24.000	4.7641e-03
