InwT 2.32440m  relative to Inci 1215.00A scaled to 1215A.
Hden   Phi(H)  Eq_Width (A)
 7.000	17.000	1.0744e-02
 7.000	17.250	6.4580e-03
 7.000	17.500	3.6241e-03
 7.000	17.750	1.9983e-03
 7.000	18.000	1.1702e-03
 7.000	18.250	7.4337e-04
 7.000	18.500	5.0263e-04
 7.000	18.750	4.0337e-04
 7.000	19.000	3.5391e-04
 7.000	19.250	3.2667e-04
 7.000	19.500	3.1638e-04
 7.000	19.750	3.1235e-04
 7.000	20.000	3.1070e-04
 7.000	20.250	3.0996e-04
 7.000	20.500	3.0955e-04
 7.000	20.750	3.0938e-04
 7.000	21.000	3.0922e-04
 7.000	21.250	3.0922e-04
 7.000	21.500	3.0914e-04
 7.000	21.750	3.0914e-04
 7.000	22.000	3.0914e-04
 7.000	22.250	3.0914e-04
 7.000	22.500	3.0914e-04
 7.000	22.750	3.0914e-04
 7.000	23.000	3.0914e-04
 7.000	23.250	3.0914e-04
 7.000	23.500	3.0914e-04
 7.000	23.750	3.0914e-04
 7.000	24.000	3.0914e-04
 7.250	17.000	1.2269e-02
 7.250	17.250	1.0775e-02
 7.250	17.500	6.4507e-03
 7.250	17.750	3.6207e-03
 7.250	18.000	1.9965e-03
 7.250	18.250	1.1697e-03
 7.250	18.500	7.4337e-04
 7.250	18.750	5.0263e-04
 7.250	19.000	4.0337e-04
 7.250	19.250	3.5391e-04
 7.250	19.500	3.2667e-04
 7.250	19.750	3.1638e-04
 7.250	20.000	3.1235e-04
 7.250	20.250	3.1070e-04
 7.250	20.500	3.0996e-04
 7.250	20.750	3.0955e-04
 7.250	21.000	3.0938e-04
 7.250	21.250	3.0922e-04
 7.250	21.500	3.0922e-04
 7.250	21.750	3.0914e-04
 7.250	22.000	3.0914e-04
 7.250	22.250	3.0914e-04
 7.250	22.500	3.0914e-04
 7.250	22.750	3.0914e-04
 7.250	23.000	3.0914e-04
 7.250	23.250	3.0914e-04
 7.250	23.500	3.0914e-04
 7.250	23.750	3.0914e-04
 7.250	24.000	3.0914e-04
 7.500	17.000	1.3590e-02
 7.500	17.250	1.2440e-02
 7.500	17.500	1.0796e-02
 7.500	17.750	6.4447e-03
 7.500	18.000	3.6176e-03
 7.500	18.250	1.9944e-03
 7.500	18.500	1.1690e-03
 7.500	18.750	7.4329e-04
 7.500	19.000	5.0263e-04
 7.500	19.250	4.0337e-04
 7.500	19.500	3.5391e-04
 7.500	19.750	3.2667e-04
 7.500	20.000	3.1638e-04
 7.500	20.250	3.1235e-04
 7.500	20.500	3.1070e-04
 7.500	20.750	3.0996e-04
 7.500	21.000	3.0955e-04
 7.500	21.250	3.0938e-04
 7.500	21.500	3.0922e-04
 7.500	21.750	3.0922e-04
 7.500	22.000	3.0914e-04
 7.500	22.250	3.0914e-04
 7.500	22.500	3.0914e-04
 7.500	22.750	3.0914e-04
 7.500	23.000	3.0914e-04
 7.500	23.250	3.0914e-04
 7.500	23.500	3.0914e-04
 7.500	23.750	3.0914e-04
 7.500	24.000	3.0914e-04
 7.750	17.000	1.4190e-02
 7.750	17.250	1.3898e-02
 7.750	17.500	1.2583e-02
 7.750	17.750	1.0811e-02
 7.750	18.000	6.4399e-03
 7.750	18.250	3.6147e-03
 7.750	18.500	1.9919e-03
 7.750	18.750	1.1681e-03
 7.750	19.000	7.4313e-04
 7.750	19.250	5.0255e-04
 7.750	19.500	4.0337e-04
 7.750	19.750	3.5391e-04
 7.750	20.000	3.2667e-04
 7.750	20.250	3.1638e-04
 7.750	20.500	3.1235e-04
 7.750	20.750	3.1070e-04
 7.750	21.000	3.0996e-04
 7.750	21.250	3.0955e-04
 7.750	21.500	3.0938e-04
 7.750	21.750	3.0922e-04
 7.750	22.000	3.0922e-04
 7.750	22.250	3.0914e-04
 7.750	22.500	3.0914e-04
 7.750	22.750	3.0914e-04
 7.750	23.000	3.0914e-04
 7.750	23.250	3.0914e-04
 7.750	23.500	3.0914e-04
 7.750	23.750	3.0914e-04
 7.750	24.000	3.0914e-04
 8.000	17.000	1.4244e-02
 8.000	17.250	1.4397e-02
 8.000	17.500	1.4113e-02
 8.000	17.750	1.2627e-02
 8.000	18.000	1.0756e-02
 8.000	18.250	6.4333e-03
 8.000	18.500	3.6119e-03
 8.000	18.750	1.9892e-03
 8.000	19.000	1.1670e-03
 8.000	19.250	7.4305e-04
 8.000	19.500	5.0255e-04
 8.000	19.750	4.0337e-04
 8.000	20.000	3.5391e-04
 8.000	20.250	3.2667e-04
 8.000	20.500	3.1638e-04
 8.000	20.750	3.1235e-04
 8.000	21.000	3.1070e-04
 8.000	21.250	3.0996e-04
 8.000	21.500	3.0955e-04
 8.000	21.750	3.0938e-04
 8.000	22.000	3.0922e-04
 8.000	22.250	3.0922e-04
 8.000	22.500	3.0914e-04
 8.000	22.750	3.0914e-04
 8.000	23.000	3.0914e-04
 8.000	23.250	3.0914e-04
 8.000	23.500	3.0914e-04
 8.000	23.750	3.0914e-04
 8.000	24.000	3.0914e-04
 8.250	17.000	1.4443e-02
 8.250	17.250	1.4587e-02
 8.250	17.500	1.4833e-02
 8.250	17.750	1.4533e-02
 8.250	18.000	1.2874e-02
 8.250	18.250	1.0782e-02
 8.250	18.500	6.4312e-03
 8.250	18.750	3.6088e-03
 8.250	19.000	1.9861e-03
 8.250	19.250	1.1658e-03
 8.250	19.500	7.4296e-04
 8.250	19.750	5.0247e-04
 8.250	20.000	4.0337e-04
 8.250	20.250	3.5391e-04
 8.250	20.500	3.2667e-04
 8.250	20.750	3.1638e-04
 8.250	21.000	3.1235e-04
 8.250	21.250	3.1070e-04
 8.250	21.500	3.0996e-04
 8.250	21.750	3.0955e-04
 8.250	22.000	3.0938e-04
 8.250	22.250	3.0922e-04
 8.250	22.500	3.0922e-04
 8.250	22.750	3.0914e-04
 8.250	23.000	3.0914e-04
 8.250	23.250	3.0914e-04
 8.250	23.500	3.0914e-04
 8.250	23.750	3.0914e-04
 8.250	24.000	3.0914e-04
 8.500	17.000	1.4685e-02
 8.500	17.250	1.4798e-02
 8.500	17.500	1.5071e-02
 8.500	17.750	1.5511e-02
 8.500	18.000	1.5283e-02
 8.500	18.250	1.3274e-02
 8.500	18.500	1.0841e-02
 8.500	18.750	6.4298e-03
 8.500	19.000	3.6057e-03
 8.500	19.250	1.9824e-03
 8.500	19.500	1.1643e-03
 8.500	19.750	7.4263e-04
 8.500	20.000	5.0247e-04
 8.500	20.250	4.0337e-04
 8.500	20.500	3.5391e-04
 8.500	20.750	3.2667e-04
 8.500	21.000	3.1638e-04
 8.500	21.250	3.1235e-04
 8.500	21.500	3.1070e-04
 8.500	21.750	3.0996e-04
 8.500	22.000	3.0955e-04
 8.500	22.250	3.0938e-04
 8.500	22.500	3.0922e-04
 8.500	22.750	3.0922e-04
 8.500	23.000	3.0914e-04
 8.500	23.250	3.0914e-04
 8.500	23.500	3.0914e-04
 8.500	23.750	3.0914e-04
 8.500	24.000	3.0914e-04
 8.750	17.000	1.4894e-02
 8.750	17.250	1.5066e-02
 8.750	17.500	1.5350e-02
 8.750	17.750	1.5935e-02
 8.750	18.000	1.6758e-02
 8.750	18.250	1.6569e-02
 8.750	18.500	1.4098e-02
 8.750	18.750	1.0868e-02
 8.750	19.000	6.4286e-03
 8.750	19.250	3.6025e-03
 8.750	19.500	1.9784e-03
 8.750	19.750	1.1626e-03
 8.750	20.000	7.4239e-04
 8.750	20.250	5.0239e-04
 8.750	20.500	4.0337e-04
 8.750	20.750	3.5391e-04
 8.750	21.000	3.2667e-04
 8.750	21.250	3.1638e-04
 8.750	21.500	3.1235e-04
 8.750	21.750	3.1070e-04
 8.750	22.000	3.0996e-04
 8.750	22.250	3.0955e-04
 8.750	22.500	3.0938e-04
 8.750	22.750	3.0922e-04
 8.750	23.000	3.0922e-04
 8.750	23.250	3.0914e-04
 8.750	23.500	3.0914e-04
 8.750	23.750	3.0914e-04
 8.750	24.000	3.0914e-04
 9.000	17.000	1.5021e-02
 9.000	17.250	1.5311e-02
 9.000	17.500	1.5716e-02
 9.000	17.750	1.6388e-02
 9.000	18.000	1.7605e-02
 9.000	18.250	1.9075e-02
 9.000	18.500	1.8557e-02
 9.000	18.750	1.4881e-02
 9.000	19.000	1.0875e-02
 9.000	19.250	6.4272e-03
 9.000	19.500	3.5996e-03
 9.000	19.750	1.9742e-03
 9.000	20.000	1.1610e-03
 9.000	20.250	7.4214e-04
 9.000	20.500	5.0230e-04
 9.000	20.750	4.0337e-04
 9.000	21.000	3.5391e-04
 9.000	21.250	3.2667e-04
 9.000	21.500	3.1638e-04
 9.000	21.750	3.1235e-04
 9.000	22.000	3.1070e-04
 9.000	22.250	3.0996e-04
 9.000	22.500	3.0955e-04
 9.000	22.750	3.0938e-04
 9.000	23.000	3.0922e-04
 9.000	23.250	3.0922e-04
 9.000	23.500	3.0914e-04
 9.000	23.750	3.0914e-04
 9.000	24.000	3.0914e-04
 9.250	17.000	1.5051e-02
 9.250	17.250	1.5483e-02
 9.250	17.500	1.6097e-02
 9.250	17.750	1.7045e-02
 9.250	18.000	1.8653e-02
 9.250	18.250	2.0916e-02
 9.250	18.500	2.2602e-02
 9.250	18.750	2.1089e-02
 9.250	19.000	1.6335e-02
 9.250	19.250	1.0893e-02
 9.250	19.500	6.4247e-03
 9.250	19.750	3.5973e-03
 9.250	20.000	1.9703e-03
 9.250	20.250	1.1593e-03
 9.250	20.500	7.4198e-04
 9.250	20.750	5.0230e-04
 9.250	21.000	4.0337e-04
 9.250	21.250	3.5391e-04
 9.250	21.500	3.2658e-04
 9.250	21.750	3.1630e-04
 9.250	22.000	3.1226e-04
 9.250	22.250	3.1062e-04
 9.250	22.500	3.0996e-04
 9.250	22.750	3.0955e-04
 9.250	23.000	3.0938e-04
 9.250	23.250	3.0922e-04
 9.250	23.500	3.0922e-04
 9.250	23.750	3.0914e-04
 9.250	24.000	3.0914e-04
 9.500	17.000	1.5020e-02
 9.500	17.250	1.5612e-02
 9.500	17.500	1.6462e-02
 9.500	17.750	1.7805e-02
 9.500	18.000	2.0039e-02
 9.500	18.250	2.3012e-02
 9.500	18.500	2.5850e-02
 9.500	18.750	2.6827e-02
 9.500	19.000	2.3379e-02
 9.500	19.250	1.7572e-02
 9.500	19.500	1.0915e-02
 9.500	19.750	6.4209e-03
 9.500	20.000	3.5958e-03
 9.500	20.250	1.9668e-03
 9.500	20.500	1.1578e-03
 9.500	20.750	7.4173e-04
 9.500	21.000	5.0214e-04
 9.500	21.250	4.0321e-04
 9.500	21.500	3.5383e-04
 9.500	21.750	3.2650e-04
 9.500	22.000	3.1621e-04
 9.500	22.250	3.1218e-04
 9.500	22.500	3.1053e-04
 9.500	22.750	3.0979e-04
 9.500	23.000	3.0938e-04
 9.500	23.250	3.0922e-04
 9.500	23.500	3.0914e-04
 9.500	23.750	3.0905e-04
 9.500	24.000	3.0905e-04
 9.750	17.000	1.4897e-02
 9.750	17.250	1.5658e-02
 9.750	17.500	1.6781e-02
 9.750	17.750	1.8619e-02
 9.750	18.000	2.1671e-02
 9.750	18.250	2.5636e-02
 9.750	18.500	2.9260e-02
 9.750	18.750	3.1592e-02
 9.750	19.000	3.1152e-02
 9.750	19.250	2.6113e-02
 9.750	19.500	1.8947e-02
 9.750	19.750	1.0918e-02
 9.750	20.000	6.4133e-03
 9.750	20.250	3.5952e-03
 9.750	20.500	1.9642e-03
 9.750	20.750	1.1565e-03
 9.750	21.000	7.4140e-04
 9.750	21.250	5.0214e-04
 9.750	21.500	4.0321e-04
 9.750	21.750	3.5383e-04
 9.750	22.000	3.2650e-04
 9.750	22.250	3.1621e-04
 9.750	22.500	3.1218e-04
 9.750	22.750	3.1053e-04
 9.750	23.000	3.0979e-04
 9.750	23.250	3.0938e-04
 9.750	23.500	3.0922e-04
 9.750	23.750	3.0905e-04
 9.750	24.000	3.0905e-04
10.000	17.000	1.4669e-02
10.000	17.250	1.5681e-02
10.000	17.500	1.7131e-02
10.000	17.750	1.9581e-02
10.000	18.000	2.3682e-02
10.000	18.250	2.8654e-02
10.000	18.500	3.3013e-02
10.000	18.750	3.6096e-02
10.000	19.000	3.7702e-02
10.000	19.250	3.5528e-02
10.000	19.500	2.9207e-02
10.000	19.750	1.8848e-02
10.000	20.000	1.0883e-02
10.000	20.250	6.4081e-03
10.000	20.500	3.5949e-03
10.000	20.750	1.9620e-03
10.000	21.000	1.1553e-03
10.000	21.250	7.4115e-04
10.000	21.500	5.0206e-04
10.000	21.750	4.0329e-04
10.000	22.000	3.5383e-04
10.000	22.250	3.2650e-04
10.000	22.500	3.1630e-04
10.000	22.750	3.1218e-04
10.000	23.000	3.1053e-04
10.000	23.250	3.0979e-04
10.000	23.500	3.0938e-04
10.000	23.750	3.0922e-04
10.000	24.000	3.0905e-04
10.250	17.000	1.4550e-02
10.250	17.250	1.5687e-02
10.250	17.500	1.7610e-02
10.250	17.750	2.0835e-02
10.250	18.000	2.5950e-02
10.250	18.250	3.1834e-02
10.250	18.500	3.6773e-02
10.250	18.750	4.0547e-02
10.250	19.000	4.2919e-02
10.250	19.250	4.3197e-02
10.250	19.500	3.9583e-02
10.250	19.750	3.1115e-02
10.250	20.000	1.8844e-02
10.250	20.250	1.0822e-02
10.250	20.500	6.3877e-03
10.250	20.750	3.5935e-03
10.250	21.000	1.9602e-03
10.250	21.250	1.1544e-03
10.250	21.500	7.4099e-04
10.250	21.750	5.0198e-04
10.250	22.000	4.0329e-04
10.250	22.250	3.5391e-04
10.250	22.500	3.2650e-04
10.250	22.750	3.1630e-04
10.250	23.000	3.1226e-04
10.250	23.250	3.1053e-04
10.250	23.500	3.0979e-04
10.250	23.750	3.0938e-04
10.250	24.000	3.0922e-04
10.500	17.000	1.4617e-02
10.500	17.250	1.5927e-02
10.500	17.500	1.8339e-02
10.500	17.750	2.2567e-02
10.500	18.000	2.8568e-02
10.500	18.250	3.5112e-02
10.500	18.500	4.0395e-02
10.500	18.750	4.4592e-02
10.500	19.000	4.7395e-02
10.500	19.250	4.8611e-02
10.500	19.500	4.7477e-02
10.500	19.750	4.2867e-02
10.500	20.000	3.2645e-02
10.500	20.250	1.8664e-02
10.500	20.500	1.0712e-02
10.500	20.750	6.3586e-03
10.500	21.000	3.5893e-03
10.500	21.250	1.9587e-03
10.500	21.500	1.1541e-03
10.500	21.750	7.4091e-04
10.500	22.000	5.0181e-04
10.500	22.250	4.0329e-04
10.500	22.500	3.5391e-04
10.500	22.750	3.2650e-04
10.500	23.000	3.1630e-04
10.500	23.250	3.1226e-04
10.500	23.500	3.1053e-04
10.500	23.750	3.0979e-04
10.500	24.000	3.0938e-04
10.750	17.000	1.4930e-02
10.750	17.250	1.6447e-02
10.750	17.500	1.9562e-02
10.750	17.750	2.4732e-02
10.750	18.000	3.1465e-02
10.750	18.250	3.8206e-02
10.750	18.500	4.3787e-02
10.750	18.750	4.8284e-02
10.750	19.000	5.1473e-02
10.750	19.250	5.3242e-02
10.750	19.500	5.3567e-02
10.750	19.750	5.1729e-02
10.750	20.000	4.6376e-02
10.750	20.250	3.3611e-02
10.750	20.500	1.8471e-02
10.750	20.750	1.0611e-02
10.750	21.000	6.3312e-03
10.750	21.250	3.5789e-03
10.750	21.500	1.9579e-03
10.750	21.750	1.1537e-03
10.750	22.000	7.4091e-04
10.750	22.250	5.0173e-04
10.750	22.500	4.0329e-04
10.750	22.750	3.5391e-04
10.750	23.000	3.2658e-04
10.750	23.250	3.1630e-04
10.750	23.500	3.1226e-04
10.750	23.750	3.1062e-04
10.750	24.000	3.0979e-04
11.000	17.000	1.5531e-02
11.000	17.250	1.7241e-02
11.000	17.500	2.1107e-02
11.000	17.750	2.7182e-02
11.000	18.000	3.4336e-02
11.000	18.250	4.1146e-02
11.000	18.500	4.6978e-02
11.000	18.750	5.1927e-02
11.000	19.000	5.5401e-02
11.000	19.250	5.7411e-02
11.000	19.500	5.8473e-02
11.000	19.750	5.8323e-02
11.000	20.000	5.5910e-02
11.000	20.250	4.9761e-02
11.000	20.500	3.3068e-02
11.000	20.750	1.8258e-02
11.000	21.000	1.0486e-02
11.000	21.250	6.3071e-03
11.000	21.500	3.5663e-03
11.000	21.750	1.9554e-03
11.000	22.000	1.1534e-03
11.000	22.250	7.4074e-04
11.000	22.500	5.0156e-04
11.000	22.750	4.0321e-04
11.000	23.000	3.5391e-04
11.000	23.250	3.2658e-04
11.000	23.500	3.1630e-04
11.000	23.750	3.1226e-04
11.000	24.000	3.1062e-04
11.250	17.000	1.6440e-02
11.250	17.250	1.8257e-02
11.250	17.500	2.2731e-02
11.250	17.750	2.9540e-02
11.250	18.000	3.7045e-02
11.250	18.250	4.3885e-02
11.250	18.500	4.9764e-02
11.250	18.750	5.4847e-02
11.250	19.000	5.8620e-02
11.250	19.250	6.1280e-02
11.250	19.500	6.2672e-02
11.250	19.750	6.3249e-02
11.250	20.000	6.2540e-02
11.250	20.250	5.9691e-02
11.250	20.500	5.2816e-02
11.250	20.750	3.2749e-02
11.250	21.000	1.8008e-02
11.250	21.250	1.0404e-02
11.250	21.500	6.3443e-03
11.250	21.750	3.5376e-03
11.250	22.000	1.9507e-03
11.250	22.250	1.1530e-03
11.250	22.500	7.4041e-04
11.250	22.750	5.0132e-04
11.250	23.000	4.0321e-04
11.250	23.250	3.5391e-04
11.250	23.500	3.2658e-04
11.250	23.750	3.1630e-04
11.250	24.000	3.1226e-04
11.500	17.000	1.7752e-02
11.500	17.250	1.9571e-02
11.500	17.500	2.4351e-02
11.500	17.750	3.1595e-02
11.500	18.000	3.9367e-02
11.500	18.250	4.6302e-02
11.500	18.500	5.2189e-02
11.500	18.750	5.7443e-02
11.500	19.000	6.1445e-02
11.500	19.250	6.4454e-02
11.500	19.500	6.6277e-02
11.500	19.750	6.7220e-02
11.500	20.000	6.7349e-02
11.500	20.250	6.6288e-02
11.500	20.500	6.2883e-02
11.500	20.750	5.4375e-02
11.500	21.000	3.2030e-02
11.500	21.250	1.7676e-02
11.500	21.500	1.0466e-02
11.500	21.750	6.3687e-03
11.500	22.000	3.4981e-03
11.500	22.250	1.9422e-03
11.500	22.500	1.1520e-03
11.500	22.750	7.4000e-04
11.500	23.000	5.0099e-04
11.500	23.250	4.0305e-04
11.500	23.500	3.5391e-04
11.500	23.750	3.2658e-04
11.500	24.000	3.1638e-04
11.750	17.000	1.9559e-02
11.750	17.250	2.1197e-02
11.750	17.500	2.5956e-02
11.750	17.750	3.3275e-02
11.750	18.000	4.1156e-02
11.750	18.250	4.8187e-02
11.750	18.500	5.4278e-02
11.750	18.750	5.9566e-02
11.750	19.000	6.4067e-02
11.750	19.250	6.7283e-02
11.750	19.500	6.9539e-02
11.750	19.750	7.0730e-02
11.750	20.000	7.1041e-02
11.750	20.250	7.0660e-02
11.750	20.500	6.9176e-02
11.750	20.750	6.4976e-02
11.750	21.000	5.5225e-02
11.750	21.250	3.1078e-02
11.750	21.500	1.7682e-02
11.750	21.750	1.0548e-02
11.750	22.000	6.2909e-03
11.750	22.250	3.4486e-03
11.750	22.500	1.9285e-03
11.750	22.750	1.1496e-03
11.750	23.000	7.3909e-04
11.750	23.250	5.0058e-04
11.750	23.500	4.0288e-04
11.750	23.750	3.5383e-04
11.750	24.000	3.2658e-04
12.000	17.000	2.1714e-02
12.000	17.250	2.3117e-02
12.000	17.500	2.7520e-02
12.000	17.750	3.4496e-02
12.000	18.000	4.2228e-02
12.000	18.250	4.9440e-02
12.000	18.500	5.5998e-02
12.000	18.750	6.1764e-02
12.000	19.000	6.6475e-02
12.000	19.250	7.0007e-02
12.000	19.500	7.2316e-02
12.000	19.750	7.3584e-02
12.000	20.000	7.3982e-02
12.000	20.250	7.3776e-02
12.000	20.500	7.2850e-02
12.000	20.750	7.0711e-02
12.000	21.000	6.5441e-02
12.000	21.250	5.1422e-02
12.000	21.500	3.0883e-02
12.000	21.750	1.7412e-02
12.000	22.000	1.0596e-02
12.000	22.250	6.1172e-03
12.000	22.500	3.3830e-03
12.000	22.750	1.9076e-03
12.000	23.000	1.1450e-03
12.000	23.250	7.3745e-04
12.000	23.500	4.9984e-04
12.000	23.750	4.0255e-04
12.000	24.000	3.5374e-04
12.250	17.000	2.4313e-02
12.250	17.250	2.5262e-02
12.250	17.500	2.8898e-02
12.250	17.750	3.5098e-02
12.250	18.000	4.2586e-02
12.250	18.250	5.0244e-02
12.250	18.500	5.7444e-02
12.250	18.750	6.3738e-02
12.250	19.000	6.8703e-02
12.250	19.250	7.2403e-02
12.250	19.500	7.4752e-02
12.250	19.750	7.6031e-02
12.250	20.000	7.6423e-02
12.250	20.250	7.6152e-02
12.250	20.500	7.5189e-02
12.250	20.750	7.3615e-02
12.250	21.000	7.0555e-02
12.250	21.250	6.3697e-02
12.250	21.500	5.0913e-02
12.250	21.750	2.9492e-02
12.250	22.000	1.7092e-02
12.250	22.250	1.0527e-02
12.250	22.500	5.9162e-03
12.250	22.750	3.2998e-03
12.250	23.000	1.8784e-03
12.250	23.250	1.1365e-03
12.250	23.500	7.3416e-04
12.250	23.750	4.9860e-04
12.250	24.000	4.0206e-04
12.500	17.000	2.5049e-02
12.500	17.250	2.7490e-02
12.500	17.500	3.0199e-02
12.500	17.750	3.5336e-02
12.500	18.000	4.2407e-02
12.500	18.250	5.0364e-02
12.500	18.500	5.8261e-02
12.500	18.750	6.5222e-02
12.500	19.000	7.0612e-02
12.500	19.250	7.4357e-02
12.500	19.500	7.6812e-02
12.500	19.750	7.8133e-02
12.500	20.000	7.8481e-02
12.500	20.250	7.8127e-02
12.500	20.500	7.6913e-02
12.500	20.750	7.5324e-02
12.500	21.000	7.2914e-02
12.500	21.250	6.8403e-02
12.500	21.500	6.3859e-02
12.500	21.750	4.6183e-02
12.500	22.000	2.7666e-02
12.500	22.250	1.6596e-02
12.500	22.500	1.0178e-02
12.500	22.750	5.6693e-03
12.500	23.000	3.1921e-03
12.500	23.250	1.8382e-03
12.500	23.500	1.1218e-03
12.500	23.750	7.2848e-04
12.500	24.000	4.9679e-04
12.750	17.000	2.2451e-02
12.750	17.250	2.7617e-02
12.750	17.500	3.1026e-02
12.750	17.750	3.5607e-02
12.750	18.000	4.2194e-02
12.750	18.250	5.0234e-02
12.750	18.500	5.8378e-02
12.750	18.750	6.5870e-02
12.750	19.000	7.1799e-02
12.750	19.250	7.6021e-02
12.750	19.500	7.8388e-02
12.750	19.750	7.9661e-02
12.750	20.000	7.9941e-02
12.750	20.250	7.9625e-02
12.750	20.500	7.8364e-02
12.750	20.750	7.6375e-02
12.750	21.000	7.3998e-02
12.750	21.250	7.0240e-02
12.750	21.500	6.8529e-02
12.750	21.750	5.8528e-02
12.750	22.000	4.0748e-02
12.750	22.250	2.5425e-02
12.750	22.500	1.5792e-02
12.750	22.750	9.5556e-03
12.750	23.000	5.3729e-03
12.750	23.250	3.0559e-03
12.750	23.500	1.7801e-03
12.750	23.750	1.0979e-03
12.750	24.000	7.1868e-04
13.000	17.000	1.4545e-02
13.000	17.250	1.9214e-02
13.000	17.500	2.8302e-02
13.000	17.750	3.5701e-02
13.000	18.000	4.2373e-02
13.000	18.250	5.0093e-02
13.000	18.500	5.8152e-02
13.000	18.750	6.5778e-02
13.000	19.000	7.2138e-02
13.000	19.250	7.6714e-02
13.000	19.500	7.9321e-02
13.000	19.750	8.0703e-02
13.000	20.000	8.1103e-02
13.000	20.250	8.0613e-02
13.000	20.500	7.9623e-02
13.000	20.750	7.7803e-02
13.000	21.000	7.5068e-02
13.000	21.250	7.1399e-02
13.000	21.500	7.0925e-02
13.000	21.750	6.2955e-02
13.000	22.000	5.0509e-02
13.000	22.250	3.4857e-02
13.000	22.500	2.2615e-02
13.000	22.750	1.4427e-02
13.000	23.000	8.7351e-03
13.000	23.250	4.9946e-03
13.000	23.500	2.8779e-03
13.000	23.750	1.7021e-03
13.000	24.000	1.0613e-03
13.250	17.000	1.4051e-02
13.250	17.250	1.7129e-02
13.250	17.500	2.3171e-02
13.250	17.750	3.2206e-02
13.250	18.000	4.1012e-02
13.250	18.250	5.0146e-02
13.250	18.500	5.7911e-02
13.250	18.750	6.5402e-02
13.250	19.000	7.1782e-02
13.250	19.250	7.6747e-02
13.250	19.500	7.9748e-02
13.250	19.750	8.1432e-02
13.250	20.000	8.1941e-02
13.250	20.250	8.1488e-02
13.250	20.500	8.0293e-02
13.250	20.750	7.8557e-02
13.250	21.000	7.5925e-02
13.250	21.250	7.1936e-02
13.250	21.500	7.1104e-02
13.250	21.750	6.4500e-02
13.250	22.000	5.4242e-02
13.250	22.250	3.9985e-02
13.250	22.500	2.8373e-02
13.250	22.750	1.9002e-02
13.250	23.000	1.2420e-02
13.250	23.250	7.7321e-03
13.250	23.500	4.5356e-03
13.250	23.750	2.6625e-03
13.250	24.000	1.6013e-03
13.500	17.000	1.3595e-02
13.500	17.250	1.6578e-02
13.500	17.500	2.1790e-02
13.500	17.750	2.9429e-02
13.500	18.000	4.0007e-02
13.500	18.250	4.9038e-02
13.500	18.500	5.7817e-02
13.500	18.750	6.4945e-02
13.500	19.000	7.1430e-02
13.500	19.250	7.6387e-02
13.500	19.500	7.9820e-02
13.500	19.750	8.1632e-02
13.500	20.000	8.2413e-02
13.500	20.250	8.2289e-02
13.500	20.500	8.1085e-02
13.500	20.750	7.9028e-02
13.500	21.000	7.6023e-02
13.500	21.250	7.2046e-02
13.500	21.500	7.1101e-02
13.500	21.750	6.4887e-02
13.500	22.000	5.5124e-02
13.500	22.250	4.1034e-02
13.500	22.500	2.9061e-02
13.500	22.750	2.0906e-02
13.500	23.000	1.5215e-02
13.500	23.250	1.0272e-02
13.500	23.500	6.5899e-03
13.500	23.750	3.9834e-03
13.500	24.000	2.3944e-03
13.750	17.000	1.3305e-02
13.750	17.250	1.6082e-02
13.750	17.500	2.0786e-02
13.750	17.750	2.7066e-02
13.750	18.000	3.7088e-02
13.750	18.250	4.8284e-02
13.750	18.500	5.6509e-02
13.750	18.750	6.4797e-02
13.750	19.000	7.1053e-02
13.750	19.250	7.6372e-02
13.750	19.500	8.0083e-02
13.750	19.750	8.2234e-02
13.750	20.000	8.3136e-02
13.750	20.250	8.3090e-02
13.750	20.500	8.2083e-02
13.750	20.750	7.9952e-02
13.750	21.000	7.6640e-02
13.750	21.250	7.2050e-02
13.750	21.500	7.1309e-02
13.750	21.750	6.4906e-02
13.750	22.000	5.4928e-02
13.750	22.250	4.1102e-02
13.750	22.500	2.9461e-02
13.750	22.750	2.1077e-02
13.750	23.000	1.5285e-02
13.750	23.250	1.1103e-02
13.750	23.500	7.9919e-03
13.750	23.750	5.3500e-03
13.750	24.000	3.3519e-03
14.000	17.000	1.3066e-02
14.000	17.250	1.5456e-02
14.000	17.500	1.9898e-02
14.000	17.750	2.5770e-02
14.000	18.000	3.3918e-02
14.000	18.250	4.5046e-02
14.000	18.500	5.5812e-02
14.000	18.750	6.4182e-02
14.000	19.000	7.0855e-02
14.000	19.250	7.6206e-02
14.000	19.500	8.0441e-02
14.000	19.750	8.3114e-02
14.000	20.000	8.4360e-02
14.000	20.250	8.4290e-02
14.000	20.500	8.3343e-02
14.000	20.750	8.1299e-02
14.000	21.000	7.7974e-02
14.000	21.250	7.3230e-02
14.000	21.500	7.2138e-02
14.000	21.750	6.5636e-02
14.000	22.000	5.5353e-02
14.000	22.250	4.1100e-02
14.000	22.500	2.9716e-02
14.000	22.750	2.1025e-02
14.000	23.000	1.5179e-02
14.000	23.250	1.1049e-02
14.000	23.500	7.8567e-03
14.000	23.750	5.6560e-03
14.000	24.000	4.0113e-03
