nFnu 1.05000m  relative to Inci 1215.00A scaled to 1215A.
Hden   Phi(H)  Eq_Width (A)
 7.000	17.000	4.7402e-02
 7.000	17.250	3.0605e-02
 7.000	17.500	1.9461e-02
 7.000	17.750	1.3158e-02
 7.000	18.000	1.0019e-02
 7.000	18.250	8.4336e-03
 7.000	18.500	7.5492e-03
 7.000	18.750	7.1794e-03
 7.000	19.000	6.9937e-03
 7.000	19.250	6.8905e-03
 7.000	19.500	6.8507e-03
 7.000	19.750	6.8349e-03
 7.000	20.000	6.8282e-03
 7.000	20.250	6.8252e-03
 7.000	20.500	6.8237e-03
 7.000	20.750	6.8230e-03
 7.000	21.000	6.8226e-03
 7.000	21.250	6.8223e-03
 7.000	21.500	6.8222e-03
 7.000	21.750	6.8222e-03
 7.000	22.000	6.8222e-03
 7.000	22.250	6.8222e-03
 7.000	22.500	6.8223e-03
 7.000	22.750	6.8224e-03
 7.000	23.000	6.8224e-03
 7.000	23.250	6.8224e-03
 7.000	23.500	6.8224e-03
 7.000	23.750	6.8224e-03
 7.000	24.000	6.8224e-03
 7.250	17.000	5.2430e-02
 7.250	17.250	4.7524e-02
 7.250	17.500	3.0569e-02
 7.250	17.750	1.9445e-02
 7.250	18.000	1.3149e-02
 7.250	18.250	1.0017e-02
 7.250	18.500	8.4333e-03
 7.250	18.750	7.5492e-03
 7.250	19.000	7.1794e-03
 7.250	19.250	6.9937e-03
 7.250	19.500	6.8905e-03
 7.250	19.750	6.8506e-03
 7.250	20.000	6.8349e-03
 7.250	20.250	6.8282e-03
 7.250	20.500	6.8252e-03
 7.250	20.750	6.8237e-03
 7.250	21.000	6.8229e-03
 7.250	21.250	6.8225e-03
 7.250	21.500	6.8222e-03
 7.250	21.750	6.8221e-03
 7.250	22.000	6.8221e-03
 7.250	22.250	6.8221e-03
 7.250	22.500	6.8221e-03
 7.250	22.750	6.8221e-03
 7.250	23.000	6.8221e-03
 7.250	23.250	6.8221e-03
 7.250	23.500	6.8221e-03
 7.250	23.750	6.8221e-03
 7.250	24.000	6.8222e-03
 7.500	17.000	5.7000e-02
 7.500	17.250	5.3136e-02
 7.500	17.500	4.7605e-02
 7.500	17.750	3.0540e-02
 7.500	18.000	1.9430e-02
 7.500	18.250	1.3140e-02
 7.500	18.500	1.0014e-02
 7.500	18.750	8.4331e-03
 7.500	19.000	7.5491e-03
 7.500	19.250	7.1794e-03
 7.500	19.500	6.9937e-03
 7.500	19.750	6.8905e-03
 7.500	20.000	6.8507e-03
 7.500	20.250	6.8349e-03
 7.500	20.500	6.8282e-03
 7.500	20.750	6.8252e-03
 7.500	21.000	6.8237e-03
 7.500	21.250	6.8229e-03
 7.500	21.500	6.8225e-03
 7.500	21.750	6.8222e-03
 7.500	22.000	6.8221e-03
 7.500	22.250	6.8221e-03
 7.500	22.500	6.8221e-03
 7.500	22.750	6.8220e-03
 7.500	23.000	6.8220e-03
 7.500	23.250	6.8220e-03
 7.500	23.500	6.8224e-03
 7.500	23.750	6.8220e-03
 7.500	24.000	6.8221e-03
 7.750	17.000	5.8926e-02
 7.750	17.250	5.8265e-02
 7.750	17.500	5.3729e-02
 7.750	17.750	4.7661e-02
 7.750	18.000	3.0517e-02
 7.750	18.250	1.9417e-02
 7.750	18.500	1.3130e-02
 7.750	18.750	1.0010e-02
 7.750	19.000	8.4327e-03
 7.750	19.250	7.5490e-03
 7.750	19.500	7.1794e-03
 7.750	19.750	6.9937e-03
 7.750	20.000	6.8905e-03
 7.750	20.250	6.8507e-03
 7.750	20.500	6.8349e-03
 7.750	20.750	6.8282e-03
 7.750	21.000	6.8252e-03
 7.750	21.250	6.8237e-03
 7.750	21.500	6.8229e-03
 7.750	21.750	6.8225e-03
 7.750	22.000	6.8222e-03
 7.750	22.250	6.8221e-03
 7.750	22.500	6.8221e-03
 7.750	22.750	6.8220e-03
 7.750	23.000	6.8220e-03
 7.750	23.250	6.8220e-03
 7.750	23.500	6.8220e-03
 7.750	23.750	6.8220e-03
 7.750	24.000	6.8220e-03
 8.000	17.000	5.8929e-02
 8.000	17.250	5.9783e-02
 8.000	17.500	5.9162e-02
 8.000	17.750	5.3916e-02
 8.000	18.000	4.7425e-02
 8.000	18.250	3.0486e-02
 8.000	18.500	1.9404e-02
 8.000	18.750	1.3119e-02
 8.000	19.000	1.0006e-02
 8.000	19.250	8.4322e-03
 8.000	19.500	7.5489e-03
 8.000	19.750	7.1794e-03
 8.000	20.000	6.9937e-03
 8.000	20.250	6.8905e-03
 8.000	20.500	6.8507e-03
 8.000	20.750	6.8349e-03
 8.000	21.000	6.8282e-03
 8.000	21.250	6.8252e-03
 8.000	21.500	6.8237e-03
 8.000	21.750	6.8229e-03
 8.000	22.000	6.8225e-03
 8.000	22.250	6.8222e-03
 8.000	22.500	6.8221e-03
 8.000	22.750	6.8221e-03
 8.000	23.000	6.8220e-03
 8.000	23.250	6.8221e-03
 8.000	23.500	6.8220e-03
 8.000	23.750	6.8220e-03
 8.000	24.000	6.8220e-03
 8.250	17.000	5.9789e-02
 8.250	17.250	6.0332e-02
 8.250	17.500	6.1573e-02
 8.250	17.750	6.0889e-02
 8.250	18.000	5.4947e-02
 8.250	18.250	4.7533e-02
 8.250	18.500	3.0477e-02
 8.250	18.750	1.9391e-02
 8.250	19.000	1.3105e-02
 8.250	19.250	1.0001e-02
 8.250	19.500	8.4317e-03
 8.250	19.750	7.5487e-03
 8.250	20.000	7.1793e-03
 8.250	20.250	6.9937e-03
 8.250	20.500	6.8905e-03
 8.250	20.750	6.8507e-03
 8.250	21.000	6.8349e-03
 8.250	21.250	6.8282e-03
 8.250	21.500	6.8252e-03
 8.250	21.750	6.8237e-03
 8.250	22.000	6.8229e-03
 8.250	22.250	6.8225e-03
 8.250	22.500	6.8222e-03
 8.250	22.750	6.8221e-03
 8.250	23.000	6.8221e-03
 8.250	23.250	6.8220e-03
 8.250	23.500	6.8220e-03
 8.250	23.750	6.8220e-03
 8.250	24.000	6.8220e-03
 8.500	17.000	6.1067e-02
 8.500	17.250	6.1242e-02
 8.500	17.500	6.2315e-02
 8.500	17.750	6.4351e-02
 8.500	18.000	6.3980e-02
 8.500	18.250	5.6612e-02
 8.500	18.500	4.7779e-02
 8.500	18.750	3.0471e-02
 8.500	19.000	1.9377e-02
 8.500	19.250	1.3090e-02
 8.500	19.500	9.9951e-03
 8.500	19.750	8.4308e-03
 8.500	20.000	7.5486e-03
 8.500	20.250	7.1793e-03
 8.500	20.500	6.9937e-03
 8.500	20.750	6.8904e-03
 8.500	21.000	6.8506e-03
 8.500	21.250	6.8349e-03
 8.500	21.500	6.8282e-03
 8.500	21.750	6.8252e-03
 8.500	22.000	6.8237e-03
 8.500	22.250	6.8229e-03
 8.500	22.500	6.8225e-03
 8.500	22.750	6.8222e-03
 8.500	23.000	6.8221e-03
 8.500	23.250	6.8221e-03
 8.500	23.500	6.8220e-03
 8.500	23.750	6.8220e-03
 8.500	24.000	6.8220e-03
 8.750	17.000	6.2453e-02
 8.750	17.250	6.2630e-02
 8.750	17.500	6.3501e-02
 8.750	17.750	6.5853e-02
 8.750	18.000	6.9449e-02
 8.750	18.250	6.9245e-02
 8.750	18.500	6.0029e-02
 8.750	18.750	4.7888e-02
 8.750	19.000	3.0467e-02
 8.750	19.250	1.9363e-02
 8.750	19.500	1.3073e-02
 8.750	19.750	9.9889e-03
 8.750	20.000	8.4299e-03
 8.750	20.250	7.5483e-03
 8.750	20.500	7.1793e-03
 8.750	20.750	6.9937e-03
 8.750	21.000	6.8905e-03
 8.750	21.250	6.8507e-03
 8.750	21.500	6.8349e-03
 8.750	21.750	6.8282e-03
 8.750	22.000	6.8252e-03
 8.750	22.250	6.8237e-03
 8.750	22.500	6.8229e-03
 8.750	22.750	6.8225e-03
 8.750	23.000	6.8222e-03
 8.750	23.250	6.8221e-03
 8.750	23.500	6.8221e-03
 8.750	23.750	6.8220e-03
 8.750	24.000	6.8220e-03
 9.000	17.000	6.3763e-02
 9.000	17.250	6.4162e-02
 9.000	17.500	6.5288e-02
 9.000	17.750	6.7742e-02
 9.000	18.000	7.2657e-02
 9.000	18.250	7.8864e-02
 9.000	18.500	7.7330e-02
 9.000	18.750	6.3229e-02
 9.000	19.000	4.7919e-02
 9.000	19.250	3.0463e-02
 9.000	19.500	1.9351e-02
 9.000	19.750	1.3056e-02
 9.000	20.000	9.9825e-03
 9.000	20.250	8.4290e-03
 9.000	20.500	7.5481e-03
 9.000	20.750	7.1793e-03
 9.000	21.000	6.9937e-03
 9.000	21.250	6.8905e-03
 9.000	21.500	6.8507e-03
 9.000	21.750	6.8349e-03
 9.000	22.000	6.8282e-03
 9.000	22.250	6.8252e-03
 9.000	22.500	6.8237e-03
 9.000	22.750	6.8229e-03
 9.000	23.000	6.8225e-03
 9.000	23.250	6.8222e-03
 9.000	23.500	6.8221e-03
 9.000	23.750	6.8220e-03
 9.000	24.000	6.8220e-03
 9.250	17.000	6.4976e-02
 9.250	17.250	6.5661e-02
 9.250	17.500	6.7380e-02
 9.250	17.750	7.0713e-02
 9.250	18.000	7.6959e-02
 9.250	18.250	8.6066e-02
 9.250	18.500	9.3100e-02
 9.250	18.750	8.7553e-02
 9.250	19.000	6.9173e-02
 9.250	19.250	4.7995e-02
 9.250	19.500	3.0455e-02
 9.250	19.750	1.9342e-02
 9.250	20.000	1.3040e-02
 9.250	20.250	9.9761e-03
 9.250	20.500	8.4281e-03
 9.250	20.750	7.5479e-03
 9.250	21.000	7.1793e-03
 9.250	21.250	6.9937e-03
 9.250	21.500	6.8891e-03
 9.250	21.750	6.8486e-03
 9.250	22.000	6.8328e-03
 9.250	22.250	6.8263e-03
 9.250	22.500	6.8251e-03
 9.250	22.750	6.8236e-03
 9.250	23.000	6.8229e-03
 9.250	23.250	6.8225e-03
 9.250	23.500	6.8222e-03
 9.250	23.750	6.8221e-03
 9.250	24.000	6.8221e-03
 9.500	17.000	6.6299e-02
 9.500	17.250	6.7280e-02
 9.500	17.500	6.9675e-02
 9.500	17.750	7.4363e-02
 9.500	18.000	8.2906e-02
 9.500	18.250	9.4594e-02
 9.500	18.500	1.0592e-01
 9.500	18.750	1.1004e-01
 9.500	19.000	9.6744e-02
 9.500	19.250	7.4221e-02
 9.500	19.500	4.8091e-02
 9.500	19.750	3.0443e-02
 9.500	20.000	1.9337e-02
 9.500	20.250	1.3026e-02
 9.500	20.500	9.9702e-03
 9.500	20.750	8.4272e-03
 9.500	21.000	7.5461e-03
 9.500	21.250	7.1772e-03
 9.500	21.500	6.9916e-03
 9.500	21.750	6.8877e-03
 9.500	22.000	6.8471e-03
 9.500	22.250	6.8314e-03
 9.500	22.500	6.8246e-03
 9.500	22.750	6.8215e-03
 9.500	23.000	6.8200e-03
 9.500	23.250	6.8193e-03
 9.500	23.500	6.8197e-03
 9.500	23.750	6.8195e-03
 9.500	24.000	6.8193e-03
 9.750	17.000	6.7688e-02
 9.750	17.250	6.8927e-02
 9.750	17.500	7.2090e-02
 9.750	17.750	7.8521e-02
 9.750	18.000	9.0121e-02
 9.750	18.250	1.0555e-01
 9.750	18.500	1.1970e-01
 9.750	18.750	1.2886e-01
 9.750	19.000	1.2728e-01
 9.750	19.250	1.0770e-01
 9.750	19.500	7.9807e-02
 9.750	19.750	4.8112e-02
 9.750	20.000	3.0417e-02
 9.750	20.250	1.9337e-02
 9.750	20.500	1.3016e-02
 9.750	20.750	9.9653e-03
 9.750	21.000	8.4263e-03
 9.750	21.250	7.5468e-03
 9.750	21.500	7.1775e-03
 9.750	21.750	6.9917e-03
 9.750	22.000	6.8881e-03
 9.750	22.250	6.8476e-03
 9.750	22.500	6.8312e-03
 9.750	22.750	6.8247e-03
 9.750	23.000	6.8216e-03
 9.750	23.250	6.8201e-03
 9.750	23.500	6.8193e-03
 9.750	23.750	6.8188e-03
 9.750	24.000	6.8185e-03
10.000	17.000	6.9171e-02
10.000	17.250	7.0925e-02
10.000	17.500	7.5013e-02
10.000	17.750	8.3622e-02
10.000	18.000	9.9229e-02
10.000	18.250	1.1844e-01
10.000	18.500	1.3520e-01
10.000	18.750	1.4697e-01
10.000	19.000	1.5312e-01
10.000	19.250	1.4465e-01
10.000	19.500	1.2012e-01
10.000	19.750	7.9435e-02
10.000	20.000	4.7987e-02
10.000	20.250	3.0402e-02
10.000	20.500	1.9340e-02
10.000	20.750	1.3008e-02
10.000	21.000	9.9612e-03
10.000	21.250	8.4255e-03
10.000	21.500	7.5469e-03
10.000	21.750	7.1785e-03
10.000	22.000	6.9919e-03
10.000	22.250	6.8882e-03
10.000	22.500	6.8480e-03
10.000	22.750	6.8315e-03
10.000	23.000	6.8245e-03
10.000	23.250	6.8216e-03
10.000	23.500	6.8201e-03
10.000	23.750	6.8193e-03
10.000	24.000	6.8189e-03
10.250	17.000	7.1721e-02
10.250	17.250	7.3401e-02
10.250	17.500	7.8939e-02
10.250	17.750	9.0355e-02
10.250	18.000	1.0980e-01
10.250	18.250	1.3240e-01
10.250	18.500	1.5109e-01
10.250	18.750	1.6520e-01
10.250	19.000	1.7398e-01
10.250	19.250	1.7487e-01
10.250	19.500	1.6085e-01
10.250	19.750	1.2799e-01
10.250	20.000	7.9501e-02
10.250	20.250	4.7766e-02
10.250	20.500	3.0334e-02
10.250	20.750	1.9340e-02
10.250	21.000	1.3002e-02
10.250	21.250	9.9582e-03
10.250	21.500	8.4249e-03
10.250	21.750	7.5467e-03
10.250	22.000	7.1789e-03
10.250	22.250	6.9926e-03
10.250	22.500	6.8883e-03
10.250	22.750	6.8483e-03
10.250	23.000	6.8320e-03
10.250	23.250	6.8249e-03
10.250	23.500	6.8216e-03
10.250	23.750	6.8199e-03
10.250	24.000	6.8192e-03
10.500	17.000	7.5851e-02
10.500	17.250	7.7484e-02
10.500	17.500	8.4475e-02
10.500	17.750	9.9601e-02
10.500	18.000	1.2236e-01
10.500	18.250	1.4727e-01
10.500	18.500	1.6689e-01
10.500	18.750	1.8226e-01
10.500	19.000	1.9238e-01
10.500	19.250	1.9667e-01
10.500	19.500	1.9216e-01
10.500	19.750	1.7439e-01
10.500	20.000	1.3458e-01
10.500	20.250	7.8887e-02
10.500	20.500	4.7359e-02
10.500	20.750	3.0231e-02
10.500	21.000	1.9331e-02
10.500	21.250	1.2998e-02
10.500	21.500	9.9570e-03
10.500	21.750	8.4246e-03
10.500	22.000	7.5463e-03
10.500	22.250	7.1790e-03
10.500	22.500	6.9933e-03
10.500	22.750	6.8884e-03
10.500	23.000	6.8485e-03
10.500	23.250	6.8324e-03
10.500	23.500	6.8254e-03
10.500	23.750	6.8221e-03
10.500	24.000	6.8204e-03
10.750	17.000	8.2036e-02
10.750	17.250	8.3565e-02
10.750	17.500	9.2770e-02
10.750	17.750	1.1133e-01
10.750	18.000	1.3674e-01
10.750	18.250	1.6201e-01
10.750	18.500	1.8232e-01
10.750	18.750	1.9842e-01
10.750	19.000	2.0968e-01
10.750	19.250	2.1582e-01
10.750	19.500	2.1683e-01
10.750	19.750	2.0983e-01
10.750	20.000	1.8935e-01
10.750	20.250	1.3913e-01
10.750	20.500	7.8312e-02
10.750	20.750	4.7018e-02
10.750	21.000	3.0147e-02
10.750	21.250	1.9299e-02
10.750	21.500	1.2995e-02
10.750	21.750	9.9562e-03
10.750	22.000	8.4247e-03
10.750	22.250	7.5458e-03
10.750	22.500	7.1790e-03
10.750	22.750	6.9936e-03
10.750	23.000	6.8887e-03
10.750	23.250	6.8486e-03
10.750	23.500	6.8327e-03
10.750	23.750	6.8258e-03
10.750	24.000	6.8226e-03
11.000	17.000	9.0786e-02
11.000	17.250	9.1826e-02
11.000	17.500	1.0331e-01
11.000	17.750	1.2511e-01
11.000	18.000	1.5187e-01
11.000	18.250	1.7686e-01
11.000	18.500	1.9763e-01
11.000	18.750	2.1503e-01
11.000	19.000	2.2694e-01
11.000	19.250	2.3360e-01
11.000	19.500	2.3723e-01
11.000	19.750	2.3677e-01
11.000	20.000	2.2798e-01
11.000	20.250	2.0469e-01
11.000	20.500	1.3777e-01
11.000	20.750	7.7785e-02
11.000	21.000	4.6621e-02
11.000	21.250	3.0104e-02
11.000	21.500	1.9245e-02
11.000	21.750	1.2989e-02
11.000	22.000	9.9564e-03
11.000	22.250	8.4243e-03
11.000	22.500	7.5453e-03
11.000	22.750	7.1788e-03
11.000	23.000	6.9937e-03
11.000	23.250	6.8897e-03
11.000	23.500	6.8486e-03
11.000	23.750	6.8328e-03
11.000	24.000	6.8260e-03
11.250	17.000	1.0277e-01
11.250	17.250	1.0236e-01
11.250	17.500	1.1529e-01
11.250	17.750	1.3958e-01
11.250	18.000	1.6731e-01
11.250	18.250	1.9178e-01
11.250	18.500	2.1201e-01
11.250	18.750	2.2936e-01
11.250	19.000	2.4189e-01
11.250	19.250	2.5070e-01
11.250	19.500	2.5525e-01
11.250	19.750	2.5747e-01
11.250	20.000	2.5551e-01
11.250	20.250	2.4586e-01
11.250	20.500	2.2022e-01
11.250	20.750	1.3798e-01
11.250	21.000	7.7285e-02
11.250	21.250	4.6488e-02
11.250	21.500	3.0269e-02
11.250	21.750	1.9147e-02
11.250	22.000	1.2977e-02
11.250	22.250	9.9566e-03
11.250	22.500	8.4232e-03
11.250	22.750	7.5444e-03
11.250	23.000	7.1784e-03
11.250	23.250	6.9936e-03
11.250	23.500	6.8901e-03
11.250	23.750	6.8490e-03
11.250	24.000	6.8328e-03
11.500	17.000	1.1942e-01
11.500	17.250	1.1625e-01
11.500	17.500	1.2886e-01
11.500	17.750	1.5411e-01
11.500	18.000	1.8227e-01
11.500	18.250	2.0643e-01
11.500	18.500	2.2593e-01
11.500	18.750	2.4327e-01
11.500	19.000	2.5592e-01
11.500	19.250	2.6554e-01
11.500	19.500	2.7137e-01
11.500	19.750	2.7478e-01
11.500	20.000	2.7615e-01
11.500	20.250	2.7408e-01
11.500	20.500	2.6369e-01
11.500	20.750	2.3209e-01
11.500	21.000	1.3719e-01
11.500	21.250	7.6675e-02
11.500	21.500	4.6759e-02
11.500	21.750	3.0488e-02
11.500	22.000	1.9017e-02
11.500	22.250	1.2954e-02
11.500	22.500	9.9560e-03
11.500	22.750	8.4220e-03
11.500	23.000	7.5430e-03
11.500	23.250	7.1779e-03
11.500	23.500	6.9933e-03
11.500	23.750	6.8901e-03
11.500	24.000	6.8499e-03
11.750	17.000	1.4264e-01
11.750	17.250	1.3458e-01
11.750	17.500	1.4471e-01
11.750	17.750	1.6889e-01
11.750	18.000	1.9647e-01
11.750	18.250	2.2011e-01
11.750	18.500	2.3957e-01
11.750	18.750	2.5605e-01
11.750	19.000	2.7004e-01
11.750	19.250	2.7967e-01
11.750	19.500	2.8670e-01
11.750	19.750	2.9074e-01
11.750	20.000	2.9269e-01
11.750	20.250	2.9356e-01
11.750	20.500	2.9200e-01
11.750	20.750	2.8082e-01
11.750	21.000	2.4508e-01
11.750	21.250	1.3642e-01
11.750	21.500	7.6790e-02
11.750	21.750	4.7513e-02
11.750	22.000	3.0310e-02
11.750	22.250	1.8870e-02
11.750	22.500	1.2918e-02
11.750	22.750	9.9531e-03
11.750	23.000	8.4197e-03
11.750	23.250	7.5411e-03
11.750	23.500	7.1770e-03
11.750	23.750	6.9930e-03
11.750	24.000	6.8901e-03
12.000	17.000	1.7175e-01
12.000	17.250	1.5834e-01
12.000	17.500	1.6374e-01
12.000	17.750	1.8422e-01
12.000	18.000	2.0956e-01
12.000	18.250	2.3264e-01
12.000	18.500	2.5304e-01
12.000	18.750	2.7043e-01
12.000	19.000	2.8428e-01
12.000	19.250	2.9423e-01
12.000	19.500	3.0071e-01
12.000	19.750	3.0456e-01
12.000	20.000	3.0659e-01
12.000	20.250	3.0819e-01
12.000	20.500	3.0938e-01
12.000	20.750	3.0869e-01
12.000	21.000	2.9671e-01
12.000	21.250	2.3976e-01
12.000	21.500	1.3641e-01
12.000	21.750	7.6862e-02
12.000	22.000	4.8371e-02
12.000	22.250	2.9791e-02
12.000	22.500	1.8688e-02
12.000	22.750	1.2866e-02
12.000	23.000	9.9463e-03
12.000	23.250	8.4156e-03
12.000	23.500	7.5383e-03
12.000	23.750	7.1755e-03
12.000	24.000	6.9924e-03
12.250	17.000	2.0980e-01
12.250	17.250	1.8831e-01
12.250	17.500	1.8590e-01
12.250	17.750	1.9993e-01
12.250	18.000	2.2206e-01
12.250	18.250	2.4551e-01
12.250	18.500	2.6712e-01
12.250	18.750	2.8534e-01
12.250	19.000	2.9901e-01
12.250	19.250	3.0856e-01
12.250	19.500	3.1422e-01
12.250	19.750	3.1739e-01
12.250	20.000	3.1896e-01
12.250	20.250	3.2008e-01
12.250	20.500	3.2120e-01
12.250	20.750	3.2367e-01
12.250	21.000	3.2452e-01
12.250	21.250	3.1028e-01
12.250	21.500	2.4126e-01
12.250	21.750	1.3493e-01
12.250	22.000	7.7328e-02
12.250	22.250	4.9054e-02
12.250	22.500	2.9269e-02
12.250	22.750	1.8477e-02
12.250	23.000	1.2797e-02
12.250	23.250	9.9314e-03
12.250	23.500	8.4076e-03
12.250	23.750	7.5339e-03
12.250	24.000	7.1733e-03
12.500	17.000	2.3024e-01
12.500	17.250	2.2580e-01
12.500	17.500	2.1369e-01
12.500	17.750	2.1855e-01
12.500	18.000	2.3541e-01
12.500	18.250	2.5775e-01
12.500	18.500	2.8057e-01
12.500	18.750	3.0003e-01
12.500	19.000	3.1386e-01
12.500	19.250	3.2244e-01
12.500	19.500	3.2734e-01
12.500	19.750	3.2968e-01
12.500	20.000	3.3037e-01
12.500	20.250	3.3075e-01
12.500	20.500	3.3061e-01
12.500	20.750	3.3312e-01
12.500	21.000	3.3792e-01
12.500	21.250	3.3993e-01
12.500	21.500	3.1909e-01
12.500	21.750	2.3392e-01
12.500	22.000	1.3259e-01
12.500	22.250	7.7933e-02
12.500	22.500	4.8845e-02
12.500	22.750	2.8692e-02
12.500	23.000	1.8218e-02
12.500	23.250	1.2710e-02
12.500	23.500	9.9028e-03
12.500	23.750	8.3931e-03
12.500	24.000	7.5273e-03
12.750	17.000	2.1361e-01
12.750	17.250	2.4905e-01
12.750	17.500	2.4494e-01
12.750	17.750	2.4240e-01
12.750	18.000	2.5301e-01
12.750	18.250	2.7265e-01
12.750	18.500	2.9374e-01
12.750	18.750	3.1343e-01
12.750	19.000	3.2777e-01
12.750	19.250	3.3676e-01
12.750	19.500	3.3986e-01
12.750	19.750	3.4075e-01
12.750	20.000	3.4006e-01
12.750	20.250	3.3994e-01
12.750	20.500	3.3918e-01
12.750	20.750	3.3963e-01
12.750	21.000	3.4459e-01
12.750	21.250	3.5172e-01
12.750	21.500	3.4961e-01
12.750	21.750	3.2451e-01
12.750	22.000	2.2423e-01
12.750	22.250	1.2961e-01
12.750	22.500	7.8442e-02
12.750	22.750	4.7777e-02
12.750	23.000	2.8093e-02
12.750	23.250	1.7917e-02
12.750	23.500	1.2584e-02
12.750	23.750	9.8525e-03
12.750	24.000	8.3670e-03
13.000	17.000	1.2185e-01
13.000	17.250	1.5700e-01
13.000	17.500	2.3364e-01
13.000	17.750	2.6751e-01
13.000	18.000	2.7693e-01
13.000	18.250	2.9197e-01
13.000	18.500	3.0943e-01
13.000	18.750	3.2685e-01
13.000	19.000	3.4054e-01
13.000	19.250	3.4902e-01
13.000	19.500	3.5142e-01
13.000	19.750	3.5117e-01
13.000	20.000	3.4971e-01
13.000	20.250	3.4768e-01
13.000	20.500	3.4738e-01
13.000	20.750	3.4817e-01
13.000	21.000	3.5115e-01
13.000	21.250	3.5869e-01
13.000	21.500	3.6402e-01
13.000	21.750	3.6080e-01
13.000	22.000	3.1969e-01
13.000	22.250	2.1173e-01
13.000	22.500	1.2577e-01
13.000	22.750	7.7466e-02
13.000	23.000	4.6244e-02
13.000	23.250	2.7333e-02
13.000	23.500	1.7529e-02
13.000	23.750	1.2423e-02
13.000	24.000	9.7705e-03
13.250	17.000	1.2059e-01
13.250	17.250	1.3888e-01
13.250	17.500	1.8124e-01
13.250	17.750	2.4245e-01
13.250	18.000	2.8473e-01
13.250	18.250	3.1742e-01
13.250	18.500	3.3031e-01
13.250	18.750	3.4328e-01
13.250	19.000	3.5358e-01
13.250	19.250	3.6098e-01
13.250	19.500	3.6282e-01
13.250	19.750	3.6195e-01
13.250	20.000	3.5928e-01
13.250	20.250	3.5609e-01
13.250	20.500	3.5371e-01
13.250	20.750	3.5397e-01
13.250	21.000	3.5687e-01
13.250	21.250	3.6225e-01
13.250	21.500	3.6527e-01
13.250	21.750	3.7350e-01
13.250	22.000	3.6416e-01
13.250	22.250	3.0428e-01
13.250	22.500	1.9575e-01
13.250	22.750	1.1845e-01
13.250	23.000	7.3173e-02
13.250	23.250	4.4250e-02
13.250	23.500	2.6459e-02
13.250	23.750	1.7107e-02
13.250	24.000	1.2227e-02
13.500	17.000	1.1944e-01
13.500	17.250	1.3918e-01
13.500	17.500	1.7489e-01
13.500	17.750	2.2494e-01
13.500	18.000	2.9498e-01
13.500	18.250	3.3188e-01
13.500	18.500	3.5718e-01
13.500	18.750	3.6430e-01
13.500	19.000	3.7108e-01
13.500	19.250	3.7411e-01
13.500	19.500	3.7510e-01
13.500	19.750	3.7238e-01
13.500	20.000	3.6891e-01
13.500	20.250	3.6536e-01
13.500	20.500	3.6159e-01
13.500	20.750	3.5918e-01
13.500	21.000	3.5918e-01
13.500	21.250	3.6375e-01
13.500	21.500	3.6551e-01
13.500	21.750	3.7621e-01
13.500	22.000	3.8263e-01
13.500	22.250	3.5296e-01
13.500	22.500	2.7612e-01
13.500	22.750	1.7634e-01
13.500	23.000	1.0811e-01
13.500	23.250	6.8291e-02
13.500	23.500	4.1899e-02
13.500	23.750	2.5390e-02
13.500	24.000	1.6581e-02
13.750	17.000	1.1952e-01
13.750	17.250	1.3939e-01
13.750	17.500	1.7227e-01
13.750	17.750	2.1026e-01
13.750	18.000	2.7961e-01
13.750	18.250	3.4971e-01
13.750	18.500	3.7279e-01
13.750	18.750	3.9268e-01
13.750	19.000	3.9358e-01
13.750	19.250	3.9375e-01
13.750	19.500	3.9127e-01
13.750	19.750	3.8693e-01
13.750	20.000	3.8153e-01
13.750	20.250	3.7631e-01
13.750	20.500	3.7168e-01
13.750	20.750	3.6761e-01
13.750	21.000	3.6492e-01
13.750	21.250	3.6521e-01
13.750	21.500	3.6722e-01
13.750	21.750	3.7650e-01
13.750	22.000	3.8448e-01
13.750	22.250	3.7225e-01
13.750	22.500	3.1838e-01
13.750	22.750	2.4290e-01
13.750	23.000	1.5401e-01
13.750	23.250	9.7078e-02
13.750	23.500	6.2269e-02
13.750	23.750	3.9108e-02
13.750	24.000	2.4083e-02
14.000	17.000	1.1945e-01
14.000	17.250	1.3663e-01
14.000	17.500	1.7038e-01
14.000	17.750	2.0734e-01
14.000	18.000	2.5870e-01
14.000	18.250	3.3432e-01
14.000	18.500	3.9448e-01
14.000	18.750	4.1865e-01
14.000	19.000	4.2237e-01
14.000	19.250	4.1772e-01
14.000	19.500	4.1232e-01
14.000	19.750	4.0553e-01
14.000	20.000	3.9868e-01
14.000	20.250	3.9098e-01
14.000	20.500	3.8474e-01
14.000	20.750	3.7960e-01
14.000	21.000	3.7577e-01
14.000	21.250	3.7442e-01
14.000	21.500	3.7336e-01
14.000	21.750	3.8194e-01
14.000	22.000	3.9124e-01
14.000	22.250	3.8042e-01
14.000	22.500	3.2252e-01
14.000	22.750	2.4621e-01
14.000	23.000	2.0586e-01
14.000	23.250	1.3273e-01
14.000	23.500	8.5857e-02
14.000	23.750	5.6411e-02
14.000	24.000	3.5835e-02
