InwT 6500.00A  relative to Inci 1215.00A scaled to 1215A.
Hden   Phi(H)  Eq_Width (A)
 7.000	17.000	5.1669e-02
 7.000	17.250	3.6630e-02
 7.000	17.500	2.7160e-02
 7.000	17.750	2.2207e-02
 7.000	18.000	1.9804e-02
 7.000	18.250	1.8622e-02
 7.000	18.500	1.7972e-02
 7.000	18.750	1.7700e-02
 7.000	19.000	1.7564e-02
 7.000	19.250	1.7488e-02
 7.000	19.500	1.7459e-02
 7.000	19.750	1.7447e-02
 7.000	20.000	1.7442e-02
 7.000	20.250	1.7439e-02
 7.000	20.500	1.7438e-02
 7.000	20.750	1.7438e-02
 7.000	21.000	1.7437e-02
 7.000	21.250	1.7437e-02
 7.000	21.500	1.7437e-02
 7.000	21.750	1.7437e-02
 7.000	22.000	1.7438e-02
 7.000	22.250	1.7438e-02
 7.000	22.500	1.7438e-02
 7.000	22.750	1.7438e-02
 7.000	23.000	1.7438e-02
 7.000	23.250	1.7438e-02
 7.000	23.500	1.7438e-02
 7.000	23.750	1.7438e-02
 7.000	24.000	1.7438e-02
 7.250	17.000	5.4282e-02
 7.250	17.250	5.1752e-02
 7.250	17.500	3.6578e-02
 7.250	17.750	2.7144e-02
 7.250	18.000	2.2200e-02
 7.250	18.250	1.9802e-02
 7.250	18.500	1.8621e-02
 7.250	18.750	1.7972e-02
 7.250	19.000	1.7700e-02
 7.250	19.250	1.7564e-02
 7.250	19.500	1.7488e-02
 7.250	19.750	1.7459e-02
 7.250	20.000	1.7447e-02
 7.250	20.250	1.7442e-02
 7.250	20.500	1.7439e-02
 7.250	20.750	1.7438e-02
 7.250	21.000	1.7438e-02
 7.250	21.250	1.7437e-02
 7.250	21.500	1.7437e-02
 7.250	21.750	1.7437e-02
 7.250	22.000	1.7437e-02
 7.250	22.250	1.7437e-02
 7.250	22.500	1.7437e-02
 7.250	22.750	1.7437e-02
 7.250	23.000	1.7437e-02
 7.250	23.250	1.7437e-02
 7.250	23.500	1.7437e-02
 7.250	23.750	1.7437e-02
 7.250	24.000	1.7438e-02
 7.500	17.000	5.7005e-02
 7.500	17.250	5.5001e-02
 7.500	17.500	5.1797e-02
 7.500	17.750	3.6536e-02
 7.500	18.000	2.7130e-02
 7.500	18.250	2.2191e-02
 7.500	18.500	1.9800e-02
 7.500	18.750	1.8621e-02
 7.500	19.000	1.7971e-02
 7.500	19.250	1.7700e-02
 7.500	19.500	1.7564e-02
 7.500	19.750	1.7488e-02
 7.500	20.000	1.7459e-02
 7.500	20.250	1.7447e-02
 7.500	20.500	1.7442e-02
 7.500	20.750	1.7439e-02
 7.500	21.000	1.7438e-02
 7.500	21.250	1.7438e-02
 7.500	21.500	1.7437e-02
 7.500	21.750	1.7437e-02
 7.500	22.000	1.7437e-02
 7.500	22.250	1.7437e-02
 7.500	22.500	1.7437e-02
 7.500	22.750	1.7437e-02
 7.500	23.000	1.7437e-02
 7.500	23.250	1.7437e-02
 7.500	23.500	1.7438e-02
 7.500	23.750	1.7437e-02
 7.500	24.000	1.7437e-02
 7.750	17.000	5.7421e-02
 7.750	17.250	5.8301e-02
 7.750	17.500	5.5603e-02
 7.750	17.750	5.1822e-02
 7.750	18.000	3.6501e-02
 7.750	18.250	2.7117e-02
 7.750	18.500	2.2182e-02
 7.750	18.750	1.9797e-02
 7.750	19.000	1.8621e-02
 7.750	19.250	1.7971e-02
 7.750	19.500	1.7700e-02
 7.750	19.750	1.7564e-02
 7.750	20.000	1.7488e-02
 7.750	20.250	1.7459e-02
 7.750	20.500	1.7447e-02
 7.750	20.750	1.7442e-02
 7.750	21.000	1.7439e-02
 7.750	21.250	1.7438e-02
 7.750	21.500	1.7438e-02
 7.750	21.750	1.7437e-02
 7.750	22.000	1.7437e-02
 7.750	22.250	1.7437e-02
 7.750	22.500	1.7437e-02
 7.750	22.750	1.7437e-02
 7.750	23.000	1.7437e-02
 7.750	23.250	1.7437e-02
 7.750	23.500	1.7437e-02
 7.750	23.750	1.7437e-02
 7.750	24.000	1.7437e-02
 8.000	17.000	5.6416e-02
 8.000	17.250	5.8350e-02
 8.000	17.500	5.9284e-02
 8.000	17.750	5.5828e-02
 8.000	18.000	5.1570e-02
 8.000	18.250	3.6467e-02
 8.000	18.500	2.7105e-02
 8.000	18.750	2.2172e-02
 8.000	19.000	1.9793e-02
 8.000	19.250	1.8620e-02
 8.000	19.500	1.7971e-02
 8.000	19.750	1.7700e-02
 8.000	20.000	1.7564e-02
 8.000	20.250	1.7488e-02
 8.000	20.500	1.7459e-02
 8.000	20.750	1.7447e-02
 8.000	21.000	1.7442e-02
 8.000	21.250	1.7439e-02
 8.000	21.500	1.7438e-02
 8.000	21.750	1.7438e-02
 8.000	22.000	1.7437e-02
 8.000	22.250	1.7437e-02
 8.000	22.500	1.7437e-02
 8.000	22.750	1.7437e-02
 8.000	23.000	1.7437e-02
 8.000	23.250	1.7437e-02
 8.000	23.500	1.7437e-02
 8.000	23.750	1.7437e-02
 8.000	24.000	1.7437e-02
 8.250	17.000	5.6623e-02
 8.250	17.250	5.7824e-02
 8.250	17.500	6.0176e-02
 8.250	17.750	6.1060e-02
 8.250	18.000	5.6904e-02
 8.250	18.250	5.1658e-02
 8.250	18.500	3.6448e-02
 8.250	18.750	2.7093e-02
 8.250	19.000	2.2160e-02
 8.250	19.250	1.9789e-02
 8.250	19.500	1.8620e-02
 8.250	19.750	1.7971e-02
 8.250	20.000	1.7700e-02
 8.250	20.250	1.7564e-02
 8.250	20.500	1.7488e-02
 8.250	20.750	1.7459e-02
 8.250	21.000	1.7447e-02
 8.250	21.250	1.7442e-02
 8.250	21.500	1.7439e-02
 8.250	21.750	1.7438e-02
 8.250	22.000	1.7438e-02
 8.250	22.250	1.7437e-02
 8.250	22.500	1.7437e-02
 8.250	22.750	1.7437e-02
 8.250	23.000	1.7437e-02
 8.250	23.250	1.7437e-02
 8.250	23.500	1.7437e-02
 8.250	23.750	1.7437e-02
 8.250	24.000	1.7437e-02
 8.500	17.000	5.7509e-02
 8.500	17.250	5.8074e-02
 8.500	17.500	5.9824e-02
 8.500	17.750	6.3007e-02
 8.500	18.000	6.4233e-02
 8.500	18.250	5.8626e-02
 8.500	18.500	5.1879e-02
 8.500	18.750	3.6435e-02
 8.500	19.000	2.7080e-02
 8.500	19.250	2.2147e-02
 8.500	19.500	1.9784e-02
 8.500	19.750	1.8619e-02
 8.500	20.000	1.7971e-02
 8.500	20.250	1.7700e-02
 8.500	20.500	1.7564e-02
 8.500	20.750	1.7488e-02
 8.500	21.000	1.7459e-02
 8.500	21.250	1.7447e-02
 8.500	21.500	1.7442e-02
 8.500	21.750	1.7439e-02
 8.500	22.000	1.7438e-02
 8.500	22.250	1.7438e-02
 8.500	22.500	1.7437e-02
 8.500	22.750	1.7437e-02
 8.500	23.000	1.7437e-02
 8.500	23.250	1.7437e-02
 8.500	23.500	1.7437e-02
 8.500	23.750	1.7437e-02
 8.500	24.000	1.7437e-02
 8.750	17.000	5.8641e-02
 8.750	17.250	5.9063e-02
 8.750	17.500	6.0334e-02
 8.750	17.750	6.3394e-02
 8.750	18.000	6.8171e-02
 8.750	18.250	6.9577e-02
 8.750	18.500	6.2133e-02
 8.750	18.750	5.1952e-02
 8.750	19.000	3.6423e-02
 8.750	19.250	2.7068e-02
 8.750	19.500	2.2133e-02
 8.750	19.750	1.9779e-02
 8.750	20.000	1.8619e-02
 8.750	20.250	1.7971e-02
 8.750	20.500	1.7700e-02
 8.750	20.750	1.7564e-02
 8.750	21.000	1.7488e-02
 8.750	21.250	1.7459e-02
 8.750	21.500	1.7447e-02
 8.750	21.750	1.7442e-02
 8.750	22.000	1.7439e-02
 8.750	22.250	1.7438e-02
 8.750	22.500	1.7438e-02
 8.750	22.750	1.7437e-02
 8.750	23.000	1.7437e-02
 8.750	23.250	1.7437e-02
 8.750	23.500	1.7437e-02
 8.750	23.750	1.7437e-02
 8.750	24.000	1.7437e-02
 9.000	17.000	5.9757e-02
 9.000	17.250	6.0334e-02
 9.000	17.500	6.1699e-02
 9.000	17.750	6.4556e-02
 9.000	18.000	7.0212e-02
 9.000	18.250	7.7644e-02
 9.000	18.500	7.7687e-02
 9.000	18.750	6.5263e-02
 9.000	19.000	5.1945e-02
 9.000	19.250	3.6410e-02
 9.000	19.500	2.7057e-02
 9.000	19.750	2.2118e-02
 9.000	20.000	1.9774e-02
 9.000	20.250	1.8618e-02
 9.000	20.500	1.7971e-02
 9.000	20.750	1.7700e-02
 9.000	21.000	1.7564e-02
 9.000	21.250	1.7488e-02
 9.000	21.500	1.7459e-02
 9.000	21.750	1.7447e-02
 9.000	22.000	1.7442e-02
 9.000	22.250	1.7439e-02
 9.000	22.500	1.7438e-02
 9.000	22.750	1.7438e-02
 9.000	23.000	1.7437e-02
 9.000	23.250	1.7437e-02
 9.000	23.500	1.7437e-02
 9.000	23.750	1.7437e-02
 9.000	24.000	1.7437e-02
 9.250	17.000	6.0772e-02
 9.250	17.250	6.1634e-02
 9.250	17.500	6.3500e-02
 9.250	17.750	6.7047e-02
 9.250	18.000	7.3719e-02
 9.250	18.250	8.3608e-02
 9.250	18.500	9.1838e-02
 9.250	18.750	8.7815e-02
 9.250	19.000	7.1055e-02
 9.250	19.250	5.1991e-02
 9.250	19.500	3.6390e-02
 9.250	19.750	2.7049e-02
 9.250	20.000	2.2104e-02
 9.250	20.250	1.9769e-02
 9.250	20.500	1.8617e-02
 9.250	20.750	1.7971e-02
 9.250	21.000	1.7700e-02
 9.250	21.250	1.7564e-02
 9.250	21.500	1.7485e-02
 9.250	21.750	1.7453e-02
 9.250	22.000	1.7441e-02
 9.250	22.250	1.7437e-02
 9.250	22.500	1.7439e-02
 9.250	22.750	1.7438e-02
 9.250	23.000	1.7437e-02
 9.250	23.250	1.7437e-02
 9.250	23.500	1.7437e-02
 9.250	23.750	1.7437e-02
 9.250	24.000	1.7437e-02
 9.500	17.000	6.1844e-02
 9.500	17.250	6.3050e-02
 9.500	17.500	6.5560e-02
 9.500	17.750	7.0341e-02
 9.500	18.000	7.9097e-02
 9.500	18.250	9.1223e-02
 9.500	18.500	1.0329e-01
 9.500	18.750	1.0848e-01
 9.500	19.000	9.6591e-02
 9.500	19.250	7.5572e-02
 9.500	19.500	5.2047e-02
 9.500	19.750	3.6358e-02
 9.500	20.000	2.7044e-02
 9.500	20.250	2.2092e-02
 9.500	20.500	1.9764e-02
 9.500	20.750	1.8616e-02
 9.500	21.000	1.7967e-02
 9.500	21.250	1.7695e-02
 9.500	21.500	1.7559e-02
 9.500	21.750	1.7481e-02
 9.500	22.000	1.7449e-02
 9.500	22.250	1.7438e-02
 9.500	22.500	1.7432e-02
 9.500	22.750	1.7430e-02
 9.500	23.000	1.7429e-02
 9.500	23.250	1.7428e-02
 9.500	23.500	1.7430e-02
 9.500	23.750	1.7430e-02
 9.500	24.000	1.7430e-02
 9.750	17.000	6.2869e-02
 9.750	17.250	6.4452e-02
 9.750	17.500	6.7743e-02
 9.750	17.750	7.4201e-02
 9.750	18.000	8.5854e-02
 9.750	18.250	1.0146e-01
 9.750	18.500	1.1599e-01
 9.750	18.750	1.2578e-01
 9.750	19.000	1.2516e-01
 9.750	19.250	1.0697e-01
 9.750	19.500	8.0538e-02
 9.750	19.750	5.1999e-02
 9.750	20.000	3.6305e-02
 9.750	20.250	2.7042e-02
 9.750	20.500	2.2083e-02
 9.750	20.750	1.9760e-02
 9.750	21.000	1.8615e-02
 9.750	21.250	1.7969e-02
 9.750	21.500	1.7696e-02
 9.750	21.750	1.7559e-02
 9.750	22.000	1.7482e-02
 9.750	22.250	1.7451e-02
 9.750	22.500	1.7437e-02
 9.750	22.750	1.7433e-02
 9.750	23.000	1.7430e-02
 9.750	23.250	1.7429e-02
 9.750	23.500	1.7428e-02
 9.750	23.750	1.7428e-02
 9.750	24.000	1.7428e-02
10.000	17.000	6.3821e-02
10.000	17.250	6.6099e-02
10.000	17.500	7.0396e-02
10.000	17.750	7.9010e-02
10.000	18.000	9.4553e-02
10.000	18.250	1.1374e-01
10.000	18.500	1.3062e-01
10.000	18.750	1.4267e-01
10.000	19.000	1.4944e-01
10.000	19.250	1.4200e-01
10.000	19.500	1.1866e-01
10.000	19.750	7.9781e-02
10.000	20.000	5.1754e-02
10.000	20.250	3.6237e-02
10.000	20.500	2.7036e-02
10.000	20.750	2.2075e-02
10.000	21.000	1.9757e-02
10.000	21.250	1.8615e-02
10.000	21.500	1.7969e-02
10.000	21.750	1.7698e-02
10.000	22.000	1.7559e-02
10.000	22.250	1.7483e-02
10.000	22.500	1.7452e-02
10.000	22.750	1.7438e-02
10.000	23.000	1.7432e-02
10.000	23.250	1.7430e-02
10.000	23.500	1.7429e-02
10.000	23.750	1.7428e-02
10.000	24.000	1.7428e-02
10.250	17.000	6.5472e-02
10.250	17.250	6.8060e-02
10.250	17.500	7.3956e-02
10.250	17.750	8.5412e-02
10.250	18.000	1.0473e-01
10.250	18.250	1.2717e-01
10.250	18.500	1.4579e-01
10.250	18.750	1.5998e-01
10.250	19.000	1.6913e-01
10.250	19.250	1.7075e-01
10.250	19.500	1.5751e-01
10.250	19.750	1.2486e-01
10.250	20.000	7.9699e-02
10.250	20.250	5.1352e-02
10.250	20.500	3.6093e-02
10.250	20.750	2.7027e-02
10.250	21.000	2.2069e-02
10.250	21.250	1.9754e-02
10.250	21.500	1.8614e-02
10.250	21.750	1.7969e-02
10.250	22.000	1.7699e-02
10.250	22.250	1.7561e-02
10.250	22.500	1.7483e-02
10.250	22.750	1.7453e-02
10.250	23.000	1.7439e-02
10.250	23.250	1.7433e-02
10.250	23.500	1.7430e-02
10.250	23.750	1.7429e-02
10.250	24.000	1.7428e-02
10.500	17.000	6.8145e-02
10.500	17.250	7.1269e-02
10.500	17.500	7.8970e-02
10.500	17.750	9.4222e-02
10.500	18.000	1.1685e-01
10.500	18.250	1.4156e-01
10.500	18.500	1.6102e-01
10.500	18.750	1.7636e-01
10.500	19.000	1.8663e-01
10.500	19.250	1.9113e-01
10.500	19.500	1.8703e-01
10.500	19.750	1.6985e-01
10.500	20.000	1.3001e-01
10.500	20.250	7.8780e-02
10.500	20.500	5.0802e-02
10.500	20.750	3.5925e-02
10.500	21.000	2.7000e-02
10.500	21.250	2.2062e-02
10.500	21.500	1.9752e-02
10.500	21.750	1.8614e-02
10.500	22.000	1.7969e-02
10.500	22.250	1.7700e-02
10.500	22.500	1.7563e-02
10.500	22.750	1.7483e-02
10.500	23.000	1.7453e-02
10.500	23.250	1.7440e-02
10.500	23.500	1.7434e-02
10.500	23.750	1.7431e-02
10.500	24.000	1.7430e-02
10.750	17.000	7.2076e-02
10.750	17.250	7.5930e-02
10.750	17.500	8.6384e-02
10.750	17.750	1.0534e-01
10.750	18.000	1.3068e-01
10.750	18.250	1.5577e-01
10.750	18.500	1.7598e-01
10.750	18.750	1.9207e-01
10.750	19.000	2.0332e-01
10.750	19.250	2.0945e-01
10.750	19.500	2.1052e-01
10.750	19.750	2.0382e-01
10.750	20.000	1.8379e-01
10.750	20.250	1.3408e-01
10.750	20.500	7.7951e-02
10.750	20.750	5.0237e-02
10.750	21.000	3.5752e-02
10.750	21.250	2.6950e-02
10.750	21.500	2.2054e-02
10.750	21.750	1.9750e-02
10.750	22.000	1.8613e-02
10.750	22.250	1.7969e-02
10.750	22.500	1.7700e-02
10.750	22.750	1.7564e-02
10.750	23.000	1.7484e-02
10.750	23.250	1.7453e-02
10.750	23.500	1.7441e-02
10.750	23.750	1.7435e-02
10.750	24.000	1.7433e-02
11.000	17.000	7.7469e-02
11.000	17.250	8.1997e-02
11.000	17.500	9.5509e-02
11.000	17.750	1.1816e-01
11.000	18.000	1.4503e-01
11.000	18.250	1.7003e-01
11.000	18.500	1.9087e-01
11.000	18.750	2.0838e-01
11.000	19.000	2.2034e-01
11.000	19.250	2.2696e-01
11.000	19.500	2.3053e-01
11.000	19.750	2.3007e-01
11.000	20.000	2.2145e-01
11.000	20.250	1.9849e-01
11.000	20.500	1.3210e-01
11.000	20.750	7.7193e-02
11.000	21.000	4.9649e-02
11.000	21.250	3.5597e-02
11.000	21.500	2.6879e-02
11.000	21.750	2.2040e-02
11.000	22.000	1.9747e-02
11.000	22.250	1.8611e-02
11.000	22.500	1.7968e-02
11.000	22.750	1.7699e-02
11.000	23.000	1.7564e-02
11.000	23.250	1.7486e-02
11.000	23.500	1.7453e-02
11.000	23.750	1.7441e-02
11.000	24.000	1.7436e-02
11.250	17.000	8.4487e-02
11.250	17.250	8.9268e-02
11.250	17.500	1.0529e-01
11.250	17.750	1.3108e-01
11.250	18.000	1.5932e-01
11.250	18.250	1.8416e-01
11.250	18.500	2.0486e-01
11.250	18.750	2.2253e-01
11.250	19.000	2.3531e-01
11.250	19.250	2.4420e-01
11.250	19.500	2.4870e-01
11.250	19.750	2.5081e-01
11.250	20.000	2.4872e-01
11.250	20.250	2.3903e-01
11.250	20.500	2.1359e-01
11.250	20.750	1.3248e-01
11.250	21.000	7.6479e-02
11.250	21.250	4.9302e-02
11.250	21.500	3.5601e-02
11.250	21.750	2.6776e-02
11.250	22.000	2.2019e-02
11.250	22.250	1.9741e-02
11.250	22.500	1.8609e-02
11.250	22.750	1.7967e-02
11.250	23.000	1.7699e-02
11.250	23.250	1.7564e-02
11.250	23.500	1.7487e-02
11.250	23.750	1.7454e-02
11.250	24.000	1.7441e-02
11.500	17.000	9.3721e-02
11.500	17.250	9.8217e-02
11.500	17.500	1.1545e-01
11.500	17.750	1.4310e-01
11.500	18.000	1.7244e-01
11.500	18.250	1.9759e-01
11.500	18.500	2.1809e-01
11.500	18.750	2.3610e-01
11.500	19.000	2.4937e-01
11.500	19.250	2.5932e-01
11.500	19.500	2.6526e-01
11.500	19.750	2.6854e-01
11.500	20.000	2.6962e-01
11.500	20.250	2.6718e-01
11.500	20.500	2.5651e-01
11.500	20.750	2.2453e-01
11.500	21.000	1.3161e-01
11.500	21.250	7.5564e-02
11.500	21.500	4.9215e-02
11.500	21.750	3.5666e-02
11.500	22.000	2.6645e-02
11.500	22.250	2.1990e-02
11.500	22.500	1.9734e-02
11.500	22.750	1.8604e-02
11.500	23.000	1.7965e-02
11.500	23.250	1.7698e-02
11.500	23.500	1.7563e-02
11.500	23.750	1.7488e-02
11.500	24.000	1.7457e-02
11.750	17.000	1.0580e-01
11.750	17.250	1.0907e-01
11.750	17.500	1.2602e-01
11.750	17.750	1.5388e-01
11.750	18.000	1.8362e-01
11.750	18.250	2.0919e-01
11.750	18.500	2.3045e-01
11.750	18.750	2.4829e-01
11.750	19.000	2.6321e-01
11.750	19.250	2.7356e-01
11.750	19.500	2.8094e-01
11.750	19.750	2.8499e-01
11.750	20.000	2.8664e-01
11.750	20.250	2.8697e-01
11.750	20.500	2.8468e-01
11.750	20.750	2.7287e-01
11.750	21.000	2.3700e-01
11.750	21.250	1.3081e-01
11.750	21.500	7.5230e-02
11.750	21.750	4.9534e-02
11.750	22.000	3.5431e-02
11.750	22.250	2.6504e-02
11.750	22.500	2.1949e-02
11.750	22.750	1.9725e-02
11.750	23.000	1.8598e-02
11.750	23.250	1.7962e-02
11.750	23.500	1.7696e-02
11.750	23.750	1.7563e-02
11.750	24.000	1.7488e-02
12.000	17.000	1.1998e-01
12.000	17.250	1.2190e-01
12.000	17.500	1.3697e-01
12.000	17.750	1.6305e-01
12.000	18.000	1.9194e-01
12.000	18.250	2.1826e-01
12.000	18.500	2.4155e-01
12.000	18.750	2.6123e-01
12.000	19.000	2.7664e-01
12.000	19.250	2.8782e-01
12.000	19.500	2.9497e-01
12.000	19.750	2.9907e-01
12.000	20.000	3.0093e-01
12.000	20.250	3.0196e-01
12.000	20.500	3.0226e-01
12.000	20.750	3.0040e-01
12.000	21.000	2.8734e-01
12.000	21.250	2.3034e-01
12.000	21.500	1.3041e-01
12.000	21.750	7.4784e-02
12.000	22.000	4.9962e-02
12.000	22.250	3.4966e-02
12.000	22.500	2.6340e-02
12.000	22.750	2.1896e-02
12.000	23.000	1.9712e-02
12.000	23.250	1.8590e-02
12.000	23.500	1.7958e-02
12.000	23.750	1.7695e-02
12.000	24.000	1.7562e-02
12.250	17.000	1.3641e-01
12.250	17.250	1.3633e-01
12.250	17.500	1.4760e-01
12.250	17.750	1.6973e-01
12.250	18.000	1.9731e-01
12.250	18.250	2.2553e-01
12.250	18.500	2.5165e-01
12.250	18.750	2.7359e-01
12.250	19.000	2.8977e-01
12.250	19.250	3.0118e-01
12.250	19.500	3.0794e-01
12.250	19.750	3.1166e-01
12.250	20.000	3.1329e-01
12.250	20.250	3.1398e-01
12.250	20.500	3.1423e-01
12.250	20.750	3.1534e-01
12.250	21.000	3.1441e-01
12.250	21.250	2.9886e-01
12.250	21.500	2.3043e-01
12.250	21.750	1.2863e-01
12.250	22.000	7.4673e-02
12.250	22.250	5.0323e-02
12.250	22.500	3.4510e-02
12.250	22.750	2.6156e-02
12.250	23.000	2.1832e-02
12.250	23.250	1.9692e-02
12.250	23.500	1.8578e-02
12.250	23.750	1.7953e-02
12.250	24.000	1.7692e-02
12.500	17.000	1.4147e-01
12.500	17.250	1.5104e-01
12.500	17.500	1.5800e-01
12.500	17.750	1.7498e-01
12.500	18.000	2.0056e-01
12.500	18.250	2.3023e-01
12.500	18.500	2.5940e-01
12.500	18.750	2.8412e-01
12.500	19.000	3.0202e-01
12.500	19.250	3.1314e-01
12.500	19.500	3.1978e-01
12.500	19.750	3.2307e-01
12.500	20.000	3.2410e-01
12.500	20.250	3.2430e-01
12.500	20.500	3.2346e-01
12.500	20.750	3.2466e-01
12.500	21.000	3.2748e-01
12.500	21.250	3.2717e-01
12.500	21.500	3.0370e-01
12.500	21.750	2.2220e-01
12.500	22.000	1.2570e-01
12.500	22.250	7.4655e-02
12.500	22.500	5.0055e-02
12.500	22.750	3.4023e-02
12.500	23.000	2.5936e-02
12.500	23.250	2.1754e-02
12.500	23.500	1.9662e-02
12.500	23.750	1.8561e-02
12.500	24.000	1.7946e-02
12.750	17.000	1.2570e-01
12.750	17.250	1.5179e-01
12.750	17.500	1.6449e-01
12.750	17.750	1.8003e-01
12.750	18.000	2.0394e-01
12.750	18.250	2.3453e-01
12.750	18.500	2.6487e-01
12.750	18.750	2.9170e-01
12.750	19.000	3.1150e-01
12.750	19.250	3.2434e-01
12.750	19.500	3.3005e-01
12.750	19.750	3.3249e-01
12.750	20.000	3.3261e-01
12.750	20.250	3.3254e-01
12.750	20.500	3.3133e-01
12.750	20.750	3.3075e-01
12.750	21.000	3.3387e-01
12.750	21.250	3.3854e-01
12.750	21.500	3.3227e-01
12.750	21.750	3.0629e-01
12.750	22.000	2.1180e-01
12.750	22.250	1.2227e-01
12.750	22.500	7.4630e-02
12.750	22.750	4.9146e-02
12.750	23.000	3.3536e-02
12.750	23.250	2.5684e-02
12.750	23.500	2.1643e-02
12.750	23.750	1.9613e-02
12.750	24.000	1.8534e-02
13.000	17.000	7.9426e-02
13.000	17.250	1.0281e-01
13.000	17.500	1.4935e-01
13.000	17.750	1.8352e-01
13.000	18.000	2.1023e-01
13.000	18.250	2.3981e-01
13.000	18.500	2.6973e-01
13.000	18.750	2.9694e-01
13.000	19.000	3.1823e-01
13.000	19.250	3.3203e-01
13.000	19.500	3.3822e-01
13.000	19.750	3.4042e-01
13.000	20.000	3.4026e-01
13.000	20.250	3.3880e-01
13.000	20.500	3.3829e-01
13.000	20.750	3.3823e-01
13.000	21.000	3.3973e-01
13.000	21.250	3.4500e-01
13.000	21.500	3.4576e-01
13.000	21.750	3.4032e-01
13.000	22.000	3.0061e-01
13.000	22.250	1.9948e-01
13.000	22.500	1.1783e-01
13.000	22.750	7.3792e-02
13.000	23.000	4.7920e-02
13.000	23.250	3.2920e-02
13.000	23.500	2.5358e-02
13.000	23.750	2.1502e-02
13.000	24.000	1.9535e-02
13.250	17.000	7.7934e-02
13.250	17.250	9.2661e-02
13.250	17.500	1.2262e-01
13.250	17.750	1.6753e-01
13.250	18.000	2.0779e-01
13.250	18.250	2.4678e-01
13.250	18.500	2.7550e-01
13.250	18.750	3.0188e-01
13.250	19.000	3.2280e-01
13.250	19.250	3.3785e-01
13.250	19.500	3.4506e-01
13.250	19.750	3.4776e-01
13.250	20.000	3.4719e-01
13.250	20.250	3.4507e-01
13.250	20.500	3.4298e-01
13.250	20.750	3.4271e-01
13.250	21.000	3.4443e-01
13.250	21.250	3.4807e-01
13.250	21.500	3.4729e-01
13.250	21.750	3.5277e-01
13.250	22.000	3.4333e-01
13.250	22.250	2.8699e-01
13.250	22.500	1.8480e-01
13.250	22.750	1.1154e-01
13.250	23.000	7.0500e-02
13.250	23.250	4.6347e-02
13.250	23.500	3.2222e-02
13.250	23.750	2.5008e-02
13.250	24.000	2.1330e-02
13.500	17.000	7.6733e-02
13.500	17.250	9.1406e-02
13.500	17.500	1.1744e-01
13.500	17.750	1.5554e-01
13.500	18.000	2.0759e-01
13.500	18.250	2.4732e-01
13.500	18.500	2.8278e-01
13.500	18.750	3.0738e-01
13.500	19.000	3.2847e-01
13.500	19.250	3.4285e-01
13.500	19.500	3.5125e-01
13.500	19.750	3.5380e-01
13.500	20.000	3.5353e-01
13.500	20.250	3.5173e-01
13.500	20.500	3.4871e-01
13.500	20.750	3.4630e-01
13.500	21.000	3.4568e-01
13.500	21.250	3.4898e-01
13.500	21.500	3.4754e-01
13.500	21.750	3.5581e-01
13.500	22.000	3.6156e-01
13.500	22.250	3.3749e-01
13.500	22.500	2.6345e-01
13.500	22.750	1.6809e-01
13.500	23.000	1.0307e-01
13.500	23.250	6.6823e-02
13.500	23.500	4.4509e-02
13.500	23.750	3.1367e-02
13.500	24.000	2.4567e-02
13.750	17.000	7.6464e-02
13.750	17.250	9.0475e-02
13.750	17.500	1.1435e-01
13.750	17.750	1.4573e-01
13.750	18.000	1.9612e-01
13.750	18.250	2.4971e-01
13.750	18.500	2.8336e-01
13.750	18.750	3.1520e-01
13.750	19.000	3.3490e-01
13.750	19.250	3.5028e-01
13.750	19.500	3.5920e-01
13.750	19.750	3.6241e-01
13.750	20.000	3.6187e-01
13.750	20.250	3.5956e-01
13.750	20.500	3.5635e-01
13.750	20.750	3.5272e-01
13.750	21.000	3.4988e-01
13.750	21.250	3.4961e-01
13.750	21.500	3.4877e-01
13.750	21.750	3.5622e-01
13.750	22.000	3.6394e-01
13.750	22.250	3.5796e-01
13.750	22.500	3.1725e-01
13.750	22.750	2.3583e-01
13.750	23.000	1.4958e-01
13.750	23.250	9.4254e-02
13.750	23.500	6.2202e-02
13.750	23.750	4.2333e-02
13.750	24.000	3.0323e-02
14.000	17.000	7.6527e-02
14.000	17.250	8.8667e-02
14.000	17.500	1.1188e-01
14.000	17.750	1.4185e-01
14.000	18.000	1.8270e-01
14.000	18.250	2.3751e-01
14.000	18.500	2.8687e-01
14.000	18.750	3.2020e-01
14.000	19.000	3.4280e-01
14.000	19.250	3.5786e-01
14.000	19.500	3.6842e-01
14.000	19.750	3.7313e-01
14.000	20.000	3.7334e-01
14.000	20.250	3.7018e-01
14.000	20.500	3.6648e-01
14.000	20.750	3.6246e-01
14.000	21.000	3.5885e-01
14.000	21.250	3.5726e-01
14.000	21.500	3.5385e-01
14.000	21.750	3.6099e-01
14.000	22.000	3.7027e-01
14.000	22.250	3.6676e-01
14.000	22.500	3.3653e-01
14.000	22.750	2.8513e-01
14.000	23.000	2.0549e-01
14.000	23.250	1.3198e-01
14.000	23.500	8.5407e-02
14.000	23.750	5.7931e-02
14.000	24.000	3.9804e-02
