InwC 608.160A  relative to Inci 1215.00A scaled to 1215A.
Hden   Phi(H)  Eq_Width (A)
 7.000	17.000	1.0808e-02
 7.000	17.250	2.1727e-02
 7.000	17.500	3.1857e-02
 7.000	17.750	3.6872e-02
 7.000	18.000	3.8864e-02
 7.000	18.250	4.0359e-02
 7.000	18.500	4.1414e-02
 7.000	18.750	4.1696e-02
 7.000	19.000	4.1814e-02
 7.000	19.250	4.1866e-02
 7.000	19.500	4.1876e-02
 7.000	19.750	4.1878e-02
 7.000	20.000	4.1879e-02
 7.000	20.250	4.1879e-02
 7.000	20.500	4.1879e-02
 7.000	20.750	4.1880e-02
 7.000	21.000	4.1880e-02
 7.000	21.250	4.1880e-02
 7.000	21.500	4.1880e-02
 7.000	21.750	4.1880e-02
 7.000	22.000	4.1881e-02
 7.000	22.250	4.1881e-02
 7.000	22.500	4.1882e-02
 7.000	22.750	4.1882e-02
 7.000	23.000	4.1882e-02
 7.000	23.250	4.1882e-02
 7.000	23.500	4.1882e-02
 7.000	23.750	4.1882e-02
 7.000	24.000	4.1882e-02
 7.250	17.000	5.4719e-03
 7.250	17.250	1.0867e-02
 7.250	17.500	2.1822e-02
 7.250	17.750	3.1935e-02
 7.250	18.000	3.6910e-02
 7.250	18.250	3.8873e-02
 7.250	18.500	4.0359e-02
 7.250	18.750	4.1415e-02
 7.250	19.000	4.1696e-02
 7.250	19.250	4.1814e-02
 7.250	19.500	4.1866e-02
 7.250	19.750	4.1876e-02
 7.250	20.000	4.1878e-02
 7.250	20.250	4.1879e-02
 7.250	20.500	4.1879e-02
 7.250	20.750	4.1879e-02
 7.250	21.000	4.1879e-02
 7.250	21.250	4.1879e-02
 7.250	21.500	4.1880e-02
 7.250	21.750	4.1880e-02
 7.250	22.000	4.1880e-02
 7.250	22.250	4.1880e-02
 7.250	22.500	4.1880e-02
 7.250	22.750	4.1880e-02
 7.250	23.000	4.1881e-02
 7.250	23.250	4.1881e-02
 7.250	23.500	4.1881e-02
 7.250	23.750	4.1881e-02
 7.250	24.000	4.1881e-02
 7.500	17.000	2.8844e-03
 7.500	17.250	5.4940e-03
 7.500	17.500	1.0914e-02
 7.500	17.750	2.1906e-02
 7.500	18.000	3.2013e-02
 7.500	18.250	3.6953e-02
 7.500	18.500	3.8888e-02
 7.500	18.750	4.0363e-02
 7.500	19.000	4.1415e-02
 7.500	19.250	4.1696e-02
 7.500	19.500	4.1814e-02
 7.500	19.750	4.1866e-02
 7.500	20.000	4.1876e-02
 7.500	20.250	4.1878e-02
 7.500	20.500	4.1879e-02
 7.500	20.750	4.1879e-02
 7.500	21.000	4.1879e-02
 7.500	21.250	4.1879e-02
 7.500	21.500	4.1879e-02
 7.500	21.750	4.1879e-02
 7.500	22.000	4.1880e-02
 7.500	22.250	4.1880e-02
 7.500	22.500	4.1880e-02
 7.500	22.750	4.1880e-02
 7.500	23.000	4.1880e-02
 7.500	23.250	4.1880e-02
 7.500	23.500	4.1882e-02
 7.500	23.750	4.1880e-02
 7.500	24.000	4.1880e-02
 7.750	17.000	1.5357e-03
 7.750	17.250	2.8932e-03
 7.750	17.500	5.5058e-03
 7.750	17.750	1.0949e-02
 7.750	18.000	2.1982e-02
 7.750	18.250	3.2096e-02
 7.750	18.500	3.7005e-02
 7.750	18.750	3.8907e-02
 7.750	19.000	4.0369e-02
 7.750	19.250	4.1417e-02
 7.750	19.500	4.1696e-02
 7.750	19.750	4.1814e-02
 7.750	20.000	4.1866e-02
 7.750	20.250	4.1876e-02
 7.750	20.500	4.1878e-02
 7.750	20.750	4.1879e-02
 7.750	21.000	4.1879e-02
 7.750	21.250	4.1879e-02
 7.750	21.500	4.1879e-02
 7.750	21.750	4.1879e-02
 7.750	22.000	4.1879e-02
 7.750	22.250	4.1879e-02
 7.750	22.500	4.1879e-02
 7.750	22.750	4.1879e-02
 7.750	23.000	4.1880e-02
 7.750	23.250	4.1880e-02
 7.750	23.500	4.1880e-02
 7.750	23.750	4.1880e-02
 7.750	24.000	4.1880e-02
 8.000	17.000	8.1449e-04
 8.000	17.250	1.5312e-03
 8.000	17.500	2.8833e-03
 8.000	17.750	5.4986e-03
 8.000	18.000	1.0941e-02
 8.000	18.250	2.2021e-02
 8.000	18.500	3.2186e-02
 8.000	18.750	3.7065e-02
 8.000	19.000	3.8929e-02
 8.000	19.250	4.0375e-02
 8.000	19.500	4.1418e-02
 8.000	19.750	4.1697e-02
 8.000	20.000	4.1814e-02
 8.000	20.250	4.1866e-02
 8.000	20.500	4.1876e-02
 8.000	20.750	4.1878e-02
 8.000	21.000	4.1879e-02
 8.000	21.250	4.1879e-02
 8.000	21.500	4.1879e-02
 8.000	21.750	4.1879e-02
 8.000	22.000	4.1879e-02
 8.000	22.250	4.1879e-02
 8.000	22.500	4.1879e-02
 8.000	22.750	4.1880e-02
 8.000	23.000	4.1879e-02
 8.000	23.250	4.1880e-02
 8.000	23.500	4.1879e-02
 8.000	23.750	4.1879e-02
 8.000	24.000	4.1880e-02
 8.250	17.000	4.3424e-04
 8.250	17.250	8.1490e-04
 8.250	17.500	1.5317e-03
 8.250	17.750	2.8846e-03
 8.250	18.000	5.5037e-03
 8.250	18.250	1.0956e-02
 8.250	18.500	2.2073e-02
 8.250	18.750	3.2284e-02
 8.250	19.000	3.7133e-02
 8.250	19.250	3.8955e-02
 8.250	19.500	4.0381e-02
 8.250	19.750	4.1420e-02
 8.250	20.000	4.1697e-02
 8.250	20.250	4.1815e-02
 8.250	20.500	4.1866e-02
 8.250	20.750	4.1876e-02
 8.250	21.000	4.1878e-02
 8.250	21.250	4.1879e-02
 8.250	21.500	4.1879e-02
 8.250	21.750	4.1879e-02
 8.250	22.000	4.1879e-02
 8.250	22.250	4.1879e-02
 8.250	22.500	4.1879e-02
 8.250	22.750	4.1879e-02
 8.250	23.000	4.1879e-02
 8.250	23.250	4.1879e-02
 8.250	23.500	4.1879e-02
 8.250	23.750	4.1879e-02
 8.250	24.000	4.1879e-02
 8.500	17.000	2.3235e-04
 8.500	17.250	4.3416e-04
 8.500	17.500	8.1498e-04
 8.500	17.750	1.5320e-03
 8.500	18.000	2.8900e-03
 8.500	18.250	5.5100e-03
 8.500	18.500	1.0974e-02
 8.500	18.750	2.2120e-02
 8.500	19.000	3.2388e-02
 8.500	19.250	3.7208e-02
 8.500	19.500	3.8986e-02
 8.500	19.750	4.0394e-02
 8.500	20.000	4.1423e-02
 8.500	20.250	4.1698e-02
 8.500	20.500	4.1815e-02
 8.500	20.750	4.1866e-02
 8.500	21.000	4.1876e-02
 8.500	21.250	4.1878e-02
 8.500	21.500	4.1879e-02
 8.500	21.750	4.1879e-02
 8.500	22.000	4.1879e-02
 8.500	22.250	4.1879e-02
 8.500	22.500	4.1879e-02
 8.500	22.750	4.1879e-02
 8.500	23.000	4.1879e-02
 8.500	23.250	4.1880e-02
 8.500	23.500	4.1879e-02
 8.500	23.750	4.1879e-02
 8.500	24.000	4.1879e-02
 8.750	17.000	1.2510e-04
 8.750	17.250	2.3210e-04
 8.750	17.500	4.3416e-04
 8.750	17.750	8.1588e-04
 8.750	18.000	1.5365e-03
 8.750	18.250	2.9012e-03
 8.750	18.500	5.5324e-03
 8.750	18.750	1.1019e-02
 8.750	19.000	2.2174e-02
 8.750	19.250	3.2497e-02
 8.750	19.500	3.7291e-02
 8.750	19.750	3.9019e-02
 8.750	20.000	4.0407e-02
 8.750	20.250	4.1426e-02
 8.750	20.500	4.1699e-02
 8.750	20.750	4.1815e-02
 8.750	21.000	4.1866e-02
 8.750	21.250	4.1876e-02
 8.750	21.500	4.1878e-02
 8.750	21.750	4.1879e-02
 8.750	22.000	4.1879e-02
 8.750	22.250	4.1879e-02
 8.750	22.500	4.1879e-02
 8.750	22.750	4.1879e-02
 8.750	23.000	4.1879e-02
 8.750	23.250	4.1879e-02
 8.750	23.500	4.1880e-02
 8.750	23.750	4.1880e-02
 8.750	24.000	4.1879e-02
 9.000	17.000	6.7737e-05
 9.000	17.250	1.2527e-04
 9.000	17.500	2.3251e-04
 9.000	17.750	4.3597e-04
 9.000	18.000	8.2082e-04
 9.000	18.250	1.5474e-03
 9.000	18.500	2.9216e-03
 9.000	18.750	5.5842e-03
 9.000	19.000	1.1134e-02
 9.000	19.250	2.2245e-02
 9.000	19.500	3.2605e-02
 9.000	19.750	3.7380e-02
 9.000	20.000	3.9054e-02
 9.000	20.250	4.0420e-02
 9.000	20.500	4.1430e-02
 9.000	20.750	4.1701e-02
 9.000	21.000	4.1816e-02
 9.000	21.250	4.1866e-02
 9.000	21.500	4.1876e-02
 9.000	21.750	4.1878e-02
 9.000	22.000	4.1879e-02
 9.000	22.250	4.1879e-02
 9.000	22.500	4.1879e-02
 9.000	22.750	4.1879e-02
 9.000	23.000	4.1879e-02
 9.000	23.250	4.1879e-02
 9.000	23.500	4.1879e-02
 9.000	23.750	4.1879e-02
 9.000	24.000	4.1880e-02
 9.250	17.000	3.6461e-05
 9.250	17.250	6.7984e-05
 9.250	17.500	1.2617e-04
 9.250	17.750	2.3506e-04
 9.250	18.000	4.4099e-04
 9.250	18.250	8.3045e-04
 9.250	18.500	1.5672e-03
 9.250	18.750	2.9754e-03
 9.250	19.000	5.7279e-03
 9.250	19.250	1.1421e-02
 9.250	19.500	2.2369e-02
 9.250	19.750	3.2709e-02
 9.250	20.000	3.7466e-02
 9.250	20.250	3.9090e-02
 9.250	20.500	4.0432e-02
 9.250	20.750	4.1434e-02
 9.250	21.000	4.1702e-02
 9.250	21.250	4.1816e-02
 9.250	21.500	4.1858e-02
 9.250	21.750	4.1864e-02
 9.250	22.000	4.1865e-02
 9.250	22.250	4.1867e-02
 9.250	22.500	4.1879e-02
 9.250	22.750	4.1879e-02
 9.250	23.000	4.1879e-02
 9.250	23.250	4.1879e-02
 9.250	23.500	4.1879e-02
 9.250	23.750	4.1879e-02
 9.250	24.000	4.1879e-02
 9.500	17.000	1.9259e-05
 9.500	17.250	3.6790e-05
 9.500	17.500	6.9218e-05
 9.500	17.750	1.2897e-04
 9.500	18.000	2.4000e-04
 9.500	18.250	4.4988e-04
 9.500	18.500	8.4872e-04
 9.500	18.750	1.6166e-03
 9.500	19.000	3.1054e-03
 9.500	19.250	6.0687e-03
 9.500	19.500	1.2055e-02
 9.500	19.750	2.2647e-02
 9.500	20.000	3.2809e-02
 9.500	20.250	3.7544e-02
 9.500	20.500	3.9126e-02
 9.500	20.750	4.0443e-02
 9.500	21.000	4.1424e-02
 9.500	21.250	4.1689e-02
 9.500	21.500	4.1803e-02
 9.500	21.750	4.1850e-02
 9.500	22.000	4.1854e-02
 9.500	22.250	4.1856e-02
 9.500	22.500	4.1857e-02
 9.500	22.750	4.1856e-02
 9.500	23.000	4.1857e-02
 9.500	23.250	4.1857e-02
 9.500	23.500	4.1862e-02
 9.500	23.750	4.1863e-02
 9.500	24.000	4.1862e-02
 9.750	17.000	9.9588e-06
 9.750	17.250	1.9588e-05
 9.750	17.500	3.7860e-05
 9.750	17.750	7.1687e-05
 9.750	18.000	1.3325e-04
 9.750	18.250	2.4790e-04
 9.750	18.500	4.6765e-04
 9.750	18.750	8.9490e-04
 9.750	19.000	1.7425e-03
 9.750	19.250	3.4247e-03
 9.750	19.500	6.7849e-03
 9.750	19.750	1.3093e-02
 9.750	20.000	2.3151e-02
 9.750	20.250	3.2920e-02
 9.750	20.500	3.7614e-02
 9.750	20.750	3.9162e-02
 9.750	21.000	4.0463e-02
 9.750	21.250	4.1438e-02
 9.750	21.500	4.1694e-02
 9.750	21.750	4.1804e-02
 9.750	22.000	4.1852e-02
 9.750	22.250	4.1857e-02
 9.750	22.500	4.1855e-02
 9.750	22.750	4.1857e-02
 9.750	23.000	4.1857e-02
 9.750	23.250	4.1857e-02
 9.750	23.500	4.1857e-02
 9.750	23.750	4.1857e-02
 9.750	24.000	4.1857e-02
10.000	17.000	4.6091e-06
10.000	17.250	1.0206e-05
10.000	17.500	2.0494e-05
10.000	17.750	3.9835e-05
10.000	18.000	7.5391e-05
10.000	18.250	1.4041e-04
10.000	18.500	2.6444e-04
10.000	18.750	5.1070e-04
10.000	19.000	1.0082e-03
10.000	19.250	2.0111e-03
10.000	19.500	3.9994e-03
10.000	19.750	7.7621e-03
10.000	20.000	1.4383e-02
10.000	20.250	2.4057e-02
10.000	20.500	3.3116e-02
10.000	20.750	3.7688e-02
10.000	21.000	3.9199e-02
10.000	21.250	4.0482e-02
10.000	21.500	4.1448e-02
10.000	21.750	4.1703e-02
10.000	22.000	4.1806e-02
10.000	22.250	4.1854e-02
10.000	22.500	4.1860e-02
10.000	22.750	4.1858e-02
10.000	23.000	4.1856e-02
10.000	23.250	4.1857e-02
10.000	23.500	4.1857e-02
10.000	23.750	4.1857e-02
10.000	24.000	4.1858e-02
10.250	17.000	2.3045e-06
10.250	17.250	4.8560e-06
10.250	17.500	1.0782e-05
10.250	17.750	2.1811e-05
10.250	18.000	4.2798e-05
10.250	18.250	8.2140e-05
10.250	18.500	1.5679e-04
10.250	18.750	3.0683e-04
10.250	19.000	6.1144e-04
10.250	19.250	1.2301e-03
10.250	19.500	2.4679e-03
10.250	19.750	4.8965e-03
10.250	20.000	9.2598e-03
10.250	20.250	1.5831e-02
10.250	20.500	2.5008e-02
10.250	20.750	3.3390e-02
10.250	21.000	3.7769e-02
10.250	21.250	3.9245e-02
10.250	21.500	4.0503e-02
10.250	21.750	4.1456e-02
10.250	22.000	4.1709e-02
10.250	22.250	4.1812e-02
10.250	22.500	4.1854e-02
10.250	22.750	4.1862e-02
10.250	23.000	4.1861e-02
10.250	23.250	4.1859e-02
10.250	23.500	4.1857e-02
10.250	23.750	4.1856e-02
10.250	24.000	4.1856e-02
10.500	17.000	1.1523e-06
10.500	17.250	2.3868e-06
10.500	17.500	5.2675e-06
10.500	17.750	1.1852e-05
10.500	18.000	2.4362e-05
10.500	18.250	4.9136e-05
10.500	18.500	9.8354e-05
10.500	18.750	1.9613e-04
10.500	19.000	3.9243e-04
10.500	19.250	7.8617e-04
10.500	19.500	1.5722e-03
10.500	19.750	3.1129e-03
10.500	20.000	6.1091e-03
10.500	20.250	1.0601e-02
10.500	20.500	1.7140e-02
10.500	20.750	2.6049e-02
10.500	21.000	3.3821e-02
10.500	21.250	3.7882e-02
10.500	21.500	3.9291e-02
10.500	21.750	4.0527e-02
10.500	22.000	4.1464e-02
10.500	22.250	4.1713e-02
10.500	22.500	4.1818e-02
10.500	22.750	4.1855e-02
10.500	23.000	4.1863e-02
10.500	23.250	4.1863e-02
10.500	23.500	4.1862e-02
10.500	23.750	4.1860e-02
10.500	24.000	4.1859e-02
10.750	17.000	1.0000e-07
10.750	17.250	1.2346e-06
10.750	17.500	2.7160e-06
10.750	17.750	6.1728e-06
10.750	18.000	1.3992e-05
10.750	18.250	3.0617e-05
10.750	18.500	6.4444e-05
10.750	18.750	1.3193e-04
10.750	19.000	2.6354e-04
10.750	19.250	5.2082e-04
10.750	19.500	1.0244e-03
10.750	19.750	2.0102e-03
10.750	20.000	3.9139e-03
10.750	20.250	7.4123e-03
10.750	20.500	1.2197e-02
10.750	20.750	1.8737e-02
10.750	21.000	2.7166e-02
10.750	21.250	3.4353e-02
10.750	21.500	3.8027e-02
10.750	21.750	3.9355e-02
10.750	22.000	4.0555e-02
10.750	22.250	4.1474e-02
10.750	22.500	4.1718e-02
10.750	22.750	4.1821e-02
10.750	23.000	4.1858e-02
10.750	23.250	4.1864e-02
10.750	23.500	4.1865e-02
10.750	23.750	4.1864e-02
10.750	24.000	4.1863e-02
11.000	17.000	1.0000e-07
11.000	17.250	1.0000e-07
11.000	17.500	1.3992e-06
11.000	17.750	3.2922e-06
11.000	18.000	8.0658e-06
11.000	18.250	1.9095e-05
11.000	18.500	4.2634e-05
11.000	18.750	8.9465e-05
11.000	19.000	1.7893e-04
11.000	19.250	3.4872e-04
11.000	19.500	6.7284e-04
11.000	19.750	1.2989e-03
11.000	20.000	2.5057e-03
11.000	20.250	4.8049e-03
11.000	20.500	8.6374e-03
11.000	20.750	1.3798e-02
11.000	21.000	2.0125e-02
11.000	21.250	2.8284e-02
11.000	21.500	3.4912e-02
11.000	21.750	3.8217e-02
11.000	22.000	3.9443e-02
11.000	22.250	4.0599e-02
11.000	22.500	4.1487e-02
11.000	22.750	4.1723e-02
11.000	23.000	4.1824e-02
11.000	23.250	4.1864e-02
11.000	23.500	4.1864e-02
11.000	23.750	4.1866e-02
11.000	24.000	4.1865e-02
11.250	17.000	1.0000e-07
11.250	17.250	1.0000e-07
11.250	17.500	1.0000e-07
11.250	17.750	1.8107e-06
11.250	18.000	4.6091e-06
11.250	18.250	1.1605e-05
11.250	18.500	2.7160e-05
11.250	18.750	5.8436e-05
11.250	19.000	1.1811e-04
11.250	19.250	2.2996e-04
11.250	19.500	4.3860e-04
11.250	19.750	8.3267e-04
11.250	20.000	1.5840e-03
11.250	20.250	3.0193e-03
11.250	20.500	5.7491e-03
11.250	20.750	1.0150e-02
11.250	21.000	1.5350e-02
11.250	21.250	2.1679e-02
11.250	21.500	2.9589e-02
11.250	21.750	3.5410e-02
11.250	22.000	3.8426e-02
11.250	22.250	3.9571e-02
11.250	22.500	4.0659e-02
11.250	22.750	4.1505e-02
11.250	23.000	4.1731e-02
11.250	23.250	4.1828e-02
11.250	23.500	4.1868e-02
11.250	23.750	4.1866e-02
11.250	24.000	4.1866e-02
11.500	17.000	1.0000e-07
11.500	17.250	1.0000e-07
11.500	17.500	1.0000e-07
11.500	17.750	9.8765e-07
11.500	18.000	2.5514e-06
11.500	18.250	6.7490e-06
11.500	18.500	1.6379e-05
11.500	18.750	3.6132e-05
11.500	19.000	7.4486e-05
11.500	19.250	1.4593e-04
11.500	19.500	2.7794e-04
11.500	19.750	5.2486e-04
11.500	20.000	9.8856e-04
11.500	20.250	1.8619e-03
11.500	20.500	3.5187e-03
11.500	20.750	6.6703e-03
11.500	21.000	1.1377e-02
11.500	21.250	1.6809e-02
11.500	21.500	2.3230e-02
11.500	21.750	3.0908e-02
11.500	22.000	3.5945e-02
11.500	22.250	3.8633e-02
11.500	22.500	3.9714e-02
11.500	22.750	4.0739e-02
11.500	23.000	4.1529e-02
11.500	23.250	4.1743e-02
11.500	23.500	4.1832e-02
11.500	23.750	4.1870e-02
11.500	24.000	4.1873e-02
11.750	17.000	1.0000e-07
11.750	17.250	1.0000e-07
11.750	17.500	1.0000e-07
11.750	17.750	1.0000e-07
11.750	18.000	1.3992e-06
11.750	18.250	3.7860e-06
11.750	18.500	9.3004e-06
11.750	18.750	2.0988e-05
11.750	19.000	4.4362e-05
11.750	19.250	8.8642e-05
11.750	19.500	1.6996e-04
11.750	19.750	3.2025e-04
11.750	20.000	6.0132e-04
11.750	20.250	1.1305e-03
11.750	20.500	2.1221e-03
11.750	20.750	3.9945e-03
11.750	21.000	7.6073e-03
11.750	21.250	1.2631e-02
11.750	21.500	1.8281e-02
11.750	21.750	2.4897e-02
11.750	22.000	3.1953e-02
11.750	22.250	3.6362e-02
11.750	22.500	3.8830e-02
11.750	22.750	3.9849e-02
11.750	23.000	4.0828e-02
11.750	23.250	4.1561e-02
11.750	23.500	4.1757e-02
11.750	23.750	4.1838e-02
11.750	24.000	4.1871e-02
12.000	17.000	1.0000e-07
12.000	17.250	1.0000e-07
12.000	17.500	1.0000e-07
12.000	17.750	1.0000e-07
12.000	18.000	1.0000e-07
12.000	18.250	1.9753e-06
12.000	18.500	4.9383e-06
12.000	18.750	1.1523e-05
12.000	19.000	2.5021e-05
12.000	19.250	5.1276e-05
12.000	19.500	1.0016e-04
12.000	19.750	1.8947e-04
12.000	20.000	3.5539e-04
12.000	20.250	6.6757e-04
12.000	20.500	1.2555e-03
12.000	20.750	2.3596e-03
12.000	21.000	4.4556e-03
12.000	21.250	8.4652e-03
12.000	21.500	1.3765e-02
12.000	21.750	1.9694e-02
12.000	22.000	2.6414e-02
12.000	22.250	3.2686e-02
12.000	22.500	3.6676e-02
12.000	22.750	3.8980e-02
12.000	23.000	3.9975e-02
12.000	23.250	4.0914e-02
12.000	23.500	4.1600e-02
12.000	23.750	4.1774e-02
12.000	24.000	4.1844e-02
12.250	17.000	1.0000e-07
12.250	17.250	1.0000e-07
12.250	17.500	1.0000e-07
12.250	17.750	1.0000e-07
12.250	18.000	1.0000e-07
12.250	18.250	1.0700e-06
12.250	18.500	2.5514e-06
12.250	18.750	5.9259e-06
12.250	19.000	1.3169e-05
12.250	19.250	2.7984e-05
12.250	19.500	5.6379e-05
12.250	19.750	1.0897e-04
12.250	20.000	2.0486e-04
12.250	20.250	3.8461e-04
12.250	20.500	7.2444e-04
12.250	20.750	1.3677e-03
12.250	21.000	2.5909e-03
12.250	21.250	4.9282e-03
12.250	21.500	9.2583e-03
12.250	21.750	1.4895e-02
12.250	22.000	2.1017e-02
12.250	22.250	2.7740e-02
12.250	22.500	3.3267e-02
12.250	22.750	3.6957e-02
12.250	23.000	3.9082e-02
12.250	23.250	4.0077e-02
12.250	23.500	4.0996e-02
12.250	23.750	4.1640e-02
12.250	24.000	4.1790e-02
12.500	17.000	1.0000e-07
12.500	17.250	1.0000e-07
12.500	17.500	1.0000e-07
12.500	17.750	1.0000e-07
12.500	18.000	1.0000e-07
12.500	18.250	1.0000e-07
12.500	18.500	1.2346e-06
12.500	18.750	2.9630e-06
12.500	19.000	6.5844e-06
12.500	19.250	1.4321e-05
12.500	19.500	2.9877e-05
12.500	19.750	5.9835e-05
12.500	20.000	1.1539e-04
12.500	20.250	2.1712e-04
12.500	20.500	4.0938e-04
12.500	20.750	7.7761e-04
12.500	21.000	1.4860e-03
12.500	21.250	2.8462e-03
12.500	21.500	5.3642e-03
12.500	21.750	1.0086e-02
12.500	22.000	1.5929e-02
12.500	22.250	2.2171e-02
12.500	22.500	2.8717e-02
12.500	22.750	3.3698e-02
12.500	23.000	3.7160e-02
12.500	23.250	3.9153e-02
12.500	23.500	4.0152e-02
12.500	23.750	4.1062e-02
12.500	24.000	4.1676e-02
12.750	17.000	1.0000e-07
12.750	17.250	1.0000e-07
12.750	17.500	1.0000e-07
12.750	17.750	1.0000e-07
12.750	18.000	1.0000e-07
12.750	18.250	1.0000e-07
12.750	18.500	1.0000e-07
12.750	18.750	1.3992e-06
12.750	19.000	3.2099e-06
12.750	19.250	6.9959e-06
12.750	19.500	1.4897e-05
12.750	19.750	3.0864e-05
12.750	20.000	6.1811e-05
12.750	20.250	1.2000e-04
12.750	20.500	2.2782e-04
12.750	20.750	4.3276e-04
12.750	21.000	8.3325e-04
12.750	21.250	1.6121e-03
12.750	21.500	3.0580e-03
12.750	21.750	5.8435e-03
12.750	22.000	1.0892e-02
12.750	22.250	1.6891e-02
12.750	22.500	2.3135e-02
12.750	22.750	2.9347e-02
12.750	23.000	3.4034e-02
12.750	23.250	3.7273e-02
12.750	23.500	3.9193e-02
12.750	23.750	4.0205e-02
12.750	24.000	4.1115e-02
13.000	17.000	1.0000e-07
13.000	17.250	1.0000e-07
13.000	17.500	1.0000e-07
13.000	17.750	1.0000e-07
13.000	18.000	1.0000e-07
13.000	18.250	1.0000e-07
13.000	18.500	1.0000e-07
13.000	18.750	1.0000e-07
13.000	19.000	1.5638e-06
13.000	19.250	3.2922e-06
13.000	19.500	6.9959e-06
13.000	19.750	1.4897e-05
13.000	20.000	3.1193e-05
13.000	20.250	6.2963e-05
13.000	20.500	1.2379e-04
13.000	20.750	2.3893e-04
13.000	21.000	4.6074e-04
13.000	21.250	9.0296e-04
13.000	21.500	1.7404e-03
13.000	21.750	3.3014e-03
13.000	22.000	6.2773e-03
13.000	22.250	1.1689e-02
13.000	22.500	1.7759e-02
13.000	22.750	2.3883e-02
13.000	23.000	2.9797e-02
13.000	23.250	3.4250e-02
13.000	23.500	3.7361e-02
13.000	23.750	3.9194e-02
13.000	24.000	4.0243e-02
13.250	17.000	1.0000e-07
13.250	17.250	1.0000e-07
13.250	17.500	1.0000e-07
13.250	17.750	1.0000e-07
13.250	18.000	1.0000e-07
13.250	18.250	1.0000e-07
13.250	18.500	1.0000e-07
13.250	18.750	1.0000e-07
13.250	19.000	1.0000e-07
13.250	19.250	1.5638e-06
13.250	19.500	3.2922e-06
13.250	19.750	6.9136e-06
13.250	20.000	1.4815e-05
13.250	20.250	3.1029e-05
13.250	20.500	6.3374e-05
13.250	20.750	1.2708e-04
13.250	21.000	2.4872e-04
13.250	21.250	4.8856e-04
13.250	21.500	9.3292e-04
13.250	21.750	1.8064e-03
13.250	22.000	3.4970e-03
13.250	22.250	6.6998e-03
13.250	22.500	1.2284e-02
13.250	22.750	1.8323e-02
13.250	23.000	2.4417e-02
13.250	23.250	3.0148e-02
13.250	23.500	3.4428e-02
13.250	23.750	3.7377e-02
13.250	24.000	3.9178e-02
13.500	17.000	1.0000e-07
13.500	17.250	1.0000e-07
13.500	17.500	1.0000e-07
13.500	17.750	1.0000e-07
13.500	18.000	1.0000e-07
13.500	18.250	1.0000e-07
13.500	18.500	1.0000e-07
13.500	18.750	1.0000e-07
13.500	19.000	1.0000e-07
13.500	19.250	1.0000e-07
13.500	19.500	1.5638e-06
13.500	19.750	3.2922e-06
13.500	20.000	6.9136e-06
13.500	20.250	1.4733e-05
13.500	20.500	3.0947e-05
13.500	20.750	6.3786e-05
13.500	21.000	1.2708e-04
13.500	21.250	2.5284e-04
13.500	21.500	4.8708e-04
13.500	21.750	9.5893e-04
13.500	22.000	1.8944e-03
13.500	22.250	3.6543e-03
13.500	22.500	7.0518e-03
13.500	22.750	1.2810e-02
13.500	23.000	1.8800e-02
13.500	23.250	2.4967e-02
13.500	23.500	3.0482e-02
13.500	23.750	3.4550e-02
13.500	24.000	3.7388e-02
13.750	17.000	1.0000e-07
13.750	17.250	1.0000e-07
13.750	17.500	1.0000e-07
13.750	17.750	1.0000e-07
13.750	18.000	1.0000e-07
13.750	18.250	1.0000e-07
13.750	18.500	1.0000e-07
13.750	18.750	1.0000e-07
13.750	19.000	1.0000e-07
13.750	19.250	1.0000e-07
13.750	19.500	8.2305e-07
13.750	19.750	1.6461e-06
13.750	20.000	3.3745e-06
13.750	20.250	7.0782e-06
13.750	20.500	1.4979e-05
13.750	20.750	3.1440e-05
13.750	21.000	6.4444e-05
13.750	21.250	1.2774e-04
13.750	21.500	2.4955e-04
13.750	21.750	4.8905e-04
13.750	22.000	9.6395e-04
13.750	22.250	1.9175e-03
13.750	22.500	3.8089e-03
13.750	22.750	7.5277e-03
13.750	23.000	1.3212e-02
13.750	23.250	1.9389e-02
13.750	23.500	2.5534e-02
13.750	23.750	3.0849e-02
13.750	24.000	3.4711e-02
14.000	17.000	1.0000e-07
14.000	17.250	1.0000e-07
14.000	17.500	1.0000e-07
14.000	17.750	1.0000e-07
14.000	18.000	1.0000e-07
14.000	18.250	1.0000e-07
14.000	18.500	1.0000e-07
14.000	18.750	1.0000e-07
14.000	19.000	1.0000e-07
14.000	19.250	1.0000e-07
14.000	19.500	1.0000e-07
14.000	19.750	9.0535e-07
14.000	20.000	1.7284e-06
14.000	20.250	3.5391e-06
14.000	20.500	7.4074e-06
14.000	20.750	1.5556e-05
14.000	21.000	3.2510e-05
14.000	21.250	6.6502e-05
14.000	21.500	1.3012e-04
14.000	21.750	2.5325e-04
14.000	22.000	4.9465e-04
14.000	22.250	9.8815e-04
14.000	22.500	1.9979e-03
14.000	22.750	4.0653e-03
14.000	23.000	8.0437e-03
14.000	23.250	1.3907e-02
14.000	23.500	2.0204e-02
14.000	23.750	2.6280e-02
14.000	24.000	3.1260e-02
