InwT 7000.00A  relative to Inci 1215.00A scaled to 1215A.
Hden   Phi(H)  Eq_Width (A)
 7.000	17.000	5.0049e-02
 7.000	17.250	3.4530e-02
 7.000	17.500	2.4901e-02
 7.000	17.750	2.0097e-02
 7.000	18.000	1.7793e-02
 7.000	18.250	1.6668e-02
 7.000	18.500	1.6051e-02
 7.000	18.750	1.5795e-02
 7.000	19.000	1.5666e-02
 7.000	19.250	1.5595e-02
 7.000	19.500	1.5567e-02
 7.000	19.750	1.5555e-02
 7.000	20.000	1.5551e-02
 7.000	20.250	1.5549e-02
 7.000	20.500	1.5548e-02
 7.000	20.750	1.5547e-02
 7.000	21.000	1.5547e-02
 7.000	21.250	1.5547e-02
 7.000	21.500	1.5547e-02
 7.000	21.750	1.5547e-02
 7.000	22.000	1.5547e-02
 7.000	22.250	1.5547e-02
 7.000	22.500	1.5547e-02
 7.000	22.750	1.5547e-02
 7.000	23.000	1.5547e-02
 7.000	23.250	1.5547e-02
 7.000	23.500	1.5547e-02
 7.000	23.750	1.5547e-02
 7.000	24.000	1.5547e-02
 7.250	17.000	5.3859e-02
 7.250	17.250	5.0093e-02
 7.250	17.500	3.4469e-02
 7.250	17.750	2.4885e-02
 7.250	18.000	2.0090e-02
 7.250	18.250	1.7792e-02
 7.250	18.500	1.6667e-02
 7.250	18.750	1.6051e-02
 7.250	19.000	1.5795e-02
 7.250	19.250	1.5666e-02
 7.250	19.500	1.5595e-02
 7.250	19.750	1.5567e-02
 7.250	20.000	1.5555e-02
 7.250	20.250	1.5551e-02
 7.250	20.500	1.5549e-02
 7.250	20.750	1.5547e-02
 7.250	21.000	1.5547e-02
 7.250	21.250	1.5547e-02
 7.250	21.500	1.5547e-02
 7.250	21.750	1.5547e-02
 7.250	22.000	1.5547e-02
 7.250	22.250	1.5547e-02
 7.250	22.500	1.5547e-02
 7.250	22.750	1.5547e-02
 7.250	23.000	1.5547e-02
 7.250	23.250	1.5547e-02
 7.250	23.500	1.5547e-02
 7.250	23.750	1.5547e-02
 7.250	24.000	1.5547e-02
 7.500	17.000	5.7614e-02
 7.500	17.250	5.4572e-02
 7.500	17.500	5.0107e-02
 7.500	17.750	3.4418e-02
 7.500	18.000	2.4871e-02
 7.500	18.250	2.0082e-02
 7.500	18.500	1.7789e-02
 7.500	18.750	1.6667e-02
 7.500	19.000	1.6051e-02
 7.500	19.250	1.5795e-02
 7.500	19.500	1.5666e-02
 7.500	19.750	1.5595e-02
 7.500	20.000	1.5567e-02
 7.500	20.250	1.5555e-02
 7.500	20.500	1.5551e-02
 7.500	20.750	1.5549e-02
 7.500	21.000	1.5547e-02
 7.500	21.250	1.5547e-02
 7.500	21.500	1.5547e-02
 7.500	21.750	1.5547e-02
 7.500	22.000	1.5546e-02
 7.500	22.250	1.5546e-02
 7.500	22.500	1.5546e-02
 7.500	22.750	1.5546e-02
 7.500	23.000	1.5546e-02
 7.500	23.250	1.5546e-02
 7.500	23.500	1.5547e-02
 7.500	23.750	1.5547e-02
 7.500	24.000	1.5547e-02
 7.750	17.000	5.8728e-02
 7.750	17.250	5.8952e-02
 7.750	17.500	5.5171e-02
 7.750	17.750	5.0107e-02
 7.750	18.000	3.4376e-02
 7.750	18.250	2.4858e-02
 7.750	18.500	2.0073e-02
 7.750	18.750	1.7786e-02
 7.750	19.000	1.6667e-02
 7.750	19.250	1.6051e-02
 7.750	19.500	1.5795e-02
 7.750	19.750	1.5666e-02
 7.750	20.000	1.5595e-02
 7.750	20.250	1.5567e-02
 7.750	20.500	1.5555e-02
 7.750	20.750	1.5551e-02
 7.750	21.000	1.5549e-02
 7.750	21.250	1.5547e-02
 7.750	21.500	1.5547e-02
 7.750	21.750	1.5547e-02
 7.750	22.000	1.5547e-02
 7.750	22.250	1.5546e-02
 7.750	22.500	1.5546e-02
 7.750	22.750	1.5546e-02
 7.750	23.000	1.5546e-02
 7.750	23.250	1.5546e-02
 7.750	23.500	1.5546e-02
 7.750	23.750	1.5546e-02
 7.750	24.000	1.5546e-02
 8.000	17.000	5.8187e-02
 8.000	17.250	5.9723e-02
 8.000	17.500	5.9995e-02
 8.000	17.750	5.5416e-02
 8.000	18.000	4.9856e-02
 8.000	18.250	3.4338e-02
 8.000	18.500	2.4845e-02
 8.000	18.750	2.0063e-02
 8.000	19.000	1.7783e-02
 8.000	19.250	1.6667e-02
 8.000	19.500	1.6051e-02
 8.000	19.750	1.5795e-02
 8.000	20.000	1.5666e-02
 8.000	20.250	1.5595e-02
 8.000	20.500	1.5567e-02
 8.000	20.750	1.5555e-02
 8.000	21.000	1.5551e-02
 8.000	21.250	1.5549e-02
 8.000	21.500	1.5547e-02
 8.000	21.750	1.5547e-02
 8.000	22.000	1.5547e-02
 8.000	22.250	1.5547e-02
 8.000	22.500	1.5546e-02
 8.000	22.750	1.5546e-02
 8.000	23.000	1.5546e-02
 8.000	23.250	1.5547e-02
 8.000	23.500	1.5546e-02
 8.000	23.750	1.5546e-02
 8.000	24.000	1.5546e-02
 8.250	17.000	5.8800e-02
 8.250	17.250	5.9667e-02
 8.250	17.500	6.1640e-02
 8.250	17.750	6.1850e-02
 8.250	18.000	5.6513e-02
 8.250	18.250	4.9926e-02
 8.250	18.500	3.4315e-02
 8.250	18.750	2.4833e-02
 8.250	19.000	2.0051e-02
 8.250	19.250	1.7779e-02
 8.250	19.500	1.6666e-02
 8.250	19.750	1.6051e-02
 8.250	20.000	1.5795e-02
 8.250	20.250	1.5666e-02
 8.250	20.500	1.5595e-02
 8.250	20.750	1.5567e-02
 8.250	21.000	1.5555e-02
 8.250	21.250	1.5551e-02
 8.250	21.500	1.5549e-02
 8.250	21.750	1.5547e-02
 8.250	22.000	1.5547e-02
 8.250	22.250	1.5547e-02
 8.250	22.500	1.5546e-02
 8.250	22.750	1.5546e-02
 8.250	23.000	1.5546e-02
 8.250	23.250	1.5546e-02
 8.250	23.500	1.5546e-02
 8.250	23.750	1.5546e-02
 8.250	24.000	1.5546e-02
 8.500	17.000	6.0074e-02
 8.500	17.250	6.0335e-02
 8.500	17.500	6.1786e-02
 8.500	17.750	6.4635e-02
 8.500	18.000	6.5166e-02
 8.500	18.250	5.8272e-02
 8.500	18.500	5.0122e-02
 8.500	18.750	3.4297e-02
 8.500	19.000	2.4820e-02
 8.500	19.250	2.0038e-02
 8.500	19.500	1.7774e-02
 8.500	19.750	1.6666e-02
 8.500	20.000	1.6051e-02
 8.500	20.250	1.5795e-02
 8.500	20.500	1.5666e-02
 8.500	20.750	1.5594e-02
 8.500	21.000	1.5567e-02
 8.500	21.250	1.5555e-02
 8.500	21.500	1.5551e-02
 8.500	21.750	1.5549e-02
 8.500	22.000	1.5547e-02
 8.500	22.250	1.5547e-02
 8.500	22.500	1.5547e-02
 8.500	22.750	1.5547e-02
 8.500	23.000	1.5546e-02
 8.500	23.250	1.5546e-02
 8.500	23.500	1.5546e-02
 8.500	23.750	1.5546e-02
 8.500	24.000	1.5546e-02
 8.750	17.000	6.1557e-02
 8.750	17.250	6.1720e-02
 8.750	17.500	6.2740e-02
 8.750	17.750	6.5593e-02
 8.750	18.000	7.0108e-02
 8.750	18.250	7.0760e-02
 8.750	18.500	6.1851e-02
 8.750	18.750	5.0173e-02
 8.750	19.000	3.4280e-02
 8.750	19.250	2.4808e-02
 8.750	19.500	2.0023e-02
 8.750	19.750	1.7769e-02
 8.750	20.000	1.6665e-02
 8.750	20.250	1.6050e-02
 8.750	20.500	1.5795e-02
 8.750	20.750	1.5666e-02
 8.750	21.000	1.5595e-02
 8.750	21.250	1.5567e-02
 8.750	21.500	1.5555e-02
 8.750	21.750	1.5551e-02
 8.750	22.000	1.5549e-02
 8.750	22.250	1.5547e-02
 8.750	22.500	1.5547e-02
 8.750	22.750	1.5547e-02
 8.750	23.000	1.5547e-02
 8.750	23.250	1.5546e-02
 8.750	23.500	1.5546e-02
 8.750	23.750	1.5546e-02
 8.750	24.000	1.5546e-02
 9.000	17.000	6.2979e-02
 9.000	17.250	6.3347e-02
 9.000	17.500	6.4531e-02
 9.000	17.750	6.7256e-02
 9.000	18.000	7.2885e-02
 9.000	18.250	8.0199e-02
 9.000	18.500	7.9263e-02
 9.000	18.750	6.4997e-02
 9.000	19.000	5.0165e-02
 9.000	19.250	3.4264e-02
 9.000	19.500	2.4797e-02
 9.000	19.750	2.0009e-02
 9.000	20.000	1.7764e-02
 9.000	20.250	1.6664e-02
 9.000	20.500	1.6050e-02
 9.000	20.750	1.5794e-02
 9.000	21.000	1.5666e-02
 9.000	21.250	1.5595e-02
 9.000	21.500	1.5567e-02
 9.000	21.750	1.5555e-02
 9.000	22.000	1.5551e-02
 9.000	22.250	1.5549e-02
 9.000	22.500	1.5547e-02
 9.000	22.750	1.5547e-02
 9.000	23.000	1.5547e-02
 9.000	23.250	1.5547e-02
 9.000	23.500	1.5546e-02
 9.000	23.750	1.5546e-02
 9.000	24.000	1.5546e-02
 9.250	17.000	6.4262e-02
 9.250	17.250	6.4958e-02
 9.250	17.500	6.6723e-02
 9.250	17.750	7.0268e-02
 9.250	18.000	7.7133e-02
 9.250	18.250	8.7320e-02
 9.250	18.500	9.5370e-02
 9.250	18.750	8.9869e-02
 9.250	19.000	7.0758e-02
 9.250	19.250	5.0224e-02
 9.250	19.500	3.4240e-02
 9.250	19.750	2.4788e-02
 9.250	20.000	1.9995e-02
 9.250	20.250	1.7759e-02
 9.250	20.500	1.6664e-02
 9.250	20.750	1.6050e-02
 9.250	21.000	1.5794e-02
 9.250	21.250	1.5666e-02
 9.250	21.500	1.5592e-02
 9.250	21.750	1.5562e-02
 9.250	22.000	1.5551e-02
 9.250	22.250	1.5546e-02
 9.250	22.500	1.5548e-02
 9.250	22.750	1.5547e-02
 9.250	23.000	1.5547e-02
 9.250	23.250	1.5547e-02
 9.250	23.500	1.5546e-02
 9.250	23.750	1.5546e-02
 9.250	24.000	1.5546e-02
 9.500	17.000	6.5584e-02
 9.500	17.250	6.6660e-02
 9.500	17.500	6.9141e-02
 9.500	17.750	7.4080e-02
 9.500	18.000	8.3331e-02
 9.500	18.250	9.6140e-02
 9.500	18.500	1.0860e-01
 9.500	18.750	1.1314e-01
 9.500	19.000	9.8934e-02
 9.500	19.250	7.5005e-02
 9.500	19.500	5.0298e-02
 9.500	19.750	3.4203e-02
 9.500	20.000	2.4783e-02
 9.500	20.250	1.9983e-02
 9.500	20.500	1.7754e-02
 9.500	20.750	1.6663e-02
 9.500	21.000	1.6047e-02
 9.500	21.250	1.5790e-02
 9.500	21.500	1.5661e-02
 9.500	21.750	1.5589e-02
 9.500	22.000	1.5558e-02
 9.500	22.250	1.5547e-02
 9.500	22.500	1.5543e-02
 9.500	22.750	1.5540e-02
 9.500	23.000	1.5539e-02
 9.500	23.250	1.5539e-02
 9.500	23.500	1.5540e-02
 9.500	23.750	1.5540e-02
 9.500	24.000	1.5540e-02
 9.750	17.000	6.6842e-02
 9.750	17.250	6.8326e-02
 9.750	17.500	7.1660e-02
 9.750	17.750	7.8460e-02
 9.750	18.000	9.0976e-02
 9.750	18.250	1.0777e-01
 9.750	18.500	1.2315e-01
 9.750	18.750	1.3301e-01
 9.750	19.000	1.3104e-01
 9.750	19.250	1.0970e-01
 9.750	19.500	7.9586e-02
 9.750	19.750	5.0249e-02
 9.750	20.000	3.4142e-02
 9.750	20.250	2.4781e-02
 9.750	20.500	1.9973e-02
 9.750	20.750	1.7751e-02
 9.750	21.000	1.6662e-02
 9.750	21.250	1.6048e-02
 9.750	21.500	1.5791e-02
 9.750	21.750	1.5661e-02
 9.750	22.000	1.5589e-02
 9.750	22.250	1.5560e-02
 9.750	22.500	1.5547e-02
 9.750	22.750	1.5543e-02
 9.750	23.000	1.5540e-02
 9.750	23.250	1.5539e-02
 9.750	23.500	1.5539e-02
 9.750	23.750	1.5538e-02
 9.750	24.000	1.5538e-02
10.000	17.000	6.8013e-02
10.000	17.250	7.0246e-02
10.000	17.500	7.4672e-02
10.000	17.750	8.3856e-02
10.000	18.000	1.0072e-01
10.000	18.250	1.2160e-01
10.000	18.500	1.3983e-01
10.000	18.750	1.5250e-01
10.000	19.000	1.5913e-01
10.000	19.250	1.4969e-01
10.000	19.500	1.2199e-01
10.000	19.750	7.8618e-02
10.000	20.000	4.9962e-02
10.000	20.250	3.4067e-02
10.000	20.500	2.4775e-02
10.000	20.750	1.9966e-02
10.000	21.000	1.7747e-02
10.000	21.250	1.6661e-02
10.000	21.500	1.6049e-02
10.000	21.750	1.5793e-02
10.000	22.000	1.5662e-02
10.000	22.250	1.5590e-02
10.000	22.500	1.5561e-02
10.000	22.750	1.5548e-02
10.000	23.000	1.5542e-02
10.000	23.250	1.5540e-02
10.000	23.500	1.5539e-02
10.000	23.750	1.5539e-02
10.000	24.000	1.5539e-02
10.250	17.000	6.9887e-02
10.250	17.250	7.2502e-02
10.250	17.500	7.8670e-02
10.250	17.750	9.0999e-02
10.250	18.000	1.1211e-01
10.250	18.250	1.3674e-01
10.250	18.500	1.5715e-01
10.250	18.750	1.7259e-01
10.250	19.000	1.8240e-01
10.250	19.250	1.8353e-01
10.250	19.500	1.6683e-01
10.250	19.750	1.2716e-01
10.250	20.000	7.8538e-02
10.250	20.250	4.9489e-02
10.250	20.500	3.3900e-02
10.250	20.750	2.4764e-02
10.250	21.000	1.9960e-02
10.250	21.250	1.7744e-02
10.250	21.500	1.6661e-02
10.250	21.750	1.6049e-02
10.250	22.000	1.5794e-02
10.250	22.250	1.5663e-02
10.250	22.500	1.5590e-02
10.250	22.750	1.5561e-02
10.250	23.000	1.5549e-02
10.250	23.250	1.5543e-02
10.250	23.500	1.5540e-02
10.250	23.750	1.5539e-02
10.250	24.000	1.5538e-02
10.500	17.000	7.2800e-02
10.500	17.250	7.6068e-02
10.500	17.500	8.4276e-02
10.500	17.750	1.0082e-01
10.500	18.000	1.2571e-01
10.500	18.250	1.5307e-01
10.500	18.500	1.7461e-01
10.500	18.750	1.9160e-01
10.500	19.000	2.0276e-01
10.500	19.250	2.0699e-01
10.500	19.500	2.0105e-01
10.500	19.750	1.7946e-01
10.500	20.000	1.3127e-01
10.500	20.250	7.7438e-02
10.500	20.500	4.8834e-02
10.500	20.750	3.3699e-02
10.500	21.000	2.4734e-02
10.500	21.250	1.9952e-02
10.500	21.500	1.7743e-02
10.500	21.750	1.6660e-02
10.500	22.000	1.6049e-02
10.500	22.250	1.5794e-02
10.500	22.500	1.5665e-02
10.500	22.750	1.5590e-02
10.500	23.000	1.5562e-02
10.500	23.250	1.5550e-02
10.500	23.500	1.5544e-02
10.500	23.750	1.5542e-02
10.500	24.000	1.5540e-02
10.750	17.000	7.6996e-02
10.750	17.250	8.1148e-02
10.750	17.500	9.2493e-02
10.750	17.750	1.1325e-01
10.750	18.000	1.4127e-01
10.750	18.250	1.6921e-01
10.750	18.500	1.9178e-01
10.750	18.750	2.0970e-01
10.750	19.000	2.2192e-01
10.750	19.250	2.2806e-01
10.750	19.500	2.2822e-01
10.750	19.750	2.1913e-01
10.750	20.000	1.9393e-01
10.750	20.250	1.3539e-01
10.750	20.500	7.6450e-02
10.750	20.750	4.8166e-02
10.750	21.000	3.3486e-02
10.750	21.250	2.4680e-02
10.750	21.500	1.9943e-02
10.750	21.750	1.7740e-02
10.750	22.000	1.6659e-02
10.750	22.250	1.6048e-02
10.750	22.500	1.5794e-02
10.750	22.750	1.5666e-02
10.750	23.000	1.5591e-02
10.750	23.250	1.5562e-02
10.750	23.500	1.5550e-02
10.750	23.750	1.5545e-02
10.750	24.000	1.5543e-02
11.000	17.000	8.2713e-02
11.000	17.250	8.7690e-02
11.000	17.500	1.0257e-01
11.000	17.750	1.2761e-01
11.000	18.000	1.5750e-01
11.000	18.250	1.8549e-01
11.000	18.500	2.0891e-01
11.000	18.750	2.2850e-01
11.000	19.000	2.4156e-01
11.000	19.250	2.4833e-01
11.000	19.500	2.5154e-01
11.000	19.750	2.4992e-01
11.000	20.000	2.3843e-01
11.000	20.250	2.0968e-01
11.000	20.500	1.3285e-01
11.000	20.750	7.5548e-02
11.000	21.000	4.7459e-02
11.000	21.250	3.3272e-02
11.000	21.500	2.4605e-02
11.000	21.750	1.9928e-02
11.000	22.000	1.7737e-02
11.000	22.250	1.6658e-02
11.000	22.500	1.6047e-02
11.000	22.750	1.5794e-02
11.000	23.000	1.5666e-02
11.000	23.250	1.5593e-02
11.000	23.500	1.5562e-02
11.000	23.750	1.5551e-02
11.000	24.000	1.5546e-02
11.250	17.000	9.0173e-02
11.250	17.250	9.5473e-02
11.250	17.500	1.1331e-01
11.250	17.750	1.4208e-01
11.250	18.000	1.7370e-01
11.250	18.250	2.0168e-01
11.250	18.500	2.2501e-01
11.250	18.750	2.4483e-01
11.250	19.000	2.5893e-01
11.250	19.250	2.6846e-01
11.250	19.500	2.7284e-01
11.250	19.750	2.7441e-01
11.250	20.000	2.7088e-01
11.250	20.250	2.5798e-01
11.250	20.500	2.2610e-01
11.250	20.750	1.3350e-01
11.250	21.000	7.4692e-02
11.250	21.250	4.7006e-02
11.250	21.500	3.3209e-02
11.250	21.750	2.4497e-02
11.250	22.000	1.9906e-02
11.250	22.250	1.7730e-02
11.250	22.500	1.6654e-02
11.250	22.750	1.6046e-02
11.250	23.000	1.5793e-02
11.250	23.250	1.5666e-02
11.250	23.500	1.5594e-02
11.250	23.750	1.5563e-02
11.250	24.000	1.5551e-02
11.500	17.000	1.0009e-01
11.500	17.250	1.0505e-01
11.500	17.500	1.2436e-01
11.500	17.750	1.5547e-01
11.500	18.000	1.8859e-01
11.500	18.250	2.1707e-01
11.500	18.500	2.4026e-01
11.500	18.750	2.6053e-01
11.500	19.000	2.7528e-01
11.500	19.250	2.8618e-01
11.500	19.500	2.9236e-01
11.500	19.750	2.9539e-01
11.500	20.000	2.9569e-01
11.500	20.250	2.9157e-01
11.500	20.500	2.7725e-01
11.500	20.750	2.3719e-01
11.500	21.000	1.3247e-01
11.500	21.250	7.3542e-02
11.500	21.500	4.6787e-02
11.500	21.750	3.3193e-02
11.500	22.000	2.4360e-02
11.500	22.250	1.9875e-02
11.500	22.500	1.7722e-02
11.500	22.750	1.6649e-02
11.500	23.000	1.6044e-02
11.500	23.250	1.5792e-02
11.500	23.500	1.5665e-02
11.500	23.750	1.5594e-02
11.500	24.000	1.5565e-02
11.750	17.000	1.1325e-01
11.750	17.250	1.1673e-01
11.750	17.500	1.3578e-01
11.750	17.750	1.6734e-01
11.750	18.000	2.0120e-01
11.750	18.250	2.3032e-01
11.750	18.500	2.5442e-01
11.750	18.750	2.7454e-01
11.750	19.000	2.9128e-01
11.750	19.250	3.0271e-01
11.750	19.500	3.1069e-01
11.750	19.750	3.1473e-01
11.750	20.000	3.1579e-01
11.750	20.250	3.1502e-01
11.750	20.500	3.1071e-01
11.750	20.750	2.9458e-01
11.750	21.000	2.5039e-01
11.750	21.250	1.3148e-01
11.750	21.500	7.3027e-02
11.750	21.750	4.6963e-02
11.750	22.000	3.2896e-02
11.750	22.250	2.4213e-02
11.750	22.500	1.9834e-02
11.750	22.750	1.7712e-02
11.750	23.000	1.6643e-02
11.750	23.250	1.6041e-02
11.750	23.500	1.5791e-02
11.750	23.750	1.5665e-02
11.750	24.000	1.5594e-02
12.000	17.000	1.2898e-01
12.000	17.250	1.3070e-01
12.000	17.500	1.4761e-01
12.000	17.750	1.7733e-01
12.000	18.000	2.1047e-01
12.000	18.250	2.4059e-01
12.000	18.500	2.6702e-01
12.000	18.750	2.8921e-01
12.000	19.000	3.0653e-01
12.000	19.250	3.1891e-01
12.000	19.500	3.2673e-01
12.000	19.750	3.3097e-01
12.000	20.000	3.3241e-01
12.000	20.250	3.3254e-01
12.000	20.500	3.3136e-01
12.000	20.750	3.2692e-01
12.000	21.000	3.0863e-01
12.000	21.250	2.4079e-01
12.000	21.500	1.3099e-01
12.000	21.750	7.2310e-02
12.000	22.000	4.7251e-02
12.000	22.250	3.2403e-02
12.000	22.500	2.4045e-02
12.000	22.750	1.9779e-02
12.000	23.000	1.7698e-02
12.000	23.250	1.6634e-02
12.000	23.500	1.6037e-02
12.000	23.750	1.5789e-02
12.000	24.000	1.5664e-02
12.250	17.000	1.4775e-01
12.250	17.250	1.4679e-01
12.250	17.500	1.5933e-01
12.250	17.750	1.8472e-01
12.250	18.000	2.1644e-01
12.250	18.250	2.4866e-01
12.250	18.500	2.7815e-01
12.250	18.750	3.0283e-01
12.250	19.000	3.2102e-01
12.250	19.250	3.3365e-01
12.250	19.500	3.4107e-01
12.250	19.750	3.4498e-01
12.250	20.000	3.4629e-01
12.250	20.250	3.4616e-01
12.250	20.500	3.4507e-01
12.250	20.750	3.4419e-01
12.250	21.000	3.3985e-01
12.250	21.250	3.1790e-01
12.250	21.500	2.3963e-01
12.250	21.750	1.2861e-01
12.250	22.000	7.1928e-02
12.250	22.250	4.7483e-02
12.250	22.500	3.1925e-02
12.250	22.750	2.3857e-02
12.250	23.000	1.9713e-02
12.250	23.250	1.7677e-02
12.250	23.500	1.6622e-02
12.250	23.750	1.6032e-02
12.250	24.000	1.5786e-02
12.500	17.000	1.5453e-01
12.500	17.250	1.6402e-01
12.500	17.500	1.7149e-01
12.500	17.750	1.9098e-01
12.500	18.000	2.2018e-01
12.500	18.250	2.5363e-01
12.500	18.500	2.8629e-01
12.500	18.750	3.1393e-01
12.500	19.000	3.3394e-01
12.500	19.250	3.4638e-01
12.500	19.500	3.5361e-01
12.500	19.750	3.5703e-01
12.500	20.000	3.5778e-01
12.500	20.250	3.5726e-01
12.500	20.500	3.5511e-01
12.500	20.750	3.5448e-01
12.500	21.000	3.5460e-01
12.500	21.250	3.4973e-01
12.500	21.500	3.1991e-01
12.500	21.750	2.2824e-01
12.500	22.000	1.2472e-01
12.500	22.250	7.1618e-02
12.500	22.500	4.7107e-02
12.500	22.750	3.1418e-02
12.500	23.000	2.3633e-02
12.500	23.250	1.9633e-02
12.500	23.500	1.7645e-02
12.500	23.750	1.6604e-02
12.500	24.000	1.6024e-02
12.750	17.000	1.3874e-01
12.750	17.250	1.6723e-01
12.750	17.500	1.8054e-01
12.750	17.750	1.9758e-01
12.750	18.000	2.2423e-01
12.750	18.250	2.5806e-01
12.750	18.500	2.9161e-01
12.750	18.750	3.2138e-01
12.750	19.000	3.4346e-01
12.750	19.250	3.5773e-01
12.750	19.500	3.6394e-01
12.750	19.750	3.6640e-01
12.750	20.000	3.6613e-01
12.750	20.250	3.6544e-01
12.750	20.500	3.6304e-01
12.750	20.750	3.6068e-01
12.750	21.000	3.6134e-01
12.750	21.250	3.6231e-01
12.750	21.500	3.5142e-01
12.750	21.750	3.1731e-01
12.750	22.000	2.1434e-01
12.750	22.250	1.2022e-01
12.750	22.500	7.1294e-02
12.750	22.750	4.6096e-02
12.750	23.000	3.0915e-02
12.750	23.250	2.3376e-02
12.750	23.500	1.9520e-02
12.750	23.750	1.7594e-02
12.750	24.000	1.6575e-02
13.000	17.000	8.7232e-02
13.000	17.250	1.1323e-01
13.000	17.500	1.6528e-01
13.000	17.750	2.0258e-01
13.000	18.000	2.3128e-01
13.000	18.250	2.6348e-01
13.000	18.500	2.9619e-01
13.000	18.750	3.2610e-01
13.000	19.000	3.4960e-01
13.000	19.250	3.6489e-01
13.000	19.500	3.7164e-01
13.000	19.750	3.7375e-01
13.000	20.000	3.7319e-01
13.000	20.250	3.7095e-01
13.000	20.500	3.6940e-01
13.000	20.750	3.6779e-01
13.000	21.000	3.6698e-01
13.000	21.250	3.6890e-01
13.000	21.500	3.6595e-01
13.000	21.750	3.5373e-01
13.000	22.000	3.0550e-01
13.000	22.250	1.9867e-01
13.000	22.500	1.1457e-01
13.000	22.750	7.0207e-02
13.000	23.000	4.4784e-02
13.000	23.250	3.0278e-02
13.000	23.500	2.3043e-02
13.000	23.750	1.9377e-02
13.000	24.000	1.7514e-02
13.250	17.000	8.5453e-02
13.250	17.250	1.0172e-01
13.250	17.500	1.3500e-01
13.250	17.750	1.8466e-01
13.250	18.000	2.2873e-01
13.250	18.250	2.7095e-01
13.250	18.500	3.0192e-01
13.250	18.750	3.3053e-01
13.250	19.000	3.5337e-01
13.250	19.250	3.6981e-01
13.250	19.500	3.7763e-01
13.250	19.750	3.8032e-01
13.250	20.000	3.7922e-01
13.250	20.250	3.7626e-01
13.250	20.500	3.7302e-01
13.250	20.750	3.7126e-01
13.250	21.000	3.7098e-01
13.250	21.250	3.7154e-01
13.250	21.500	3.6756e-01
13.250	21.750	3.6725e-01
13.250	22.000	3.4956e-01
13.250	22.250	2.8553e-01
13.250	22.500	1.8105e-01
13.250	22.750	1.0738e-01
13.250	23.000	6.6671e-02
13.250	23.250	4.3125e-02
13.250	23.500	2.9559e-02
13.250	23.750	2.2686e-02
13.250	24.000	1.9201e-02
13.500	17.000	8.3913e-02
13.500	17.250	1.0015e-01
13.500	17.500	1.2896e-01
13.500	17.750	1.7096e-01
13.500	18.000	2.2832e-01
13.500	18.250	2.7144e-01
13.500	18.500	3.0954e-01
13.500	18.750	3.3578e-01
13.500	19.000	3.5840e-01
13.500	19.250	3.7383e-01
13.500	19.500	3.8288e-01
13.500	19.750	3.8538e-01
13.500	20.000	3.8462e-01
13.500	20.250	3.8191e-01
13.500	20.500	3.7766e-01
13.500	20.750	3.7367e-01
13.500	21.000	3.7106e-01
13.500	21.250	3.7167e-01
13.500	21.500	3.6747e-01
13.500	21.750	3.7063e-01
13.500	22.000	3.6846e-01
13.500	22.250	3.3519e-01
13.500	22.500	2.5635e-01
13.500	22.750	1.6197e-01
13.500	23.000	9.8113e-02
13.500	23.250	6.2748e-02
13.500	23.500	4.1203e-02
13.500	23.750	2.8680e-02
13.500	24.000	2.2236e-02
13.750	17.000	8.3346e-02
13.750	17.250	9.8849e-02
13.750	17.500	1.2519e-01
13.750	17.750	1.5954e-01
13.750	18.000	2.1501e-01
13.750	18.250	2.7387e-01
13.750	18.500	3.0993e-01
13.750	18.750	3.4389e-01
13.750	19.000	3.6454e-01
13.750	19.250	3.8071e-01
13.750	19.500	3.9000e-01
13.750	19.750	3.9317e-01
13.750	20.000	3.9213e-01
13.750	20.250	3.8889e-01
13.750	20.500	3.8437e-01
13.750	20.750	3.7907e-01
13.750	21.000	3.7415e-01
13.750	21.250	3.7129e-01
13.750	21.500	3.6807e-01
13.750	21.750	3.7094e-01
13.750	22.000	3.7126e-01
13.750	22.250	3.5492e-01
13.750	22.500	3.0623e-01
13.750	22.750	2.2433e-01
13.750	23.000	1.4171e-01
13.750	23.250	8.8645e-02
13.750	23.500	5.7901e-02
13.750	23.750	3.8950e-02
13.750	24.000	2.7611e-02
14.000	17.000	8.3063e-02
14.000	17.250	9.6469e-02
14.000	17.500	1.2204e-01
14.000	17.750	1.5473e-01
14.000	18.000	1.9936e-01
14.000	18.250	2.5963e-01
14.000	18.500	3.1358e-01
14.000	18.750	3.4922e-01
14.000	19.000	3.7269e-01
14.000	19.250	3.8804e-01
14.000	19.500	3.9866e-01
14.000	19.750	4.0314e-01
14.000	20.000	4.0288e-01
14.000	20.250	3.9878e-01
14.000	20.500	3.9379e-01
14.000	20.750	3.8807e-01
14.000	21.000	3.8236e-01
14.000	21.250	3.7814e-01
14.000	21.500	3.7246e-01
14.000	21.750	3.7534e-01
14.000	22.000	3.7748e-01
14.000	22.250	3.6334e-01
14.000	22.500	3.2285e-01
14.000	22.750	2.6743e-01
14.000	23.000	1.9122e-01
14.000	23.250	1.2289e-01
14.000	23.500	7.9266e-02
14.000	23.750	5.3393e-02
14.000	24.000	3.6355e-02
