InwC 1.11867m  relative to Inci 1215.00A scaled to 1215A.
Hden   Phi(H)  Eq_Width (A)
 7.000	17.000	5.3558e-03
 7.000	17.250	5.5997e-03
 7.000	17.500	5.7418e-03
 7.000	17.750	5.7444e-03
 7.000	18.000	5.7470e-03
 7.000	18.250	5.7502e-03
 7.000	18.500	5.7518e-03
 7.000	18.750	5.7525e-03
 7.000	19.000	5.7532e-03
 7.000	19.250	5.7537e-03
 7.000	19.500	5.7539e-03
 7.000	19.750	5.7540e-03
 7.000	20.000	5.7540e-03
 7.000	20.250	5.7540e-03
 7.000	20.500	5.7541e-03
 7.000	20.750	5.7541e-03
 7.000	21.000	5.7541e-03
 7.000	21.250	5.7541e-03
 7.000	21.500	5.7542e-03
 7.000	21.750	5.7542e-03
 7.000	22.000	5.7542e-03
 7.000	22.250	5.7543e-03
 7.000	22.500	5.7543e-03
 7.000	22.750	5.7544e-03
 7.000	23.000	5.7544e-03
 7.000	23.250	5.7544e-03
 7.000	23.500	5.7544e-03
 7.000	23.750	5.7544e-03
 7.000	24.000	5.7544e-03
 7.250	17.000	3.9851e-03
 7.250	17.250	5.3751e-03
 7.250	17.500	5.6007e-03
 7.250	17.750	5.7418e-03
 7.250	18.000	5.7444e-03
 7.250	18.250	5.7470e-03
 7.250	18.500	5.7501e-03
 7.250	18.750	5.7518e-03
 7.250	19.000	5.7525e-03
 7.250	19.250	5.7532e-03
 7.250	19.500	5.7537e-03
 7.250	19.750	5.7539e-03
 7.250	20.000	5.7540e-03
 7.250	20.250	5.7540e-03
 7.250	20.500	5.7540e-03
 7.250	20.750	5.7541e-03
 7.250	21.000	5.7541e-03
 7.250	21.250	5.7541e-03
 7.250	21.500	5.7541e-03
 7.250	21.750	5.7541e-03
 7.250	22.000	5.7541e-03
 7.250	22.250	5.7541e-03
 7.250	22.500	5.7542e-03
 7.250	22.750	5.7542e-03
 7.250	23.000	5.7542e-03
 7.250	23.250	5.7542e-03
 7.250	23.500	5.7542e-03
 7.250	23.750	5.7542e-03
 7.250	24.000	5.7543e-03
 7.500	17.000	2.9334e-03
 7.500	17.250	4.0359e-03
 7.500	17.500	5.3895e-03
 7.500	17.750	5.6017e-03
 7.500	18.000	5.7418e-03
 7.500	18.250	5.7444e-03
 7.500	18.500	5.7471e-03
 7.500	18.750	5.7502e-03
 7.500	19.000	5.7518e-03
 7.500	19.250	5.7525e-03
 7.500	19.500	5.7532e-03
 7.500	19.750	5.7537e-03
 7.500	20.000	5.7539e-03
 7.500	20.250	5.7540e-03
 7.500	20.500	5.7540e-03
 7.500	20.750	5.7540e-03
 7.500	21.000	5.7541e-03
 7.500	21.250	5.7541e-03
 7.500	21.500	5.7541e-03
 7.500	21.750	5.7541e-03
 7.500	22.000	5.7541e-03
 7.500	22.250	5.7541e-03
 7.500	22.500	5.7541e-03
 7.500	22.750	5.7541e-03
 7.500	23.000	5.7541e-03
 7.500	23.250	5.7541e-03
 7.500	23.500	5.7544e-03
 7.500	23.750	5.7542e-03
 7.500	24.000	5.7541e-03
 7.750	17.000	2.0612e-03
 7.750	17.250	2.9945e-03
 7.750	17.500	4.0773e-03
 7.750	17.750	5.4004e-03
 7.750	18.000	5.6026e-03
 7.750	18.250	5.7418e-03
 7.750	18.500	5.7444e-03
 7.750	18.750	5.7471e-03
 7.750	19.000	5.7502e-03
 7.750	19.250	5.7518e-03
 7.750	19.500	5.7525e-03
 7.750	19.750	5.7532e-03
 7.750	20.000	5.7537e-03
 7.750	20.250	5.7539e-03
 7.750	20.500	5.7540e-03
 7.750	20.750	5.7540e-03
 7.750	21.000	5.7540e-03
 7.750	21.250	5.7541e-03
 7.750	21.500	5.7541e-03
 7.750	21.750	5.7541e-03
 7.750	22.000	5.7541e-03
 7.750	22.250	5.7541e-03
 7.750	22.500	5.7541e-03
 7.750	22.750	5.7541e-03
 7.750	23.000	5.7541e-03
 7.750	23.250	5.7541e-03
 7.750	23.500	5.7541e-03
 7.750	23.750	5.7541e-03
 7.750	24.000	5.7541e-03
 8.000	17.000	1.4067e-03
 8.000	17.250	2.0994e-03
 8.000	17.500	3.0440e-03
 8.000	17.750	4.0963e-03
 8.000	18.000	5.3863e-03
 8.000	18.250	5.6024e-03
 8.000	18.500	5.7419e-03
 8.000	18.750	5.7444e-03
 8.000	19.000	5.7471e-03
 8.000	19.250	5.7502e-03
 8.000	19.500	5.7518e-03
 8.000	19.750	5.7525e-03
 8.000	20.000	5.7532e-03
 8.000	20.250	5.7537e-03
 8.000	20.500	5.7539e-03
 8.000	20.750	5.7540e-03
 8.000	21.000	5.7540e-03
 8.000	21.250	5.7540e-03
 8.000	21.500	5.7540e-03
 8.000	21.750	5.7541e-03
 8.000	22.000	5.7541e-03
 8.000	22.250	5.7541e-03
 8.000	22.500	5.7541e-03
 8.000	22.750	5.7541e-03
 8.000	23.000	5.7541e-03
 8.000	23.250	5.7542e-03
 8.000	23.500	5.7541e-03
 8.000	23.750	5.7541e-03
 8.000	24.000	5.7541e-03
 8.250	17.000	9.7300e-04
 8.250	17.250	1.4412e-03
 8.250	17.500	2.1579e-03
 8.250	17.750	3.1160e-03
 8.250	18.000	4.1603e-03
 8.250	18.250	5.3984e-03
 8.250	18.500	5.6031e-03
 8.250	18.750	5.7419e-03
 8.250	19.000	5.7444e-03
 8.250	19.250	5.7471e-03
 8.250	19.500	5.7501e-03
 8.250	19.750	5.7518e-03
 8.250	20.000	5.7525e-03
 8.250	20.250	5.7532e-03
 8.250	20.500	5.7537e-03
 8.250	20.750	5.7539e-03
 8.250	21.000	5.7540e-03
 8.250	21.250	5.7540e-03
 8.250	21.500	5.7540e-03
 8.250	21.750	5.7540e-03
 8.250	22.000	5.7540e-03
 8.250	22.250	5.7540e-03
 8.250	22.500	5.7541e-03
 8.250	22.750	5.7541e-03
 8.250	23.000	5.7541e-03
 8.250	23.250	5.7541e-03
 8.250	23.500	5.7541e-03
 8.250	23.750	5.7541e-03
 8.250	24.000	5.7541e-03
 8.500	17.000	6.8288e-04
 8.500	17.250	9.9827e-04
 8.500	17.500	1.4867e-03
 8.500	17.750	2.2408e-03
 8.500	18.000	3.2376e-03
 8.500	18.250	4.2537e-03
 8.500	18.500	5.4202e-03
 8.500	18.750	5.6039e-03
 8.500	19.000	5.7419e-03
 8.500	19.250	5.7444e-03
 8.500	19.500	5.7471e-03
 8.500	19.750	5.7502e-03
 8.500	20.000	5.7518e-03
 8.500	20.250	5.7525e-03
 8.500	20.500	5.7532e-03
 8.500	20.750	5.7537e-03
 8.500	21.000	5.7539e-03
 8.500	21.250	5.7540e-03
 8.500	21.500	5.7540e-03
 8.500	21.750	5.7540e-03
 8.500	22.000	5.7541e-03
 8.500	22.250	5.7540e-03
 8.500	22.500	5.7541e-03
 8.500	22.750	5.7541e-03
 8.500	23.000	5.7541e-03
 8.500	23.250	5.7541e-03
 8.500	23.500	5.7540e-03
 8.500	23.750	5.7541e-03
 8.500	24.000	5.7541e-03
 8.750	17.000	4.8263e-04
 8.750	17.250	7.0107e-04
 8.750	17.500	1.0338e-03
 8.750	17.750	1.5630e-03
 8.750	18.000	2.3800e-03
 8.750	18.250	3.4252e-03
 8.750	18.500	4.4353e-03
 8.750	18.750	5.4313e-03
 8.750	19.000	5.6044e-03
 8.750	19.250	5.7418e-03
 8.750	19.500	5.7444e-03
 8.750	19.750	5.7471e-03
 8.750	20.000	5.7502e-03
 8.750	20.250	5.7518e-03
 8.750	20.500	5.7525e-03
 8.750	20.750	5.7532e-03
 8.750	21.000	5.7537e-03
 8.750	21.250	5.7539e-03
 8.750	21.500	5.7540e-03
 8.750	21.750	5.7540e-03
 8.750	22.000	5.7540e-03
 8.750	22.250	5.7540e-03
 8.750	22.500	5.7541e-03
 8.750	22.750	5.7541e-03
 8.750	23.000	5.7541e-03
 8.750	23.250	5.7541e-03
 8.750	23.500	5.7541e-03
 8.750	23.750	5.7541e-03
 8.750	24.000	5.7541e-03
 9.000	17.000	3.4230e-04
 9.000	17.250	4.9597e-04
 9.000	17.500	7.2914e-04
 9.000	17.750	1.0947e-03
 9.000	18.000	1.6923e-03
 9.000	18.250	2.6089e-03
 9.000	18.500	3.6835e-03
 9.000	18.750	4.5782e-03
 9.000	19.000	5.4304e-03
 9.000	19.250	5.6046e-03
 9.000	19.500	5.7418e-03
 9.000	19.750	5.7444e-03
 9.000	20.000	5.7471e-03
 9.000	20.250	5.7502e-03
 9.000	20.500	5.7518e-03
 9.000	20.750	5.7525e-03
 9.000	21.000	5.7532e-03
 9.000	21.250	5.7537e-03
 9.000	21.500	5.7539e-03
 9.000	21.750	5.7540e-03
 9.000	22.000	5.7540e-03
 9.000	22.250	5.7540e-03
 9.000	22.500	5.7540e-03
 9.000	22.750	5.7540e-03
 9.000	23.000	5.7541e-03
 9.000	23.250	5.7541e-03
 9.000	23.500	5.7541e-03
 9.000	23.750	5.7541e-03
 9.000	24.000	5.7541e-03
 9.250	17.000	2.4313e-04
 9.250	17.250	3.5193e-04
 9.250	17.500	5.1794e-04
 9.250	17.750	7.7975e-04
 9.250	18.000	1.2142e-03
 9.250	18.250	1.9164e-03
 9.250	18.500	2.9116e-03
 9.250	18.750	3.9755e-03
 9.250	19.000	4.8463e-03
 9.250	19.250	5.4273e-03
 9.250	19.500	5.6040e-03
 9.250	19.750	5.7417e-03
 9.250	20.000	5.7444e-03
 9.250	20.250	5.7471e-03
 9.250	20.500	5.7501e-03
 9.250	20.750	5.7518e-03
 9.250	21.000	5.7525e-03
 9.250	21.250	5.7532e-03
 9.250	21.500	5.7526e-03
 9.250	21.750	5.7522e-03
 9.250	22.000	5.7522e-03
 9.250	22.250	5.7523e-03
 9.250	22.500	5.7539e-03
 9.250	22.750	5.7540e-03
 9.250	23.000	5.7540e-03
 9.250	23.250	5.7540e-03
 9.250	23.500	5.7540e-03
 9.250	23.750	5.7541e-03
 9.250	24.000	5.7541e-03
 9.500	17.000	1.7276e-04
 9.500	17.250	2.5037e-04
 9.500	17.500	3.6914e-04
 9.500	17.750	5.6008e-04
 9.500	18.000	8.8444e-04
 9.500	18.250	1.4119e-03
 9.500	18.500	2.2049e-03
 9.500	18.750	3.2285e-03
 9.500	19.000	4.2095e-03
 9.500	19.250	5.0711e-03
 9.500	19.500	5.4229e-03
 9.500	19.750	5.6021e-03
 9.500	20.000	5.7415e-03
 9.500	20.250	5.7444e-03
 9.500	20.500	5.7471e-03
 9.500	20.750	5.7500e-03
 9.500	21.000	5.7505e-03
 9.500	21.250	5.7508e-03
 9.500	21.500	5.7514e-03
 9.500	21.750	5.7515e-03
 9.500	22.000	5.7509e-03
 9.500	22.250	5.7509e-03
 9.500	22.500	5.7509e-03
 9.500	22.750	5.7509e-03
 9.500	23.000	5.7509e-03
 9.500	23.250	5.7509e-03
 9.500	23.500	5.7517e-03
 9.500	23.750	5.7517e-03
 9.500	24.000	5.7517e-03
 9.750	17.000	1.2272e-04
 9.750	17.250	1.7794e-04
 9.750	17.500	2.6329e-04
 9.750	17.750	4.0354e-04
 9.750	18.000	6.4576e-04
 9.750	18.250	1.0507e-03
 9.750	18.500	1.6568e-03
 9.750	18.750	2.4941e-03
 9.750	19.000	3.5119e-03
 9.750	19.250	4.4785e-03
 9.750	19.500	5.3133e-03
 9.750	19.750	5.4169e-03
 9.750	20.000	5.5988e-03
 9.750	20.250	5.7411e-03
 9.750	20.500	5.7442e-03
 9.750	20.750	5.7469e-03
 9.750	21.000	5.7500e-03
 9.750	21.250	5.7513e-03
 9.750	21.500	5.7511e-03
 9.750	21.750	5.7514e-03
 9.750	22.000	5.7518e-03
 9.750	22.250	5.7513e-03
 9.750	22.500	5.7509e-03
 9.750	22.750	5.7510e-03
 9.750	23.000	5.7510e-03
 9.750	23.250	5.7510e-03
 9.750	23.500	5.7509e-03
 9.750	23.750	5.7509e-03
 9.750	24.000	5.7509e-03
10.000	17.000	8.7078e-05
10.000	17.250	1.2658e-04
10.000	17.500	1.8807e-04
10.000	17.750	2.9144e-04
10.000	18.000	4.7556e-04
10.000	18.250	7.8354e-04
10.000	18.500	1.2437e-03
10.000	18.750	1.8884e-03
10.000	19.000	2.7645e-03
10.000	19.250	3.7614e-03
10.000	19.500	4.7705e-03
10.000	19.750	5.3146e-03
10.000	20.000	5.4107e-03
10.000	20.250	5.5935e-03
10.000	20.500	5.7401e-03
10.000	20.750	5.7439e-03
10.000	21.000	5.7467e-03
10.000	21.250	5.7499e-03
10.000	21.500	5.7515e-03
10.000	21.750	5.7519e-03
10.000	22.000	5.7516e-03
10.000	22.250	5.7519e-03
10.000	22.500	5.7517e-03
10.000	22.750	5.7511e-03
10.000	23.000	5.7509e-03
10.000	23.250	5.7509e-03
10.000	23.500	5.7510e-03
10.000	23.750	5.7510e-03
10.000	24.000	5.7510e-03
10.250	17.000	6.1728e-05
10.250	17.250	9.0041e-05
10.250	17.500	1.3465e-04
10.250	17.750	2.1128e-04
10.250	18.000	3.4996e-04
10.250	18.250	5.8206e-04
10.250	18.500	9.2379e-04
10.250	18.750	1.4134e-03
10.250	19.000	2.0872e-03
10.250	19.250	2.9688e-03
10.250	19.500	3.9922e-03
10.250	19.750	4.9740e-03
10.250	20.000	5.3061e-03
10.250	20.250	5.4044e-03
10.250	20.500	5.5900e-03
10.250	20.750	5.7385e-03
10.250	21.000	5.7433e-03
10.250	21.250	5.7464e-03
10.250	21.500	5.7498e-03
10.250	21.750	5.7516e-03
10.250	22.000	5.7523e-03
10.250	22.250	5.7522e-03
10.250	22.500	5.7520e-03
10.250	22.750	5.7519e-03
10.250	23.000	5.7516e-03
10.250	23.250	5.7512e-03
10.250	23.500	5.7510e-03
10.250	23.750	5.7509e-03
10.250	24.000	5.7509e-03
10.500	17.000	4.3786e-05
10.500	17.250	6.4115e-05
10.500	17.500	9.6708e-05
10.500	17.750	1.5391e-04
10.500	18.000	2.5770e-04
10.500	18.250	4.3012e-04
10.500	18.500	6.8008e-04
10.500	18.750	1.0424e-03
10.500	19.000	1.5451e-03
10.500	19.250	2.2312e-03
10.500	19.500	3.1196e-03
10.500	19.750	4.1781e-03
10.500	20.000	5.1476e-03
10.500	20.250	5.2990e-03
10.500	20.500	5.3986e-03
10.500	20.750	5.5871e-03
10.500	21.000	5.7355e-03
10.500	21.250	5.7422e-03
10.500	21.500	5.7462e-03
10.500	21.750	5.7495e-03
10.500	22.000	5.7515e-03
10.500	22.250	5.7523e-03
10.500	22.500	5.7528e-03
10.500	22.750	5.7520e-03
10.500	23.000	5.7521e-03
10.500	23.250	5.7519e-03
10.500	23.500	5.7516e-03
10.500	23.750	5.7514e-03
10.500	24.000	5.7513e-03
10.750	17.000	3.1111e-05
10.750	17.250	4.5761e-05
10.750	17.500	6.9630e-05
10.750	17.750	1.1226e-04
10.750	18.000	1.8922e-04
10.750	18.250	3.1391e-04
10.750	18.500	4.9564e-04
10.750	18.750	7.5868e-04
10.750	19.000	1.1283e-03
10.750	19.250	1.6410e-03
10.750	19.500	2.3435e-03
10.750	19.750	3.2634e-03
10.750	20.000	4.3688e-03
10.750	20.250	5.2291e-03
10.750	20.500	5.2907e-03
10.750	20.750	5.3938e-03
10.750	21.000	5.5885e-03
10.750	21.250	5.7313e-03
10.750	21.500	5.7412e-03
10.750	21.750	5.7453e-03
10.750	22.000	5.7490e-03
10.750	22.250	5.7513e-03
10.750	22.500	5.7522e-03
10.750	22.750	5.7529e-03
10.750	23.000	5.7523e-03
10.750	23.250	5.7522e-03
10.750	23.500	5.7521e-03
10.750	23.750	5.7519e-03
10.750	24.000	5.7518e-03
11.000	17.000	2.2140e-05
11.000	17.250	3.2593e-05
11.000	17.500	5.0041e-05
11.000	17.750	8.1646e-05
11.000	18.000	1.3786e-04
11.000	18.250	2.2683e-04
11.000	18.500	3.5819e-04
11.000	18.750	5.5160e-04
11.000	19.000	8.1992e-04
11.000	19.250	1.1902e-03
11.000	19.500	1.7165e-03
11.000	19.750	2.4458e-03
11.000	20.000	3.3998e-03
11.000	20.250	4.5439e-03
11.000	20.500	5.2148e-03
11.000	20.750	5.2810e-03
11.000	21.000	5.3922e-03
11.000	21.250	5.5993e-03
11.000	21.500	5.7284e-03
11.000	21.750	5.7387e-03
11.000	22.000	5.7438e-03
11.000	22.250	5.7481e-03
11.000	22.500	5.7509e-03
11.000	22.750	5.7520e-03
11.000	23.000	5.7529e-03
11.000	23.250	5.7531e-03
11.000	23.500	5.7522e-03
11.000	23.750	5.7522e-03
11.000	24.000	5.7521e-03
11.250	17.000	1.5802e-05
11.250	17.250	2.3128e-05
11.250	17.500	3.5802e-05
11.250	17.750	5.8930e-05
11.250	18.000	9.9424e-05
11.250	18.250	1.6247e-04
11.250	18.500	2.5506e-04
11.250	18.750	3.9243e-04
11.250	19.000	5.8477e-04
11.250	19.250	8.5720e-04
11.250	19.500	1.2379e-03
11.250	19.750	1.7811e-03
11.250	20.000	2.5290e-03
11.250	20.250	3.5196e-03
11.250	20.500	4.7028e-03
11.250	20.750	5.1894e-03
11.250	21.000	5.2689e-03
11.250	21.250	5.3967e-03
11.250	21.500	5.6325e-03
11.250	21.750	5.7230e-03
11.250	22.000	5.7349e-03
11.250	22.250	5.7412e-03
11.250	22.500	5.7466e-03
11.250	22.750	5.7505e-03
11.250	23.000	5.7517e-03
11.250	23.250	5.7528e-03
11.250	23.500	5.7534e-03
11.250	23.750	5.7524e-03
11.250	24.000	5.7523e-03
11.500	17.000	1.1358e-05
11.500	17.250	1.6543e-05
11.500	17.500	2.5597e-05
11.500	17.750	4.2140e-05
11.500	18.000	7.0782e-05
11.500	18.250	1.1514e-04
11.500	18.500	1.8016e-04
11.500	18.750	2.7745e-04
11.500	19.000	4.1333e-04
11.500	19.250	6.0864e-04
11.500	19.500	8.8370e-04
11.500	19.750	1.2761e-03
11.500	20.000	1.8331e-03
11.500	20.250	2.6045e-03
11.500	20.500	3.6234e-03
11.500	20.750	4.8005e-03
11.500	21.000	5.1529e-03
11.500	21.250	5.2559e-03
11.500	21.500	5.4306e-03
11.500	21.750	5.6695e-03
11.500	22.000	5.7151e-03
11.500	22.250	5.7295e-03
11.500	22.500	5.7373e-03
11.500	22.750	5.7441e-03
11.500	23.000	5.7496e-03
11.500	23.250	5.7512e-03
11.500	23.500	5.7525e-03
11.500	23.750	5.7535e-03
11.500	24.000	5.7533e-03
11.750	17.000	8.3128e-06
11.750	17.250	1.1934e-05
11.750	17.500	1.8272e-05
11.750	17.750	2.9877e-05
11.750	18.000	4.9712e-05
11.750	18.250	8.0412e-05
11.750	18.500	1.2593e-04
11.750	18.750	1.9284e-04
11.750	19.000	2.9103e-04
11.750	19.250	4.2922e-04
11.750	19.500	6.2815e-04
11.750	19.750	9.0955e-04
11.750	20.000	1.3086e-03
11.750	20.250	1.8751e-03
11.750	20.500	2.6665e-03
11.750	20.750	3.7016e-03
11.750	21.000	4.8686e-03
11.750	21.250	5.0988e-03
11.750	21.500	5.2724e-03
11.750	21.750	5.4673e-03
11.750	22.000	5.6796e-03
11.750	22.250	5.7035e-03
11.750	22.500	5.7216e-03
11.750	22.750	5.7314e-03
11.750	23.000	5.7404e-03
11.750	23.250	5.7482e-03
11.750	23.500	5.7505e-03
11.750	23.750	5.7521e-03
11.750	24.000	5.7534e-03
12.000	17.000	6.0082e-06
12.000	17.250	8.6420e-06
12.000	17.500	1.3086e-05
12.000	17.750	2.0988e-05
12.000	18.000	3.4403e-05
12.000	18.250	5.5226e-05
12.000	18.500	8.7078e-05
12.000	18.750	1.3432e-04
12.000	19.000	2.0362e-04
12.000	19.250	3.0206e-04
12.000	19.500	4.4288e-04
12.000	19.750	6.4288e-04
12.000	20.000	9.2626e-04
12.000	20.250	1.3317e-03
12.000	20.500	1.9053e-03
12.000	20.750	2.7030e-03
12.000	21.000	3.7388e-03
12.000	21.250	4.7253e-03
12.000	21.500	5.0789e-03
12.000	21.750	5.2650e-03
12.000	22.000	5.4979e-03
12.000	22.250	5.6571e-03
12.000	22.500	5.6868e-03
12.000	22.750	5.7100e-03
12.000	23.000	5.7226e-03
12.000	23.250	5.7349e-03
12.000	23.500	5.7462e-03
12.000	23.750	5.7492e-03
12.000	24.000	5.7515e-03
12.250	17.000	4.4444e-06
12.250	17.250	6.2551e-06
12.250	17.500	9.3004e-06
12.250	17.750	1.4568e-05
12.250	18.000	2.3457e-05
12.250	18.250	3.7778e-05
12.250	18.500	5.9918e-05
12.250	18.750	9.3169e-05
12.250	19.000	1.4198e-04
12.250	19.250	2.1226e-04
12.250	19.500	3.1152e-04
12.250	19.750	4.5267e-04
12.250	20.000	6.5407e-04
12.250	20.250	9.3992e-04
12.250	20.500	1.3433e-03
12.250	20.750	1.9162e-03
12.250	21.000	2.7075e-03
12.250	21.250	3.7163e-03
12.250	21.500	4.6877e-03
12.250	21.750	4.9954e-03
12.250	22.000	5.2469e-03
12.250	22.250	5.5091e-03
12.250	22.500	5.6226e-03
12.250	22.750	5.6617e-03
12.250	23.000	5.6920e-03
12.250	23.250	5.7086e-03
12.250	23.500	5.7263e-03
12.250	23.750	5.7430e-03
12.250	24.000	5.7474e-03
12.500	17.000	2.7984e-06
12.500	17.250	4.5267e-06
12.500	17.500	6.6667e-06
12.500	17.750	1.0123e-05
12.500	18.000	1.5885e-05
12.500	18.250	2.5514e-05
12.500	18.500	4.0988e-05
12.500	18.750	6.4362e-05
12.500	19.000	9.8683e-05
12.500	19.250	1.4815e-04
12.500	19.500	2.1885e-04
12.500	19.750	3.1885e-04
12.500	20.000	4.6066e-04
12.500	20.250	6.6296e-04
12.500	20.500	9.4395e-04
12.500	20.750	1.3449e-03
12.500	21.000	1.9077e-03
12.500	21.250	2.6701e-03
12.500	21.500	3.6951e-03
12.500	21.750	4.4944e-03
12.500	22.000	4.8832e-03
12.500	22.250	5.2026e-03
12.500	22.500	5.4720e-03
12.500	22.750	5.5714e-03
12.500	23.000	5.6244e-03
12.500	23.250	5.6635e-03
12.500	23.500	5.6862e-03
12.500	23.750	5.7124e-03
12.500	24.000	5.7381e-03
12.750	17.000	1.4815e-06
12.750	17.250	2.9630e-06
12.750	17.500	4.6914e-06
12.750	17.750	6.9959e-06
12.750	18.000	1.0864e-05
12.750	18.250	1.7449e-05
12.750	18.500	2.7901e-05
12.750	18.750	4.4115e-05
12.750	19.000	6.8148e-05
12.750	19.250	1.0329e-04
12.750	19.500	1.5292e-04
12.750	19.750	2.2370e-04
12.750	20.000	3.2280e-04
12.750	20.250	4.6519e-04
12.750	20.500	6.6313e-04
12.750	20.750	9.3819e-04
12.750	21.000	1.3304e-03
12.750	21.250	1.8667e-03
12.750	21.500	2.6392e-03
12.750	21.750	3.5507e-03
12.750	22.000	4.2535e-03
12.750	22.250	4.7301e-03
12.750	22.500	5.1107e-03
12.750	22.750	5.3827e-03
12.750	23.000	5.4956e-03
12.750	23.250	5.5682e-03
12.750	23.500	5.6195e-03
12.750	23.750	5.6505e-03
12.750	24.000	5.6901e-03
13.000	17.000	1.0000e-07
13.000	17.250	9.8765e-07
13.000	17.500	2.5514e-06
13.000	17.750	4.7737e-06
13.000	18.000	7.5720e-06
13.000	18.250	1.2016e-05
13.000	18.500	1.9095e-05
13.000	18.750	3.0123e-05
13.000	19.000	4.6831e-05
13.000	19.250	7.1358e-05
13.000	19.500	1.0642e-04
13.000	19.750	1.5621e-04
13.000	20.000	2.2675e-04
13.000	20.250	3.2527e-04
13.000	20.500	4.6584e-04
13.000	20.750	6.6181e-04
13.000	21.000	9.3144e-04
13.000	21.250	1.2998e-03
13.000	21.500	1.8470e-03
13.000	21.750	2.5123e-03
13.000	22.000	3.3012e-03
13.000	22.250	3.9639e-03
13.000	22.500	4.5119e-03
13.000	22.750	4.9345e-03
13.000	23.000	5.2374e-03
13.000	23.250	5.3852e-03
13.000	23.500	5.4841e-03
13.000	23.750	5.5510e-03
13.000	24.000	5.5940e-03
13.250	17.000	1.0000e-07
13.250	17.250	1.0000e-07
13.250	17.500	1.0700e-06
13.250	17.750	2.4691e-06
13.250	18.000	4.6914e-06
13.250	18.250	8.3128e-06
13.250	18.500	1.3169e-05
13.250	18.750	2.0658e-05
13.250	19.000	3.1934e-05
13.250	19.250	4.9053e-05
13.250	19.500	7.3580e-05
13.250	19.750	1.0864e-04
13.250	20.000	1.5811e-04
13.250	20.250	2.2823e-04
13.250	20.500	3.2609e-04
13.250	20.750	4.6272e-04
13.250	21.000	6.5333e-04
13.250	21.250	9.0584e-04
13.250	21.500	1.2768e-03
13.250	21.750	1.7340e-03
13.250	22.000	2.2933e-03
13.250	22.250	2.9600e-03
13.250	22.500	3.5831e-03
13.250	22.750	4.1711e-03
13.250	23.000	4.6563e-03
13.250	23.250	5.0273e-03
13.250	23.500	5.2247e-03
13.250	23.750	5.3584e-03
13.250	24.000	5.4456e-03
13.500	17.000	1.0000e-07
13.500	17.250	1.0000e-07
13.500	17.500	1.0000e-07
13.500	17.750	1.3169e-06
13.500	18.000	2.9630e-06
13.500	18.250	5.3498e-06
13.500	18.500	9.1358e-06
13.500	18.750	1.4156e-05
13.500	19.000	2.1893e-05
13.500	19.250	3.3333e-05
13.500	19.500	5.0453e-05
13.500	19.750	7.4897e-05
13.500	20.000	1.0979e-04
13.500	20.250	1.5901e-04
13.500	20.500	2.2856e-04
13.500	20.750	3.2428e-04
13.500	21.000	4.5613e-04
13.500	21.250	6.3325e-04
13.500	21.500	8.8872e-04
13.500	21.750	1.1955e-03
13.500	22.000	1.5528e-03
13.500	22.250	1.9751e-03
13.500	22.500	2.5447e-03
13.500	22.750	3.1360e-03
13.500	23.000	3.7639e-03
13.500	23.250	4.3007e-03
13.500	23.500	4.7401e-03
13.500	23.750	4.9951e-03
13.500	24.000	5.1733e-03
13.750	17.000	1.0000e-07
13.750	17.250	1.0000e-07
13.750	17.500	1.0000e-07
13.750	17.750	1.0000e-07
13.750	18.000	1.6461e-06
13.750	18.250	3.4568e-06
13.750	18.500	5.8436e-06
13.750	18.750	9.7119e-06
13.750	19.000	1.4897e-05
13.750	19.250	2.2798e-05
13.750	19.500	3.4403e-05
13.750	19.750	5.1358e-05
13.750	20.000	7.5802e-05
13.750	20.250	1.1045e-04
13.750	20.500	1.5918e-04
13.750	20.750	2.2700e-04
13.750	21.000	3.1918e-04
13.750	21.250	4.4230e-04
13.750	21.500	6.2222e-04
13.750	21.750	8.2922e-04
13.750	22.000	1.0468e-03
13.750	22.250	1.2700e-03
13.750	22.500	1.6150e-03
13.750	22.750	2.1291e-03
13.750	23.000	2.6771e-03
13.750	23.250	3.2968e-03
13.750	23.500	3.8640e-03
13.750	23.750	4.3579e-03
13.750	24.000	4.6784e-03
14.000	17.000	1.0000e-07
14.000	17.250	1.0000e-07
14.000	17.500	1.0000e-07
14.000	17.750	1.0000e-07
14.000	18.000	9.0535e-07
14.000	18.250	1.9753e-06
14.000	18.500	3.7860e-06
14.000	18.750	6.5021e-06
14.000	19.000	1.0206e-05
14.000	19.250	1.5473e-05
14.000	19.500	2.3374e-05
14.000	19.750	3.4979e-05
14.000	20.000	5.2016e-05
14.000	20.250	7.6296e-05
14.000	20.500	1.1062e-04
14.000	20.750	1.5860e-04
14.000	21.000	2.2412e-04
14.000	21.250	3.1086e-04
14.000	21.500	4.3663e-04
14.000	21.750	5.8033e-04
14.000	22.000	7.1877e-04
14.000	22.250	8.2230e-04
14.000	22.500	9.7267e-04
14.000	22.750	1.2974e-03
14.000	23.000	1.7263e-03
14.000	23.250	2.2199e-03
14.000	23.500	2.7851e-03
14.000	23.750	3.3404e-03
14.000	24.000	3.8671e-03
