InwT 608.160A  relative to Inci 1215.00A scaled to 1215A.
Hden   Phi(H)  Eq_Width (A)
 7.000	17.000	7.2304e-02
 7.000	17.250	9.8093e-02
 7.000	17.500	1.0483e-01
 7.000	17.750	8.1342e-02
 7.000	18.000	6.1042e-02
 7.000	18.250	5.0298e-02
 7.000	18.500	4.5163e-02
 7.000	18.750	4.3480e-02
 7.000	19.000	4.2673e-02
 7.000	19.250	4.2229e-02
 7.000	19.500	4.2037e-02
 7.000	19.750	4.1954e-02
 7.000	20.000	4.1916e-02
 7.000	20.250	4.1899e-02
 7.000	20.500	4.1890e-02
 7.000	20.750	4.1885e-02
 7.000	21.000	4.1883e-02
 7.000	21.250	4.1882e-02
 7.000	21.500	4.1881e-02
 7.000	21.750	4.1881e-02
 7.000	22.000	4.1881e-02
 7.000	22.250	4.1881e-02
 7.000	22.500	4.1882e-02
 7.000	22.750	4.1882e-02
 7.000	23.000	4.1882e-02
 7.000	23.250	4.1882e-02
 7.000	23.500	4.1882e-02
 7.000	23.750	4.1882e-02
 7.000	24.000	4.1882e-02
 7.250	17.000	5.3648e-02
 7.250	17.250	7.2235e-02
 7.250	17.500	9.7943e-02
 7.250	17.750	1.0447e-01
 7.250	18.000	8.1037e-02
 7.250	18.250	6.0873e-02
 7.250	18.500	5.0224e-02
 7.250	18.750	4.5136e-02
 7.250	19.000	4.3469e-02
 7.250	19.250	4.2670e-02
 7.250	19.500	4.2228e-02
 7.250	19.750	4.2037e-02
 7.250	20.000	4.1954e-02
 7.250	20.250	4.1916e-02
 7.250	20.500	4.1899e-02
 7.250	20.750	4.1890e-02
 7.250	21.000	4.1885e-02
 7.250	21.250	4.1883e-02
 7.250	21.500	4.1881e-02
 7.250	21.750	4.1881e-02
 7.250	22.000	4.1880e-02
 7.250	22.250	4.1880e-02
 7.250	22.500	4.1880e-02
 7.250	22.750	4.1880e-02
 7.250	23.000	4.1881e-02
 7.250	23.250	4.1881e-02
 7.250	23.500	4.1881e-02
 7.250	23.750	4.1881e-02
 7.250	24.000	4.1881e-02
 7.500	17.000	4.1597e-02
 7.500	17.250	5.3728e-02
 7.500	17.500	7.2316e-02
 7.500	17.750	9.8031e-02
 7.500	18.000	1.0434e-01
 7.500	18.250	8.0859e-02
 7.500	18.500	6.0757e-02
 7.500	18.750	5.0178e-02
 7.500	19.000	4.5119e-02
 7.500	19.250	4.3462e-02
 7.500	19.500	4.2667e-02
 7.500	19.750	4.2228e-02
 7.500	20.000	4.2037e-02
 7.500	20.250	4.1954e-02
 7.500	20.500	4.1916e-02
 7.500	20.750	4.1899e-02
 7.500	21.000	4.1890e-02
 7.500	21.250	4.1885e-02
 7.500	21.500	4.1883e-02
 7.500	21.750	4.1881e-02
 7.500	22.000	4.1880e-02
 7.500	22.250	4.1880e-02
 7.500	22.500	4.1880e-02
 7.500	22.750	4.1880e-02
 7.500	23.000	4.1880e-02
 7.500	23.250	4.1880e-02
 7.500	23.500	4.1882e-02
 7.500	23.750	4.1880e-02
 7.500	24.000	4.1880e-02
 7.750	17.000	3.3224e-02
 7.750	17.250	4.1786e-02
 7.750	17.500	5.3843e-02
 7.750	17.750	7.2452e-02
 7.750	18.000	9.8229e-02
 7.750	18.250	1.0435e-01
 7.750	18.500	8.0762e-02
 7.750	18.750	6.0673e-02
 7.750	19.000	5.0150e-02
 7.750	19.250	4.5108e-02
 7.750	19.500	4.3458e-02
 7.750	19.750	4.2666e-02
 7.750	20.000	4.2227e-02
 7.750	20.250	4.2037e-02
 7.750	20.500	4.1954e-02
 7.750	20.750	4.1916e-02
 7.750	21.000	4.1899e-02
 7.750	21.250	4.1890e-02
 7.750	21.500	4.1885e-02
 7.750	21.750	4.1883e-02
 7.750	22.000	4.1881e-02
 7.750	22.250	4.1880e-02
 7.750	22.500	4.1880e-02
 7.750	22.750	4.1880e-02
 7.750	23.000	4.1880e-02
 7.750	23.250	4.1880e-02
 7.750	23.500	4.1880e-02
 7.750	23.750	4.1880e-02
 7.750	24.000	4.1880e-02
 8.000	17.000	2.6764e-02
 8.000	17.250	3.3235e-02
 8.000	17.500	4.1717e-02
 8.000	17.750	5.3760e-02
 8.000	18.000	7.2405e-02
 8.000	18.250	9.8340e-02
 8.000	18.500	1.0445e-01
 8.000	18.750	8.0712e-02
 8.000	19.000	6.0608e-02
 8.000	19.250	5.0135e-02
 8.000	19.500	4.5103e-02
 8.000	19.750	4.3455e-02
 8.000	20.000	4.2665e-02
 8.000	20.250	4.2227e-02
 8.000	20.500	4.2037e-02
 8.000	20.750	4.1953e-02
 8.000	21.000	4.1916e-02
 8.000	21.250	4.1899e-02
 8.000	21.500	4.1890e-02
 8.000	21.750	4.1885e-02
 8.000	22.000	4.1883e-02
 8.000	22.250	4.1881e-02
 8.000	22.500	4.1880e-02
 8.000	22.750	4.1880e-02
 8.000	23.000	4.1880e-02
 8.000	23.250	4.1881e-02
 8.000	23.500	4.1880e-02
 8.000	23.750	4.1880e-02
 8.000	24.000	4.1880e-02
 8.250	17.000	2.1862e-02
 8.250	17.250	2.6907e-02
 8.250	17.500	3.3351e-02
 8.250	17.750	4.1796e-02
 8.250	18.000	5.3821e-02
 8.250	18.250	7.2502e-02
 8.250	18.500	9.8562e-02
 8.250	18.750	1.0463e-01
 8.250	19.000	8.0691e-02
 8.250	19.250	6.0552e-02
 8.250	19.500	5.0127e-02
 8.250	19.750	4.5100e-02
 8.250	20.000	4.3454e-02
 8.250	20.250	4.2664e-02
 8.250	20.500	4.2227e-02
 8.250	20.750	4.2037e-02
 8.250	21.000	4.1953e-02
 8.250	21.250	4.1916e-02
 8.250	21.500	4.1899e-02
 8.250	21.750	4.1890e-02
 8.250	22.000	4.1885e-02
 8.250	22.250	4.1882e-02
 8.250	22.500	4.1881e-02
 8.250	22.750	4.1880e-02
 8.250	23.000	4.1880e-02
 8.250	23.250	4.1880e-02
 8.250	23.500	4.1880e-02
 8.250	23.750	4.1880e-02
 8.250	24.000	4.1879e-02
 8.500	17.000	1.8082e-02
 8.500	17.250	2.1956e-02
 8.500	17.500	2.6990e-02
 8.500	17.750	3.3412e-02
 8.500	18.000	4.1855e-02
 8.500	18.250	5.3845e-02
 8.500	18.500	7.2583e-02
 8.500	18.750	9.8773e-02
 8.500	19.000	1.0484e-01
 8.500	19.250	8.0681e-02
 8.500	19.500	6.0498e-02
 8.500	19.750	5.0122e-02
 8.500	20.000	4.5099e-02
 8.500	20.250	4.3454e-02
 8.500	20.500	4.2664e-02
 8.500	20.750	4.2227e-02
 8.500	21.000	4.2037e-02
 8.500	21.250	4.1954e-02
 8.500	21.500	4.1916e-02
 8.500	21.750	4.1899e-02
 8.500	22.000	4.1890e-02
 8.500	22.250	4.1885e-02
 8.500	22.500	4.1883e-02
 8.500	22.750	4.1881e-02
 8.500	23.000	4.1880e-02
 8.500	23.250	4.1880e-02
 8.500	23.500	4.1880e-02
 8.500	23.750	4.1880e-02
 8.500	24.000	4.1880e-02
 8.750	17.000	1.5161e-02
 8.750	17.250	1.8168e-02
 8.750	17.500	2.2030e-02
 8.750	17.750	2.7051e-02
 8.750	18.000	3.3477e-02
 8.750	18.250	4.1915e-02
 8.750	18.500	5.3904e-02
 8.750	18.750	7.2720e-02
 8.750	19.000	9.8991e-02
 8.750	19.250	1.0506e-01
 8.750	19.500	8.0680e-02
 8.750	19.750	6.0445e-02
 8.750	20.000	5.0121e-02
 8.750	20.250	4.5100e-02
 8.750	20.500	4.3454e-02
 8.750	20.750	4.2664e-02
 8.750	21.000	4.2227e-02
 8.750	21.250	4.2037e-02
 8.750	21.500	4.1953e-02
 8.750	21.750	4.1916e-02
 8.750	22.000	4.1899e-02
 8.750	22.250	4.1890e-02
 8.750	22.500	4.1885e-02
 8.750	22.750	4.1883e-02
 8.750	23.000	4.1881e-02
 8.750	23.250	4.1880e-02
 8.750	23.500	4.1880e-02
 8.750	23.750	4.1880e-02
 8.750	24.000	4.1880e-02
 9.000	17.000	1.2694e-02
 9.000	17.250	1.5315e-02
 9.000	17.500	1.8303e-02
 9.000	17.750	2.2150e-02
 9.000	18.000	2.7167e-02
 9.000	18.250	3.3586e-02
 9.000	18.500	4.2016e-02
 9.000	18.750	5.4069e-02
 9.000	19.000	7.3024e-02
 9.000	19.250	9.9202e-02
 9.000	19.500	1.0529e-01
 9.000	19.750	8.0689e-02
 9.000	20.000	6.0395e-02
 9.000	20.250	5.0122e-02
 9.000	20.500	4.5102e-02
 9.000	20.750	4.3455e-02
 9.000	21.000	4.2665e-02
 9.000	21.250	4.2227e-02
 9.000	21.500	4.2037e-02
 9.000	21.750	4.1953e-02
 9.000	22.000	4.1916e-02
 9.000	22.250	4.1899e-02
 9.000	22.500	4.1890e-02
 9.000	22.750	4.1885e-02
 9.000	23.000	4.1883e-02
 9.000	23.250	4.1881e-02
 9.000	23.500	4.1880e-02
 9.000	23.750	4.1880e-02
 9.000	24.000	4.1880e-02
 9.250	17.000	1.0349e-02
 9.250	17.250	1.2942e-02
 9.250	17.500	1.5596e-02
 9.250	17.750	1.8582e-02
 9.250	18.000	2.2392e-02
 9.250	18.250	2.7376e-02
 9.250	18.500	3.3799e-02
 9.250	18.750	4.2330e-02
 9.250	19.000	5.4600e-02
 9.250	19.250	7.3752e-02
 9.250	19.500	9.9478e-02
 9.250	19.750	1.0550e-01
 9.250	20.000	8.0697e-02
 9.250	20.250	6.0349e-02
 9.250	20.500	5.0125e-02
 9.250	20.750	4.5105e-02
 9.250	21.000	4.3457e-02
 9.250	21.250	4.2665e-02
 9.250	21.500	4.2219e-02
 9.250	21.750	4.2024e-02
 9.250	22.000	4.1940e-02
 9.250	22.250	4.1904e-02
 9.250	22.500	4.1898e-02
 9.250	22.750	4.1889e-02
 9.250	23.000	4.1885e-02
 9.250	23.250	4.1882e-02
 9.250	23.500	4.1881e-02
 9.250	23.750	4.1880e-02
 9.250	24.000	4.1880e-02
 9.500	17.000	7.9788e-03
 9.500	17.250	1.0674e-02
 9.500	17.500	1.3390e-02
 9.500	17.750	1.6091e-02
 9.500	18.000	1.9041e-02
 9.500	18.250	2.2797e-02
 9.500	18.500	2.7792e-02
 9.500	18.750	3.4369e-02
 9.500	19.000	4.3146e-02
 9.500	19.250	5.5884e-02
 9.500	19.500	7.5310e-02
 9.500	19.750	1.0002e-01
 9.500	20.000	1.0570e-01
 9.500	20.250	8.0709e-02
 9.500	20.500	6.0311e-02
 9.500	20.750	5.0126e-02
 9.500	21.000	4.5093e-02
 9.500	21.250	4.3444e-02
 9.500	21.500	4.2652e-02
 9.500	21.750	4.2211e-02
 9.500	22.000	4.2014e-02
 9.500	22.250	4.1932e-02
 9.500	22.500	4.1894e-02
 9.500	22.750	4.1876e-02
 9.500	23.000	4.1867e-02
 9.500	23.250	4.1863e-02
 9.500	23.500	4.1866e-02
 9.500	23.750	4.1864e-02
 9.500	24.000	4.1863e-02
 9.750	17.000	5.6240e-03
 9.750	17.250	8.2828e-03
 9.750	17.500	1.1205e-02
 9.750	17.750	1.4077e-02
 9.750	18.000	1.6791e-02
 9.750	18.250	1.9723e-02
 9.750	18.500	2.3554e-02
 9.750	18.750	2.8757e-02
 9.750	19.000	3.5710e-02
 9.750	19.250	4.5043e-02
 9.750	19.500	5.8571e-02
 9.750	19.750	7.7838e-02
 9.750	20.000	1.0108e-01
 9.750	20.250	1.0594e-01
 9.750	20.500	8.0738e-02
 9.750	20.750	6.0290e-02
 9.750	21.000	5.0136e-02
 9.750	21.250	4.5106e-02
 9.750	21.500	4.3448e-02
 9.750	21.750	4.2653e-02
 9.750	22.000	4.2213e-02
 9.750	22.250	4.2018e-02
 9.750	22.500	4.1931e-02
 9.750	22.750	4.1894e-02
 9.750	23.000	4.1877e-02
 9.750	23.250	4.1868e-02
 9.750	23.500	4.1863e-02
 9.750	23.750	4.1860e-02
 9.750	24.000	4.1858e-02
10.000	17.000	3.3760e-03
10.000	17.250	5.8381e-03
10.000	17.500	8.7733e-03
10.000	17.750	1.1937e-02
10.000	18.000	1.4958e-02
10.000	18.250	1.7772e-02
10.000	18.500	2.0882e-02
10.000	18.750	2.5047e-02
10.000	19.000	3.0757e-02
10.000	19.250	3.8306e-02
10.000	19.500	4.8435e-02
10.000	19.750	6.2489e-02
10.000	20.000	8.1347e-02
10.000	20.250	1.0299e-01
10.000	20.500	1.0639e-01
10.000	20.750	8.0798e-02
10.000	21.000	6.0284e-02
10.000	21.250	5.0149e-02
10.000	21.500	4.5114e-02
10.000	21.750	4.3457e-02
10.000	22.000	4.2655e-02
10.000	22.250	4.2214e-02
10.000	22.500	4.2020e-02
10.000	22.750	4.1933e-02
10.000	23.000	4.1893e-02
10.000	23.250	4.1876e-02
10.000	23.500	4.1868e-02
10.000	23.750	4.1863e-02
10.000	24.000	4.1861e-02
10.250	17.000	1.9295e-03
10.250	17.250	3.5123e-03
10.250	17.500	6.2061e-03
10.250	17.750	9.4151e-03
10.250	18.000	1.2867e-02
10.250	18.250	1.6208e-02
10.250	18.500	1.9401e-02
10.250	18.750	2.3043e-02
10.250	19.000	2.7776e-02
10.250	19.250	3.4123e-02
10.250	19.500	4.2450e-02
10.250	19.750	5.3712e-02
10.250	20.000	6.8428e-02
10.250	20.250	8.5977e-02
10.250	20.500	1.0572e-01
10.250	20.750	1.0709e-01
10.250	21.000	8.0901e-02
10.250	21.250	6.0309e-02
10.250	21.500	5.0167e-02
10.250	21.750	4.5120e-02
10.250	22.000	4.3463e-02
10.250	22.250	4.2661e-02
10.250	22.500	4.2215e-02
10.250	22.750	4.2022e-02
10.250	23.000	4.1936e-02
10.250	23.250	4.1896e-02
10.250	23.500	4.1877e-02
10.250	23.750	4.1867e-02
10.250	24.000	4.1862e-02
10.500	17.000	1.0815e-03
10.500	17.250	1.9968e-03
10.500	17.500	3.7433e-03
10.500	17.750	6.7118e-03
10.500	18.000	1.0308e-02
10.500	18.250	1.4278e-02
10.500	18.500	1.8213e-02
10.500	18.750	2.2055e-02
10.500	19.000	2.6292e-02
10.500	19.250	3.1683e-02
10.500	19.500	3.8800e-02
10.500	19.750	4.8057e-02
10.500	20.000	6.0779e-02
10.500	20.250	7.5248e-02
10.500	20.500	9.1863e-02
10.500	20.750	1.0953e-01
10.500	21.000	1.0826e-01
10.500	21.250	8.1093e-02
10.500	21.500	6.0358e-02
10.500	21.750	5.0195e-02
10.500	22.000	4.5127e-02
10.500	22.250	4.3468e-02
10.500	22.500	4.2667e-02
10.500	22.750	4.2216e-02
10.500	23.000	4.2024e-02
10.500	23.250	4.1938e-02
10.500	23.500	4.1899e-02
10.500	23.750	4.1880e-02
10.500	24.000	4.1870e-02
10.750	17.000	6.5160e-04
10.750	17.250	1.1177e-03
10.750	17.500	2.1346e-03
10.750	17.750	4.1835e-03
10.750	18.000	7.4927e-03
10.750	18.250	1.1768e-02
10.750	18.500	1.6437e-02
10.750	18.750	2.1007e-02
10.750	19.000	2.5405e-02
10.750	19.250	3.0283e-02
10.750	19.500	3.6457e-02
10.750	19.750	4.4492e-02
10.750	20.000	5.4839e-02
10.750	20.250	6.8140e-02
10.750	20.500	8.4006e-02
10.750	20.750	9.9533e-02
10.750	21.000	1.1463e-01
10.750	21.250	1.0982e-01
10.750	21.500	8.1369e-02
10.750	21.750	6.0455e-02
10.750	22.000	5.0238e-02
10.750	22.250	4.5136e-02
10.750	22.500	4.3472e-02
10.750	22.750	4.2671e-02
10.750	23.000	4.2219e-02
10.750	23.250	4.2024e-02
10.750	23.500	4.1940e-02
10.750	23.750	4.1901e-02
10.750	24.000	4.1883e-02
11.000	17.000	4.3588e-04
11.000	17.250	6.7523e-04
11.000	17.500	1.1951e-03
11.000	17.750	2.4084e-03
11.000	18.000	4.8424e-03
11.000	18.250	8.6826e-03
11.000	18.500	1.3659e-02
11.000	18.750	1.8963e-02
11.000	19.000	2.3979e-02
11.000	19.250	2.8955e-02
11.000	19.500	3.4654e-02
11.000	19.750	4.1883e-02
11.000	20.000	5.1032e-02
11.000	20.250	6.2593e-02
11.000	20.500	7.7509e-02
11.000	20.750	9.4273e-02
11.000	21.000	1.0908e-01
11.000	21.250	1.2159e-01
11.000	21.500	1.1157e-01
11.000	21.750	8.1739e-02
11.000	22.000	6.0613e-02
11.000	22.250	5.0298e-02
11.000	22.500	4.5147e-02
11.000	22.750	4.3478e-02
11.000	23.000	4.2674e-02
11.000	23.250	4.2225e-02
11.000	23.500	4.2025e-02
11.000	23.750	4.1941e-02
11.000	24.000	4.1903e-02
11.250	17.000	3.1152e-04
11.250	17.250	4.5152e-04
11.250	17.500	7.2444e-04
11.250	17.750	1.3592e-03
11.250	18.000	2.8273e-03
11.250	18.250	5.6343e-03
11.250	18.500	1.0007e-02
11.250	18.750	1.5586e-02
11.250	19.000	2.1308e-02
11.250	19.250	2.6804e-02
11.250	19.500	3.2599e-02
11.250	19.750	3.9487e-02
11.250	20.000	4.8049e-02
11.250	20.250	5.8546e-02
11.250	20.500	7.1545e-02
11.250	20.750	8.7918e-02
11.250	21.000	1.0652e-01
11.250	21.250	1.2112e-01
11.250	21.500	1.3088e-01
11.250	21.750	1.1331e-01
11.250	22.000	8.2125e-02
11.250	22.250	6.0849e-02
11.250	22.500	5.0379e-02
11.250	22.750	4.5164e-02
11.250	23.000	4.3487e-02
11.250	23.250	4.2678e-02
11.250	23.500	4.2229e-02
11.250	23.750	4.2027e-02
11.250	24.000	4.1941e-02
11.500	17.000	2.3259e-04
11.500	17.250	3.2601e-04
11.500	17.500	4.8807e-04
11.500	17.750	8.2239e-04
11.500	18.000	1.5980e-03
11.500	18.250	3.2574e-03
11.500	18.500	6.3437e-03
11.500	18.750	1.1199e-02
11.500	19.000	1.7299e-02
11.500	19.250	2.3435e-02
11.500	19.500	2.9614e-02
11.500	19.750	3.6622e-02
11.500	20.000	4.5048e-02
11.500	20.250	5.5126e-02
11.500	20.500	6.7063e-02
11.500	20.750	8.1686e-02
11.500	21.000	1.0032e-01
11.500	21.250	1.2252e-01
11.500	21.500	1.3679e-01
11.500	21.750	1.4201e-01
11.500	22.000	1.1510e-01
11.500	22.250	8.2451e-02
11.500	22.500	6.1120e-02
11.500	22.750	5.0497e-02
11.500	23.000	4.5187e-02
11.500	23.250	4.3498e-02
11.500	23.500	4.2683e-02
11.500	23.750	4.2231e-02
11.500	24.000	4.2033e-02
11.750	17.000	1.7712e-04
11.750	17.250	2.4576e-04
11.750	17.500	3.5539e-04
11.750	17.750	5.4979e-04
11.750	18.000	9.5325e-04
11.750	18.250	1.8209e-03
11.750	18.500	3.5840e-03
11.750	18.750	6.9178e-03
11.750	19.000	1.2257e-02
11.750	19.250	1.8872e-02
11.750	19.500	2.5595e-02
11.750	19.750	3.2794e-02
11.750	20.000	4.1353e-02
11.750	20.250	5.1526e-02
11.750	20.500	6.3274e-02
11.750	20.750	7.6888e-02
11.750	21.000	9.3460e-02
11.750	21.250	1.1609e-01
11.750	21.500	1.4166e-01
11.750	21.750	1.5522e-01
11.750	22.000	1.5159e-01
11.750	22.250	1.1635e-01
11.750	22.500	8.2680e-02
11.750	22.750	6.1386e-02
11.750	23.000	5.0633e-02
11.750	23.250	4.5219e-02
11.750	23.500	4.3513e-02
11.750	23.750	4.2689e-02
11.750	24.000	4.2232e-02
12.000	17.000	1.3695e-04
12.000	17.250	1.9070e-04
12.000	17.500	2.7111e-04
12.000	17.750	4.0033e-04
12.000	18.000	6.2996e-04
12.000	18.250	1.0844e-03
12.000	18.500	1.9809e-03
12.000	18.750	3.8243e-03
12.000	19.000	7.4540e-03
12.000	19.250	1.3356e-02
12.000	19.500	2.0595e-02
12.000	19.750	2.8108e-02
12.000	20.000	3.6716e-02
12.000	20.250	4.7146e-02
12.000	20.500	5.9220e-02
12.000	20.750	7.2799e-02
12.000	21.000	8.9323e-02
12.000	21.250	1.0911e-01
12.000	21.500	1.3488e-01
12.000	21.750	1.6496e-01
12.000	22.000	1.7385e-01
12.000	22.250	1.5774e-01
12.000	22.500	1.1710e-01
12.000	22.750	8.2712e-02
12.000	23.000	6.1641e-02
12.000	23.250	5.0773e-02
12.000	23.500	4.5257e-02
12.000	23.750	4.3529e-02
12.000	24.000	4.2695e-02
12.250	17.000	1.0872e-04
12.250	17.250	1.5193e-04
12.250	17.500	2.1292e-04
12.250	17.750	3.0872e-04
12.250	18.000	4.5942e-04
12.250	18.250	7.2650e-04
12.250	18.500	1.2101e-03
12.250	18.750	2.1339e-03
12.250	19.000	4.0910e-03
12.250	19.250	8.1420e-03
12.250	19.500	1.4710e-02
12.250	19.750	2.2727e-02
12.250	20.000	3.1365e-02
12.250	20.250	4.1727e-02
12.250	20.500	5.4147e-02
12.250	20.750	6.8435e-02
12.250	21.000	8.5235e-02
12.250	21.250	1.0553e-01
12.250	21.500	1.2857e-01
12.250	21.750	1.5829e-01
12.250	22.000	1.9021e-01
12.250	22.250	1.9174e-01
12.250	22.500	1.6245e-01
12.250	22.750	1.1740e-01
12.250	23.000	8.2551e-02
12.250	23.250	6.1841e-02
12.250	23.500	5.0903e-02
12.250	23.750	4.5294e-02
12.250	24.000	4.3545e-02
12.500	17.000	8.5761e-05
12.500	17.250	1.2477e-04
12.500	17.500	1.7399e-04
12.500	17.750	2.4733e-04
12.500	18.000	3.6016e-04
12.500	18.250	5.4074e-04
12.500	18.500	8.4733e-04
12.500	18.750	1.3695e-03
12.500	19.000	2.3667e-03
12.500	19.250	4.5698e-03
12.500	19.500	9.1856e-03
12.500	19.750	1.6593e-02
12.500	20.000	2.5557e-02
12.500	20.250	3.5637e-02
12.500	20.500	4.8058e-02
12.500	20.750	6.3126e-02
12.500	21.000	8.1280e-02
12.500	21.250	1.0275e-01
12.500	21.500	1.2584e-01
12.500	21.750	1.5277e-01
12.500	22.000	1.8619e-01
12.500	22.250	2.1580e-01
12.500	22.500	2.0678e-01
12.500	22.750	1.6590e-01
12.500	23.000	1.1725e-01
12.500	23.250	8.2228e-02
12.500	23.500	6.1965e-02
12.500	23.750	5.1012e-02
12.500	24.000	4.5325e-02
12.750	17.000	6.6502e-05
12.750	17.250	9.9835e-05
12.750	17.500	1.4560e-04
12.750	17.750	2.0765e-04
12.750	18.000	2.9860e-04
12.750	18.250	4.3613e-04
12.750	18.500	6.5844e-04
12.750	18.750	1.0165e-03
12.750	19.000	1.6137e-03
12.750	19.250	2.7765e-03
12.750	19.500	5.3528e-03
12.750	19.750	1.0609e-02
12.750	20.000	1.8837e-02
12.750	20.250	2.9178e-02
12.750	20.500	4.1143e-02
12.750	20.750	5.5873e-02
12.750	21.000	7.4811e-02
12.750	21.250	9.7819e-02
12.750	21.500	1.2172e-01
12.750	21.750	1.5058e-01
12.750	22.000	1.8130e-01
12.750	22.250	2.1661e-01
12.750	22.500	2.4031e-01
12.750	22.750	2.1961e-01
12.750	23.000	1.6770e-01
12.750	23.250	1.1663e-01
12.750	23.500	8.1706e-02
12.750	23.750	6.1992e-02
12.750	24.000	5.1084e-02
13.000	17.000	5.0947e-05
13.000	17.250	7.8683e-05
13.000	17.500	1.1852e-04
13.000	17.750	1.7235e-04
13.000	18.000	2.5218e-04
13.000	18.250	3.7070e-04
13.000	18.500	5.5300e-04
13.000	18.750	8.3358e-04
13.000	19.000	1.2723e-03
13.000	19.250	2.0024e-03
13.000	19.500	3.3756e-03
13.000	19.750	6.3396e-03
13.000	20.000	1.2268e-02
13.000	20.250	2.1422e-02
13.000	20.500	3.3416e-02
13.000	20.750	4.8112e-02
13.000	21.000	6.6579e-02
13.000	21.250	9.1269e-02
13.000	21.500	1.1895e-01
13.000	21.750	1.4470e-01
13.000	22.000	1.7448e-01
13.000	22.250	2.1178e-01
13.000	22.500	2.4719e-01
13.000	22.750	2.6009e-01
13.000	23.000	2.2962e-01
13.000	23.250	1.6904e-01
13.000	23.500	1.1586e-01
13.000	23.750	8.1035e-02
13.000	24.000	6.1922e-02
13.250	17.000	3.8683e-05
13.250	17.250	6.1235e-05
13.250	17.500	9.5391e-05
13.250	17.750	1.4403e-04
13.250	18.000	2.1449e-04
13.250	18.250	3.2272e-04
13.250	18.500	4.8667e-04
13.250	18.750	7.3259e-04
13.250	19.000	1.0965e-03
13.250	19.250	1.6574e-03
13.250	19.500	2.5770e-03
13.250	19.750	4.2662e-03
13.250	20.000	7.6683e-03
13.250	20.250	1.3995e-02
13.250	20.500	2.3881e-02
13.250	20.750	3.7993e-02
13.250	21.000	5.5497e-02
13.250	21.250	7.8397e-02
13.250	21.500	1.0191e-01
13.250	21.750	1.3212e-01
13.250	22.000	1.6679e-01
13.250	22.250	2.0147e-01
13.250	22.500	2.4128e-01
13.250	22.750	2.7347e-01
13.250	23.000	2.7850e-01
13.250	23.250	2.3844e-01
13.250	23.500	1.6936e-01
13.250	23.750	1.1448e-01
13.250	24.000	8.0462e-02
13.500	17.000	2.8724e-05
13.500	17.250	4.7160e-05
13.500	17.500	7.7119e-05
13.500	17.750	1.1951e-04
13.500	18.000	1.8354e-04
13.500	18.250	2.8189e-04
13.500	18.500	4.3695e-04
13.500	18.750	6.7053e-04
13.500	19.000	1.0102e-03
13.500	19.250	1.5000e-03
13.500	19.500	2.2480e-03
13.500	19.750	3.4621e-03
13.500	20.000	5.5541e-03
13.500	20.250	9.4503e-03
13.500	20.500	1.6213e-02
13.500	20.750	2.7009e-02
13.500	21.000	4.1441e-02
13.500	21.250	6.1624e-02
13.500	21.500	8.3395e-02
13.500	21.750	1.1353e-01
13.500	22.000	1.5148e-01
13.500	22.250	1.8779e-01
13.500	22.500	2.3023e-01
13.500	22.750	2.7554e-01
13.500	23.000	3.0452e-01
13.500	23.250	2.9753e-01
13.500	23.500	2.4594e-01
13.500	23.750	1.6894e-01
13.500	24.000	1.1296e-01
13.750	17.000	2.1811e-05
13.750	17.250	3.5720e-05
13.750	17.500	6.1399e-05
13.750	17.750	9.8765e-05
13.750	18.000	1.5679e-04
13.750	18.250	2.4831e-04
13.750	18.500	3.9218e-04
13.750	18.750	6.1770e-04
13.750	19.000	9.5481e-04
13.750	19.250	1.4351e-03
13.750	19.500	2.1230e-03
13.750	19.750	3.1630e-03
13.750	20.000	4.8193e-03
13.750	20.250	7.5552e-03
13.750	20.500	1.2195e-02
13.750	20.750	1.9848e-02
13.750	21.000	3.1345e-02
13.750	21.250	4.6500e-02
13.750	21.500	6.6416e-02
13.750	21.750	9.1512e-02
13.750	22.000	1.2294e-01
13.750	22.250	1.6435e-01
13.750	22.500	2.1484e-01
13.750	22.750	2.7407e-01
13.750	23.000	3.2069e-01
13.750	23.250	3.4180e-01
13.750	23.500	3.1854e-01
13.750	23.750	2.5180e-01
13.750	24.000	1.6788e-01
14.000	17.000	1.6626e-05
14.000	17.250	2.7737e-05
14.000	17.500	4.6337e-05
14.000	17.750	8.1317e-05
14.000	18.000	1.3374e-04
14.000	18.250	2.1893e-04
14.000	18.500	3.5572e-04
14.000	18.750	5.7062e-04
14.000	19.000	8.9951e-04
14.000	19.250	1.3877e-03
14.000	19.500	2.0788e-03
14.000	19.750	3.0635e-03
14.000	20.000	4.5323e-03
14.000	20.250	6.8187e-03
14.000	20.500	1.0459e-02
14.000	20.750	1.6251e-02
14.000	21.000	2.5259e-02
14.000	21.250	3.8429e-02
14.000	21.500	5.4898e-02
14.000	21.750	7.6377e-02
14.000	22.000	1.0363e-01
14.000	22.250	1.4087e-01
14.000	22.500	1.9160e-01
14.000	22.750	2.5943e-01
14.000	23.000	3.3459e-01
14.000	23.250	3.8661e-01
14.000	23.500	3.8974e-01
14.000	23.750	3.4132e-01
14.000	24.000	2.5508e-01
