nFnu 1650.00A  relative to Inci 1215.00A scaled to 1215A.
Hden   Phi(H)  Eq_Width (A)
 7.000	17.000	1.2311e-01
 7.000	17.250	1.1022e-01
 7.000	17.500	9.1039e-02
 7.000	17.750	6.8451e-02
 7.000	18.000	5.6181e-02
 7.000	18.250	4.9744e-02
 7.000	18.500	4.6164e-02
 7.000	18.750	4.4643e-02
 7.000	19.000	4.3868e-02
 7.000	19.250	4.3430e-02
 7.000	19.500	4.3249e-02
 7.000	19.750	4.3175e-02
 7.000	20.000	4.3142e-02
 7.000	20.250	4.3127e-02
 7.000	20.500	4.3120e-02
 7.000	20.750	4.3116e-02
 7.000	21.000	4.3113e-02
 7.000	21.250	4.3113e-02
 7.000	21.500	4.3112e-02
 7.000	21.750	4.3112e-02
 7.000	22.000	4.3112e-02
 7.000	22.250	4.3113e-02
 7.000	22.500	4.3113e-02
 7.000	22.750	4.3113e-02
 7.000	23.000	4.3113e-02
 7.000	23.250	4.3113e-02
 7.000	23.500	4.3113e-02
 7.000	23.750	4.3113e-02
 7.000	24.000	4.3113e-02
 7.250	17.000	1.1406e-01
 7.250	17.250	1.2301e-01
 7.250	17.500	1.1003e-01
 7.250	17.750	9.0858e-02
 7.250	18.000	6.8354e-02
 7.250	18.250	5.6139e-02
 7.250	18.500	4.9727e-02
 7.250	18.750	4.6158e-02
 7.250	19.000	4.4640e-02
 7.250	19.250	4.3867e-02
 7.250	19.500	4.3430e-02
 7.250	19.750	4.3249e-02
 7.250	20.000	4.3175e-02
 7.250	20.250	4.3142e-02
 7.250	20.500	4.3127e-02
 7.250	20.750	4.3119e-02
 7.250	21.000	4.3115e-02
 7.250	21.250	4.3113e-02
 7.250	21.500	4.3112e-02
 7.250	21.750	4.3112e-02
 7.250	22.000	4.3111e-02
 7.250	22.250	4.3111e-02
 7.250	22.500	4.3111e-02
 7.250	22.750	4.3112e-02
 7.250	23.000	4.3112e-02
 7.250	23.250	4.3112e-02
 7.250	23.500	4.3112e-02
 7.250	23.750	4.3112e-02
 7.250	24.000	4.3112e-02
 7.500	17.000	1.0748e-01
 7.500	17.250	1.1397e-01
 7.500	17.500	1.2274e-01
 7.500	17.750	1.0991e-01
 7.500	18.000	9.0740e-02
 7.500	18.250	6.8284e-02
 7.500	18.500	5.6107e-02
 7.500	18.750	4.9716e-02
 7.500	19.000	4.6154e-02
 7.500	19.250	4.4639e-02
 7.500	19.500	4.3866e-02
 7.500	19.750	4.3429e-02
 7.500	20.000	4.3249e-02
 7.500	20.250	4.3175e-02
 7.500	20.500	4.3142e-02
 7.500	20.750	4.3127e-02
 7.500	21.000	4.3119e-02
 7.500	21.250	4.3115e-02
 7.500	21.500	4.3113e-02
 7.500	21.750	4.3112e-02
 7.500	22.000	4.3111e-02
 7.500	22.250	4.3111e-02
 7.500	22.500	4.3111e-02
 7.500	22.750	4.3111e-02
 7.500	23.000	4.3111e-02
 7.500	23.250	4.3111e-02
 7.500	23.500	4.3113e-02
 7.500	23.750	4.3111e-02
 7.500	24.000	4.3111e-02
 7.750	17.000	1.0112e-01
 7.750	17.250	1.0730e-01
 7.750	17.500	1.1379e-01
 7.750	17.750	1.2250e-01
 7.750	18.000	1.0984e-01
 7.750	18.250	9.0661e-02
 7.750	18.500	6.8229e-02
 7.750	18.750	5.6082e-02
 7.750	19.000	4.9708e-02
 7.750	19.250	4.6151e-02
 7.750	19.500	4.4638e-02
 7.750	19.750	4.3866e-02
 7.750	20.000	4.3429e-02
 7.750	20.250	4.3249e-02
 7.750	20.500	4.3175e-02
 7.750	20.750	4.3142e-02
 7.750	21.000	4.3127e-02
 7.750	21.250	4.3119e-02
 7.750	21.500	4.3115e-02
 7.750	21.750	4.3113e-02
 7.750	22.000	4.3112e-02
 7.750	22.250	4.3111e-02
 7.750	22.500	4.3111e-02
 7.750	22.750	4.3111e-02
 7.750	23.000	4.3111e-02
 7.750	23.250	4.3111e-02
 7.750	23.500	4.3111e-02
 7.750	23.750	4.3111e-02
 7.750	24.000	4.3111e-02
 8.000	17.000	9.4124e-02
 8.000	17.250	9.9835e-02
 8.000	17.500	1.0636e-01
 8.000	17.750	1.1284e-01
 8.000	18.000	1.2162e-01
 8.000	18.250	1.0968e-01
 8.000	18.500	9.0605e-02
 8.000	18.750	6.8180e-02
 8.000	19.000	5.6058e-02
 8.000	19.250	4.9703e-02
 8.000	19.500	4.6149e-02
 8.000	19.750	4.4637e-02
 8.000	20.000	4.3866e-02
 8.000	20.250	4.3429e-02
 8.000	20.500	4.3249e-02
 8.000	20.750	4.3175e-02
 8.000	21.000	4.3142e-02
 8.000	21.250	4.3127e-02
 8.000	21.500	4.3119e-02
 8.000	21.750	4.3115e-02
 8.000	22.000	4.3113e-02
 8.000	22.250	4.3112e-02
 8.000	22.500	4.3111e-02
 8.000	22.750	4.3111e-02
 8.000	23.000	4.3111e-02
 8.000	23.250	4.3112e-02
 8.000	23.500	4.3111e-02
 8.000	23.750	4.3111e-02
 8.000	24.000	4.3111e-02
 8.250	17.000	8.8959e-02
 8.250	17.250	9.3854e-02
 8.250	17.500	9.9957e-02
 8.250	17.750	1.0659e-01
 8.250	18.000	1.1316e-01
 8.250	18.250	1.2164e-01
 8.250	18.500	1.0972e-01
 8.250	18.750	9.0561e-02
 8.250	19.000	6.8133e-02
 8.250	19.250	5.6036e-02
 8.250	19.500	4.9699e-02
 8.250	19.750	4.6148e-02
 8.250	20.000	4.4637e-02
 8.250	20.250	4.3866e-02
 8.250	20.500	4.3429e-02
 8.250	20.750	4.3249e-02
 8.250	21.000	4.3175e-02
 8.250	21.250	4.3142e-02
 8.250	21.500	4.3127e-02
 8.250	21.750	4.3119e-02
 8.250	22.000	4.3115e-02
 8.250	22.250	4.3113e-02
 8.250	22.500	4.3112e-02
 8.250	22.750	4.3111e-02
 8.250	23.000	4.3111e-02
 8.250	23.250	4.3111e-02
 8.250	23.500	4.3111e-02
 8.250	23.750	4.3111e-02
 8.250	24.000	4.3111e-02
 8.500	17.000	8.4622e-02
 8.500	17.250	8.8828e-02
 8.500	17.500	9.4085e-02
 8.500	17.750	1.0060e-01
 8.500	18.000	1.0771e-01
 8.500	18.250	1.1395e-01
 8.500	18.500	1.2189e-01
 8.500	18.750	1.0979e-01
 8.500	19.000	9.0523e-02
 8.500	19.250	6.8085e-02
 8.500	19.500	5.6012e-02
 8.500	19.750	4.9694e-02
 8.500	20.000	4.6147e-02
 8.500	20.250	4.4636e-02
 8.500	20.500	4.3866e-02
 8.500	20.750	4.3429e-02
 8.500	21.000	4.3249e-02
 8.500	21.250	4.3175e-02
 8.500	21.500	4.3142e-02
 8.500	21.750	4.3127e-02
 8.500	22.000	4.3119e-02
 8.500	22.250	4.3115e-02
 8.500	22.500	4.3113e-02
 8.500	22.750	4.3112e-02
 8.500	23.000	4.3111e-02
 8.500	23.250	4.3111e-02
 8.500	23.500	4.3111e-02
 8.500	23.750	4.3111e-02
 8.500	24.000	4.3111e-02
 8.750	17.000	8.0828e-02
 8.750	17.250	8.4697e-02
 8.750	17.500	8.9250e-02
 8.750	17.750	9.5018e-02
 8.750	18.000	1.0226e-01
 8.750	18.250	1.0972e-01
 8.750	18.500	1.1591e-01
 8.750	18.750	1.2190e-01
 8.750	19.000	1.0989e-01
 8.750	19.250	9.0487e-02
 8.750	19.500	6.8033e-02
 8.750	19.750	5.5988e-02
 8.750	20.000	4.9690e-02
 8.750	20.250	4.6146e-02
 8.750	20.500	4.4636e-02
 8.750	20.750	4.3866e-02
 8.750	21.000	4.3429e-02
 8.750	21.250	4.3249e-02
 8.750	21.500	4.3174e-02
 8.750	21.750	4.3142e-02
 8.750	22.000	4.3127e-02
 8.750	22.250	4.3119e-02
 8.750	22.500	4.3115e-02
 8.750	22.750	4.3113e-02
 8.750	23.000	4.3112e-02
 8.750	23.250	4.3111e-02
 8.750	23.500	4.3111e-02
 8.750	23.750	4.3111e-02
 8.750	24.000	4.3111e-02
 9.000	17.000	7.7191e-02
 9.000	17.250	8.1122e-02
 9.000	17.500	8.5370e-02
 9.000	17.750	9.0485e-02
 9.000	18.000	9.7052e-02
 9.000	18.250	1.0508e-01
 9.000	18.500	1.1280e-01
 9.000	18.750	1.1825e-01
 9.000	19.000	1.2156e-01
 9.000	19.250	1.0995e-01
 9.000	19.500	9.0454e-02
 9.000	19.750	6.7981e-02
 9.000	20.000	5.5963e-02
 9.000	20.250	4.9687e-02
 9.000	20.500	4.6145e-02
 9.000	20.750	4.4636e-02
 9.000	21.000	4.3866e-02
 9.000	21.250	4.3429e-02
 9.000	21.500	4.3249e-02
 9.000	21.750	4.3174e-02
 9.000	22.000	4.3142e-02
 9.000	22.250	4.3127e-02
 9.000	22.500	4.3119e-02
 9.000	22.750	4.3115e-02
 9.000	23.000	4.3113e-02
 9.000	23.250	4.3112e-02
 9.000	23.500	4.3111e-02
 9.000	23.750	4.3111e-02
 9.000	24.000	4.3111e-02
 9.250	17.000	7.3292e-02
 9.250	17.250	7.7622e-02
 9.250	17.500	8.2080e-02
 9.250	17.750	8.7008e-02
 9.250	18.000	9.2985e-02
 9.250	18.250	1.0046e-01
 9.250	18.500	1.0918e-01
 9.250	18.750	1.1714e-01
 9.250	19.000	1.2346e-01
 9.250	19.250	1.2089e-01
 9.250	19.500	1.0997e-01
 9.250	19.750	9.0425e-02
 9.250	20.000	6.7932e-02
 9.250	20.250	5.5939e-02
 9.250	20.500	4.9683e-02
 9.250	20.750	4.6144e-02
 9.250	21.000	4.4636e-02
 9.250	21.250	4.3866e-02
 9.250	21.500	4.3421e-02
 9.250	21.750	4.3237e-02
 9.250	22.000	4.3161e-02
 9.250	22.250	4.3129e-02
 9.250	22.500	4.3126e-02
 9.250	22.750	4.3119e-02
 9.250	23.000	4.3115e-02
 9.250	23.250	4.3113e-02
 9.250	23.500	4.3112e-02
 9.250	23.750	4.3111e-02
 9.250	24.000	4.3111e-02
 9.500	17.000	6.8789e-02
 9.500	17.250	7.3787e-02
 9.500	17.500	7.8848e-02
 9.500	17.750	8.4167e-02
 9.500	18.000	9.0052e-02
 9.500	18.250	9.7037e-02
 9.500	18.500	1.0546e-01
 9.500	18.750	1.1463e-01
 9.500	19.000	1.2241e-01
 9.500	19.250	1.2981e-01
 9.500	19.500	1.2005e-01
 9.500	19.750	1.0989e-01
 9.500	20.000	9.0401e-02
 9.500	20.250	6.7889e-02
 9.500	20.500	5.5917e-02
 9.500	20.750	4.9679e-02
 9.500	21.000	4.6134e-02
 9.500	21.250	4.4623e-02
 9.500	21.500	4.3852e-02
 9.500	21.750	4.3413e-02
 9.500	22.000	4.3227e-02
 9.500	22.250	4.3152e-02
 9.500	22.500	4.3119e-02
 9.500	22.750	4.3103e-02
 9.500	23.000	4.3096e-02
 9.500	23.250	4.3092e-02
 9.500	23.500	4.3096e-02
 9.500	23.750	4.3095e-02
 9.500	24.000	4.3094e-02
 9.750	17.000	6.3350e-02
 9.750	17.250	6.9150e-02
 9.750	17.500	7.5093e-02
 9.750	17.750	8.1277e-02
 9.750	18.000	8.7801e-02
 9.750	18.250	9.5066e-02
 9.750	18.500	1.0294e-01
 9.750	18.750	1.1139e-01
 9.750	19.000	1.2038e-01
 9.750	19.250	1.2942e-01
 9.750	19.500	1.3821e-01
 9.750	19.750	1.1953e-01
 9.750	20.000	1.0979e-01
 9.750	20.250	9.0383e-02
 9.750	20.500	6.7856e-02
 9.750	20.750	5.5898e-02
 9.750	21.000	4.9676e-02
 9.750	21.250	4.6139e-02
 9.750	21.500	4.4625e-02
 9.750	21.750	4.3853e-02
 9.750	22.000	4.3414e-02
 9.750	22.250	4.3230e-02
 9.750	22.500	4.3151e-02
 9.750	22.750	4.3120e-02
 9.750	23.000	4.3105e-02
 9.750	23.250	4.3097e-02
 9.750	23.500	4.3092e-02
 9.750	23.750	4.3090e-02
 9.750	24.000	4.3089e-02
10.000	17.000	5.6802e-02
10.000	17.250	6.3445e-02
10.000	17.500	7.0337e-02
10.000	17.750	7.7741e-02
10.000	18.000	8.5702e-02
10.000	18.250	9.3837e-02
10.000	18.500	1.0140e-01
10.000	18.750	1.0886e-01
10.000	19.000	1.1684e-01
10.000	19.250	1.2589e-01
10.000	19.500	1.3807e-01
10.000	19.750	1.4076e-01
10.000	20.000	1.1977e-01
10.000	20.250	1.0958e-01
10.000	20.500	9.0365e-02
10.000	20.750	6.7829e-02
10.000	21.000	5.5883e-02
10.000	21.250	4.9673e-02
10.000	21.500	4.6140e-02
10.000	21.750	4.4632e-02
10.000	22.000	4.3854e-02
10.000	22.250	4.3416e-02
10.000	22.500	4.3233e-02
10.000	22.750	4.3153e-02
10.000	23.000	4.3119e-02
10.000	23.250	4.3104e-02
10.000	23.500	4.3097e-02
10.000	23.750	4.3093e-02
10.000	24.000	4.3091e-02
10.250	17.000	5.0545e-02
10.250	17.250	5.6679e-02
10.250	17.500	6.4585e-02
10.250	17.750	7.3276e-02
10.250	18.000	8.2865e-02
10.250	18.250	9.2162e-02
10.250	18.500	9.9949e-02
10.250	18.750	1.0669e-01
10.250	19.000	1.1313e-01
10.250	19.250	1.2094e-01
10.250	19.500	1.3247e-01
10.250	19.750	1.4838e-01
10.250	20.000	1.3975e-01
10.250	20.250	1.2057e-01
10.250	20.500	1.0982e-01
10.250	20.750	9.0344e-02
10.250	21.000	6.7809e-02
10.250	21.250	5.5872e-02
10.250	21.500	4.9671e-02
10.250	21.750	4.6140e-02
10.250	22.000	4.4635e-02
10.250	22.250	4.3858e-02
10.250	22.500	4.3416e-02
10.250	22.750	4.3234e-02
10.250	23.000	4.3157e-02
10.250	23.250	4.3121e-02
10.250	23.500	4.3104e-02
10.250	23.750	4.3096e-02
10.250	24.000	4.3092e-02
10.500	17.000	4.5224e-02
10.500	17.250	5.0308e-02
10.500	17.500	5.7874e-02
10.500	17.750	6.7896e-02
10.500	18.000	7.8674e-02
10.500	18.250	8.8792e-02
10.500	18.500	9.7180e-02
10.500	18.750	1.0387e-01
10.500	19.000	1.0990e-01
10.500	19.250	1.1701e-01
10.500	19.500	1.2648e-01
10.500	19.750	1.4007e-01
10.500	20.000	1.5836e-01
10.500	20.250	1.4250e-01
10.500	20.500	1.2260e-01
10.500	20.750	1.1056e-01
10.500	21.000	9.0316e-02
10.500	21.250	6.7794e-02
10.500	21.500	5.5865e-02
10.500	21.750	4.9670e-02
10.500	22.000	4.6140e-02
10.500	22.250	4.4635e-02
10.500	22.500	4.3864e-02
10.500	22.750	4.3417e-02
10.500	23.000	4.3236e-02
10.500	23.250	4.3159e-02
10.500	23.500	4.3124e-02
10.500	23.750	4.3107e-02
10.500	24.000	4.3099e-02
10.750	17.000	4.1288e-02
10.750	17.250	4.5095e-02
10.750	17.500	5.1731e-02
10.750	17.750	6.1591e-02
10.750	18.000	7.2771e-02
10.750	18.250	8.3141e-02
10.750	18.500	9.1904e-02
10.750	18.750	9.9135e-02
10.750	19.000	1.0557e-01
10.750	19.250	1.1236e-01
10.750	19.500	1.2051e-01
10.750	19.750	1.3098e-01
10.750	20.000	1.4563e-01
10.750	20.250	1.6032e-01
10.750	20.500	1.4507e-01
10.750	20.750	1.2484e-01
10.750	21.000	1.1192e-01
10.750	21.250	9.0270e-02
10.750	21.500	6.7781e-02
10.750	21.750	5.5863e-02
10.750	22.000	4.9672e-02
10.750	22.250	4.6139e-02
10.750	22.500	4.4636e-02
10.750	22.750	4.3865e-02
10.750	23.000	4.3419e-02
10.750	23.250	4.3236e-02
10.750	23.500	4.3160e-02
10.750	23.750	4.3127e-02
10.750	24.000	4.3110e-02
11.000	17.000	3.8573e-02
11.000	17.250	4.1397e-02
11.000	17.500	4.6677e-02
11.000	17.750	5.4991e-02
11.000	18.000	6.5123e-02
11.000	18.250	7.5018e-02
11.000	18.500	8.4051e-02
11.000	18.750	9.2067e-02
11.000	19.000	9.9351e-02
11.000	19.250	1.0639e-01
11.000	19.500	1.1385e-01
11.000	19.750	1.2253e-01
11.000	20.000	1.3330e-01
11.000	20.250	1.4848e-01
11.000	20.500	1.6594e-01
11.000	20.750	1.4783e-01
11.000	21.000	1.2850e-01
11.000	21.250	1.1463e-01
11.000	21.500	9.0185e-02
11.000	21.750	6.7765e-02
11.000	22.000	5.5866e-02
11.000	22.250	4.9672e-02
11.000	22.500	4.6137e-02
11.000	22.750	4.4636e-02
11.000	23.000	4.3866e-02
11.000	23.250	4.3425e-02
11.000	23.500	4.3237e-02
11.000	23.750	4.3161e-02
11.000	24.000	4.3128e-02
11.250	17.000	3.6762e-02
11.250	17.250	3.9019e-02
11.250	17.500	4.2847e-02
11.250	17.750	4.8862e-02
11.250	18.000	5.6766e-02
11.250	18.250	6.5381e-02
11.250	18.500	7.4247e-02
11.250	18.750	8.3083e-02
11.250	19.000	9.1332e-02
11.250	19.250	9.9024e-02
11.250	19.500	1.0647e-01
11.250	19.750	1.1434e-01
11.250	20.000	1.2332e-01
11.250	20.250	1.3466e-01
11.250	20.500	1.5072e-01
11.250	20.750	1.6407e-01
11.250	21.000	1.5195e-01
11.250	21.250	1.3358e-01
11.250	21.500	1.1914e-01
11.250	21.750	9.0031e-02
11.250	22.000	6.7736e-02
11.250	22.250	5.5873e-02
11.250	22.500	4.9672e-02
11.250	22.750	4.6136e-02
11.250	23.000	4.4635e-02
11.250	23.250	4.3866e-02
11.250	23.500	4.3428e-02
11.250	23.750	4.3239e-02
11.250	24.000	4.3162e-02
11.500	17.000	3.5681e-02
11.500	17.250	3.7455e-02
11.500	17.500	4.0081e-02
11.500	17.750	4.3913e-02
11.500	18.000	4.9081e-02
11.500	18.250	5.5651e-02
11.500	18.500	6.3666e-02
11.500	18.750	7.2799e-02
11.500	19.000	8.2150e-02
11.500	19.250	9.0610e-02
11.500	19.500	9.8447e-02
11.500	19.750	1.0634e-01
11.500	20.000	1.1490e-01
11.500	20.250	1.2455e-01
11.500	20.500	1.3669e-01
11.500	20.750	1.5378e-01
11.500	21.000	1.6824e-01
11.500	21.250	1.6020e-01
11.500	21.500	1.4269e-01
11.500	21.750	1.2481e-01
11.500	22.000	8.9814e-02
11.500	22.250	6.7684e-02
11.500	22.500	5.5883e-02
11.500	22.750	4.9676e-02
11.500	23.000	4.6134e-02
11.500	23.250	4.4635e-02
11.500	23.500	4.3866e-02
11.500	23.750	4.3429e-02
11.500	24.000	4.3245e-02
11.750	17.000	3.5138e-02
11.750	17.250	3.6312e-02
11.750	17.500	3.7967e-02
11.750	17.750	4.0180e-02
11.750	18.000	4.3051e-02
11.750	18.250	4.7375e-02
11.750	18.500	5.3877e-02
11.750	18.750	6.2405e-02
11.750	19.000	7.2216e-02
11.750	19.250	8.1800e-02
11.750	19.500	9.0346e-02
11.750	19.750	9.8534e-02
11.750	20.000	1.0712e-01
11.750	20.250	1.1652e-01
11.750	20.500	1.2722e-01
11.750	20.750	1.4069e-01
11.750	21.000	1.5740e-01
11.750	21.250	1.7538e-01
11.750	21.500	1.7131e-01
11.750	21.750	1.5537e-01
11.750	22.000	1.2770e-01
11.750	22.250	8.9550e-02
11.750	22.500	6.7596e-02
11.750	22.750	5.5893e-02
11.750	23.000	4.9680e-02
11.750	23.250	4.6131e-02
11.750	23.500	4.4634e-02
11.750	23.750	4.3867e-02
11.750	24.000	4.3429e-02
12.000	17.000	3.4826e-02
12.000	17.250	3.5360e-02
12.000	17.500	3.6096e-02
12.000	17.750	3.7202e-02
12.000	18.000	3.8711e-02
12.000	18.250	4.1394e-02
12.000	18.500	4.6135e-02
12.000	18.750	5.3315e-02
12.000	19.000	6.2525e-02
12.000	19.250	7.2842e-02
12.000	19.500	8.2482e-02
12.000	19.750	9.1187e-02
12.000	20.000	9.9987e-02
12.000	20.250	1.0953e-01
12.000	20.500	1.2008e-01
12.000	20.750	1.3248e-01
12.000	21.000	1.4968e-01
12.000	21.250	1.6953e-01
12.000	21.500	1.8594e-01
12.000	21.750	1.8711e-01
12.000	22.000	1.6868e-01
12.000	22.250	1.2737e-01
12.000	22.500	8.9202e-02
12.000	22.750	6.7469e-02
12.000	23.000	5.5899e-02
12.000	23.250	4.9687e-02
12.000	23.500	4.6128e-02
12.000	23.750	4.4633e-02
12.000	24.000	4.3867e-02
12.250	17.000	3.4549e-02
12.250	17.250	3.4363e-02
12.250	17.500	3.4244e-02
12.250	17.750	3.4533e-02
12.250	18.000	3.5417e-02
12.250	18.250	3.7397e-02
12.250	18.500	4.1091e-02
12.250	18.750	4.6793e-02
12.250	19.000	5.4500e-02
12.250	19.250	6.4300e-02
12.250	19.500	7.4790e-02
12.250	19.750	8.4596e-02
12.250	20.000	9.3735e-02
12.250	20.250	1.0345e-01
12.250	20.500	1.1415e-01
12.250	20.750	1.2679e-01
12.250	21.000	1.4350e-01
12.250	21.250	1.6605e-01
12.250	21.500	1.8611e-01
12.250	21.750	2.0272e-01
12.250	22.000	2.0643e-01
12.250	22.250	1.8080e-01
12.250	22.500	1.2687e-01
12.250	22.750	8.8787e-02
12.250	23.000	6.7317e-02
12.250	23.250	5.5896e-02
12.250	23.500	4.9690e-02
12.250	23.750	4.6124e-02
12.250	24.000	4.4632e-02
12.500	17.000	2.9673e-02
12.500	17.250	3.3051e-02
12.500	17.500	3.2339e-02
12.500	17.750	3.2067e-02
12.500	18.000	3.2664e-02
12.500	18.250	3.4525e-02
12.500	18.500	3.7993e-02
12.500	18.750	4.3064e-02
12.500	19.000	4.9460e-02
12.500	19.250	5.7625e-02
12.500	19.500	6.7730e-02
12.500	19.750	7.8572e-02
12.500	20.000	8.8756e-02
12.500	20.250	9.8577e-02
12.500	20.500	1.0942e-01
12.500	20.750	1.2277e-01
12.500	21.000	1.4069e-01
12.500	21.250	1.6485e-01
12.500	21.500	1.8906e-01
12.500	21.750	2.1205e-01
12.500	22.000	2.2774e-01
12.500	22.250	2.2868e-01
12.500	22.500	1.8772e-01
12.500	22.750	1.2626e-01
12.500	23.000	8.8311e-02
12.500	23.250	6.7151e-02
12.500	23.500	5.5882e-02
12.500	23.750	4.9691e-02
12.500	24.000	4.6119e-02
12.750	17.000	2.0636e-02
12.750	17.250	2.8332e-02
12.750	17.500	3.0065e-02
12.750	17.750	2.9690e-02
12.750	18.000	3.0269e-02
12.750	18.250	3.2149e-02
12.750	18.500	3.5732e-02
12.750	18.750	4.0810e-02
12.750	19.000	4.6881e-02
12.750	19.250	5.3993e-02
12.750	19.500	6.2627e-02
12.750	19.750	7.2956e-02
12.750	20.000	8.4032e-02
12.750	20.250	9.5320e-02
12.750	20.500	1.0645e-01
12.750	20.750	1.1922e-01
12.750	21.000	1.3744e-01
12.750	21.250	1.6262e-01
12.750	21.500	1.8824e-01
12.750	21.750	2.2415e-01
12.750	22.000	2.4709e-01
12.750	22.250	2.5799e-01
12.750	22.500	2.5235e-01
12.750	22.750	1.9058e-01
12.750	23.000	1.2559e-01
12.750	23.250	8.7816e-02
12.750	23.500	6.6934e-02
12.750	23.750	5.5852e-02
12.750	24.000	4.9684e-02
13.000	17.000	8.2091e-03
13.000	17.250	1.0940e-02
13.000	17.500	2.0687e-02
13.000	17.750	2.6932e-02
13.000	18.000	2.8006e-02
13.000	18.250	3.0112e-02
13.000	18.500	3.3786e-02
13.000	18.750	3.8937e-02
13.000	19.000	4.5257e-02
13.000	19.250	5.2232e-02
13.000	19.500	5.9805e-02
13.000	19.750	6.9088e-02
13.000	20.000	8.0039e-02
13.000	20.250	9.1843e-02
13.000	20.500	1.0495e-01
13.000	20.750	1.1927e-01
13.000	21.000	1.3693e-01
13.000	21.250	1.6378e-01
13.000	21.500	1.9357e-01
13.000	21.750	2.2485e-01
13.000	22.000	2.6236e-01
13.000	22.250	2.8844e-01
13.000	22.500	2.9547e-01
13.000	22.750	2.6719e-01
13.000	23.000	1.9118e-01
13.000	23.250	1.2487e-01
13.000	23.500	8.7252e-02
13.000	23.750	6.6719e-02
13.000	24.000	5.5796e-02
13.250	17.000	5.4566e-03
13.250	17.250	6.7179e-03
13.250	17.500	9.8286e-03
13.250	17.750	1.5908e-02
13.250	18.000	2.1935e-02
13.250	18.250	2.8317e-02
13.250	18.500	3.2011e-02
13.250	18.750	3.7155e-02
13.250	19.000	4.3581e-02
13.250	19.250	5.0887e-02
13.250	19.500	5.8675e-02
13.250	19.750	6.7536e-02
13.250	20.000	7.7791e-02
13.250	20.250	8.9099e-02
13.250	20.500	1.0193e-01
13.250	20.750	1.1807e-01
13.250	21.000	1.3628e-01
13.250	21.250	1.6032e-01
13.250	21.500	1.8257e-01
13.250	21.750	2.1590e-01
13.250	22.000	2.6118e-01
13.250	22.250	3.1018e-01
13.250	22.500	3.2581e-01
13.250	22.750	3.1187e-01
13.250	23.000	2.6685e-01
13.250	23.250	1.9060e-01
13.250	23.500	1.2404e-01
13.250	23.750	8.6720e-02
13.250	24.000	6.6563e-02
13.500	17.000	3.7021e-03
13.500	17.250	4.7093e-03
13.500	17.500	6.7012e-03
13.500	17.750	1.0401e-02
13.500	18.000	1.7362e-02
13.500	18.250	2.3607e-02
13.500	18.500	3.0426e-02
13.500	18.750	3.5510e-02
13.500	19.000	4.1931e-02
13.500	19.250	4.9397e-02
13.500	19.500	5.7603e-02
13.500	19.750	6.6549e-02
13.500	20.000	7.6611e-02
13.500	20.250	8.8385e-02
13.500	20.500	1.0073e-01
13.500	20.750	1.1524e-01
13.500	21.000	1.3135e-01
13.500	21.250	1.5338e-01
13.500	21.500	1.7165e-01
13.500	21.750	2.0267e-01
13.500	22.000	2.4750e-01
13.500	22.250	2.9865e-01
13.500	22.500	3.5895e-01
13.500	22.750	3.5849e-01
13.500	23.000	3.1921e-01
13.500	23.250	2.6759e-01
13.500	23.500	1.8959e-01
13.500	23.750	1.2310e-01
13.500	24.000	8.6189e-02
13.750	17.000	2.6003e-03
13.750	17.250	3.3697e-03
13.750	17.500	4.7987e-03
13.750	17.750	7.0974e-03
13.750	18.000	1.2093e-02
13.750	18.250	2.0016e-02
13.750	18.500	2.6276e-02
13.750	18.750	3.4001e-02
13.750	19.000	4.0380e-02
13.750	19.250	4.8020e-02
13.750	19.500	5.6587e-02
13.750	19.750	6.5931e-02
13.750	20.000	7.6344e-02
13.750	20.250	8.8215e-02
13.750	20.500	1.0158e-01
13.750	20.750	1.1590e-01
13.750	21.000	1.3131e-01
13.750	21.250	1.4769e-01
13.750	21.500	1.6591e-01
13.750	21.750	1.9032e-01
13.750	22.000	2.2422e-01
13.750	22.250	2.7497e-01
13.750	22.500	3.4824e-01
13.750	22.750	4.3335e-01
13.750	23.000	3.8504e-01
13.750	23.250	3.3023e-01
13.750	23.500	2.6679e-01
13.750	23.750	1.8815e-01
13.750	24.000	1.2206e-01
14.000	17.000	1.8790e-03
14.000	17.250	2.4488e-03
14.000	17.500	3.5291e-03
14.000	17.750	5.3384e-03
14.000	18.000	8.4628e-03
14.000	18.250	1.4640e-02
14.000	18.500	2.3178e-02
14.000	18.750	3.1388e-02
14.000	19.000	3.8943e-02
14.000	19.250	4.6673e-02
14.000	19.500	5.5632e-02
14.000	19.750	6.5586e-02
14.000	20.000	7.6438e-02
14.000	20.250	8.8588e-02
14.000	20.500	1.0249e-01
14.000	20.750	1.1789e-01
14.000	21.000	1.3443e-01
14.000	21.250	1.5222e-01
14.000	21.500	1.6805e-01
14.000	21.750	1.9009e-01
14.000	22.000	2.1908e-01
14.000	22.250	2.6156e-01
14.000	22.500	3.2448e-01
14.000	22.750	4.2848e-01
14.000	23.000	5.1609e-01
14.000	23.250	4.3089e-01
14.000	23.500	3.5012e-01
14.000	23.750	2.7372e-01
14.000	24.000	1.8621e-01
