InwC 701.514A  relative to Inci 1215.00A scaled to 1215A.
Hden   Phi(H)  Eq_Width (A)
7.000  17.000  8.5895e-03
7.000  17.250  1.8315e-02
7.000  17.500  3.7644e-02
7.000  17.750  5.5092e-02
7.000  18.000  6.3537e-02
7.000  18.250  6.8732e-02
7.000  18.500  7.2791e-02
7.000  18.750  7.3951e-02
7.000  19.000  7.4437e-02
7.000  19.250  7.4657e-02
7.000  19.500  7.4697e-02
7.000  19.750  7.4705e-02
7.000  20.000  7.4708e-02
7.000  20.250  7.4709e-02
7.000  20.500  7.4709e-02
7.000  20.750  7.4709e-02
7.000  21.000  7.4709e-02
7.000  21.250  7.4710e-02
7.000  21.500  7.4710e-02
7.000  21.750  7.4710e-02
7.000  22.000  7.4711e-02
7.000  22.250  7.4711e-02
7.000  22.500  7.4711e-02
7.000  22.750  7.4720e-02
7.000  23.000  7.4713e-02
7.000  23.250  7.4714e-02
7.000  23.500  7.4714e-02
7.000  23.750  7.4714e-02
7.000  24.000  7.4715e-02
7.250  17.000  4.2611e-03
7.250  17.250  8.6407e-03
7.250  17.500  1.8425e-02
7.250  17.750  3.7853e-02
7.250  18.000  5.5234e-02
7.250  18.250  6.3594e-02
7.250  18.500  6.8748e-02
7.250  18.750  7.2793e-02
7.250  19.000  7.3952e-02
7.250  19.250  7.4437e-02
7.250  19.500  7.4657e-02
7.250  19.750  7.4697e-02
7.250  20.000  7.4705e-02
7.250  20.250  7.4708e-02
7.250  20.500  7.4709e-02
7.250  20.750  7.4709e-02
7.250  21.000  7.4709e-02
7.250  21.250  7.4709e-02
7.250  21.500  7.4709e-02
7.250  21.750  7.4710e-02
7.250  22.000  7.4710e-02
7.250  22.250  7.4710e-02
7.250  22.500  7.4710e-02
7.250  22.750  7.4710e-02
7.250  23.000  7.4710e-02
7.250  23.250  7.4711e-02
7.250  23.500  7.4711e-02
7.250  23.750  7.4711e-02
7.250  24.000  7.4711e-02
7.500  17.000  2.2137e-03
7.500  17.250  4.2778e-03
7.500  17.500  8.6764e-03
7.500  17.750  1.8523e-02
7.500  18.000  3.8046e-02
7.500  18.250  5.5384e-02
7.500  18.500  6.3669e-02
7.500  18.750  6.8758e-02
7.500  19.000  7.2796e-02
7.500  19.250  7.3952e-02
7.500  19.500  7.4437e-02
7.500  19.750  7.4657e-02
7.500  20.000  7.4697e-02
7.500  20.250  7.4705e-02
7.500  20.500  7.4708e-02
7.500  20.750  7.4709e-02
7.500  21.000  7.4709e-02
7.500  21.250  7.4709e-02
7.500  21.500  7.4709e-02
7.500  21.750  7.4709e-02
7.500  22.000  7.4709e-02
7.500  22.250  7.4709e-02
7.500  22.500  7.4709e-02
7.500  22.750  7.4709e-02
7.500  23.000  7.4710e-02
7.500  23.250  7.4710e-02
7.500  23.500  7.4710e-02
7.500  23.750  7.4710e-02
7.500  24.000  7.4710e-02
7.750  17.000  1.1686e-03
7.750  17.250  2.2206e-03
7.750  17.500  4.2880e-03
7.750  17.750  8.7025e-03
7.750  18.000  1.8608e-02
7.750  18.250  3.8239e-02
7.750  18.500  5.5555e-02
7.750  18.750  6.3759e-02
7.750  19.000  6.8776e-02
7.750  19.250  7.2800e-02
7.750  19.500  7.3953e-02
7.750  19.750  7.4438e-02
7.750  20.000  7.4657e-02
7.750  20.250  7.4697e-02
7.750  20.500  7.4705e-02
7.750  20.750  7.4708e-02
7.750  21.000  7.4708e-02
7.750  21.250  7.4709e-02
7.750  21.500  7.4709e-02
7.750  21.750  7.4709e-02
7.750  22.000  7.4709e-02
7.750  22.250  7.4709e-02
7.750  22.500  7.4709e-02
7.750  22.750  7.4709e-02
7.750  23.000  7.4709e-02
7.750  23.250  7.4709e-02
7.750  23.500  7.4709e-02
7.750  23.750  7.4709e-02
7.750  24.000  7.4709e-02
8.000  17.000  6.1588e-04
8.000  17.250  1.1660e-03
8.000  17.500  2.2150e-03
8.000  17.750  4.2843e-03
8.000  18.000  8.7048e-03
8.000  18.250  1.8656e-02
8.000  18.500  3.8418e-02
8.000  18.750  5.5747e-02
8.000  19.000  6.3866e-02
8.000  19.250  6.8811e-02
8.000  19.500  7.2806e-02
8.000  19.750  7.3955e-02
8.000  20.000  7.4438e-02
8.000  20.250  7.4657e-02
8.000  20.500  7.4697e-02
8.000  20.750  7.4705e-02
8.000  21.000  7.4708e-02
8.000  21.250  7.4709e-02
8.000  21.500  7.4709e-02
8.000  21.750  7.4709e-02
8.000  22.000  7.4709e-02
8.000  22.250  7.4709e-02
8.000  22.500  7.4709e-02
8.000  22.750  7.4709e-02
8.000  23.000  7.4709e-02
8.000  23.250  7.4709e-02
8.000  23.500  7.4709e-02
8.000  23.750  7.4709e-02
8.000  24.000  7.4709e-02
8.250  17.000  3.2609e-04
8.250  17.250  6.1621e-04
8.250  17.500  1.1667e-03
8.250  17.750  2.2166e-03
8.250  18.000  4.2909e-03
8.250  18.250  8.7268e-03
8.250  18.500  1.8728e-02
8.250  18.750  3.8609e-02
8.250  19.000  5.5970e-02
8.250  19.250  6.3986e-02
8.250  19.500  6.8841e-02
8.250  19.750  7.2815e-02
8.250  20.000  7.3958e-02
8.250  20.250  7.4439e-02
8.250  20.500  7.4657e-02
8.250  20.750  7.4697e-02
8.250  21.000  7.4705e-02
8.250  21.250  7.4708e-02
8.250  21.500  7.4708e-02
8.250  21.750  7.4709e-02
8.250  22.000  7.4709e-02
8.250  22.250  7.4709e-02
8.250  22.500  7.4709e-02
8.250  22.750  7.4709e-02
8.250  23.000  7.4710e-02
8.250  23.250  7.4709e-02
8.250  23.500  7.4709e-02
8.250  23.750  7.4709e-02
8.250  24.000  7.4709e-02
8.500  17.000  1.7325e-04
8.500  17.250  3.2593e-04
8.500  17.500  6.1613e-04
8.500  17.750  1.1673e-03
8.500  18.000  2.2224e-03
8.500  18.250  4.2991e-03
8.500  18.500  8.7471e-03
8.500  18.750  1.8810e-02
8.500  19.000  3.8826e-02
8.500  19.250  5.6210e-02
8.500  19.500  6.4127e-02
8.500  19.750  6.8882e-02
8.500  20.000  7.2826e-02
8.500  20.250  7.3961e-02
8.500  20.500  7.4440e-02
8.500  20.750  7.4657e-02
8.500  21.000  7.4697e-02
8.500  21.250  7.4705e-02
8.500  21.500  7.4708e-02
8.500  21.750  7.4709e-02
8.500  22.000  7.4709e-02
8.500  22.250  7.4709e-02
8.500  22.500  7.4709e-02
8.500  22.750  7.4709e-02
8.500  23.000  7.4709e-02
8.500  23.250  7.4709e-02
8.500  23.500  7.4709e-02
8.500  23.750  7.4709e-02
8.500  24.000  7.4709e-02
8.750  17.000  9.2840e-05
8.750  17.250  1.7300e-04
8.750  17.500  3.2584e-04
8.750  17.750  6.1679e-04
8.750  18.000  1.1710e-03
8.750  18.250  2.2289e-03
8.750  18.500  4.3106e-03
8.750  18.750  8.7876e-03
8.750  19.000  1.8943e-02
8.750  19.250  3.9056e-02
8.750  19.500  5.6471e-02
8.750  19.750  6.4279e-02
8.750  20.000  6.8931e-02
8.750  20.250  7.2839e-02
8.750  20.500  7.3966e-02
8.750  20.750  7.4441e-02
8.750  21.000  7.4657e-02
8.750  21.250  7.4697e-02
8.750  21.500  7.4705e-02
8.750  21.750  7.4708e-02
8.750  22.000  7.4709e-02
8.750  22.250  7.4709e-02
8.750  22.500  7.4709e-02
8.750  22.750  7.4709e-02
8.750  23.000  7.4709e-02
8.750  23.250  7.4709e-02
8.750  23.500  7.4709e-02
8.750  23.750  7.4709e-02
8.750  24.000  7.4709e-02
9.000  17.000  5.0041e-05
9.000  17.250  9.2840e-05
9.000  17.500  1.7333e-04
9.000  17.750  3.2724e-04
9.000  18.000  6.2049e-04
9.000  18.250  1.1776e-03
9.000  18.500  2.2418e-03
9.000  18.750  4.3398e-03
9.000  19.000  8.8681e-03
9.000  19.250  1.9166e-02
9.000  19.500  3.9324e-02
9.000  19.750  5.6737e-02
9.000  20.000  6.4448e-02
9.000  20.250  6.8987e-02
9.000  20.500  7.2854e-02
9.000  20.750  7.3971e-02
9.000  21.000  7.4443e-02
9.000  21.250  7.4658e-02
9.000  21.500  7.4697e-02
9.000  21.750  7.4705e-02
9.000  22.000  7.4708e-02
9.000  22.250  7.4709e-02
9.000  22.500  7.4709e-02
9.000  22.750  7.4709e-02
9.000  23.000  7.4709e-02
9.000  23.250  7.4709e-02
9.000  23.500  7.4709e-02
9.000  23.750  7.4709e-02
9.000  24.000  7.4709e-02
9.250  17.000  2.6831e-05
9.250  17.250  5.0206e-05
9.250  17.500  9.3498e-05
9.250  17.750  1.7514e-04
9.250  18.000  3.3062e-04
9.250  18.250  6.2642e-04
9.250  18.500  1.1893e-03
9.250  18.750  2.2707e-03
9.250  19.000  4.4143e-03
9.250  19.250  9.0717e-03
9.250  19.500  1.9642e-02
9.250  19.750  3.9686e-02
9.250  20.000  5.6998e-02
9.250  20.250  6.4614e-02
9.250  20.500  6.9032e-02
9.250  20.750  7.2872e-02
9.250  21.000  7.3978e-02
9.250  21.250  7.4446e-02
9.250  21.500  7.4650e-02
9.250  21.750  7.4660e-02
9.250  22.000  7.4666e-02
9.250  22.250  7.4671e-02
9.250  22.500  7.4708e-02
9.250  22.750  7.4708e-02
9.250  23.000  7.4709e-02
9.250  23.250  7.4709e-02
9.250  23.500  7.4709e-02
9.250  23.750  7.4709e-02
9.250  24.000  7.4709e-02
9.500  17.000  1.4156e-05
9.500  17.250  2.7078e-05
9.500  17.500  5.1029e-05
9.500  17.750  9.5391e-05
9.500  18.000  1.7844e-04
9.500  18.250  3.3621e-04
9.500  18.500  6.3745e-04
9.500  18.750  1.2170e-03
9.500  19.000  2.3396e-03
9.500  19.250  4.6008e-03
9.500  19.500  9.5309e-03
9.500  19.750  2.0514e-02
9.500  20.000  4.0222e-02
9.500  20.250  5.7256e-02
9.500  20.500  6.4773e-02
9.500  20.750  6.9087e-02
9.500  21.000  7.2872e-02
9.500  21.250  7.3945e-02
9.500  21.500  7.4407e-02
9.500  21.750  7.4613e-02
9.500  22.000  7.4637e-02
9.500  22.250  7.4634e-02
9.500  22.500  7.4640e-02
9.500  22.750  7.4641e-02
9.500  23.000  7.4640e-02
9.500  23.250  7.4640e-02
9.500  23.500  7.4663e-02
9.500  23.750  7.4663e-02
9.500  24.000  7.4663e-02
9.750  17.000  7.2428e-06
9.750  17.250  1.4403e-05
9.750  17.500  2.7819e-05
9.750  17.750  5.2675e-05
9.750  18.000  9.8272e-05
9.750  18.250  1.8337e-04
9.750  18.500  3.4675e-04
9.750  18.750  6.6288e-04
9.750  19.000  1.2839e-03
9.750  19.250  2.5113e-03
9.750  19.500  5.0047e-03
9.750  19.750  1.0368e-02
9.750  20.000  2.1828e-02
9.750  20.250  4.1174e-02
9.750  20.500  5.7526e-02
9.750  20.750  6.4924e-02
9.750  21.000  6.9160e-02
9.750  21.250  7.2906e-02
9.750  21.500  7.3977e-02
9.750  21.750  7.4413e-02
9.750  22.000  7.4618e-02
9.750  22.250  7.4646e-02
9.750  22.500  7.4641e-02
9.750  22.750  7.4636e-02
9.750  23.000  7.4639e-02
9.750  23.250  7.4640e-02
9.750  23.500  7.4641e-02
9.750  23.750  7.4641e-02
9.750  24.000  7.4641e-02
10.000  17.000  3.2922e-06
10.000  17.250  7.4074e-06
10.000  17.500  1.4979e-05
10.000  17.750  2.9136e-05
10.000  18.000  5.5062e-05
10.000  18.250  1.0255e-04
10.000  18.500  1.9284e-04
10.000  18.750  3.7004e-04
10.000  19.000  7.2362e-04
10.000  19.250  1.4319e-03
10.000  19.500  2.8396e-03
10.000  19.750  5.7127e-03
10.000  20.000  1.1499e-02
10.000  20.250  2.3564e-02
10.000  20.500  4.2407e-02
10.000  20.750  5.7895e-02
10.000  21.000  6.5089e-02
10.000  21.250  6.9236e-02
10.000  21.500  7.2934e-02
10.000  21.750  7.3997e-02
10.000  22.000  7.4432e-02
10.000  22.250  7.4620e-02
10.000  22.500  7.4652e-02
10.000  22.750  7.4651e-02
10.000  23.000  7.4644e-02
10.000  23.250  7.4640e-02
10.000  23.500  7.4638e-02
10.000  23.750  7.4638e-02
10.000  24.000  7.4638e-02
10.250  17.000  1.6461e-06
10.250  17.250  3.4568e-06
10.250  17.500  7.8189e-06
10.250  17.750  1.5885e-05
10.250  18.000  3.0864e-05
10.250  18.250  5.8930e-05
10.250  18.500  1.1160e-04
10.250  18.750  2.1539e-04
10.250  19.000  4.2469e-04
10.250  19.250  8.4840e-04
10.250  19.500  1.6983e-03
10.250  19.750  3.3773e-03
10.250  20.000  6.7469e-03
10.250  20.250  1.3256e-02
10.250  20.500  2.5572e-02
10.250  20.750  4.3998e-02
10.250  21.000  5.8423e-02
10.250  21.250  6.5274e-02
10.250  21.500  6.9320e-02
10.250  21.750  7.2964e-02
10.250  22.000  7.4012e-02
10.250  22.250  7.4452e-02
10.250  22.500  7.4622e-02
10.250  22.750  7.4656e-02
10.250  23.000  7.4658e-02
10.250  23.250  7.4654e-02
10.250  23.500  7.4650e-02
10.250  23.750  7.4646e-02
10.250  24.000  7.4645e-02
10.500  17.000  8.2305e-07
10.500  17.250  1.7284e-06
10.500  17.500  3.7037e-06
10.500  17.750  8.4774e-06
10.500  18.000  1.7284e-05
10.500  18.250  3.4403e-05
10.500  18.500  6.7654e-05
10.500  18.750  1.3292e-04
10.500  19.000  2.6337e-04
10.500  19.250  5.2650e-04
10.500  19.500  1.0540e-03
10.500  19.750  2.0947e-03
10.500  20.000  4.1286e-03
10.500  20.250  8.1550e-03
10.500  20.500  1.5320e-02
10.500  20.750  2.7628e-02
10.500  21.000  4.5588e-02
10.500  21.250  5.9122e-02
10.500  21.500  6.5515e-02
10.500  21.750  6.9424e-02
10.500  22.000  7.2998e-02
10.500  22.250  7.4027e-02
10.500  22.500  7.4462e-02
10.500  22.750  7.4630e-02
10.500  23.000  7.4659e-02
10.500  23.250  7.4663e-02
10.500  23.500  7.4661e-02
10.500  23.750  7.4658e-02
10.500  24.000  7.4656e-02
10.750  17.000  1.0000e-07
10.750  17.250  9.0535e-07
10.750  17.500  1.8930e-06
10.750  17.750  4.2798e-06
10.750  18.000  9.6296e-06
10.750  18.250  2.0658e-05
10.750  18.500  4.2798e-05
10.750  18.750  8.6831e-05
10.750  19.000  1.7276e-04
10.750  19.250  3.4181e-04
10.750  19.500  6.7638e-04
10.750  19.750  1.3356e-03
10.750  20.000  2.6127e-03
10.750  20.250  5.0734e-03
10.750  20.500  9.5656e-03
10.750  20.750  1.7479e-02
10.750  21.000  3.0047e-02
10.750  21.250  4.7461e-02
10.750  21.500  5.9970e-02
10.750  21.750  6.5849e-02
10.750  22.000  6.9562e-02
10.750  22.250  7.3041e-02
10.750  22.500  7.4046e-02
10.750  22.750  7.4471e-02
10.750  23.000  7.4651e-02
10.750  23.250  7.4660e-02
10.750  23.500  7.4666e-02
10.750  23.750  7.4666e-02
10.750  24.000  7.4664e-02
11.000  17.000  1.0000e-07
11.000  17.250  1.0000e-07
11.000  17.500  9.8765e-07
11.000  17.750  2.2222e-06
11.000  18.000  5.2675e-06
11.000  18.250  1.2428e-05
11.000  18.500  2.7819e-05
11.000  18.750  5.8354e-05
11.000  19.000  1.1695e-04
11.000  19.250  2.2864e-04
11.000  19.500  4.4346e-04
11.000  19.750  8.6214e-04
11.000  20.000  1.6737e-03
11.000  20.250  3.2182e-03
11.000  20.500  6.1788e-03
11.000  20.750  1.1365e-02
11.000  21.000  1.9682e-02
11.000  21.250  3.2429e-02
11.000  21.500  4.9276e-02
11.000  21.750  6.0750e-02
11.000  22.000  6.6262e-02
11.000  22.250  6.9768e-02
11.000  22.500  7.3097e-02
11.000  22.750  7.4071e-02
11.000  23.000  7.4482e-02
11.000  23.250  7.4662e-02
11.000  23.500  7.4667e-02
11.000  23.750  7.4668e-02
11.000  24.000  7.4668e-02
11.250  17.000  1.0000e-07
11.250  17.250  1.0000e-07
11.250  17.500  1.0000e-07
11.250  17.750  1.1523e-06
11.250  18.000  2.8807e-06
11.250  18.250  7.4074e-06
11.250  18.500  1.7531e-05
11.250  18.750  3.8436e-05
11.250  19.000  7.8189e-05
11.250  19.250  1.5267e-04
11.250  19.500  2.9235e-04
11.250  19.750  5.5778e-04
11.250  20.000  1.0684e-03
11.250  20.250  2.0456e-03
11.250  20.500  3.8896e-03
11.250  20.750  7.4008e-03
11.250  21.000  1.3204e-02
11.250  21.250  2.2100e-02
11.250  21.500  3.5106e-02
11.250  21.750  5.1294e-02
11.250  22.000  6.1661e-02
11.250  22.250  6.6736e-02
11.250  22.500  7.0021e-02
11.250  22.750  7.3175e-02
11.250  23.000  7.4106e-02
11.250  23.250  7.4497e-02
11.250  23.500  7.4669e-02
11.250  23.750  7.4687e-02
11.250  24.000  7.4670e-02
11.500  17.000  1.0000e-07
11.500  17.250  1.0000e-07
11.500  17.500  1.0000e-07
11.500  17.750  1.0000e-07
11.500  18.000  1.5638e-06
11.500  18.250  4.1975e-06
11.500  18.500  1.0535e-05
11.500  18.750  2.3868e-05
11.500  19.000  5.0123e-05
11.500  19.250  9.8765e-05
11.500  19.500  1.8848e-04
11.500  19.750  3.5720e-04
11.500  20.000  6.7547e-04
11.500  20.250  1.2780e-03
11.500  20.500  2.4190e-03
11.500  20.750  4.5671e-03
11.500  21.000  8.6765e-03
11.500  21.250  1.5138e-02
11.500  21.500  2.4689e-02
11.500  21.750  3.7855e-02
11.500  22.000  5.2968e-02
11.500  22.250  6.2522e-02
11.500  22.500  6.7190e-02
11.500  22.750  7.0334e-02
11.500  23.000  7.3280e-02
11.500  23.250  7.4156e-02
11.500  23.500  7.4518e-02
11.500  23.750  7.4674e-02
11.500  24.000  7.4697e-02
11.750  17.000  1.0000e-07
11.750  17.250  1.0000e-07
11.750  17.500  1.0000e-07
11.750  17.750  1.0000e-07
11.750  18.000  9.0535e-07
11.750  18.250  2.3045e-06
11.750  18.500  5.9259e-06
11.750  18.750  1.3827e-05
11.750  19.000  3.0041e-05
11.750  19.250  6.0905e-05
11.750  19.500  1.1737e-04
11.750  19.750  2.2132e-04
11.750  20.000  4.1704e-04
11.750  20.250  7.8691e-04
11.750  20.500  1.4802e-03
11.750  20.750  2.7840e-03
11.750  21.000  5.2409e-03
11.750  21.250  9.8887e-03
11.750  21.500  1.7084e-02
11.750  21.750  2.7230e-02
11.750  22.000  4.0715e-02
11.750  22.250  5.4289e-02
11.750  22.500  6.3155e-02
11.750  22.750  6.7607e-02
11.750  23.000  7.0644e-02
11.750  23.250  7.3415e-02
11.750  23.500  7.4220e-02
11.750  23.750  7.4543e-02
11.750  24.000  7.4679e-02
12.000  17.000  1.0000e-07
12.000  17.250  1.0000e-07
12.000  17.500  1.0000e-07
12.000  17.750  1.0000e-07
12.000  18.000  1.0000e-07
12.000  18.250  1.2346e-06
12.000  18.500  3.1276e-06
12.000  18.750  7.4897e-06
12.000  19.000  1.6790e-05
12.000  19.250  3.5226e-05
12.000  19.500  6.9877e-05
12.000  19.750  1.3267e-04
12.000  20.000  2.4979e-04
12.000  20.250  4.7086e-04
12.000  20.500  8.8807e-04
12.000  20.750  1.6700e-03
12.000  21.000  3.1417e-03
12.000  21.250  5.9255e-03
12.000  21.500  1.1103e-02
12.000  21.750  1.9025e-02
12.000  22.000  2.9659e-02
12.000  22.250  4.3250e-02
12.000  22.500  5.5365e-02
12.000  22.750  6.3543e-02
12.000  23.000  6.7917e-02
12.000  23.250  7.0926e-02
12.000  23.500  7.3567e-02
12.000  23.750  7.4291e-02
12.000  24.000  7.4569e-02
12.250  17.000  1.0000e-07
12.250  17.250  1.0000e-07
12.250  17.500  1.0000e-07
12.250  17.750  1.0000e-07
12.250  18.000  1.0000e-07
12.250  18.250  1.0000e-07
12.250  18.500  1.5638e-06
12.250  18.750  3.7860e-06
12.250  19.000  8.7243e-06
12.250  19.250  1.9012e-05
12.250  19.500  3.9342e-05
12.250  19.750  7.6955e-05
12.250  20.000  1.4568e-04
12.250  20.250  2.7424e-04
12.250  20.500  5.1844e-04
12.250  20.750  9.8058e-04
12.250  21.000  1.8587e-03
12.250  21.250  3.5063e-03
12.250  21.500  6.5605e-03
12.250  21.750  1.2294e-02
12.250  22.000  2.0843e-02
12.250  22.250  3.1754e-02
12.250  22.500  4.5187e-02
12.250  22.750  5.6180e-02
12.250  23.000  6.3903e-02
12.250  23.250  6.8108e-02
12.250  23.500  7.1157e-02
12.250  23.750  7.3721e-02
12.250  24.000  7.4359e-02
12.500  17.000  1.0000e-07
12.500  17.250  1.0000e-07
12.500  17.500  1.0000e-07
12.500  17.750  1.0000e-07
12.500  18.000  1.0000e-07
12.500  18.250  1.0000e-07
12.500  18.500  1.0000e-07
12.500  18.750  1.8107e-06
12.500  19.000  4.2798e-06
12.500  19.250  9.5473e-06
12.500  19.500  2.0494e-05
12.500  19.750  4.2140e-05
12.500  20.000  8.2305e-05
12.500  20.250  1.5605e-04
12.500  20.500  2.9539e-04
12.500  20.750  5.6395e-04
12.500  21.000  1.0774e-03
12.500  21.250  2.0455e-03
12.500  21.500  3.8416e-03
12.500  21.750  7.2355e-03
12.500  22.000  1.3502e-02
12.500  22.250  2.2494e-02
12.500  22.500  3.3588e-02
12.500  22.750  4.6423e-02
12.500  23.000  5.6819e-02
12.500  23.250  6.4141e-02
12.500  23.500  6.8250e-02
12.500  23.750  7.1338e-02
12.500  24.000  7.3853e-02
12.750  17.000  1.0000e-07
12.750  17.250  1.0000e-07
12.750  17.500  1.0000e-07
12.750  17.750  1.0000e-07
12.750  18.000  1.0000e-07
12.750  18.250  1.0000e-07
12.750  18.500  1.0000e-07
12.750  18.750  9.0535e-07
12.750  19.000  2.0576e-06
12.750  19.250  4.5267e-06
12.750  19.500  9.9588e-06
12.750  19.750  2.1399e-05
12.750  20.000  4.3951e-05
12.750  20.250  8.6337e-05
12.750  20.500  1.6543e-04
12.750  20.750  3.1671e-04
12.750  21.000  6.1119e-04
12.750  21.250  1.1783e-03
12.750  21.500  2.2256e-03
12.750  21.750  4.1895e-03
12.750  22.000  7.9342e-03
12.750  22.250  1.4688e-02
12.750  22.500  2.3950e-02
12.750  22.750  3.4991e-02
12.750  23.000  4.7234e-02
12.750  23.250  5.7201e-02
12.750  23.500  6.4220e-02
12.750  23.750  6.8318e-02
12.750  24.000  7.1480e-02
13.000  17.000  1.0000e-07
13.000  17.250  1.0000e-07
13.000  17.500  1.0000e-07
13.000  17.750  1.0000e-07
13.000  18.000  1.0000e-07
13.000  18.250  1.0000e-07
13.000  18.500  1.0000e-07
13.000  18.750  1.0000e-07
13.000  19.000  9.8765e-07
13.000  19.250  2.1399e-06
13.000  19.500  4.6091e-06
13.000  19.750  1.0041e-05
13.000  20.000  2.1646e-05
13.000  20.250  4.5103e-05
13.000  20.500  9.0041e-05
13.000  20.750  1.7465e-04
13.000  21.000  3.3885e-04
13.000  21.250  6.6354e-04
13.000  21.500  1.2706e-03
13.000  21.750  2.4194e-03
13.000  22.000  4.5557e-03
13.000  22.250  8.6655e-03
13.000  22.500  1.5788e-02
13.000  22.750  2.5107e-02
13.000  23.000  3.6067e-02
13.000  23.250  4.7844e-02
13.000  23.500  5.7424e-02
13.000  23.750  6.4199e-02
13.000  24.000  6.8325e-02
13.250  17.000  1.0000e-07
13.250  17.250  1.0000e-07
13.250  17.500  1.0000e-07
13.250  17.750  1.0000e-07
13.250  18.000  1.0000e-07
13.250  18.250  1.0000e-07
13.250  18.500  1.0000e-07
13.250  18.750  1.0000e-07
13.250  19.000  1.0000e-07
13.250  19.250  9.8765e-07
13.250  19.500  2.1399e-06
13.250  19.750  4.6091e-06
13.250  20.000  9.9588e-06
13.250  20.250  2.1646e-05
13.250  20.500  4.5597e-05
13.250  20.750  9.2099e-05
13.250  21.000  1.8395e-04
13.250  21.250  3.6049e-04
13.250  21.500  7.0346e-04
13.250  21.750  1.3388e-03
13.250  22.000  2.5812e-03
13.250  22.250  4.8153e-03
13.250  22.500  9.2680e-03
13.250  22.750  1.6426e-02
13.250  23.000  2.6176e-02
13.250  23.250  3.6966e-02
13.250  23.500  4.8370e-02
13.250  23.750  5.7572e-02
13.250  24.000  6.4092e-02
13.500  17.000  1.0000e-07
13.500  17.250  1.0000e-07
13.500  17.500  1.0000e-07
13.500  17.750  1.0000e-07
13.500  18.000  1.0000e-07
13.500  18.250  1.0000e-07
13.500  18.500  1.0000e-07
13.500  18.750  1.0000e-07
13.500  19.000  1.0000e-07
13.500  19.250  1.0000e-07
13.500  19.500  1.0700e-06
13.500  19.750  2.1399e-06
13.500  20.000  4.5267e-06
13.500  20.250  9.9588e-06
13.500  20.500  2.1646e-05
13.500  20.750  4.5679e-05
13.500  21.000  9.2757e-05
13.500  21.250  1.8593e-04
13.500  21.500  3.6922e-04
13.500  21.750  7.1588e-04
13.500  22.000  1.3807e-03
13.500  22.250  2.7234e-03
13.500  22.500  5.1545e-03
13.500  22.750  9.7026e-03
13.500  23.000  1.7241e-02
13.500  23.250  2.7076e-02
13.500  23.500  3.7874e-02
13.500  23.750  4.8780e-02
13.500  24.000  5.7712e-02
13.750  17.000  1.0000e-07
13.750  17.250  1.0000e-07
13.750  17.500  1.0000e-07
13.750  17.750  1.0000e-07
13.750  18.000  1.0000e-07
13.750  18.250  1.0000e-07
13.750  18.500  1.0000e-07
13.750  18.750  1.0000e-07
13.750  19.000  1.0000e-07
13.750  19.250  1.0000e-07
13.750  19.500  1.0000e-07
13.750  19.750  1.0700e-06
13.750  20.000  2.2222e-06
13.750  20.250  4.6914e-06
13.750  20.500  1.0123e-05
13.750  20.750  2.1975e-05
13.750  21.000  4.6173e-05
13.750  21.250  9.3251e-05
13.750  21.500  1.8453e-04
13.750  21.750  3.6428e-04
13.750  22.000  7.2058e-04
13.750  22.250  1.4287e-03
13.750  22.500  2.8088e-03
13.750  22.750  5.4198e-03
13.750  23.000  1.0280e-02
13.750  23.250  1.8173e-02
13.750  23.500  2.8179e-02
13.750  23.750  3.8991e-02
13.750  24.000  4.9378e-02
14.000  17.000  1.0000e-07
14.000  17.250  1.0000e-07
14.000  17.500  1.0000e-07
14.000  17.750  1.0000e-07
14.000  18.000  1.0000e-07
14.000  18.250  1.0000e-07
14.000  18.500  1.0000e-07
14.000  18.750  1.0000e-07
14.000  19.000  1.0000e-07
14.000  19.250  1.0000e-07
14.000  19.500  1.0000e-07
14.000  19.750  1.0000e-07
14.000  20.000  1.1523e-06
14.000  20.250  2.3045e-06
14.000  20.500  4.8560e-06
14.000  20.750  1.0535e-05
14.000  21.000  2.2716e-05
14.000  21.250  4.7654e-05
14.000  21.500  9.5144e-05
14.000  21.750  1.8716e-04
14.000  22.000  3.6864e-04
14.000  22.250  7.3827e-04
14.000  22.500  1.4939e-03
14.000  22.750  2.9905e-03
14.000  23.000  5.8058e-03
14.000  23.250  1.1059e-02
14.000  23.500  1.9369e-02
14.000  23.750  2.9634e-02
14.000  24.000  4.0350e-02
