InwC 1073.86A  relative to Inci 1215.00A scaled to 1215A.
Hden   Phi(H)  Eq_Width (A)
7.000  17.000  8.8975e-02
7.000  17.250  7.2437e-02
7.000  17.500  7.5487e-02
7.000  17.750  7.7069e-02
7.000  18.000  7.7107e-02
7.000  18.250  7.7158e-02
7.000  18.500  7.7167e-02
7.000  18.750  7.7177e-02
7.000  19.000  7.7186e-02
7.000  19.250  7.7193e-02
7.000  19.500  7.7195e-02
7.000  19.750  7.7197e-02
7.000  20.000  7.7197e-02
7.000  20.250  7.7197e-02
7.000  20.500  7.7198e-02
7.000  20.750  7.7198e-02
7.000  21.000  7.7198e-02
7.000  21.250  7.7198e-02
7.000  21.500  7.7198e-02
7.000  21.750  7.7199e-02
7.000  22.000  7.7199e-02
7.000  22.250  7.7199e-02
7.000  22.500  7.7200e-02
7.000  22.750  7.7208e-02
7.000  23.000  7.7201e-02
7.000  23.250  7.7202e-02
7.000  23.500  7.7202e-02
7.000  23.750  7.7202e-02
7.000  24.000  7.7203e-02
7.250  17.000  1.0270e-01
7.250  17.250  8.7981e-02
7.250  17.500  7.2457e-02
7.250  17.750  7.5508e-02
7.250  18.000  7.7070e-02
7.250  18.250  7.6936e-02
7.250  18.500  7.6853e-02
7.250  18.750  7.6813e-02
7.250  19.000  7.6809e-02
7.250  19.250  7.6833e-02
7.250  19.500  7.6879e-02
7.250  19.750  7.6939e-02
7.250  20.000  7.7006e-02
7.250  20.250  7.7073e-02
7.250  20.500  7.7132e-02
7.250  20.750  7.7176e-02
7.250  21.000  7.7198e-02
7.250  21.250  7.7198e-02
7.250  21.500  7.7198e-02
7.250  21.750  7.7198e-02
7.250  22.000  7.7198e-02
7.250  22.250  7.7198e-02
7.250  22.500  7.7198e-02
7.250  22.750  7.7199e-02
7.250  23.000  7.7199e-02
7.250  23.250  7.7199e-02
7.250  23.500  7.7199e-02
7.250  23.750  7.7199e-02
7.250  24.000  7.7199e-02
7.500  17.000  1.1536e-01
7.500  17.250  1.0118e-01
7.500  17.500  8.7047e-02
7.500  17.750  7.8174e-02
7.500  18.000  7.5528e-02
7.500  18.250  7.7070e-02
7.500  18.500  7.7107e-02
7.500  18.750  7.7158e-02
7.500  19.000  7.7167e-02
7.500  19.250  7.7177e-02
7.500  19.500  7.7186e-02
7.500  19.750  7.7193e-02
7.500  20.000  7.7195e-02
7.500  20.250  7.7197e-02
7.500  20.500  7.7197e-02
7.500  20.750  7.7197e-02
7.500  21.000  7.7197e-02
7.500  21.250  7.7197e-02
7.500  21.500  7.7198e-02
7.500  21.750  7.7198e-02
7.500  22.000  7.7198e-02
7.500  22.250  7.7198e-02
7.500  22.500  7.7198e-02
7.500  22.750  7.7198e-02
7.500  23.000  7.7198e-02
7.500  23.250  7.7198e-02
7.500  23.500  7.7198e-02
7.500  23.750  7.7198e-02
7.500  24.000  7.7198e-02
7.750  17.000  1.2477e-01
7.750  17.250  1.1405e-01
7.750  17.500  9.9473e-02
7.750  17.750  8.5975e-02
7.750  18.000  7.2492e-02
7.750  18.250  7.5547e-02
7.750  18.500  7.7070e-02
7.750  18.750  7.7107e-02
7.750  19.000  7.7158e-02
7.750  19.250  7.7167e-02
7.750  19.500  7.7177e-02
7.750  19.750  7.7186e-02
7.750  20.000  7.7192e-02
7.750  20.250  7.7195e-02
7.750  20.500  7.7197e-02
7.750  20.750  7.7197e-02
7.750  21.000  7.7197e-02
7.750  21.250  7.7197e-02
7.750  21.500  7.7198e-02
7.750  21.750  7.7198e-02
7.750  22.000  7.7198e-02
7.750  22.250  7.7198e-02
7.750  22.500  7.7197e-02
7.750  22.750  7.7197e-02
7.750  23.000  7.7198e-02
7.750  23.250  7.7198e-02
7.750  23.500  7.7198e-02
7.750  23.750  7.7198e-02
7.750  24.000  7.7198e-02
8.000  17.000  1.2949e-01
8.000  17.250  1.2382e-01
8.000  17.500  1.1271e-01
8.000  17.750  9.7757e-02
8.000  18.000  8.4875e-02
8.000  18.250  7.2497e-02
8.000  18.500  7.5551e-02
8.000  18.750  7.7070e-02
8.000  19.000  7.7107e-02
8.000  19.250  7.7145e-02
8.000  19.500  7.7172e-02
8.000  19.750  7.7189e-02
8.000  20.000  7.7199e-02
8.000  20.250  7.7202e-02
8.000  20.500  7.7202e-02
8.000  20.750  7.7200e-02
8.000  21.000  7.7198e-02
8.000  21.250  7.7197e-02
8.000  21.500  7.7198e-02
8.000  21.750  7.7197e-02
8.000  22.000  7.7198e-02
8.000  22.250  7.7198e-02
8.000  22.500  7.7198e-02
8.000  22.750  7.7197e-02
8.000  23.000  7.7197e-02
8.000  23.250  7.7198e-02
8.000  23.500  7.7198e-02
8.000  23.750  7.7198e-02
8.000  24.000  7.7198e-02
8.250  17.000  1.3061e-01
8.250  17.250  1.2849e-01
8.250  17.500  1.2242e-01
8.250  17.750  1.1050e-01
8.250  18.000  9.4810e-02
8.250  18.250  8.2891e-02
8.250  18.500  7.2512e-02
8.250  18.750  7.5571e-02
8.250  19.000  7.7070e-02
8.250  19.250  7.7161e-02
8.250  19.500  7.7216e-02
8.250  19.750  7.7243e-02
8.250  20.000  7.7248e-02
8.250  20.250  7.7239e-02
8.250  20.500  7.7223e-02
8.250  20.750  7.7207e-02
8.250  21.000  7.7197e-02
8.250  21.250  7.7197e-02
8.250  21.500  7.7197e-02
8.250  21.750  7.7197e-02
8.250  22.000  7.7197e-02
8.250  22.250  7.7197e-02
8.250  22.500  7.7197e-02
8.250  22.750  7.7198e-02
8.250  23.000  7.7198e-02
8.250  23.250  7.7198e-02
8.250  23.500  7.7198e-02
8.250  23.750  7.7198e-02
8.250  24.000  7.7198e-02
8.500  17.000  1.2928e-01
8.500  17.250  1.2956e-01
8.500  17.500  1.2709e-01
8.500  17.750  1.2015e-01
8.500  18.000  1.0708e-01
8.500  18.250  9.0523e-02
8.500  18.500  8.0308e-02
8.500  18.750  7.2520e-02
8.500  19.000  7.5592e-02
8.500  19.250  7.7070e-02
8.500  19.500  7.7108e-02
8.500  19.750  7.7158e-02
8.500  20.000  7.7167e-02
8.500  20.250  7.7177e-02
8.500  20.500  7.7186e-02
8.500  20.750  7.7193e-02
8.500  21.000  7.7195e-02
8.500  21.250  7.7197e-02
8.500  21.500  7.7197e-02
8.500  21.750  7.7197e-02
8.500  22.000  7.7197e-02
8.500  22.250  7.7197e-02
8.500  22.500  7.7197e-02
8.500  22.750  7.7198e-02
8.500  23.000  7.7197e-02
8.500  23.250  7.7198e-02
8.500  23.500  7.7197e-02
8.500  23.750  7.7197e-02
8.500  24.000  7.7198e-02
8.750  17.000  1.2603e-01
8.750  17.250  1.2815e-01
8.750  17.500  1.2808e-01
8.750  17.750  1.2490e-01
8.750  18.000  1.1656e-01
8.750  18.250  1.0165e-01
8.750  18.500  8.6184e-02
8.750  18.750  7.7794e-02
8.750  19.000  7.2529e-02
8.750  19.250  7.5612e-02
8.750  19.500  7.9079e-02
8.750  19.750  8.0684e-02
8.750  20.000  8.0896e-02
8.750  20.250  8.0184e-02
8.750  20.500  7.9017e-02
8.750  20.750  7.7864e-02
8.750  21.000  7.7193e-02
8.750  21.250  7.7195e-02
8.750  21.500  7.7197e-02
8.750  21.750  7.7197e-02
8.750  22.000  7.7197e-02
8.750  22.250  7.7197e-02
8.750  22.500  7.7198e-02
8.750  22.750  7.7198e-02
8.750  23.000  7.7198e-02
8.750  23.250  7.7198e-02
8.750  23.500  7.7198e-02
8.750  23.750  7.7198e-02
8.750  24.000  7.7198e-02
9.000  17.000  1.2105e-01
9.000  17.250  1.2477e-01
9.000  17.500  1.2654e-01
9.000  17.750  1.2578e-01
9.000  18.000  1.2107e-01
9.000  18.250  1.1096e-01
9.000  18.500  9.5121e-02
9.000  18.750  8.0905e-02
9.000  19.000  7.4449e-02
9.000  19.250  7.2535e-02
9.000  19.500  7.5628e-02
9.000  19.750  7.8594e-02
9.000  20.000  8.0175e-02
9.000  20.250  8.0668e-02
9.000  20.500  8.0370e-02
9.000  20.750  7.9577e-02
9.000  21.000  7.8585e-02
9.000  21.250  7.7693e-02
9.000  21.500  7.7196e-02
9.000  21.750  7.7196e-02
9.000  22.000  7.7197e-02
9.000  22.250  7.7197e-02
9.000  22.500  7.7197e-02
9.000  22.750  7.7197e-02
9.000  23.000  7.7197e-02
9.000  23.250  7.7198e-02
9.000  23.500  7.7198e-02
9.000  23.750  7.7197e-02
9.000  24.000  7.7197e-02
9.250  17.000  1.1449e-01
9.250  17.250  1.1961e-01
9.250  17.500  1.2295e-01
9.250  17.750  1.2398e-01
9.250  18.000  1.2202e-01
9.250  18.250  1.1545e-01
9.250  18.500  1.0429e-01
9.250  18.750  8.9043e-02
9.250  19.000  7.7594e-02
9.250  19.250  7.1993e-02
9.250  19.500  7.2539e-02
9.250  19.750  7.5637e-02
9.250  20.000  7.7069e-02
9.250  20.250  7.7108e-02
9.250  20.500  7.7158e-02
9.250  20.750  7.7167e-02
9.250  21.000  7.7177e-02
9.250  21.250  7.7186e-02
9.250  21.500  7.7185e-02
9.250  21.750  7.7158e-02
9.250  22.000  7.7156e-02
9.250  22.250  7.7160e-02
9.250  22.500  7.7197e-02
9.250  22.750  7.7197e-02
9.250  23.000  7.7197e-02
9.250  23.250  7.7197e-02
9.250  23.500  7.7197e-02
9.250  23.750  7.7197e-02
9.250  24.000  7.7198e-02
9.500  17.000  1.0663e-01
9.500  17.250  1.1283e-01
9.500  17.500  1.1746e-01
9.500  17.750  1.1997e-01
9.500  18.000  1.1972e-01
9.500  18.250  1.1570e-01
9.500  18.500  1.0892e-01
9.500  18.750  9.7870e-02
9.500  19.000  8.2743e-02
9.500  19.250  7.4983e-02
9.500  19.500  7.0885e-02
9.500  19.750  7.2546e-02
9.500  20.000  7.4991e-02
9.500  20.250  7.6697e-02
9.500  20.500  7.7773e-02
9.500  20.750  7.8334e-02
9.500  21.000  7.8490e-02
9.500  21.250  7.8354e-02
9.500  21.500  7.8037e-02
9.500  21.750  7.7652e-02
9.500  22.000  7.7310e-02
9.500  22.250  7.7123e-02
9.500  22.500  7.7127e-02
9.500  22.750  7.7127e-02
9.500  23.000  7.7127e-02
9.500  23.250  7.7126e-02
9.500  23.500  7.7149e-02
9.500  23.750  7.7150e-02
9.500  24.000  7.7150e-02
9.750  17.000  9.7715e-02
9.750  17.250  1.0463e-01
9.750  17.500  1.1028e-01
9.750  17.750  1.1392e-01
9.750  18.000  1.1480e-01
9.750  18.250  1.1267e-01
9.750  18.500  1.0899e-01
9.750  18.750  1.0234e-01
9.750  19.000  9.1670e-02
9.750  19.250  7.8707e-02
9.750  19.500  7.1775e-02
9.750  19.750  7.0495e-02
9.750  20.000  7.2574e-02
9.750  20.250  7.5630e-02
9.750  20.500  7.7063e-02
9.750  20.750  7.7107e-02
9.750  21.000  7.7158e-02
9.750  21.250  7.7163e-02
9.750  21.500  7.7164e-02
9.750  21.750  7.7149e-02
9.750  22.000  7.7151e-02
9.750  22.250  7.7143e-02
9.750  22.500  7.7130e-02
9.750  22.750  7.7123e-02
9.750  23.000  7.7126e-02
9.750  23.250  7.7127e-02
9.750  23.500  7.7127e-02
9.750  23.750  7.7127e-02
9.750  24.000  7.7128e-02
10.000  17.000  8.7955e-02
10.000  17.250  9.5265e-02
10.000  17.500  1.0152e-01
10.000  17.750  1.0583e-01
10.000  18.000  1.0748e-01
10.000  18.250  1.0677e-01
10.000  18.500  1.0571e-01
10.000  18.750  1.0277e-01
10.000  19.000  9.6891e-02
10.000  19.250  8.6185e-02
10.000  19.500  7.5458e-02
10.000  19.750  6.9907e-02
10.000  20.000  7.0592e-02
10.000  20.250  7.2606e-02
10.000  20.500  7.5632e-02
10.000  20.750  7.7058e-02
10.000  21.000  7.7106e-02
10.000  21.250  7.7159e-02
10.000  21.500  7.7166e-02
10.000  21.750  7.7173e-02
10.000  22.000  7.7164e-02
10.000  22.250  7.7153e-02
10.000  22.500  7.7149e-02
10.000  22.750  7.7140e-02
10.000  23.000  7.7132e-02
10.000  23.250  7.7127e-02
10.000  23.500  7.7124e-02
10.000  23.750  7.7124e-02
10.000  24.000  7.7124e-02
10.250  17.000  7.7526e-02
10.250  17.250  8.5014e-02
10.250  17.500  9.1457e-02
10.250  17.750  9.5917e-02
10.250  18.000  9.7845e-02
10.250  18.250  9.8445e-02
10.250  18.500  9.9086e-02
10.250  18.750  9.9282e-02
10.250  19.000  9.7633e-02
10.250  19.250  9.1889e-02
10.250  19.500  8.2974e-02
10.250  19.750  7.4013e-02
10.250  20.000  6.9302e-02
10.250  20.250  7.0663e-02
10.250  20.500  7.2652e-02
10.250  20.750  7.5665e-02
10.250  21.000  7.7051e-02
10.250  21.250  7.7104e-02
10.250  21.500  7.7159e-02
10.250  21.750  7.7167e-02
10.250  22.000  7.7176e-02
10.250  22.250  7.7179e-02
10.250  22.500  7.7154e-02
10.250  22.750  7.7153e-02
10.250  23.000  7.7148e-02
10.250  23.250  7.7141e-02
10.250  23.500  7.7136e-02
10.250  23.750  7.7133e-02
10.250  24.000  7.7132e-02
10.500  17.000  6.6329e-02
10.500  17.250  7.3945e-02
10.500  17.500  8.0257e-02
10.500  17.750  8.4430e-02
10.500  18.000  8.6226e-02
10.500  18.250  8.6998e-02
10.500  18.500  9.0035e-02
10.500  18.750  9.3010e-02
10.500  19.000  9.5040e-02
10.500  19.250  9.4358e-02
10.500  19.500  9.0004e-02
10.500  19.750  8.1786e-02
10.500  20.000  7.2737e-02
10.500  20.250  6.9138e-02
10.500  20.500  7.0711e-02
10.500  20.750  7.2709e-02
10.500  21.000  7.5745e-02
10.500  21.250  7.7041e-02
10.500  21.500  7.7101e-02
10.500  21.750  7.7158e-02
10.500  22.000  7.7167e-02
10.500  22.250  7.7177e-02
10.500  22.500  7.7184e-02
10.500  22.750  7.7161e-02
10.500  23.000  7.7155e-02
10.500  23.250  7.7153e-02
10.500  23.500  7.7149e-02
10.500  23.750  7.7145e-02
10.500  24.000  7.7143e-02
10.750  17.000  5.4501e-02
10.750  17.250  6.2201e-02
10.750  17.500  6.8231e-02
10.750  17.750  7.1805e-02
10.750  18.000  7.3103e-02
10.750  18.250  7.4480e-02
10.750  18.500  7.8799e-02
10.750  18.750  8.3979e-02
10.750  19.000  8.8918e-02
10.750  19.250  9.2194e-02
10.750  19.500  9.2481e-02
10.750  19.750  8.8491e-02
10.750  20.000  8.0272e-02
10.750  20.250  7.1132e-02
10.750  20.500  6.9276e-02
10.750  20.750  7.0794e-02
10.750  21.000  7.2810e-02
10.750  21.250  7.5910e-02
10.750  21.500  7.7030e-02
10.750  21.750  7.7097e-02
10.750  22.000  7.7153e-02
10.750  22.250  7.7167e-02
10.750  22.500  7.7177e-02
10.750  22.750  7.7185e-02
10.750  23.000  7.7180e-02
10.750  23.250  7.7156e-02
10.750  23.500  7.7155e-02
10.750  23.750  7.7153e-02
10.750  24.000  7.7151e-02
11.000  17.000  4.2153e-02
11.000  17.250  4.9995e-02
11.000  17.500  5.5626e-02
11.000  17.750  5.8522e-02
11.000  18.000  5.9466e-02
11.000  18.250  6.1280e-02
11.000  18.500  6.5747e-02
11.000  18.750  7.2214e-02
11.000  19.000  7.9433e-02
11.000  19.250  8.5885e-02
11.000  19.500  9.0052e-02
11.000  19.750  9.0728e-02
11.000  20.000  8.6763e-02
11.000  20.250  7.8389e-02
11.000  20.500  6.9284e-02
11.000  20.750  6.9229e-02
11.000  21.000  7.0855e-02
11.000  21.250  7.3008e-02
11.000  21.500  7.6209e-02
11.000  21.750  7.7014e-02
11.000  22.000  7.7091e-02
11.000  22.250  7.7153e-02
11.000  22.500  7.7166e-02
11.000  22.750  7.7177e-02
11.000  23.000  7.7186e-02
11.000  23.250  7.7189e-02
11.000  23.500  7.7162e-02
11.000  23.750  7.7157e-02
11.000  24.000  7.7156e-02
11.250  17.000  3.0601e-02
11.250  17.250  3.7669e-02
11.250  17.500  4.2891e-02
11.250  17.750  4.5245e-02
11.250  18.000  4.6084e-02
11.250  18.250  4.8277e-02
11.250  18.500  5.3129e-02
11.250  18.750  5.9711e-02
11.250  19.000  6.7880e-02
11.250  19.250  7.6333e-02
11.250  19.500  8.3263e-02
11.250  19.750  8.7768e-02
11.250  20.000  8.8688e-02
11.250  20.250  8.4680e-02
11.250  20.500  7.6109e-02
11.250  20.750  6.7674e-02
11.250  21.000  6.9260e-02
11.250  21.250  7.0981e-02
11.250  21.500  7.3401e-02
11.250  21.750  7.6574e-02
11.250  22.000  7.6995e-02
11.250  22.250  7.7085e-02
11.250  22.500  7.7145e-02
11.250  22.750  7.7166e-02
11.250  23.000  7.7176e-02
11.250  23.250  7.7186e-02
11.250  23.500  7.7192e-02
11.250  23.750  7.7181e-02
11.250  24.000  7.7159e-02
11.500  17.000  2.1194e-02
11.500  17.250  2.6650e-02
11.500  17.500  3.0783e-02
11.500  17.750  3.2730e-02
11.500  18.000  3.3814e-02
11.500  18.250  3.6282e-02
11.500  18.500  4.0984e-02
11.500  18.750  4.7336e-02
11.500  19.000  5.5392e-02
11.500  19.250  6.4174e-02
11.500  19.500  7.2945e-02
11.500  19.750  8.0133e-02
11.500  20.000  8.5024e-02
11.500  20.250  8.6324e-02
11.500  20.500  8.2323e-02
11.500  20.750  7.3539e-02
11.500  21.000  6.6106e-02
11.500  21.250  6.9302e-02
11.500  21.500  7.1255e-02
11.500  21.750  7.4088e-02
11.500  22.000  7.6746e-02
11.500  22.250  7.6972e-02
11.500  22.500  7.7077e-02
11.500  22.750  7.7146e-02
11.500  23.000  7.7165e-02
11.500  23.250  7.7176e-02
11.500  23.500  7.7186e-02
11.500  23.750  7.7193e-02
11.500  24.000  7.7191e-02
11.750  17.000  1.3813e-02
11.750  17.250  1.7821e-02
11.750  17.500  2.0805e-02
11.750  17.750  2.2295e-02
11.750  18.000  2.3679e-02
11.750  18.250  2.6456e-02
11.750  18.500  3.0768e-02
11.750  18.750  3.6309e-02
11.750  19.000  4.3105e-02
11.750  19.250  5.1187e-02
11.750  19.500  6.0076e-02
11.750  19.750  6.9011e-02
11.750  20.000  7.6640e-02
11.750  20.250  8.2090e-02
11.750  20.500  8.3721e-02
11.750  20.750  7.9643e-02
11.750  21.000  7.0846e-02
11.750  21.250  6.6121e-02
11.750  21.500  6.9419e-02
11.750  21.750  7.1698e-02
11.750  22.000  7.4920e-02
11.750  22.250  7.6701e-02
11.750  22.500  7.6941e-02
11.750  22.750  7.7065e-02
11.750  23.000  7.7142e-02
11.750  23.250  7.7164e-02
11.750  23.500  7.7176e-02
11.750  23.750  7.7185e-02
11.750  24.000  7.7193e-02
12.000  17.000  8.3108e-03
12.000  17.250  1.1071e-02
12.000  17.500  1.3248e-02
12.000  17.750  1.4734e-02
12.000  18.000  1.6556e-02
12.000  18.250  1.9266e-02
12.000  18.500  2.2645e-02
12.000  18.750  2.6786e-02
12.000  19.000  3.2025e-02
12.000  19.250  3.8692e-02
12.000  19.500  4.6714e-02
12.000  19.750  5.5704e-02
12.000  20.000  6.4946e-02
12.000  20.250  7.2946e-02
12.000  20.500  7.8804e-02
12.000  20.750  8.0837e-02
12.000  21.000  7.6720e-02
12.000  21.250  6.8268e-02
12.000  21.500  6.6468e-02
12.000  21.750  6.9662e-02
12.000  22.000  7.2293e-02
12.000  22.250  7.5592e-02
12.000  22.500  7.6652e-02
12.000  22.750  7.6913e-02
12.000  23.000  7.7049e-02
12.000  23.250  7.7137e-02
12.000  23.500  7.7163e-02
12.000  23.750  7.7175e-02
12.000  24.000  7.7185e-02
12.250  17.000  4.6421e-03
12.250  17.250  6.3979e-03
12.250  17.500  7.9982e-03
12.250  17.750  9.5714e-03
12.250  18.000  1.1442e-02
12.250  18.250  1.3529e-02
12.250  18.500  1.6005e-02
12.250  18.750  1.9186e-02
12.250  19.000  2.3232e-02
12.250  19.250  2.8340e-02
12.250  19.500  3.4796e-02
12.250  19.750  4.2689e-02
12.250  20.000  5.1615e-02
12.250  20.250  6.0989e-02
12.250  20.500  6.9018e-02
12.250  20.750  7.5163e-02
12.250  21.000  7.7559e-02
12.250  21.250  7.3526e-02
12.250  21.500  6.6421e-02
12.250  21.750  6.6762e-02
12.250  22.000  7.0011e-02
12.250  22.250  7.3083e-02
12.250  22.500  7.5911e-02
12.250  22.750  7.6610e-02
12.250  23.000  7.6883e-02
12.250  23.250  7.7031e-02
12.250  23.500  7.7131e-02
12.250  23.750  7.7162e-02
12.250  24.000  7.7175e-02
12.500  17.000  2.6431e-03
12.500  17.250  3.7531e-03
12.500  17.500  4.9660e-03
12.500  17.750  6.2049e-03
12.500  18.000  7.4403e-03
12.500  18.250  8.8765e-03
12.500  18.500  1.0757e-02
12.500  18.750  1.3259e-02
12.500  19.000  1.6478e-02
12.500  19.250  2.0491e-02
12.500  19.500  2.5443e-02
12.500  19.750  3.1567e-02
12.500  20.000  3.9074e-02
12.500  20.250  4.7721e-02
12.500  20.500  5.6853e-02
12.500  20.750  6.4827e-02
12.500  21.000  7.1110e-02
12.500  21.250  7.3662e-02
12.500  21.500  7.0847e-02
12.500  21.750  6.4596e-02
12.500  22.000  6.7187e-02
12.500  22.250  7.0500e-02
12.500  22.500  7.3852e-02
12.500  22.750  7.6041e-02
12.500  23.000  7.6576e-02
12.500  23.250  7.6852e-02
12.500  23.500  7.7012e-02
12.500  23.750  7.7123e-02
12.500  24.000  7.7160e-02
12.750  17.000  1.6766e-03
12.750  17.250  2.3808e-03
12.750  17.500  3.0654e-03
12.750  17.750  3.7117e-03
12.750  18.000  4.4800e-03
12.750  18.250  5.5244e-03
12.750  18.500  6.9193e-03
12.750  18.750  8.7862e-03
12.750  19.000  1.1276e-02
12.750  19.250  1.4431e-02
12.750  19.500  1.8318e-02
12.750  19.750  2.3041e-02
12.750  20.000  2.8741e-02
12.750  20.250  3.5697e-02
12.750  20.500  4.3836e-02
12.750  20.750  5.2478e-02
12.750  21.000  6.0227e-02
12.750  21.250  6.6322e-02
12.750  21.500  6.9873e-02
12.750  21.750  6.7199e-02
12.750  22.000  6.3501e-02
12.750  22.250  6.7610e-02
12.750  22.500  7.1149e-02
12.750  22.750  7.4333e-02
12.750  23.000  7.6065e-02
12.750  23.250  7.6550e-02
12.750  23.500  7.6830e-02
12.750  23.750  7.6996e-02
12.750  24.000  7.7112e-02
13.000  17.000  1.0240e-03
13.000  17.250  1.4446e-03
13.000  17.500  1.7996e-03
13.000  17.750  2.1433e-03
13.000  18.000  2.6303e-03
13.000  18.250  3.3164e-03
13.000  18.500  4.2666e-03
13.000  18.750  5.5734e-03
13.000  19.000  7.3713e-03
13.000  19.250  9.7539e-03
13.000  19.500  1.2756e-02
13.000  19.750  1.6439e-02
13.000  20.000  2.0836e-02
13.000  20.250  2.6094e-02
13.000  20.500  3.2417e-02
13.000  20.750  3.9815e-02
13.000  21.000  4.7746e-02
13.000  21.250  5.4804e-02
13.000  21.500  6.1361e-02
13.000  21.750  6.4338e-02
13.000  22.000  6.3278e-02
13.000  22.250  6.3393e-02
13.000  22.500  6.8111e-02
13.000  22.750  7.1624e-02
13.000  23.000  7.4526e-02
13.000  23.250  7.6062e-02
13.000  23.500  7.6529e-02
13.000  23.750  7.6810e-02
13.000  24.000  7.6976e-02
13.250  17.000  6.4568e-04
13.250  17.250  8.9868e-04
13.250  17.500  1.1213e-03
13.250  17.750  1.2910e-03
13.250  18.000  1.5500e-03
13.250  18.250  1.9602e-03
13.250  18.500  2.5563e-03
13.250  18.750  3.4049e-03
13.250  19.000  4.6100e-03
13.250  19.250  6.2848e-03
13.250  19.500  8.5012e-03
13.250  19.750  1.1318e-02
13.250  20.000  1.4723e-02
13.250  20.250  1.8778e-02
13.250  20.500  2.3556e-02
13.250  20.750  2.9106e-02
13.250  21.000  3.5564e-02
13.250  21.250  4.2337e-02
13.250  21.500  4.9269e-02
13.250  21.750  5.4080e-02
13.250  22.000  5.7744e-02
13.250  22.250  5.9471e-02
13.250  22.500  6.3811e-02
13.250  22.750  6.8142e-02
13.250  23.000  7.1637e-02
13.250  23.250  7.4557e-02
13.250  23.500  7.6046e-02
13.250  23.750  7.6508e-02
13.250  24.000  7.6779e-02
13.500  17.000  4.2798e-04
13.500  17.250  5.7638e-04
13.500  17.500  7.0831e-04
13.500  17.750  8.0634e-04
13.500  18.000  9.4362e-04
13.500  18.250  1.1730e-03
13.500  18.500  1.5244e-03
13.500  18.750  2.0379e-03
13.500  19.000  2.7948e-03
13.500  19.250  3.8840e-03
13.500  19.500  5.4007e-03
13.500  19.750  7.4125e-03
13.500  20.000  9.9612e-03
13.500  20.250  1.3081e-02
13.500  20.500  1.6728e-02
13.500  20.750  2.0976e-02
13.500  21.000  2.5728e-02
13.500  21.250  3.1002e-02
13.500  21.500  3.6963e-02
13.500  21.750  4.1437e-02
13.500  22.000  4.5479e-02
13.500  22.250  5.1037e-02
13.500  22.500  5.6619e-02
13.500  22.750  6.4290e-02
13.500  23.000  6.8242e-02
13.500  23.250  7.1396e-02
13.500  23.500  7.4426e-02
13.500  23.750  7.6003e-02
13.500  24.000  7.6465e-02
13.750  17.000  2.9844e-04
13.750  17.250  3.9070e-04
13.750  17.500  4.6988e-04
13.750  17.750  5.3128e-04
13.750  18.000  6.0535e-04
13.750  18.250  7.3012e-04
13.750  18.500  9.2700e-04
13.750  18.750  1.2248e-03
13.750  19.000  1.6708e-03
13.750  19.250  2.3370e-03
13.750  19.500  3.3028e-03
13.750  19.750  4.6504e-03
13.750  20.000  6.4453e-03
13.750  20.250  8.7171e-03
13.750  20.500  1.1500e-02
13.750  20.750  1.4731e-02
13.750  21.000  1.8313e-02
13.750  21.250  2.2225e-02
13.750  21.500  2.6798e-02
13.750  21.750  3.0149e-02
13.750  22.000  3.2976e-02
13.750  22.250  3.7429e-02
13.750  22.500  4.5551e-02
13.750  22.750  5.5086e-02
13.750  23.000  6.4712e-02
13.750  23.250  6.8271e-02
13.750  23.500  7.1210e-02
13.750  23.750  7.4460e-02
13.750  24.000  7.5927e-02
14.000  17.000  2.1770e-04
14.000  17.250  2.8099e-04
14.000  17.500  3.3235e-04
14.000  17.750  3.6848e-04
14.000  18.000  4.1251e-04
14.000  18.250  4.8165e-04
14.000  18.500  5.9185e-04
14.000  18.750  7.5885e-04
14.000  19.000  1.0124e-03
14.000  19.250  1.3998e-03
14.000  19.500  1.9801e-03
14.000  19.750  2.8266e-03
14.000  20.000  4.0115e-03
14.000  20.250  5.5965e-03
14.000  20.500  7.5950e-03
14.000  20.750  1.0001e-02
14.000  21.000  1.2742e-02
14.000  21.250  1.5679e-02
14.000  21.500  1.9100e-02
14.000  21.750  2.1814e-02
14.000  22.000  2.3603e-02
14.000  22.250  2.5788e-02
14.000  22.500  3.1559e-02
14.000  22.750  4.2462e-02
14.000  23.000  5.5093e-02
14.000  23.250  6.4950e-02
14.000  23.500  6.8231e-02
14.000  23.750  7.1313e-02
14.000  24.000  7.4586e-02
