InwC 3300.00A  relative to Inci 1215.00A scaled to 1215A.
Hden   Phi(H)  Eq_Width (A)
7.000  17.000  4.2310e-02
7.000  17.250  5.6230e-02
7.000  17.500  5.8124e-02
7.000  17.750  5.9260e-02
7.000  18.000  5.9289e-02
7.000  18.250  5.9329e-02
7.000  18.500  5.9337e-02
7.000  18.750  5.9345e-02
7.000  19.000  5.9352e-02
7.000  19.250  5.9358e-02
7.000  19.500  5.9360e-02
7.000  19.750  5.9361e-02
7.000  20.000  5.9361e-02
7.000  20.250  5.9361e-02
7.000  20.500  5.9362e-02
7.000  20.750  5.9362e-02
7.000  21.000  5.9362e-02
7.000  21.250  5.9362e-02
7.000  21.500  5.9362e-02
7.000  21.750  5.9362e-02
7.000  22.000  5.9363e-02
7.000  22.250  5.9363e-02
7.000  22.500  5.9363e-02
7.000  22.750  5.9370e-02
7.000  23.000  5.9365e-02
7.000  23.250  5.9365e-02
7.000  23.500  5.9365e-02
7.000  23.750  5.9365e-02
7.000  24.000  5.9366e-02
7.250  17.000  3.1858e-02
7.250  17.250  4.2793e-02
7.250  17.500  5.6204e-02
7.250  17.750  5.8134e-02
7.250  18.000  5.9260e-02
7.250  18.250  5.9289e-02
7.250  18.500  5.9330e-02
7.250  18.750  5.9337e-02
7.250  19.000  5.9345e-02
7.250  19.250  5.9352e-02
7.250  19.500  5.9358e-02
7.250  19.750  5.9360e-02
7.250  20.000  5.9361e-02
7.250  20.250  5.9361e-02
7.250  20.500  5.9362e-02
7.250  20.750  5.9361e-02
7.250  21.000  5.9362e-02
7.250  21.250  5.9362e-02
7.250  21.500  5.9362e-02
7.250  21.750  5.9362e-02
7.250  22.000  5.9362e-02
7.250  22.250  5.9362e-02
7.250  22.500  5.9362e-02
7.250  22.750  5.9362e-02
7.250  23.000  5.9362e-02
7.250  23.250  5.9363e-02
7.250  23.500  5.9363e-02
7.250  23.750  5.9363e-02
7.250  24.000  5.9363e-02
7.500  17.000  2.2741e-02
7.500  17.250  3.2533e-02
7.500  17.500  4.3182e-02
7.500  17.750  5.6156e-02
7.500  18.000  5.8142e-02
7.500  18.250  5.9259e-02
7.500  18.500  5.9289e-02
7.500  18.750  5.9329e-02
7.500  19.000  5.9337e-02
7.500  19.250  5.9345e-02
7.500  19.500  5.9352e-02
7.500  19.750  5.9358e-02
7.500  20.000  5.9360e-02
7.500  20.250  5.9361e-02
7.500  20.500  5.9361e-02
7.500  20.750  5.9361e-02
7.500  21.000  5.9361e-02
7.500  21.250  5.9361e-02
7.500  21.500  5.9362e-02
7.500  21.750  5.9362e-02
7.500  22.000  5.9362e-02
7.500  22.250  5.9362e-02
7.500  22.500  5.9362e-02
7.500  22.750  5.9362e-02
7.500  23.000  5.9362e-02
7.500  23.250  5.9362e-02
7.500  23.500  5.9362e-02
7.500  23.750  5.9362e-02
7.500  24.000  5.9362e-02
7.750  17.000  1.5417e-02
7.750  17.250  2.3225e-02
7.750  17.500  3.3195e-02
7.750  17.750  4.3542e-02
7.750  18.000  5.6073e-02
7.750  18.250  5.8145e-02
7.750  18.500  5.9259e-02
7.750  18.750  5.9289e-02
7.750  19.000  5.9329e-02
7.750  19.250  5.9337e-02
7.750  19.500  5.9345e-02
7.750  19.750  5.9352e-02
7.750  20.000  5.9358e-02
7.750  20.250  5.9360e-02
7.750  20.500  5.9361e-02
7.750  20.750  5.9361e-02
7.750  21.000  5.9361e-02
7.750  21.250  5.9361e-02
7.750  21.500  5.9362e-02
7.750  21.750  5.9362e-02
7.750  22.000  5.9362e-02
7.750  22.250  5.9362e-02
7.750  22.500  5.9361e-02
7.750  22.750  5.9361e-02
7.750  23.000  5.9362e-02
7.750  23.250  5.9362e-02
7.750  23.500  5.9362e-02
7.750  23.750  5.9362e-02
7.750  24.000  5.9362e-02
8.000  17.000  1.0501e-02
8.000  17.250  1.5607e-02
8.000  17.500  2.3561e-02
8.000  17.750  3.3629e-02
8.000  18.000  4.3711e-02
8.000  18.250  5.5924e-02
8.000  18.500  5.8133e-02
8.000  18.750  5.9257e-02
8.000  19.000  5.9289e-02
8.000  19.250  5.9330e-02
8.000  19.500  5.9337e-02
8.000  19.750  5.9345e-02
8.000  20.000  5.9352e-02
8.000  20.250  5.9358e-02
8.000  20.500  5.9360e-02
8.000  20.750  5.9361e-02
8.000  21.000  5.9361e-02
8.000  21.250  5.9361e-02
8.000  21.500  5.9361e-02
8.000  21.750  5.9362e-02
8.000  22.000  5.9362e-02
8.000  22.250  5.9362e-02
8.000  22.500  5.9362e-02
8.000  22.750  5.9362e-02
8.000  23.000  5.9362e-02
8.000  23.250  5.9362e-02
8.000  23.500  5.9362e-02
8.000  23.750  5.9362e-02
8.000  24.000  5.9362e-02
8.250  17.000  7.3970e-03
8.250  17.250  1.0669e-02
8.250  17.500  1.5922e-02
8.250  17.750  2.4142e-02
8.250  18.000  3.4432e-02
8.250  18.250  4.4154e-02
8.250  18.500  5.5710e-02
8.250  18.750  5.8122e-02
8.250  19.000  5.9254e-02
8.250  19.250  5.9288e-02
8.250  19.500  5.9329e-02
8.250  19.750  5.9337e-02
8.250  20.000  5.9345e-02
8.250  20.250  5.9352e-02
8.250  20.500  5.9358e-02
8.250  20.750  5.9360e-02
8.250  21.000  5.9361e-02
8.250  21.250  5.9361e-02
8.250  21.500  5.9361e-02
8.250  21.750  5.9361e-02
8.250  22.000  5.9362e-02
8.250  22.250  5.9361e-02
8.250  22.500  5.9361e-02
8.250  22.750  5.9362e-02
8.250  23.000  5.9362e-02
8.250  23.250  5.9362e-02
8.250  23.500  5.9362e-02
8.250  23.750  5.9362e-02
8.250  24.000  5.9362e-02
8.500  17.000  5.3350e-03
8.500  17.250  7.5035e-03
8.500  17.500  1.0887e-02
8.500  17.750  1.6403e-02
8.500  18.000  2.4959e-02
8.500  18.250  3.5436e-02
8.500  18.500  4.4629e-02
8.500  18.750  5.5411e-02
8.500  19.000  5.8098e-02
8.500  19.250  5.9249e-02
8.500  19.500  5.9287e-02
8.500  19.750  5.9328e-02
8.500  20.000  5.9337e-02
8.500  20.250  5.9345e-02
8.500  20.500  5.9352e-02
8.500  20.750  5.9358e-02
8.500  21.000  5.9360e-02
8.500  21.250  5.9361e-02
8.500  21.500  5.9361e-02
8.500  21.750  5.9361e-02
8.500  22.000  5.9361e-02
8.500  22.250  5.9361e-02
8.500  22.500  5.9361e-02
8.500  22.750  5.9362e-02
8.500  23.000  5.9361e-02
8.500  23.250  5.9362e-02
8.500  23.500  5.9361e-02
8.500  23.750  5.9361e-02
8.500  24.000  5.9362e-02
8.750  17.000  3.9150e-03
8.750  17.250  5.4016e-03
8.750  17.500  7.6547e-03
8.750  17.750  1.1220e-02
8.750  18.000  1.7162e-02
8.750  18.250  2.6229e-02
8.750  18.500  3.6114e-02
8.750  18.750  4.4963e-02
8.750  19.000  5.5003e-02
8.750  19.250  5.8053e-02
8.750  19.500  5.9242e-02
8.750  19.750  5.9286e-02
8.750  20.000  5.9328e-02
8.750  20.250  5.9337e-02
8.750  20.500  5.9345e-02
8.750  20.750  5.9352e-02
8.750  21.000  5.9358e-02
8.750  21.250  5.9360e-02
8.750  21.500  5.9361e-02
8.750  21.750  5.9361e-02
8.750  22.000  5.9361e-02
8.750  22.250  5.9361e-02
8.750  22.500  5.9362e-02
8.750  22.750  5.9362e-02
8.750  23.000  5.9362e-02
8.750  23.250  5.9362e-02
8.750  23.500  5.9362e-02
8.750  23.750  5.9362e-02
8.750  24.000  5.9362e-02
9.000  17.000  2.9165e-03
9.000  17.250  3.9513e-03
9.000  17.500  5.4953e-03
9.000  17.750  7.8903e-03
9.000  18.000  1.1859e-02
9.000  18.250  1.8376e-02
9.000  18.500  2.7674e-02
9.000  18.750  3.7095e-02
9.000  19.000  4.5913e-02
9.000  19.250  5.4492e-02
9.000  19.500  5.7977e-02
9.000  19.750  5.9229e-02
9.000  20.000  5.9283e-02
9.000  20.250  5.9327e-02
9.000  20.500  5.9336e-02
9.000  20.750  5.9345e-02
9.000  21.000  5.9352e-02
9.000  21.250  5.9358e-02
9.000  21.500  5.9360e-02
9.000  21.750  5.9361e-02
9.000  22.000  5.9361e-02
9.000  22.250  5.9361e-02
9.000  22.500  5.9361e-02
9.000  22.750  5.9361e-02
9.000  23.000  5.9362e-02
9.000  23.250  5.9362e-02
9.000  23.500  5.9362e-02
9.000  23.750  5.9361e-02
9.000  24.000  5.9361e-02
9.250  17.000  2.2094e-03
9.250  17.250  2.9333e-03
9.250  17.500  4.0087e-03
9.250  17.750  5.6666e-03
9.250  18.000  8.3743e-03
9.250  18.250  1.2884e-02
9.250  18.500  1.9722e-02
9.250  18.750  2.8605e-02
9.250  19.000  3.7391e-02
9.250  19.250  4.7095e-02
9.250  19.500  5.4022e-02
9.250  19.750  5.7849e-02
9.250  20.000  5.9208e-02
9.250  20.250  5.9278e-02
9.250  20.500  5.9326e-02
9.250  20.750  5.9336e-02
9.250  21.000  5.9345e-02
9.250  21.250  5.9352e-02
9.250  21.500  5.9352e-02
9.250  21.750  5.9331e-02
9.250  22.000  5.9330e-02
9.250  22.250  5.9332e-02
9.250  22.500  5.9361e-02
9.250  22.750  5.9361e-02
9.250  23.000  5.9361e-02
9.250  23.250  5.9361e-02
9.250  23.500  5.9361e-02
9.250  23.750  5.9361e-02
9.250  24.000  5.9362e-02
9.500  17.000  1.7056e-03
9.500  17.250  2.2139e-03
9.500  17.500  2.9695e-03
9.500  17.750  4.1392e-03
9.500  18.000  6.0663e-03
9.500  18.250  9.2541e-03
9.500  18.500  1.3881e-02
9.500  18.750  2.0342e-02
9.500  19.000  2.8900e-02
9.500  19.250  3.7606e-02
9.500  19.500  4.7869e-02
9.500  19.750  5.3554e-02
9.500  20.000  5.7674e-02
9.500  20.250  5.9174e-02
9.500  20.500  5.9270e-02
9.500  20.750  5.9323e-02
9.500  21.000  5.9328e-02
9.500  21.250  5.9320e-02
9.500  21.500  5.9321e-02
9.500  21.750  5.9323e-02
9.500  22.000  5.9313e-02
9.500  22.250  5.9304e-02
9.500  22.500  5.9307e-02
9.500  22.750  5.9308e-02
9.500  23.000  5.9307e-02
9.500  23.250  5.9306e-02
9.500  23.500  5.9325e-02
9.500  23.750  5.9325e-02
9.500  24.000  5.9325e-02
9.750  17.000  1.3470e-03
9.750  17.250  1.7043e-03
9.750  17.500  2.2350e-03
9.750  17.750  3.0678e-03
9.750  18.000  4.4705e-03
9.750  18.250  6.7283e-03
9.750  18.500  9.8580e-03
9.750  18.750  1.4093e-02
9.750  19.000  1.9944e-02
9.750  19.250  2.8175e-02
9.750  19.500  3.8630e-02
9.750  19.750  4.8310e-02
9.750  20.000  5.3193e-02
9.750  20.250  5.7478e-02
9.750  20.500  5.9120e-02
9.750  20.750  5.9256e-02
9.750  21.000  5.9320e-02
9.750  21.250  5.9333e-02
9.750  21.500  5.9334e-02
9.750  21.750  5.9324e-02
9.750  22.000  5.9325e-02
9.750  22.250  5.9320e-02
9.750  22.500  5.9310e-02
9.750  22.750  5.9305e-02
9.750  23.000  5.9306e-02
9.750  23.250  5.9307e-02
9.750  23.500  5.9307e-02
9.750  23.750  5.9308e-02
9.750  24.000  5.9308e-02
10.000  17.000  1.0918e-03
10.000  17.250  1.3430e-03
10.000  17.500  1.7174e-03
10.000  17.750  2.3143e-03
10.000  18.000  3.3300e-03
10.000  18.250  4.9206e-03
10.000  18.500  6.9855e-03
10.000  18.750  9.7059e-03
10.000  19.000  1.3396e-02
10.000  19.250  1.8823e-02
10.000  19.500  2.7254e-02
10.000  19.750  3.9842e-02
10.000  20.000  4.8234e-02
10.000  20.250  5.2768e-02
10.000  20.500  5.7240e-02
10.000  20.750  5.9043e-02
10.000  21.000  5.9234e-02
10.000  21.250  5.9315e-02
10.000  21.500  5.9334e-02
10.000  21.750  5.9341e-02
10.000  22.000  5.9335e-02
10.000  22.250  5.9327e-02
10.000  22.500  5.9324e-02
10.000  22.750  5.9318e-02
10.000  23.000  5.9311e-02
10.000  23.250  5.9307e-02
10.000  23.500  5.9305e-02
10.000  23.750  5.9305e-02
10.000  24.000  5.9305e-02
10.250  17.000  9.1086e-04
10.250  17.250  1.0864e-03
10.250  17.500  1.3505e-03
10.250  17.750  1.7807e-03
10.250  18.000  2.5046e-03
10.250  18.250  3.5967e-03
10.250  18.500  5.0004e-03
10.250  18.750  6.7478e-03
10.250  19.000  9.0326e-03
10.250  19.250  1.2675e-02
10.250  19.500  1.8821e-02
10.250  19.750  2.8788e-02
10.250  20.000  4.1084e-02
10.250  20.250  4.7592e-02
10.250  20.500  5.2438e-02
10.250  20.750  5.7051e-02
10.250  21.000  5.8940e-02
10.250  21.250  5.9201e-02
10.250  21.500  5.9306e-02
10.250  21.750  5.9333e-02
10.250  22.000  5.9343e-02
10.250  22.250  5.9346e-02
10.250  22.500  5.9328e-02
10.250  22.750  5.9327e-02
10.250  23.000  5.9323e-02
10.250  23.250  5.9318e-02
10.250  23.500  5.9315e-02
10.250  23.750  5.9312e-02
10.250  24.000  5.9311e-02
10.500  17.000  7.8329e-04
10.500  17.250  9.0535e-04
10.500  17.500  1.0915e-03
10.500  17.750  1.3993e-03
10.500  18.000  1.9119e-03
10.500  18.250  2.6844e-03
10.500  18.500  3.6437e-03
10.500  18.750  4.8997e-03
10.500  19.000  6.6663e-03
10.500  19.250  9.3748e-03
10.500  19.500  1.3513e-02
10.500  19.750  2.0083e-02
10.500  20.000  3.0500e-02
10.500  20.250  4.1173e-02
10.500  20.500  4.7042e-02
10.500  20.750  5.2037e-02
10.500  21.000  5.6868e-02
10.500  21.250  5.8811e-02
10.500  21.500  5.9155e-02
10.500  21.750  5.9291e-02
10.500  22.000  5.9331e-02
10.500  22.250  5.9342e-02
10.500  22.500  5.9350e-02
10.500  22.750  5.9333e-02
10.500  23.000  5.9329e-02
10.500  23.250  5.9327e-02
10.500  23.500  5.9324e-02
10.500  23.750  5.9321e-02
10.500  24.000  5.9319e-02
10.750  17.000  6.9160e-04
10.750  17.250  7.7556e-04
10.750  17.500  9.0535e-04
10.750  17.750  1.1229e-03
10.750  18.000  1.4909e-03
10.750  18.250  2.0417e-03
10.750  18.500  2.7542e-03
10.750  18.750  3.7285e-03
10.750  19.000  5.1137e-03
10.750  19.250  7.0769e-03
10.750  19.500  9.9278e-03
10.750  19.750  1.4219e-02
10.750  20.000  2.1010e-02
10.750  20.250  3.1507e-02
10.750  20.500  4.1202e-02
10.750  20.750  4.6761e-02
10.750  21.000  5.1831e-02
10.750  21.250  5.6753e-02
10.750  21.500  5.8682e-02
10.750  21.750  5.9093e-02
10.750  22.000  5.9265e-02
10.750  22.250  5.9328e-02
10.750  22.500  5.9341e-02
10.750  22.750  5.9350e-02
10.750  23.000  5.9348e-02
10.750  23.250  5.9330e-02
10.750  23.500  5.9329e-02
10.750  23.750  5.9327e-02
10.750  24.000  5.9326e-02
11.000  17.000  6.2436e-04
11.000  17.250  6.8132e-04
11.000  17.500  7.6938e-04
11.000  17.750  9.2313e-04
11.000  18.000  1.1874e-03
11.000  18.250  1.5888e-03
11.000  18.500  2.1539e-03
11.000  18.750  2.9224e-03
11.000  19.000  3.9867e-03
11.000  19.250  5.4268e-03
11.000  19.500  7.4112e-03
11.000  19.750  1.0280e-02
11.000  20.000  1.4591e-02
11.000  20.250  2.1396e-02
11.000  20.500  3.1836e-02
11.000  20.750  4.0390e-02
11.000  21.000  4.6366e-02
11.000  21.250  5.1751e-02
11.000  21.500  5.6707e-02
11.000  21.750  5.8508e-02
11.000  22.000  5.9022e-02
11.000  22.250  5.9237e-02
11.000  22.500  5.9322e-02
11.000  22.750  5.9339e-02
11.000  23.000  5.9350e-02
11.000  23.250  5.9354e-02
11.000  23.500  5.9334e-02
11.000  23.750  5.9330e-02
11.000  24.000  5.9330e-02
11.250  17.000  5.7498e-04
11.250  17.250  6.1128e-04
11.250  17.500  6.6971e-04
11.250  17.750  7.7613e-04
11.250  18.000  9.6560e-04
11.250  18.250  1.2624e-03
11.250  18.500  1.6880e-03
11.250  18.750  2.2956e-03
11.250  19.000  3.1026e-03
11.250  19.250  4.1675e-03
11.250  19.500  5.6062e-03
11.250  19.750  7.5807e-03
11.250  20.000  1.0402e-02
11.250  20.250  1.4652e-02
11.250  20.500  2.1424e-02
11.250  20.750  3.1640e-02
11.250  21.000  3.9909e-02
11.250  21.250  4.6168e-02
11.250  21.500  5.1779e-02
11.250  21.750  5.6855e-02
11.250  22.000  5.8346e-02
11.250  22.250  5.8953e-02
11.250  22.500  5.9201e-02
11.250  22.750  5.9315e-02
11.250  23.000  5.9335e-02
11.250  23.250  5.9348e-02
11.250  23.500  5.9356e-02
11.250  23.750  5.9349e-02
11.250  24.000  5.9332e-02
11.500  17.000  5.3877e-04
11.500  17.250  5.5951e-04
11.500  17.500  5.9663e-04
11.500  17.750  6.6807e-04
11.500  18.000  8.0247e-04
11.500  18.250  1.0245e-03
11.500  18.500  1.3491e-03
11.500  18.750  1.8184e-03
11.500  19.000  2.4272e-03
11.500  19.250  3.2280e-03
11.500  19.500  4.2919e-03
11.500  19.750  5.7137e-03
11.500  20.000  7.6397e-03
11.500  20.250  1.0377e-02
11.500  20.500  1.4534e-02
11.500  20.750  2.1263e-02
11.500  21.000  3.0555e-02
11.500  21.250  3.9587e-02
11.500  21.500  4.6288e-02
11.500  21.750  5.2179e-02
11.500  22.000  5.6745e-02
11.500  22.250  5.8208e-02
11.500  22.500  5.8880e-02
11.500  22.750  5.9175e-02
11.500  23.000  5.9305e-02
11.500  23.250  5.9331e-02
11.500  23.500  5.9347e-02
11.500  23.750  5.9357e-02
11.500  24.000  5.9356e-02
11.750  17.000  5.1465e-04
11.750  17.250  5.2255e-04
11.750  17.500  5.4288e-04
11.750  17.750  5.8963e-04
11.750  18.000  6.8412e-04
11.750  18.250  8.4733e-04
11.750  18.500  1.0911e-03
11.750  18.750  1.4359e-03
11.750  19.000  1.9044e-03
11.750  19.250  2.5142e-03
11.750  19.500  3.3143e-03
11.750  19.750  4.3655e-03
11.750  20.000  5.7390e-03
11.750  20.250  7.6069e-03
11.750  20.500  1.0273e-02
11.750  20.750  1.4355e-02
11.750  21.000  2.1101e-02
11.750  21.250  2.9775e-02
11.750  21.500  3.9489e-02
11.750  21.750  4.6726e-02
11.750  22.000  5.2695e-02
11.750  22.250  5.6506e-02
11.750  22.500  5.8039e-02
11.750  22.750  5.8803e-02
11.750  23.000  5.9141e-02
11.750  23.250  5.9293e-02
11.750  23.500  5.9325e-02
11.750  23.750  5.9345e-02
11.750  24.000  5.9356e-02
12.000  17.000  4.9934e-04
12.000  17.250  4.9877e-04
12.000  17.500  5.0626e-04
12.000  17.750  5.3366e-04
12.000  18.000  5.9802e-04
12.000  18.250  7.1506e-04
12.000  18.500  8.9663e-04
12.000  18.750  1.1556e-03
12.000  19.000  1.5088e-03
12.000  19.250  1.9755e-03
12.000  19.500  2.5872e-03
12.000  19.750  3.3735e-03
12.000  20.000  4.3952e-03
12.000  20.250  5.7360e-03
12.000  20.500  7.5473e-03
12.000  20.750  1.0148e-02
12.000  21.000  1.4223e-02
12.000  21.250  2.1076e-02
12.000  21.500  2.9637e-02
12.000  21.750  3.9800e-02
12.000  22.000  4.7381e-02
12.000  22.250  5.3141e-02
12.000  22.500  5.6310e-02
12.000  22.750  5.7933e-02
12.000  23.000  5.8719e-02
12.000  23.250  5.9109e-02
12.000  23.500  5.9282e-02
12.000  23.750  5.9319e-02
12.000  24.000  5.9342e-02
12.250  17.000  4.3556e-04
12.250  17.250  4.8502e-04
12.250  17.500  4.8461e-04
12.250  17.750  4.9802e-04
12.250  18.000  5.3975e-04
12.250  18.250  6.2214e-04
12.250  18.500  7.5506e-04
12.250  18.750  9.4568e-04
12.250  19.000  1.2082e-03
12.250  19.250  1.5628e-03
12.250  19.500  2.0314e-03
12.250  19.750  2.6298e-03
12.250  20.000  3.4110e-03
12.250  20.250  4.4064e-03
12.250  20.500  5.7226e-03
12.250  20.750  7.4909e-03
12.250  21.000  1.0062e-02
12.250  21.250  1.4203e-02
12.250  21.500  2.0899e-02
12.250  21.750  3.0070e-02
12.250  22.000  4.0511e-02
12.250  22.250  4.8183e-02
12.250  22.500  5.3398e-02
12.250  22.750  5.6199e-02
12.250  23.000  5.7799e-02
12.250  23.250  5.8638e-02
12.250  23.500  5.9074e-02
12.250  23.750  5.9269e-02
12.250  24.000  5.9313e-02
12.500  17.000  2.2971e-04
12.500  17.250  4.4568e-04
12.500  17.500  4.7514e-04
12.500  17.750  4.8082e-04
12.500  18.000  5.0519e-04
12.500  18.250  5.5951e-04
12.500  18.500  6.5152e-04
12.500  18.750  7.9062e-04
12.500  19.000  9.8642e-04
12.500  19.250  1.2534e-03
12.500  19.500  1.6074e-03
12.500  19.750  2.0665e-03
12.500  20.000  2.6613e-03
12.500  20.250  3.4286e-03
12.500  20.500  4.4098e-03
12.500  20.750  5.6911e-03
12.500  21.000  7.4421e-03
12.500  21.250  1.0026e-02
12.500  21.500  1.4089e-02
12.500  21.750  2.1281e-02
12.500  22.000  3.0816e-02
12.500  22.250  4.1630e-02
12.500  22.500  4.8869e-02
12.500  22.750  5.3573e-02
12.500  23.000  5.6112e-02
12.500  23.250  5.7678e-02
12.500  23.500  5.8549e-02
12.500  23.750  5.9030e-02
12.500  24.000  5.9255e-02
12.750  17.000  1.2115e-04
12.750  17.250  2.6675e-04
12.750  17.500  4.6840e-04
12.750  17.750  4.7465e-04
12.750  18.000  4.8749e-04
12.750  18.250  5.2000e-04
12.750  18.500  5.8000e-04
12.750  18.750  6.7761e-04
12.750  19.000  8.1918e-04
12.750  19.250  1.0172e-03
12.750  19.500  1.2837e-03
12.750  19.750  1.6329e-03
12.750  20.000  2.0865e-03
12.750  20.250  2.6700e-03
12.750  20.500  3.4234e-03
12.750  20.750  4.3891e-03
12.750  21.000  5.6387e-03
12.750  21.250  7.3844e-03
12.750  21.500  9.9073e-03
12.750  21.750  1.4314e-02
12.750  22.000  2.2004e-02
12.750  22.250  3.2008e-02
12.750  22.500  4.2815e-02
12.750  22.750  4.9336e-02
12.750  23.000  5.3658e-02
12.750  23.250  5.6074e-02
12.750  23.500  5.7585e-02
12.750  23.750  5.8455e-02
12.750  24.000  5.8977e-02
13.000  17.000  2.1152e-05
13.000  17.250  4.9959e-05
13.000  17.500  1.9053e-04
13.000  17.750  3.7531e-04
13.000  18.000  4.4033e-04
13.000  18.250  4.9802e-04
13.000  18.500  5.3424e-04
13.000  18.750  5.9687e-04
13.000  19.000  6.9630e-04
13.000  19.250  8.4025e-04
13.000  19.500  1.0394e-03
13.000  19.750  1.3000e-03
13.000  20.000  1.6444e-03
13.000  20.250  2.0902e-03
13.000  20.500  2.6574e-03
13.000  20.750  3.3908e-03
13.000  21.000  4.3258e-03
13.000  21.250  5.5576e-03
13.000  21.500  7.2170e-03
13.000  21.750  9.9292e-03
13.000  22.000  1.4700e-02
13.000  22.250  2.2962e-02
13.000  22.500  3.3248e-02
13.000  22.750  4.3234e-02
13.000  23.000  4.9546e-02
13.000  23.250  5.3687e-02
13.000  23.500  5.6007e-02
13.000  23.750  5.7477e-02
13.000  24.000  5.8344e-02
13.250  17.000  1.2840e-05
13.250  17.250  2.4280e-05
13.250  17.500  6.0000e-05
13.250  17.750  1.4683e-04
13.250  18.000  3.0362e-04
13.250  18.250  3.9720e-04
13.250  18.500  5.0765e-04
13.250  18.750  5.4494e-04
13.250  19.000  6.0955e-04
13.250  19.250  7.1095e-04
13.250  19.500  8.5350e-04
13.250  19.750  1.0483e-03
13.250  20.000  1.3050e-03
13.250  20.250  1.6411e-03
13.250  20.500  2.0720e-03
13.250  20.750  2.6175e-03
13.250  21.000  3.3156e-03
13.250  21.250  4.1965e-03
13.250  21.500  5.3190e-03
13.250  21.750  6.9487e-03
13.250  22.000  9.8353e-03
13.250  22.250  1.4895e-02
13.250  22.500  2.3629e-02
13.250  22.750  3.3370e-02
13.250  23.000  4.3046e-02
13.250  23.250  4.9560e-02
13.250  23.500  5.3613e-02
13.250  23.750  5.5884e-02
13.250  24.000  5.7324e-02
13.500  17.000  7.8189e-06
13.500  17.250  1.4403e-05
13.500  17.500  3.2675e-05
13.500  17.750  7.6461e-05
13.500  18.000  1.7918e-04
13.500  18.250  3.4049e-04
13.500  18.500  4.2140e-04
13.500  18.750  5.1514e-04
13.500  19.000  5.5259e-04
13.500  19.250  6.1687e-04
13.500  19.500  7.1712e-04
13.500  19.750  8.5753e-04
13.500  20.000  1.0474e-03
13.500  20.250  1.2970e-03
13.500  20.500  1.6197e-03
13.500  20.750  2.0262e-03
13.500  21.000  2.5300e-03
13.500  21.250  3.1501e-03
13.500  21.500  3.9016e-03
13.500  21.750  4.8993e-03
13.500  22.000  6.4828e-03
13.500  22.250  9.6552e-03
13.500  22.500  1.5342e-02
13.500  22.750  2.3802e-02
13.500  23.000  3.3649e-02
13.500  23.250  4.2772e-02
13.500  23.500  4.9320e-02
13.500  23.750  5.3370e-02
13.500  24.000  5.5641e-02
13.750  17.000  4.6091e-06
13.750  17.250  9.3004e-06
13.750  17.500  2.0082e-05
13.750  17.750  4.0000e-05
13.750  18.000  9.8930e-05
13.750  18.250  2.2132e-04
13.750  18.500  3.6033e-04
13.750  18.750  4.4477e-04
13.750  19.000  5.1975e-04
13.750  19.250  5.5695e-04
13.750  19.500  6.2082e-04
13.750  19.750  7.1819e-04
13.750  20.000  8.5407e-04
13.750  20.250  1.0361e-03
13.750  20.500  1.2726e-03
13.750  20.750  1.5709e-03
13.750  21.000  1.9355e-03
13.750  21.250  2.3682e-03
13.750  21.500  2.8563e-03
13.750  21.750  3.4453e-03
13.750  22.000  4.3101e-03
13.750  22.250  6.0192e-03
13.750  22.500  9.4188e-03
13.750  22.750  1.5517e-02
13.750  23.000  2.4199e-02
13.750  23.250  3.3733e-02
13.750  23.500  4.2335e-02
13.750  23.750  4.8854e-02
13.750  24.000  5.2890e-02
14.000  17.000  2.7984e-06
14.000  17.250  5.5144e-06
14.000  17.500  1.2428e-05
14.000  17.750  2.4691e-05
14.000  18.000  4.9794e-05
14.000  18.250  1.1490e-04
14.000  18.500  2.2823e-04
14.000  18.750  3.7490e-04
14.000  19.000  4.9712e-04
14.000  19.250  5.2165e-04
14.000  19.500  5.5794e-04
14.000  19.750  6.1967e-04
14.000  20.000  7.1350e-04
14.000  20.250  8.4239e-04
14.000  20.500  1.0120e-03
14.000  20.750  1.2262e-03
14.000  21.000  1.4858e-03
14.000  21.250  1.7851e-03
14.000  21.500  2.0995e-03
14.000  21.750  2.4354e-03
14.000  22.000  2.8737e-03
14.000  22.250  3.7906e-03
14.000  22.500  5.7564e-03
14.000  22.750  9.5449e-03
14.000  23.000  1.5838e-02
14.000  23.250  2.4373e-02
14.000  23.500  3.3450e-02
14.000  23.750  4.1480e-02
14.000  24.000  4.8025e-02
