InwC 913.000A  relative to Inci 1215.00A scaled to 1215A.
Hden   Phi(H)  Eq_Width (A)
7.000  17.000  5.8192e-02
7.000  17.250  7.2112e-02
7.000  17.500  7.5000e-02
7.000  17.750  7.6547e-02
7.000  18.000  7.6583e-02
7.000  18.250  7.6635e-02
7.000  18.500  7.6643e-02
7.000  18.750  7.6653e-02
7.000  19.000  7.6662e-02
7.000  19.250  7.6669e-02
7.000  19.500  7.6672e-02
7.000  19.750  7.6673e-02
7.000  20.000  7.6673e-02
7.000  20.250  7.6674e-02
7.000  20.500  7.6674e-02
7.000  20.750  7.6674e-02
7.000  21.000  7.6674e-02
7.000  21.250  7.6674e-02
7.000  21.500  7.6675e-02
7.000  21.750  7.6675e-02
7.000  22.000  7.6675e-02
7.000  22.250  7.6675e-02
7.000  22.500  7.6676e-02
7.000  22.750  7.6685e-02
7.000  23.000  7.6678e-02
7.000  23.250  7.6679e-02
7.000  23.500  7.6679e-02
7.000  23.750  7.6679e-02
7.000  24.000  7.6679e-02
7.250  17.000  3.7095e-02
7.250  17.250  5.7979e-02
7.250  17.500  7.2130e-02
7.250  17.750  7.5020e-02
7.250  18.000  7.6547e-02
7.250  18.250  7.6583e-02
7.250  18.500  7.6635e-02
7.250  18.750  7.6643e-02
7.250  19.000  7.6653e-02
7.250  19.250  7.6662e-02
7.250  19.500  7.6669e-02
7.250  19.750  7.6672e-02
7.250  20.000  7.6673e-02
7.250  20.250  7.6673e-02
7.250  20.500  7.6674e-02
7.250  20.750  7.6674e-02
7.250  21.000  7.6674e-02
7.250  21.250  7.6674e-02
7.250  21.500  7.6674e-02
7.250  21.750  7.6674e-02
7.250  22.000  7.6674e-02
7.250  22.250  7.6674e-02
7.250  22.500  7.6674e-02
7.250  22.750  7.6675e-02
7.250  23.000  7.6675e-02
7.250  23.250  7.6675e-02
7.250  23.500  7.6675e-02
7.250  23.750  7.6675e-02
7.250  24.000  7.6676e-02
7.500  17.000  2.2179e-02
7.500  17.250  3.6427e-02
7.500  17.500  5.7818e-02
7.500  17.750  7.2147e-02
7.500  18.000  7.5039e-02
7.500  18.250  7.6547e-02
7.500  18.500  7.6584e-02
7.500  18.750  7.6635e-02
7.500  19.000  7.6643e-02
7.500  19.250  7.6653e-02
7.500  19.500  7.6662e-02
7.500  19.750  7.6669e-02
7.500  20.000  7.6672e-02
7.500  20.250  7.6673e-02
7.500  20.500  7.6673e-02
7.500  20.750  7.6674e-02
7.500  21.000  7.6674e-02
7.500  21.250  7.6674e-02
7.500  21.500  7.6674e-02
7.500  21.750  7.6674e-02
7.500  22.000  7.6674e-02
7.500  22.250  7.6674e-02
7.500  22.500  7.6674e-02
7.500  22.750  7.6674e-02
7.500  23.000  7.6675e-02
7.500  23.250  7.6674e-02
7.500  23.500  7.6674e-02
7.500  23.750  7.6674e-02
7.500  24.000  7.6674e-02
7.750  17.000  1.3788e-02
7.750  17.250  2.1655e-02
7.750  17.500  3.5950e-02
7.750  17.750  5.7679e-02
7.750  18.000  7.2162e-02
7.750  18.250  7.5058e-02
7.750  18.500  7.6547e-02
7.750  18.750  7.6584e-02
7.750  19.000  7.6634e-02
7.750  19.250  7.6643e-02
7.750  19.500  7.6653e-02
7.750  19.750  7.6662e-02
7.750  20.000  7.6669e-02
7.750  20.250  7.6672e-02
7.750  20.500  7.6673e-02
7.750  20.750  7.6673e-02
7.750  21.000  7.6673e-02
7.750  21.250  7.6674e-02
7.750  21.500  7.6674e-02
7.750  21.750  7.6674e-02
7.750  22.000  7.6674e-02
7.750  22.250  7.6674e-02
7.750  22.500  7.6674e-02
7.750  22.750  7.6674e-02
7.750  23.000  7.6674e-02
7.750  23.250  7.6674e-02
7.750  23.500  7.6674e-02
7.750  23.750  7.6674e-02
7.750  24.000  7.6674e-02
8.000  17.000  9.1696e-03
8.000  17.250  1.3325e-02
8.000  17.500  2.1013e-02
8.000  17.750  3.5226e-02
8.000  18.000  5.7208e-02
8.000  18.250  7.2166e-02
8.000  18.500  7.5062e-02
8.000  18.750  7.6547e-02
8.000  19.000  7.6584e-02
8.000  19.250  7.6636e-02
8.000  19.500  7.6643e-02
8.000  19.750  7.6653e-02
8.000  20.000  7.6662e-02
8.000  20.250  7.6669e-02
8.000  20.500  7.6672e-02
8.000  20.750  7.6673e-02
8.000  21.000  7.6673e-02
8.000  21.250  7.6674e-02
8.000  21.500  7.6674e-02
8.000  21.750  7.6674e-02
8.000  22.000  7.6674e-02
8.000  22.250  7.6674e-02
8.000  22.500  7.6674e-02
8.000  22.750  7.6674e-02
8.000  23.000  7.6674e-02
8.000  23.250  7.6674e-02
8.000  23.500  7.6674e-02
8.000  23.750  7.6674e-02
8.000  24.000  7.6674e-02
8.250  17.000  6.7663e-03
8.250  17.250  8.9372e-03
8.250  17.500  1.3042e-02
8.250  17.750  2.0720e-02
8.250  18.000  3.5064e-02
8.250  18.250  5.7296e-02
8.250  18.500  7.2181e-02
8.250  18.750  7.5081e-02
8.250  19.000  7.6548e-02
8.250  19.250  7.6584e-02
8.250  19.500  7.6635e-02
8.250  19.750  7.6643e-02
8.250  20.000  7.6653e-02
8.250  20.250  7.6662e-02
8.250  20.500  7.6669e-02
8.250  20.750  7.6672e-02
8.250  21.000  7.6673e-02
8.250  21.250  7.6673e-02
8.250  21.500  7.6674e-02
8.250  21.750  7.6674e-02
8.250  22.000  7.6674e-02
8.250  22.250  7.6674e-02
8.250  22.500  7.6674e-02
8.250  22.750  7.6674e-02
8.250  23.000  7.6674e-02
8.250  23.250  7.6674e-02
8.250  23.500  7.6674e-02
8.250  23.750  7.6674e-02
8.250  24.000  7.6674e-02
8.500  17.000  5.4633e-03
8.500  17.250  6.5887e-03
8.500  17.500  8.7467e-03
8.500  17.750  1.2822e-02
8.500  18.000  2.0613e-02
8.500  18.250  3.5497e-02
8.500  18.500  5.7998e-02
8.500  18.750  7.2191e-02
8.500  19.000  7.5102e-02
8.500  19.250  7.6548e-02
8.500  19.500  7.6585e-02
8.500  19.750  7.6634e-02
8.500  20.000  7.6643e-02
8.500  20.250  7.6653e-02
8.500  20.500  7.6662e-02
8.500  20.750  7.6669e-02
8.500  21.000  7.6672e-02
8.500  21.250  7.6673e-02
8.500  21.500  7.6673e-02
8.500  21.750  7.6674e-02
8.500  22.000  7.6674e-02
8.500  22.250  7.6674e-02
8.500  22.500  7.6674e-02
8.500  22.750  7.6674e-02
8.500  23.000  7.6674e-02
8.500  23.250  7.6674e-02
8.500  23.500  7.6674e-02
8.500  23.750  7.6674e-02
8.500  24.000  7.6674e-02
8.750  17.000  4.7341e-03
8.750  17.250  5.3161e-03
8.750  17.500  6.4444e-03
8.750  17.750  8.6049e-03
8.750  18.000  1.2815e-02
8.750  18.250  2.1084e-02
8.750  18.500  3.7258e-02
8.750  18.750  6.0005e-02
8.750  19.000  7.2203e-02
8.750  19.250  7.5122e-02
8.750  19.500  7.6548e-02
8.750  19.750  7.6585e-02
8.750  20.000  7.6635e-02
8.750  20.250  7.6643e-02
8.750  20.500  7.6653e-02
8.750  20.750  7.6662e-02
8.750  21.000  7.6669e-02
8.750  21.250  7.6672e-02
8.750  21.500  7.6673e-02
8.750  21.750  7.6673e-02
8.750  22.000  7.6674e-02
8.750  22.250  7.6674e-02
8.750  22.500  7.6674e-02
8.750  22.750  7.6674e-02
8.750  23.000  7.6674e-02
8.750  23.250  7.6674e-02
8.750  23.500  7.6674e-02
8.750  23.750  7.6674e-02
8.750  24.000  7.6674e-02
9.000  17.000  4.2993e-03
9.000  17.250  4.6006e-03
9.000  17.500  5.1963e-03
9.000  17.750  6.3609e-03
9.000  18.000  8.6457e-03
9.000  18.250  1.3249e-02
9.000  18.500  2.2707e-02
9.000  18.750  4.0926e-02
9.000  19.000  6.3499e-02
9.000  19.250  7.2213e-02
9.000  19.500  7.5138e-02
9.000  19.750  7.6548e-02
9.000  20.000  7.6585e-02
9.000  20.250  7.6635e-02
9.000  20.500  7.6643e-02
9.000  20.750  7.6653e-02
9.000  21.000  7.6662e-02
9.000  21.250  7.6669e-02
9.000  21.500  7.6672e-02
9.000  21.750  7.6673e-02
9.000  22.000  7.6673e-02
9.000  22.250  7.6674e-02
9.000  22.500  7.6674e-02
9.000  22.750  7.6674e-02
9.000  23.000  7.6674e-02
9.000  23.250  7.6674e-02
9.000  23.500  7.6674e-02
9.000  23.750  7.6674e-02
9.000  24.000  7.6674e-02
9.250  17.000  4.0117e-03
9.250  17.250  4.1714e-03
9.250  17.500  4.4979e-03
9.250  17.750  5.1615e-03
9.250  18.000  6.5487e-03
9.250  18.250  9.1698e-03
9.250  18.500  1.4546e-02
9.250  18.750  2.5698e-02
9.250  19.000  4.6434e-02
9.250  19.250  6.7566e-02
9.250  19.500  7.2221e-02
9.250  19.750  7.5149e-02
9.250  20.000  7.6547e-02
9.250  20.250  7.6585e-02
9.250  20.500  7.6635e-02
9.250  20.750  7.6643e-02
9.250  21.000  7.6653e-02
9.250  21.250  7.6662e-02
9.250  21.500  7.6661e-02
9.250  21.750  7.6634e-02
9.250  22.000  7.6633e-02
9.250  22.250  7.6636e-02
9.250  22.500  7.6673e-02
9.250  22.750  7.6673e-02
9.250  23.000  7.6673e-02
9.250  23.250  7.6673e-02
9.250  23.500  7.6674e-02
9.250  23.750  7.6674e-02
9.250  24.000  7.6674e-02
9.500  17.000  3.8197e-03
9.500  17.250  3.8905e-03
9.500  17.500  4.0898e-03
9.500  17.750  4.5300e-03
9.500  18.000  5.4099e-03
9.500  18.250  7.0383e-03
9.500  18.500  1.0221e-02
9.500  18.750  1.6752e-02
9.500  19.000  3.0270e-02
9.500  19.250  5.3151e-02
9.500  19.500  6.9817e-02
9.500  19.750  7.2231e-02
9.500  20.000  7.5153e-02
9.500  20.250  7.6546e-02
9.500  20.500  7.6585e-02
9.500  20.750  7.6634e-02
9.500  21.000  7.6633e-02
9.500  21.250  7.6621e-02
9.500  21.500  7.6623e-02
9.500  21.750  7.6624e-02
9.500  22.000  7.6611e-02
9.500  22.250  7.6600e-02
9.500  22.500  7.6604e-02
9.500  22.750  7.6604e-02
9.500  23.000  7.6604e-02
9.500  23.250  7.6603e-02
9.500  23.500  7.6626e-02
9.500  23.750  7.6626e-02
9.500  24.000  7.6626e-02
9.750  17.000  3.7094e-03
9.750  17.250  3.6937e-03
9.750  17.500  3.8176e-03
9.750  17.750  4.1467e-03
9.750  18.000  4.7858e-03
9.750  18.250  5.9211e-03
9.750  18.500  7.9851e-03
9.750  18.750  1.1975e-02
9.750  19.000  2.0153e-02
9.750  19.250  3.6671e-02
9.750  19.500  6.0250e-02
9.750  19.750  7.0396e-02
9.750  20.000  7.2255e-02
9.750  20.250  7.5149e-02
9.750  20.500  7.6544e-02
9.750  20.750  7.6585e-02
9.750  21.000  7.6635e-02
9.750  21.250  7.6640e-02
9.750  21.500  7.6640e-02
9.750  21.750  7.6626e-02
9.750  22.000  7.6627e-02
9.750  22.250  7.6620e-02
9.750  22.500  7.6607e-02
9.750  22.750  7.6600e-02
9.750  23.000  7.6602e-02
9.750  23.250  7.6603e-02
9.750  23.500  7.6604e-02
9.750  23.750  7.6604e-02
9.750  24.000  7.6604e-02
10.000  17.000  3.6894e-03
10.000  17.250  3.5653e-03
10.000  17.500  3.5978e-03
10.000  17.750  3.8545e-03
10.000  18.000  4.4191e-03
10.000  18.250  5.3095e-03
10.000  18.500  6.7857e-03
10.000  18.750  9.4901e-03
10.000  19.000  1.4739e-02
10.000  19.250  2.5768e-02
10.000  19.500  4.7019e-02
10.000  19.750  6.6145e-02
10.000  20.000  7.0471e-02
10.000  20.250  7.2284e-02
10.000  20.500  7.5156e-02
10.000  20.750  7.6541e-02
10.000  21.000  7.6585e-02
10.000  21.250  7.6636e-02
10.000  21.500  7.6642e-02
10.000  21.750  7.6649e-02
10.000  22.000  7.6640e-02
10.000  22.250  7.6629e-02
10.000  22.500  7.6626e-02
10.000  22.750  7.6617e-02
10.000  23.000  7.6608e-02
10.000  23.250  7.6603e-02
10.000  23.500  7.6600e-02
10.000  23.750  7.6601e-02
10.000  24.000  7.6601e-02
10.250  17.000  3.7576e-03
10.250  17.250  3.5235e-03
10.250  17.500  3.4640e-03
10.250  17.750  3.6584e-03
10.250  18.000  4.1705e-03
10.250  18.250  4.9442e-03
10.250  18.500  6.1234e-03
10.250  18.750  8.1585e-03
10.250  19.000  1.1950e-02
10.250  19.250  1.9114e-02
10.250  19.500  3.2899e-02
10.250  19.750  5.4259e-02
10.250  20.000  6.8254e-02
10.250  20.250  7.0536e-02
10.250  20.500  7.2328e-02
10.250  20.750  7.5193e-02
10.250  21.000  7.6536e-02
10.250  21.250  7.6584e-02
10.250  21.500  7.6636e-02
10.250  21.750  7.6643e-02
10.250  22.000  7.6652e-02
10.250  22.250  7.6655e-02
10.250  22.500  7.6630e-02
10.250  22.750  7.6630e-02
10.250  23.000  7.6624e-02
10.250  23.250  7.6618e-02
10.250  23.500  7.6613e-02
10.250  23.750  7.6610e-02
10.250  24.000  7.6608e-02
10.500  17.000  3.8833e-03
10.500  17.250  3.5630e-03
10.500  17.500  3.4158e-03
10.500  17.750  3.5426e-03
10.500  18.000  3.9769e-03
10.500  18.250  4.6872e-03
10.500  18.500  6.6274e-03
10.500  18.750  9.8893e-03
10.500  19.000  1.4262e-02
10.500  19.250  1.9535e-02
10.500  19.500  2.5497e-02
10.500  19.750  3.1938e-02
10.500  20.000  3.8646e-02
10.500  20.250  4.5411e-02
10.500  20.500  5.2021e-02
10.500  20.750  5.8267e-02
10.500  21.000  6.3937e-02
10.500  21.250  6.8821e-02
10.500  21.500  7.2707e-02
10.500  21.750  7.5384e-02
10.500  22.000  7.6643e-02
10.500  22.250  7.6653e-02
10.500  22.500  7.6660e-02
10.500  22.750  7.6637e-02
10.500  23.000  7.6632e-02
10.500  23.250  7.6629e-02
10.500  23.500  7.6625e-02
10.500  23.750  7.6622e-02
10.500  24.000  7.6619e-02
10.750  17.000  4.0319e-03
10.750  17.250  3.6560e-03
10.750  17.500  3.4448e-03
10.750  17.750  3.5145e-03
10.750  18.000  3.8478e-03
10.750  18.250  4.4081e-03
10.750  18.500  5.2016e-03
10.750  18.750  7.1947e-03
10.750  19.000  1.0482e-02
10.750  19.250  1.4856e-02
10.750  19.500  2.0109e-02
10.750  19.750  2.6034e-02
10.750  20.000  3.2425e-02
10.750  20.250  3.9072e-02
10.750  20.500  4.5770e-02
10.750  20.750  5.2311e-02
10.750  21.000  5.8487e-02
10.750  21.250  6.4091e-02
10.750  21.500  6.8916e-02
10.750  21.750  7.2755e-02
10.750  22.000  7.5399e-02
10.750  22.250  7.6643e-02
10.750  22.500  7.6653e-02
10.750  22.750  7.6662e-02
10.750  23.000  7.6656e-02
10.750  23.250  7.6633e-02
10.750  23.500  7.6632e-02
10.750  23.750  7.6630e-02
10.750  24.000  7.6628e-02
11.000  17.000  4.1475e-03
11.000  17.250  3.7644e-03
11.000  17.500  3.5194e-03
11.000  17.750  3.5400e-03
11.000  18.000  3.7758e-03
11.000  18.250  4.1528e-03
11.000  18.500  4.6822e-03
11.000  18.750  5.4300e-03
11.000  19.000  7.2417e-03
11.000  19.250  1.0204e-02
11.000  19.500  1.4147e-02
11.000  19.750  1.8898e-02
11.000  20.000  2.4287e-02
11.000  20.250  3.0142e-02
11.000  20.500  3.6291e-02
11.000  20.750  4.2565e-02
11.000  21.000  4.8791e-02
11.000  21.250  5.4797e-02
11.000  21.500  6.0414e-02
11.000  21.750  6.5470e-02
11.000  22.000  6.9792e-02
11.000  22.250  7.3211e-02
11.000  22.500  7.5555e-02
11.000  22.750  7.6653e-02
11.000  23.000  7.6662e-02
11.000  23.250  7.6665e-02
11.000  23.500  7.6639e-02
11.000  23.750  7.6633e-02
11.000  24.000  7.6632e-02
11.250  17.000  4.1691e-03
11.250  17.250  3.8347e-03
11.250  17.500  3.5866e-03
11.250  17.750  3.5752e-03
11.250  18.000  3.7321e-03
11.250  18.250  3.9500e-03
11.250  18.500  4.2585e-03
11.250  18.750  4.7700e-03
11.250  19.000  5.5498e-03
11.250  19.250  6.7002e-03
11.250  19.500  8.5444e-03
11.250  19.750  1.1750e-02
11.250  20.000  1.6267e-02
11.250  20.250  2.1829e-02
11.250  20.500  2.8171e-02
11.250  20.750  3.5028e-02
11.250  21.000  4.2136e-02
11.250  21.250  4.9230e-02
11.250  21.500  5.6044e-02
11.250  21.750  6.2313e-02
11.250  22.000  6.7772e-02
11.250  22.250  7.2157e-02
11.250  22.500  7.5202e-02
11.250  22.750  7.6643e-02
11.250  23.000  7.6653e-02
11.250  23.250  7.6662e-02
11.250  23.500  7.6668e-02
11.250  23.750  7.6658e-02
11.250  24.000  7.6636e-02
11.500  17.000  4.0317e-03
11.500  17.250  3.8144e-03
11.500  17.500  3.5971e-03
11.500  17.750  3.5723e-03
11.500  18.000  3.6690e-03
11.500  18.250  3.7832e-03
11.500  18.500  3.9598e-03
11.500  18.750  4.2747e-03
11.500  19.000  4.8050e-03
11.500  19.250  5.6212e-03
11.500  19.500  6.8370e-03
11.500  19.750  8.7998e-03
11.500  20.000  1.2177e-02
11.500  20.250  1.7063e-02
11.500  20.500  2.3171e-02
11.500  20.750  3.0158e-02
11.500  21.000  3.7682e-02
11.500  21.250  4.5401e-02
11.500  21.500  5.2973e-02
11.500  21.750  6.0054e-02
11.500  22.000  6.6302e-02
11.500  22.250  7.1375e-02
11.500  22.500  7.4931e-02
11.500  22.750  7.6627e-02
11.500  23.000  7.6642e-02
11.500  23.250  7.6653e-02
11.500  23.500  7.6662e-02
11.500  23.750  7.6669e-02
11.500  24.000  7.6667e-02
11.750  17.000  3.6439e-03
11.750  17.250  3.6199e-03
11.750  17.500  3.4976e-03
11.750  17.750  3.4971e-03
11.750  18.000  3.5833e-03
11.750  18.250  3.6574e-03
11.750  18.500  3.7461e-03
11.750  18.750  3.9144e-03
11.750  19.000  4.2361e-03
11.750  19.250  4.7900e-03
11.750  19.500  5.6370e-03
11.750  19.750  6.9017e-03
11.750  20.000  8.9513e-03
11.750  20.250  1.2501e-02
11.750  20.500  1.8973e-02
11.750  20.750  3.1252e-02
11.750  21.000  5.2603e-02
11.750  21.250  6.6933e-02
11.750  21.500  6.9612e-02
11.750  21.750  7.1604e-02
11.750  22.000  7.4662e-02
11.750  22.250  7.6295e-02
11.750  22.500  7.6465e-02
11.750  22.750  7.6558e-02
11.750  23.000  7.6624e-02
11.750  23.250  7.6642e-02
11.750  23.500  7.6653e-02
11.750  23.750  7.6662e-02
11.750  24.000  7.6669e-02
12.000  17.000  2.9633e-03
12.000  17.250  3.1783e-03
12.000  17.500  3.2285e-03
12.000  17.750  3.3310e-03
12.000  18.000  3.4607e-03
12.000  18.250  3.5112e-03
12.000  18.500  3.5314e-03
12.000  18.750  3.6098e-03
12.000  19.000  3.8016e-03
12.000  19.250  4.1551e-03
12.000  19.500  4.7347e-03
12.000  19.750  5.6044e-03
12.000  20.000  6.9055e-03
12.000  20.250  9.0131e-03
12.000  20.500  1.2664e-02
12.000  20.750  1.9369e-02
12.000  21.000  3.2137e-02
12.000  21.250  5.4771e-02
12.000  21.500  6.7313e-02
12.000  21.750  6.9866e-02
12.000  22.000  7.2223e-02
12.000  22.250  7.5354e-02
12.000  22.500  7.6263e-02
12.000  22.750  7.6447e-02
12.000  23.000  7.6548e-02
12.000  23.250  7.6621e-02
12.000  23.500  7.6641e-02
12.000  23.750  7.6652e-02
12.000  24.000  7.6662e-02
12.250  17.000  2.1295e-03
12.250  17.250  2.5133e-03
12.250  17.500  2.7806e-03
12.250  17.750  3.0430e-03
12.250  18.000  3.2089e-03
12.250  18.250  3.2291e-03
12.250  18.500  3.2309e-03
12.250  18.750  3.2945e-03
12.250  19.000  3.4333e-03
12.250  19.250  3.6726e-03
12.250  19.500  4.0558e-03
12.250  19.750  4.6532e-03
12.250  20.000  5.5314e-03
12.250  20.250  6.8470e-03
12.250  20.500  8.9819e-03
12.250  20.750  1.2705e-02
12.250  21.000  1.9646e-02
12.250  21.250  3.3039e-02
12.250  21.500  5.6438e-02
12.250  21.750  6.7598e-02
12.250  22.000  7.0222e-02
12.250  22.250  7.3052e-02
12.250  22.500  7.5688e-02
12.250  22.750  7.6237e-02
12.250  23.000  7.6428e-02
12.250  23.250  7.6536e-02
12.250  23.500  7.6617e-02
12.250  23.750  7.6640e-02
12.250  24.000  7.6652e-02
12.500  17.000  1.4519e-03
12.500  17.250  1.8771e-03
12.500  17.500  2.2691e-03
12.500  17.750  2.5595e-03
12.500  18.000  2.6983e-03
12.500  18.250  2.7564e-03
12.500  18.500  2.8221e-03
12.500  18.750  2.9275e-03
12.500  19.000  3.0729e-03
12.500  19.250  3.2672e-03
12.500  19.500  3.5407e-03
12.500  19.750  3.9418e-03
12.500  20.000  4.5453e-03
12.500  20.250  5.4208e-03
12.500  20.500  6.7252e-03
12.500  20.750  8.8723e-03
12.500  21.000  1.2670e-02
12.500  21.250  1.9827e-02
12.500  21.500  3.3680e-02
12.500  21.750  5.9051e-02
12.500  22.000  6.7992e-02
12.500  22.250  7.0716e-02
12.500  22.500  7.3855e-02
12.500  22.750  7.5828e-02
12.500  23.000  7.6214e-02
12.500  23.250  7.6407e-02
12.500  23.500  7.6523e-02
12.500  23.750  7.6611e-02
12.500  24.000  7.6639e-02
12.750  17.000  1.0195e-03
12.750  17.250  1.3659e-03
12.750  17.500  1.6440e-03
12.750  17.750  1.8435e-03
12.750  18.000  2.0083e-03
12.750  18.250  2.1664e-03
12.750  18.500  2.3212e-03
12.750  18.750  2.4886e-03
12.750  19.000  2.6764e-03
12.750  19.250  2.8802e-03
12.750  19.500  3.1108e-03
12.750  19.750  3.4030e-03
12.750  20.000  3.8119e-03
12.750  20.250  4.4087e-03
12.750  20.500  5.2680e-03
12.750  20.750  6.5640e-03
12.750  21.000  8.7162e-03
12.750  21.250  1.2622e-02
12.750  21.500  1.9958e-02
12.750  21.750  3.5062e-02
12.750  22.000  6.1901e-02
12.750  22.250  6.8372e-02
12.750  22.500  7.1397e-02
12.750  22.750  7.4360e-02
12.750  23.000  7.5859e-02
12.750  23.250  7.6197e-02
12.750  23.500  7.6392e-02
12.750  23.750  7.6513e-02
12.750  24.000  7.6603e-02
13.000  17.000  6.4667e-04
13.000  17.250  8.8584e-04
13.000  17.500  1.0592e-03
13.000  17.750  1.2021e-03
13.000  18.000  1.3743e-03
13.000  18.250  1.5675e-03
13.000  18.500  1.7733e-03
13.000  18.750  1.9917e-03
13.000  19.000  2.2251e-03
13.000  19.250  2.4632e-03
13.000  19.500  2.6999e-03
13.000  19.750  2.9517e-03
13.000  20.000  3.2514e-03
13.000  20.250  3.6575e-03
13.000  20.500  4.2472e-03
13.000  20.750  5.0817e-03
13.000  21.000  6.3626e-03
13.000  21.250  8.5559e-03
13.000  21.500  1.2514e-02
13.000  21.750  2.0460e-02
13.000  22.000  3.7201e-02
13.000  22.250  6.4186e-02
13.000  22.500  6.8821e-02
13.000  22.750  7.1917e-02
13.000  23.000  7.4561e-02
13.000  23.250  7.5857e-02
13.000  23.500  7.6183e-02
13.000  23.750  7.6379e-02
13.000  24.000  7.6499e-02
13.250  17.000  4.1588e-04
13.250  17.250  5.7152e-04
13.250  17.500  6.9597e-04
13.250  17.750  7.7761e-04
13.250  18.000  8.9399e-04
13.250  18.250  1.0578e-03
13.250  18.500  1.2568e-03
13.250  18.750  1.4850e-03
13.250  19.000  1.7387e-03
13.250  19.250  2.0067e-03
13.250  19.500  2.2721e-03
13.250  19.750  2.5311e-03
13.250  20.000  2.7920e-03
13.250  20.250  3.0929e-03
13.250  20.500  3.4891e-03
13.250  20.750  4.0506e-03
13.250  21.000  4.8687e-03
13.250  21.250  6.1421e-03
13.250  21.500  8.3380e-03
13.250  21.750  1.2408e-02
13.250  22.000  2.1132e-02
13.250  22.250  3.9817e-02
13.250  22.500  6.5174e-02
13.250  22.750  6.8832e-02
13.250  23.000  7.1943e-02
13.250  23.250  7.4591e-02
13.250  23.500  7.5846e-02
13.250  23.750  7.6169e-02
13.250  24.000  7.6358e-02
13.500  17.000  2.7778e-04
13.500  17.250  3.7350e-04
13.500  17.500  4.5350e-04
13.500  17.750  5.0626e-04
13.500  18.000  5.7671e-04
13.500  18.250  6.8840e-04
13.500  18.500  8.4214e-04
13.500  18.750  1.0351e-03
13.500  19.000  1.2691e-03
13.500  19.250  1.5332e-03
13.500  19.500  1.8104e-03
13.500  19.750  2.0821e-03
13.500  20.000  2.3427e-03
13.500  20.250  2.6052e-03
13.500  20.500  2.8993e-03
13.500  20.750  3.2828e-03
13.500  21.000  3.8230e-03
13.500  21.250  4.6072e-03
13.500  21.500  5.8662e-03
13.500  21.750  8.0338e-03
13.500  22.000  1.2322e-02
13.500  22.250  2.2188e-02
13.500  22.500  4.4123e-02
13.500  22.750  6.5622e-02
13.500  23.000  6.8921e-02
13.500  23.250  7.1683e-02
13.500  23.500  7.4459e-02
13.500  23.750  7.5815e-02
13.500  24.000  7.6139e-02
13.750  17.000  1.9350e-04
13.750  17.250  2.5539e-04
13.750  17.500  3.0584e-04
13.750  17.750  3.4140e-04
13.750  18.000  3.8222e-04
13.750  18.250  4.4996e-04
13.750  18.500  5.5103e-04
13.750  18.750  6.9021e-04
13.750  19.000  8.7202e-04
13.750  19.250  1.0978e-03
13.750  19.500  1.3557e-03
13.750  19.750  1.6274e-03
13.750  20.000  1.8942e-03
13.750  20.250  2.1486e-03
13.750  20.500  2.4050e-03
13.750  20.750  2.6911e-03
13.750  21.000  3.0571e-03
13.750  21.250  3.5721e-03
13.750  21.500  4.3293e-03
13.750  21.750  5.5359e-03
13.750  22.000  7.7682e-03
13.750  22.250  1.2561e-02
13.750  22.500  2.3683e-02
13.750  22.750  4.8449e-02
13.750  23.000  6.6010e-02
13.750  23.250  6.8941e-02
13.750  23.500  7.1501e-02
13.750  23.750  7.4517e-02
13.750  24.000  7.5761e-02
14.000  17.000  1.4008e-04
14.000  17.250  1.8354e-04
14.000  17.500  2.1786e-04
14.000  17.750  2.3967e-04
14.000  18.000  2.6519e-04
14.000  18.250  3.0494e-04
14.000  18.500  3.6691e-04
14.000  18.750  4.5588e-04
14.000  19.000  5.7984e-04
14.000  19.250  7.4675e-04
14.000  19.500  9.5621e-04
14.000  19.750  1.1988e-03
14.000  20.000  1.4563e-03
14.000  20.250  1.7114e-03
14.000  20.500  1.9550e-03
14.000  20.750  2.1995e-03
14.000  21.000  2.4738e-03
14.000  21.250  2.8278e-03
14.000  21.500  3.3304e-03
14.000  21.750  4.0460e-03
14.000  22.000  5.2658e-03
14.000  22.250  7.7185e-03
14.000  22.500  1.3355e-02
14.000  22.750  2.6842e-02
14.000  23.000  5.2872e-02
14.000  23.250  6.6255e-02
14.000  23.500  6.8940e-02
14.000  23.750  7.1691e-02
14.000  24.000  7.4702e-02
