InwC 3648.00A  relative to Inci 1215.00A scaled to 1215A.
Hden   Phi(H)  Eq_Width (A)
7.000  17.000  3.9605e-02
7.000  17.250  5.2612e-02
7.000  17.500  5.4334e-02
7.000  17.750  5.5391e-02
7.000  18.000  5.5418e-02
7.000  18.250  5.5455e-02
7.000  18.500  5.5461e-02
7.000  18.750  5.5468e-02
7.000  19.000  5.5474e-02
7.000  19.250  5.5480e-02
7.000  19.500  5.5481e-02
7.000  19.750  5.5482e-02
7.000  20.000  5.5483e-02
7.000  20.250  5.5483e-02
7.000  20.500  5.5483e-02
7.000  20.750  5.5483e-02
7.000  21.000  5.5483e-02
7.000  21.250  5.5483e-02
7.000  21.500  5.5483e-02
7.000  21.750  5.5484e-02
7.000  22.000  5.5484e-02
7.000  22.250  5.5484e-02
7.000  22.500  5.5484e-02
7.000  22.750  5.5491e-02
7.000  23.000  5.5486e-02
7.000  23.250  5.5486e-02
7.000  23.500  5.5486e-02
7.000  23.750  5.5486e-02
7.000  24.000  5.5487e-02
7.250  17.000  2.9860e-02
7.250  17.250  4.0127e-02
7.250  17.500  5.2619e-02
7.250  17.750  5.4347e-02
7.250  18.000  5.5391e-02
7.250  18.250  5.5417e-02
7.250  18.500  5.5455e-02
7.250  18.750  5.5461e-02
7.250  19.000  5.5468e-02
7.250  19.250  5.5474e-02
7.250  19.500  5.5480e-02
7.250  19.750  5.5481e-02
7.250  20.000  5.5482e-02
7.250  20.250  5.5483e-02
7.250  20.500  5.5483e-02
7.250  20.750  5.5483e-02
7.250  21.000  5.5483e-02
7.250  21.250  5.5483e-02
7.250  21.500  5.5483e-02
7.250  21.750  5.5483e-02
7.250  22.000  5.5483e-02
7.250  22.250  5.5483e-02
7.250  22.500  5.5483e-02
7.250  22.750  5.5484e-02
7.250  23.000  5.5484e-02
7.250  23.250  5.5484e-02
7.250  23.500  5.5484e-02
7.250  23.750  5.5484e-02
7.250  24.000  5.5484e-02
7.500  17.000  2.1325e-02
7.500  17.250  3.0612e-02
7.500  17.500  4.0606e-02
7.500  17.750  5.2624e-02
7.500  18.000  5.4358e-02
7.500  18.250  5.5391e-02
7.500  18.500  5.5418e-02
7.500  18.750  5.5455e-02
7.500  19.000  5.5461e-02
7.500  19.250  5.5468e-02
7.500  19.500  5.5474e-02
7.500  19.750  5.5480e-02
7.500  20.000  5.5481e-02
7.500  20.250  5.5482e-02
7.500  20.500  5.5483e-02
7.500  20.750  5.5483e-02
7.500  21.000  5.5483e-02
7.500  21.250  5.5483e-02
7.500  21.500  5.5483e-02
7.500  21.750  5.5483e-02
7.500  22.000  5.5483e-02
7.500  22.250  5.5483e-02
7.500  22.500  5.5483e-02
7.500  22.750  5.5483e-02
7.500  23.000  5.5483e-02
7.500  23.250  5.5483e-02
7.500  23.500  5.5483e-02
7.500  23.750  5.5483e-02
7.500  24.000  5.5483e-02
7.750  17.000  1.4435e-02
7.750  17.250  2.1908e-02
7.750  17.500  3.1439e-02
7.750  17.750  4.1139e-02
7.750  18.000  5.2629e-02
7.750  18.250  5.4370e-02
7.750  18.500  5.5391e-02
7.750  18.750  5.5418e-02
7.750  19.000  5.5454e-02
7.750  19.250  5.5461e-02
7.750  19.500  5.5468e-02
7.750  19.750  5.5474e-02
7.750  20.000  5.5480e-02
7.750  20.250  5.5481e-02
7.750  20.500  5.5482e-02
7.750  20.750  5.5482e-02
7.750  21.000  5.5483e-02
7.750  21.250  5.5483e-02
7.750  21.500  5.5483e-02
7.750  21.750  5.5483e-02
7.750  22.000  5.5483e-02
7.750  22.250  5.5483e-02
7.750  22.500  5.5483e-02
7.750  22.750  5.5483e-02
7.750  23.000  5.5483e-02
7.750  23.250  5.5483e-02
7.750  23.500  5.5483e-02
7.750  23.750  5.5483e-02
7.750  24.000  5.5483e-02
8.000  17.000  9.8037e-03
8.000  17.250  1.4724e-02
8.000  17.500  2.2451e-02
8.000  17.750  3.2206e-02
8.000  18.000  4.1621e-02
8.000  18.250  5.2627e-02
8.000  18.500  5.4373e-02
8.000  18.750  5.5392e-02
8.000  19.000  5.5418e-02
8.000  19.250  5.5455e-02
8.000  19.500  5.5461e-02
8.000  19.750  5.5468e-02
8.000  20.000  5.5475e-02
8.000  20.250  5.5480e-02
8.000  20.500  5.5481e-02
8.000  20.750  5.5482e-02
8.000  21.000  5.5482e-02
8.000  21.250  5.5483e-02
8.000  21.500  5.5483e-02
8.000  21.750  5.5483e-02
8.000  22.000  5.5483e-02
8.000  22.250  5.5483e-02
8.000  22.500  5.5483e-02
8.000  22.750  5.5483e-02
8.000  23.000  5.5483e-02
8.000  23.250  5.5483e-02
8.000  23.500  5.5483e-02
8.000  23.750  5.5483e-02
8.000  24.000  5.5483e-02
8.250  17.000  6.8780e-03
8.250  17.250  1.0057e-02
8.250  17.500  1.5221e-02
8.250  17.750  2.3411e-02
8.250  18.000  3.3606e-02
8.250  18.250  4.2581e-02
8.250  18.500  5.2631e-02
8.250  18.750  5.4385e-02
8.250  19.000  5.5392e-02
8.250  19.250  5.5418e-02
8.250  19.500  5.5455e-02
8.250  19.750  5.5461e-02
8.250  20.000  5.5468e-02
8.250  20.250  5.5475e-02
8.250  20.500  5.5480e-02
8.250  20.750  5.5481e-02
8.250  21.000  5.5482e-02
8.250  21.250  5.5482e-02
8.250  21.500  5.5483e-02
8.250  21.750  5.5483e-02
8.250  22.000  5.5483e-02
8.250  22.250  5.5483e-02
8.250  22.500  5.5483e-02
8.250  22.750  5.5483e-02
8.250  23.000  5.5483e-02
8.250  23.250  5.5483e-02
8.250  23.500  5.5483e-02
8.250  23.750  5.5483e-02
8.250  24.000  5.5483e-02
8.500  17.000  4.9328e-03
8.500  17.250  7.0625e-03
8.500  17.500  1.0434e-02
8.500  17.750  1.6051e-02
8.500  18.000  2.4943e-02
8.500  18.250  3.5640e-02
8.500  18.500  4.3853e-02
8.500  18.750  5.2632e-02
8.500  19.000  5.4398e-02
8.500  19.250  5.5392e-02
8.500  19.500  5.5418e-02
8.500  19.750  5.5454e-02
8.500  20.000  5.5461e-02
8.500  20.250  5.5468e-02
8.500  20.500  5.5474e-02
8.500  20.750  5.5480e-02
8.500  21.000  5.5481e-02
8.500  21.250  5.5482e-02
8.500  21.500  5.5482e-02
8.500  21.750  5.5483e-02
8.500  22.000  5.5483e-02
8.500  22.250  5.5483e-02
8.500  22.500  5.5483e-02
8.500  22.750  5.5483e-02
8.500  23.000  5.5483e-02
8.500  23.250  5.5483e-02
8.500  23.500  5.5483e-02
8.500  23.750  5.5483e-02
8.500  24.000  5.5483e-02
8.750  17.000  3.5906e-03
8.750  17.250  5.0703e-03
8.750  17.500  7.3563e-03
8.750  17.750  1.1070e-02
8.750  18.000  1.7476e-02
8.750  18.250  2.7446e-02
8.750  18.500  3.7684e-02
8.750  18.750  4.5179e-02
8.750  19.000  5.2628e-02
8.750  19.250  5.4411e-02
8.750  19.500  5.5392e-02
8.750  19.750  5.5419e-02
8.750  20.000  5.5455e-02
8.750  20.250  5.5461e-02
8.750  20.500  5.5468e-02
8.750  20.750  5.5474e-02
8.750  21.000  5.5480e-02
8.750  21.250  5.5481e-02
8.750  21.500  5.5482e-02
8.750  21.750  5.5482e-02
8.750  22.000  5.5483e-02
8.750  22.250  5.5483e-02
8.750  22.500  5.5483e-02
8.750  22.750  5.5483e-02
8.750  23.000  5.5483e-02
8.750  23.250  5.5483e-02
8.750  23.500  5.5483e-02
8.750  23.750  5.5483e-02
8.750  24.000  5.5483e-02
9.000  17.000  2.6442e-03
9.000  17.250  3.6907e-03
9.000  17.500  5.2912e-03
9.000  17.750  7.8569e-03
9.000  18.000  1.2291e-02
9.000  18.250  1.9839e-02
9.000  18.500  3.0584e-02
9.000  18.750  4.0320e-02
9.000  19.000  4.7201e-02
9.000  19.250  5.2612e-02
9.000  19.500  5.4421e-02
9.000  19.750  5.5393e-02
9.000  20.000  5.5419e-02
9.000  20.250  5.5455e-02
9.000  20.500  5.5461e-02
9.000  20.750  5.5468e-02
9.000  21.000  5.5474e-02
9.000  21.250  5.5480e-02
9.000  21.500  5.5481e-02
9.000  21.750  5.5482e-02
9.000  22.000  5.5482e-02
9.000  22.250  5.5483e-02
9.000  22.500  5.5483e-02
9.000  22.750  5.5483e-02
9.000  23.000  5.5483e-02
9.000  23.250  5.5483e-02
9.000  23.500  5.5483e-02
9.000  23.750  5.5483e-02
9.000  24.000  5.5483e-02
9.250  17.000  1.9714e-03
9.250  17.250  2.7169e-03
9.250  17.500  3.8587e-03
9.250  17.750  5.6909e-03
9.250  18.000  8.8337e-03
9.250  18.250  1.4294e-02
9.250  18.500  2.2829e-02
9.250  18.750  3.3543e-02
9.250  19.000  4.2175e-02
9.250  19.250  4.9216e-02
9.250  19.500  5.2589e-02
9.250  19.750  5.4425e-02
9.250  20.000  5.5393e-02
9.250  20.250  5.5419e-02
9.250  20.500  5.5455e-02
9.250  20.750  5.5461e-02
9.250  21.000  5.5468e-02
9.250  21.250  5.5474e-02
9.250  21.500  5.5474e-02
9.250  21.750  5.5454e-02
9.250  22.000  5.5453e-02
9.250  22.250  5.5455e-02
9.250  22.500  5.5482e-02
9.250  22.750  5.5482e-02
9.250  23.000  5.5483e-02
9.250  23.250  5.5483e-02
9.250  23.500  5.5483e-02
9.250  23.750  5.5483e-02
9.250  24.000  5.5483e-02
9.500  17.000  1.4895e-03
9.500  17.250  2.0239e-03
9.500  17.500  2.8468e-03
9.500  17.750  4.1826e-03
9.500  18.000  6.5012e-03
9.500  18.250  1.0541e-02
9.500  18.500  1.6798e-02
9.500  18.750  2.5831e-02
9.500  19.000  3.6704e-02
9.500  19.250  4.3925e-02
9.500  19.500  5.0691e-02
9.500  19.750  5.2555e-02
9.500  20.000  5.4423e-02
9.500  20.250  5.5392e-02
9.500  20.500  5.5419e-02
9.500  20.750  5.5454e-02
9.500  21.000  5.5453e-02
9.500  21.250  5.5445e-02
9.500  21.500  5.5446e-02
9.500  21.750  5.5447e-02
9.500  22.000  5.5437e-02
9.500  22.250  5.5429e-02
9.500  22.500  5.5432e-02
9.500  22.750  5.5432e-02
9.500  23.000  5.5432e-02
9.500  23.250  5.5431e-02
9.500  23.500  5.5448e-02
9.500  23.750  5.5448e-02
9.500  24.000  5.5448e-02
9.750  17.000  1.1445e-03
9.750  17.250  1.5284e-03
9.750  17.500  2.1226e-03
9.750  17.750  3.1049e-03
9.750  18.000  4.8521e-03
9.750  18.250  7.8924e-03
9.750  18.500  1.2540e-02
9.750  18.750  1.9307e-02
9.750  19.000  2.8609e-02
9.750  19.250  3.8776e-02
9.750  19.500  4.6289e-02
9.750  19.750  5.1460e-02
9.750  20.000  5.2520e-02
9.750  20.250  5.4407e-02
9.750  20.500  5.5391e-02
9.750  20.750  5.5419e-02
9.750  21.000  5.5455e-02
9.750  21.250  5.5458e-02
9.750  21.500  5.5458e-02
9.750  21.750  5.5448e-02
9.750  22.000  5.5449e-02
9.750  22.250  5.5444e-02
9.750  22.500  5.5434e-02
9.750  22.750  5.5430e-02
9.750  23.000  5.5431e-02
9.750  23.250  5.5432e-02
9.750  23.500  5.5432e-02
9.750  23.750  5.5432e-02
9.750  24.000  5.5433e-02
10.000  17.000  8.9745e-04
10.000  17.250  1.1739e-03
10.000  17.500  1.6042e-03
10.000  17.750  2.3314e-03
10.000  18.000  3.6514e-03
10.000  18.250  5.9483e-03
10.000  18.500  9.3724e-03
10.000  18.750  1.4413e-02
10.000  19.000  2.1514e-02
10.000  19.250  3.1162e-02
10.000  19.500  4.0543e-02
10.000  19.750  4.8223e-02
10.000  20.000  5.1394e-02
10.000  20.250  5.2469e-02
10.000  20.500  5.4393e-02
10.000  20.750  5.5387e-02
10.000  21.000  5.5419e-02
10.000  21.250  5.5455e-02
10.000  21.500  5.5460e-02
10.000  21.750  5.5465e-02
10.000  22.000  5.5459e-02
10.000  22.250  5.5451e-02
10.000  22.500  5.5448e-02
10.000  22.750  5.5442e-02
10.000  23.000  5.5435e-02
10.000  23.250  5.5432e-02
10.000  23.500  5.5430e-02
10.000  23.750  5.5430e-02
10.000  24.000  5.5430e-02
10.250  17.000  7.2132e-04
10.250  17.250  9.1975e-04
10.250  17.500  1.2328e-03
10.250  17.750  1.7744e-03
10.250  18.000  2.7665e-03
10.250  18.250  4.4626e-03
10.250  18.500  7.0415e-03
10.250  18.750  1.0780e-02
10.250  19.000  1.6056e-02
10.250  19.250  2.3574e-02
10.250  19.500  3.2760e-02
10.250  19.750  4.1955e-02
10.250  20.000  4.9687e-02
10.250  20.250  5.1330e-02
10.250  20.500  5.2446e-02
10.250  20.750  5.4405e-02
10.250  21.000  5.5380e-02
10.250  21.250  5.5418e-02
10.250  21.500  5.5455e-02
10.250  21.750  5.5460e-02
10.250  22.000  5.5467e-02
10.250  22.250  5.5469e-02
10.250  22.500  5.5451e-02
10.250  22.750  5.5451e-02
10.250  23.000  5.5447e-02
10.250  23.250  5.5442e-02
10.250  23.500  5.5439e-02
10.250  23.750  5.5436e-02
10.250  24.000  5.5435e-02
10.500  17.000  5.9638e-04
10.500  17.250  7.3901e-04
10.500  17.500  9.6790e-04
10.500  17.750  1.3719e-03
10.500  18.000  2.1124e-03
10.500  18.250  3.3872e-03
10.500  18.500  5.2552e-03
10.500  18.750  8.0023e-03
10.500  19.000  1.1855e-02
10.500  19.250  1.7331e-02
10.500  19.500  2.4794e-02
10.500  19.750  3.3889e-02
10.500  20.000  4.3450e-02
10.500  20.250  5.0546e-02
10.500  20.500  5.1265e-02
10.500  20.750  5.2444e-02
10.500  21.000  5.4453e-02
10.500  21.250  5.5369e-02
10.500  21.500  5.5415e-02
10.500  21.750  5.5454e-02
10.500  22.000  5.5460e-02
10.500  22.250  5.5467e-02
10.500  22.500  5.5473e-02
10.500  22.750  5.5456e-02
10.500  23.000  5.5452e-02
10.500  23.250  5.5450e-02
10.500  23.500  5.5448e-02
10.500  23.750  5.5445e-02
10.500  24.000  5.5443e-02
10.750  17.000  5.0650e-04
10.750  17.250  6.0922e-04
10.750  17.500  7.7704e-04
10.750  17.750  1.0775e-03
10.750  18.000  1.6280e-03
10.750  18.250  2.5503e-03
10.750  18.500  3.9058e-03
10.750  18.750  5.8779e-03
10.750  19.000  8.6887e-03
10.750  19.250  1.2621e-02
10.750  19.500  1.8183e-02
10.750  19.750  2.5760e-02
10.750  20.000  3.5071e-02
10.750  20.250  4.4982e-02
10.750  20.500  5.0501e-02
10.750  20.750  5.1238e-02
10.750  21.000  5.2460e-02
10.750  21.250  5.4560e-02
10.750  21.500  5.5356e-02
10.750  21.750  5.5410e-02
10.750  22.000  5.5450e-02
10.750  22.250  5.5460e-02
10.750  22.500  5.5467e-02
10.750  22.750  5.5474e-02
10.750  23.000  5.5470e-02
10.750  23.250  5.5453e-02
10.750  23.500  5.5453e-02
10.750  23.750  5.5451e-02
10.750  24.000  5.5450e-02
11.000  17.000  4.4099e-04
11.000  17.250  5.1547e-04
11.000  17.500  6.3794e-04
11.000  17.750  8.6033e-04
11.000  18.000  1.2623e-03
11.000  18.250  1.9222e-03
11.000  18.500  2.9250e-03
11.000  18.750  4.3494e-03
11.000  19.000  6.3802e-03
11.000  19.250  9.2099e-03
11.000  19.500  1.3168e-02
11.000  19.750  1.8857e-02
11.000  20.000  2.6666e-02
11.000  20.250  3.6238e-02
11.000  20.500  4.6535e-02
11.000  20.750  5.0433e-02
11.000  21.000  5.1241e-02
11.000  21.250  5.2578e-02
11.000  21.500  5.4784e-02
11.000  21.750  5.5343e-02
11.000  22.000  5.5402e-02
11.000  22.250  5.5448e-02
11.000  22.500  5.5459e-02
11.000  22.750  5.5467e-02
11.000  23.000  5.5474e-02
11.000  23.250  5.5477e-02
11.000  23.500  5.5457e-02
11.000  23.750  5.5454e-02
11.000  24.000  5.5453e-02
11.250  17.000  3.9358e-04
11.250  17.250  4.4650e-04
11.250  17.500  5.3539e-04
11.250  17.750  6.9712e-04
11.250  18.000  9.8642e-04
11.250  18.250  1.4532e-03
11.250  18.500  2.1459e-03
11.250  18.750  3.1787e-03
11.250  19.000  4.6206e-03
11.250  19.250  6.6295e-03
11.250  19.500  9.4990e-03
11.250  19.750  1.3575e-02
11.250  20.000  1.9434e-02
11.250  20.250  2.7514e-02
11.250  20.500  3.7459e-02
11.250  20.750  4.7804e-02
11.250  21.000  5.0383e-02
11.250  21.250  5.1297e-02
11.250  21.500  5.2859e-02
11.250  21.750  5.5038e-02
11.250  22.000  5.5324e-02
11.250  22.250  5.5391e-02
11.250  22.500  5.5438e-02
11.250  22.750  5.5458e-02
11.250  23.000  5.5466e-02
11.250  23.250  5.5473e-02
11.250  23.500  5.5479e-02
11.250  23.750  5.5471e-02
11.250  24.000  5.5455e-02
11.500  17.000  3.5918e-04
11.500  17.250  3.9605e-04
11.500  17.500  4.5967e-04
11.500  17.750  5.7457e-04
11.500  18.000  7.7819e-04
11.500  18.250  1.1075e-03
11.500  18.500  1.5959e-03
11.500  18.750  2.3301e-03
11.500  19.000  3.3472e-03
11.500  19.250  4.7866e-03
11.500  19.500  6.8422e-03
11.500  19.750  9.7846e-03
11.500  20.000  1.3973e-02
11.500  20.250  2.0025e-02
11.500  20.500  2.8428e-02
11.500  20.750  3.8747e-02
11.500  21.000  4.8671e-02
11.500  21.250  5.0348e-02
11.500  21.500  5.1466e-02
11.500  21.750  5.3352e-02
11.500  22.000  5.5163e-02
11.500  22.250  5.5300e-02
11.500  22.500  5.5378e-02
11.500  22.750  5.5433e-02
11.500  23.000  5.5455e-02
11.500  23.250  5.5465e-02
11.500  23.500  5.5473e-02
11.500  23.750  5.5479e-02
11.500  24.000  5.5478e-02
11.750  17.000  3.3646e-04
11.750  17.250  3.6008e-04
11.750  17.500  4.0329e-04
11.750  17.750  4.8346e-04
11.750  18.000  6.2436e-04
11.750  18.250  8.5267e-04
11.750  18.500  1.1937e-03
11.750  18.750  1.6946e-03
11.750  19.000  2.4221e-03
11.750  19.250  3.4528e-03
11.750  19.500  4.9219e-03
11.750  19.750  7.0219e-03
11.750  20.000  9.9914e-03
11.750  20.250  1.4296e-02
11.750  20.500  2.0627e-02
11.750  20.750  2.9380e-02
11.750  21.000  4.0055e-02
11.750  21.250  4.8581e-02
11.750  21.500  5.0362e-02
11.750  21.750  5.1753e-02
11.750  22.000  5.3952e-02
11.750  22.250  5.5130e-02
11.750  22.500  5.5273e-02
11.750  22.750  5.5360e-02
11.750  23.000  5.5423e-02
11.750  23.250  5.5452e-02
11.750  23.500  5.5463e-02
11.750  23.750  5.5472e-02
11.750  24.000  5.5479e-02
12.000  17.000  3.2198e-04
12.000  17.250  3.3638e-04
12.000  17.500  3.6370e-04
12.000  17.750  4.1638e-04
12.000  18.000  5.1095e-04
12.000  18.250  6.6617e-04
12.000  18.500  9.0436e-04
12.000  18.750  1.2569e-03
12.000  19.000  1.7695e-03
12.000  19.250  2.5058e-03
12.000  19.500  3.5616e-03
12.000  19.750  5.0444e-03
12.000  20.000  7.1579e-03
12.000  20.250  1.0199e-02
12.000  20.500  1.4647e-02
12.000  20.750  2.1225e-02
12.000  21.000  3.0400e-02
12.000  21.250  4.1317e-02
12.000  21.500  4.8574e-02
12.000  21.750  5.0400e-02
12.000  22.000  5.2153e-02
12.000  22.250  5.4423e-02
12.000  22.500  5.5086e-02
12.000  22.750  5.5241e-02
12.000  23.000  5.5335e-02
12.000  23.250  5.5408e-02
12.000  23.500  5.5447e-02
12.000  23.750  5.5460e-02
12.000  24.000  5.5471e-02
12.250  17.000  2.7852e-04
12.250  17.250  3.2181e-04
12.250  17.500  3.3835e-04
12.250  17.750  3.7086e-04
12.250  18.000  4.3226e-04
12.250  18.250  5.3695e-04
12.250  18.500  7.0156e-04
12.250  18.750  9.4790e-04
12.250  19.000  1.3068e-03
12.250  19.250  1.8300e-03
12.250  19.500  2.5826e-03
12.250  19.750  3.6358e-03
12.250  20.000  5.1550e-03
12.250  20.250  7.2887e-03
12.250  20.500  1.0439e-02
12.250  20.750  1.5050e-02
12.250  21.000  2.1872e-02
12.250  21.250  3.1452e-02
12.250  21.500  4.1949e-02
12.250  21.750  4.8357e-02
12.250  22.000  5.0476e-02
12.250  22.250  5.2683e-02
12.250  22.500  5.4609e-02
12.250  22.750  5.5028e-02
12.250  23.000  5.5196e-02
12.250  23.250  5.5300e-02
12.250  23.500  5.5387e-02
12.250  23.750  5.5440e-02
12.250  24.000  5.5457e-02
12.500  17.000  1.4634e-04
12.500  17.250  2.9177e-04
12.500  17.500  3.2395e-04
12.500  17.750  3.4403e-04
12.500  18.000  3.8198e-04
12.500  18.250  4.4897e-04
12.500  18.500  5.5918e-04
12.500  18.750  7.3169e-04
12.500  19.000  9.8675e-04
12.500  19.250  1.3571e-03
12.500  19.500  1.8875e-03
12.500  19.750  2.6393e-03
12.500  20.000  3.7127e-03
12.500  20.250  5.2503e-03
12.500  20.500  7.4471e-03
12.500  20.750  1.0662e-02
12.500  21.000  1.5463e-02
12.500  21.250  2.2576e-02
12.500  21.500  3.1998e-02
12.500  21.750  4.2782e-02
12.500  22.000  4.8138e-02
12.500  22.250  5.0616e-02
12.500  22.500  5.3116e-02
12.500  22.750  5.4611e-02
12.500  23.000  5.4945e-02
12.500  23.250  5.5131e-02
12.500  23.500  5.5249e-02
12.500  23.750  5.5355e-02
12.500  24.000  5.5429e-02
12.750  17.000  7.6379e-05
12.750  17.250  1.7185e-04
12.750  17.500  3.1202e-04
12.750  17.750  3.2823e-04
12.750  18.000  3.5070e-04
12.750  18.250  3.9144e-04
12.750  18.500  4.6321e-04
12.750  18.750  5.8091e-04
12.750  19.000  7.5802e-04
12.750  19.250  1.0188e-03
12.750  19.500  1.3941e-03
12.750  19.750  1.9273e-03
12.750  20.000  2.6874e-03
12.750  20.250  3.7720e-03
12.750  20.500  5.3398e-03
12.750  20.750  7.6104e-03
12.750  21.000  1.0923e-02
12.750  21.250  1.5953e-02
12.750  21.500  2.3008e-02
12.750  21.750  3.3054e-02
12.750  22.000  4.3296e-02
12.750  22.250  4.7797e-02
12.750  22.500  5.0805e-02
12.750  22.750  5.3223e-02
12.750  23.000  5.4466e-02
12.750  23.250  5.4823e-02
12.750  23.500  5.5038e-02
12.750  23.750  5.5175e-02
12.750  24.000  5.5306e-02
13.000  17.000  1.3498e-05
13.000  17.250  3.1934e-05
13.000  17.500  1.2296e-04
13.000  17.750  2.4979e-04
13.000  18.000  3.0272e-04
13.000  18.250  3.5547e-04
13.000  18.500  4.0016e-04
13.000  18.750  4.7613e-04
13.000  19.000  5.9728e-04
13.000  19.250  7.7951e-04
13.000  19.500  1.0459e-03
13.000  19.750  1.4202e-03
13.000  20.000  1.9588e-03
13.000  20.250  2.7300e-03
13.000  20.500  3.8307e-03
13.000  20.750  5.4426e-03
13.000  21.000  7.7979e-03
13.000  21.250  1.1317e-02
13.000  21.500  1.6318e-02
13.000  21.750  2.4014e-02
13.000  22.000  3.4135e-02
13.000  22.250  4.3282e-02
13.000  22.500  4.7386e-02
13.000  22.750  5.0606e-02
13.000  23.000  5.2956e-02
13.000  23.250  5.4201e-02
13.000  23.500  5.4635e-02
13.000  23.750  5.4894e-02
13.000  24.000  5.5060e-02
13.250  17.000  8.0658e-06
13.250  17.250  1.5391e-05
13.250  17.500  3.8272e-05
13.250  17.750  9.4815e-05
13.250  18.000  2.0074e-04
13.250  18.250  2.7095e-04
13.250  18.500  3.6041e-04
13.250  18.750  4.0749e-04
13.250  19.000  4.8667e-04
13.250  19.250  6.1202e-04
13.250  19.500  7.9588e-04
13.250  19.750  1.0623e-03
13.250  20.000  1.4412e-03
13.250  20.250  1.9863e-03
13.250  20.500  2.7697e-03
13.250  20.750  3.9051e-03
13.250  21.000  5.5829e-03
13.250  21.250  8.0704e-03
13.250  21.500  1.1603e-02
13.250  21.750  1.7087e-02
13.250  22.000  2.5043e-02
13.250  22.250  3.4582e-02
13.250  22.500  4.2556e-02
13.250  22.750  4.6300e-02
13.250  23.000  4.9771e-02
13.250  23.250  5.2390e-02
13.250  23.500  5.3799e-02
13.250  23.750  5.4346e-02
13.250  24.000  5.4671e-02
13.500  17.000  4.8560e-06
13.500  17.250  9.1358e-06
13.500  17.500  2.0658e-05
13.500  17.750  4.8642e-05
13.500  18.000  1.1556e-04
13.500  18.250  2.2444e-04
13.500  18.500  2.8667e-04
13.500  18.750  3.6494e-04
13.500  19.000  4.1342e-04
13.500  19.250  4.9383e-04
13.500  19.500  6.2041e-04
13.500  19.750  8.0609e-04
13.500  20.000  1.0747e-03
13.500  20.250  1.4595e-03
13.500  20.500  2.0156e-03
13.500  20.750  2.8207e-03
13.500  21.000  4.0009e-03
13.500  21.250  5.7595e-03
13.500  21.500  8.2755e-03
13.500  21.750  1.2190e-02
13.500  22.000  1.7844e-02
13.500  22.250  2.5558e-02
13.500  22.500  3.4443e-02
13.500  22.750  4.1065e-02
13.500  23.000  4.5036e-02
13.500  23.250  4.8540e-02
13.500  23.500  5.1501e-02
13.500  23.750  5.3201e-02
13.500  24.000  5.3907e-02
13.750  17.000  2.8807e-06
13.750  17.250  5.8436e-06
13.750  17.500  1.2593e-05
13.750  17.750  2.5267e-05
13.750  18.000  6.2798e-05
13.750  18.250  1.4230e-04
13.750  18.500  2.3704e-04
13.750  18.750  3.0214e-04
13.750  19.000  3.6831e-04
13.750  19.250  4.1778e-04
13.750  19.500  4.9975e-04
13.750  19.750  6.2683e-04
13.750  20.000  8.1407e-04
13.750  20.250  1.0857e-03
13.750  20.500  1.4786e-03
13.750  20.750  2.0489e-03
13.750  21.000  2.8856e-03
13.750  21.250  4.1392e-03
13.750  21.500  5.9211e-03
13.750  21.750  8.7298e-03
13.750  22.000  1.2778e-02
13.750  22.250  1.7988e-02
13.750  22.500  2.4707e-02
13.750  22.750  3.3080e-02
13.750  23.000  3.9342e-02
13.750  23.250  4.3446e-02
13.750  23.500  4.7086e-02
13.750  23.750  5.0425e-02
13.750  24.000  5.2337e-02
14.000  17.000  1.7284e-06
14.000  17.250  3.4568e-06
14.000  17.500  7.7366e-06
14.000  17.750  1.5473e-05
14.000  18.000  3.1358e-05
14.000  18.250  7.2840e-05
14.000  18.500  1.4667e-04
14.000  18.750  2.4634e-04
14.000  19.000  3.3737e-04
14.000  19.250  3.7037e-04
14.000  19.500  4.2049e-04
14.000  19.750  5.0329e-04
14.000  20.000  6.3185e-04
14.000  20.250  8.2165e-04
14.000  20.500  1.0987e-03
14.000  20.750  1.5022e-03
14.000  21.000  2.0964e-03
14.000  21.250  2.9905e-03
14.000  21.500  4.2636e-03
14.000  21.750  6.2953e-03
14.000  22.000  9.1978e-03
14.000  22.250  1.2729e-02
14.000  22.500  1.6906e-02
14.000  22.750  2.3097e-02
14.000  23.000  3.1196e-02
14.000  23.250  3.7211e-02
14.000  23.500  4.1466e-02
14.000  23.750  4.5331e-02
14.000  24.000  4.8999e-02
