InwC 2071.34A  relative to Inci 1215.00A scaled to 1215A.
Hden   Phi(H)  Eq_Width (A)
7.000  17.000  5.0881e-02
7.000  17.250  6.6577e-02
7.000  17.500  7.0251e-02
7.000  17.750  7.1871e-02
7.000  18.000  7.1906e-02
7.000  18.250  7.1954e-02
7.000  18.500  7.1962e-02
7.000  18.750  7.1972e-02
7.000  19.000  7.1981e-02
7.000  19.250  7.1987e-02
7.000  19.500  7.1990e-02
7.000  19.750  7.1991e-02
7.000  20.000  7.1991e-02
7.000  20.250  7.1991e-02
7.000  20.500  7.1992e-02
7.000  20.750  7.1992e-02
7.000  21.000  7.1992e-02
7.000  21.250  7.1992e-02
7.000  21.500  7.1992e-02
7.000  21.750  7.1993e-02
7.000  22.000  7.1993e-02
7.000  22.250  7.1993e-02
7.000  22.500  7.1994e-02
7.000  22.750  7.2002e-02
7.000  23.000  7.1995e-02
7.000  23.250  7.1996e-02
7.000  23.500  7.1996e-02
7.000  23.750  7.1996e-02
7.000  24.000  7.1997e-02
7.250  17.000  3.9432e-02
7.250  17.250  5.1467e-02
7.250  17.500  6.6608e-02
7.250  17.750  7.0274e-02
7.250  18.000  7.1871e-02
7.250  18.250  7.1906e-02
7.250  18.500  7.1955e-02
7.250  18.750  7.1962e-02
7.250  19.000  7.1972e-02
7.250  19.250  7.1981e-02
7.250  19.500  7.1988e-02
7.250  19.750  7.1990e-02
7.250  20.000  7.1991e-02
7.250  20.250  7.1991e-02
7.250  20.500  7.1992e-02
7.250  20.750  7.1992e-02
7.250  21.000  7.1992e-02
7.250  21.250  7.1992e-02
7.250  21.500  7.1992e-02
7.250  21.750  7.1992e-02
7.250  22.000  7.1992e-02
7.250  22.250  7.1992e-02
7.250  22.500  7.1992e-02
7.250  22.750  7.1993e-02
7.250  23.000  7.1993e-02
7.250  23.250  7.1993e-02
7.250  23.500  7.1993e-02
7.250  23.750  7.1993e-02
7.250  24.000  7.1993e-02
7.500  17.000  2.9662e-02
7.500  17.250  4.0251e-02
7.500  17.500  5.1989e-02
7.500  17.750  6.6632e-02
7.500  18.000  7.0294e-02
7.500  18.250  7.1871e-02
7.500  18.500  7.1906e-02
7.500  18.750  7.1954e-02
7.500  19.000  7.1962e-02
7.500  19.250  7.1972e-02
7.500  19.500  7.1981e-02
7.500  19.750  7.1987e-02
7.500  20.000  7.1990e-02
7.500  20.250  7.1991e-02
7.500  20.500  7.1991e-02
7.500  20.750  7.1992e-02
7.500  21.000  7.1992e-02
7.500  21.250  7.1992e-02
7.500  21.500  7.1992e-02
7.500  21.750  7.1992e-02
7.500  22.000  7.1992e-02
7.500  22.250  7.1992e-02
7.500  22.500  7.1992e-02
7.500  22.750  7.1992e-02
7.500  23.000  7.1992e-02
7.500  23.250  7.1992e-02
7.500  23.500  7.1992e-02
7.500  23.750  7.1992e-02
7.500  24.000  7.1992e-02
7.750  17.000  2.1830e-02
7.750  17.250  3.0284e-02
7.750  17.500  4.1125e-02
7.750  17.750  5.2542e-02
7.750  18.000  6.6646e-02
7.750  18.250  7.0314e-02
7.750  18.500  7.1871e-02
7.750  18.750  7.1906e-02
7.750  19.000  7.1954e-02
7.750  19.250  7.1963e-02
7.750  19.500  7.1972e-02
7.750  19.750  7.1981e-02
7.750  20.000  7.1987e-02
7.750  20.250  7.1990e-02
7.750  20.500  7.1991e-02
7.750  20.750  7.1991e-02
7.750  21.000  7.1991e-02
7.750  21.250  7.1992e-02
7.750  21.500  7.1992e-02
7.750  21.750  7.1992e-02
7.750  22.000  7.1992e-02
7.750  22.250  7.1992e-02
7.750  22.500  7.1992e-02
7.750  22.750  7.1992e-02
7.750  23.000  7.1992e-02
7.750  23.250  7.1992e-02
7.750  23.500  7.1992e-02
7.750  23.750  7.1992e-02
7.750  24.000  7.1992e-02
8.000  17.000  1.6567e-02
8.000  17.250  2.2121e-02
8.000  17.500  3.0832e-02
8.000  17.750  4.1894e-02
8.000  18.000  5.2999e-02
8.000  18.250  6.6635e-02
8.000  18.500  7.0317e-02
8.000  18.750  7.1870e-02
8.000  19.000  7.1906e-02
8.000  19.250  7.1955e-02
8.000  19.500  7.1963e-02
8.000  19.750  7.1972e-02
8.000  20.000  7.1981e-02
8.000  20.250  7.1987e-02
8.000  20.500  7.1990e-02
8.000  20.750  7.1991e-02
8.000  21.000  7.1991e-02
8.000  21.250  7.1991e-02
8.000  21.500  7.1992e-02
8.000  21.750  7.1992e-02
8.000  22.000  7.1992e-02
8.000  22.250  7.1992e-02
8.000  22.500  7.1992e-02
8.000  22.750  7.1992e-02
8.000  23.000  7.1992e-02
8.000  23.250  7.1992e-02
8.000  23.500  7.1992e-02
8.000  23.750  7.1992e-02
8.000  24.000  7.1992e-02
8.250  17.000  1.3231e-02
8.250  17.250  1.6814e-02
8.250  17.500  2.2607e-02
8.250  17.750  3.1770e-02
8.250  18.000  4.3256e-02
8.250  18.250  5.3914e-02
8.250  18.500  6.6624e-02
8.250  18.750  7.0334e-02
8.250  19.000  7.1870e-02
8.250  19.250  7.1906e-02
8.250  19.500  7.1954e-02
8.250  19.750  7.1962e-02
8.250  20.000  7.1972e-02
8.250  20.250  7.1981e-02
8.250  20.500  7.1987e-02
8.250  20.750  7.1990e-02
8.250  21.000  7.1991e-02
8.250  21.250  7.1991e-02
8.250  21.500  7.1991e-02
8.250  21.750  7.1991e-02
8.250  22.000  7.1992e-02
8.250  22.250  7.1991e-02
8.250  22.500  7.1992e-02
8.250  22.750  7.1992e-02
8.250  23.000  7.1992e-02
8.250  23.250  7.1992e-02
8.250  23.500  7.1992e-02
8.250  23.750  7.1992e-02
8.250  24.000  7.1992e-02
8.500  17.000  1.1002e-02
8.500  17.250  1.3396e-02
8.500  17.500  1.7163e-02
8.500  17.750  2.3394e-02
8.500  18.000  3.3207e-02
8.500  18.250  4.5149e-02
8.500  18.500  5.5060e-02
8.500  18.750  6.6585e-02
8.500  19.000  7.0350e-02
8.500  19.250  7.1868e-02
8.500  19.500  7.1906e-02
8.500  19.750  7.1953e-02
8.500  20.000  7.1962e-02
8.500  20.250  7.1972e-02
8.500  20.500  7.1980e-02
8.500  20.750  7.1987e-02
8.500  21.000  7.1990e-02
8.500  21.250  7.1991e-02
8.500  21.500  7.1991e-02
8.500  21.750  7.1992e-02
8.500  22.000  7.1992e-02
8.500  22.250  7.1991e-02
8.500  22.500  7.1992e-02
8.500  22.750  7.1992e-02
8.500  23.000  7.1992e-02
8.500  23.250  7.1992e-02
8.500  23.500  7.1992e-02
8.500  23.750  7.1992e-02
8.500  24.000  7.1992e-02
8.750  17.000  9.4525e-03
8.750  17.250  1.1109e-02
8.750  17.500  1.3646e-02
8.750  17.750  1.7727e-02
8.750  18.000  2.4698e-02
8.750  18.250  3.5491e-02
8.750  18.500  4.6866e-02
8.750  18.750  5.6180e-02
8.750  19.000  6.6524e-02
8.750  19.250  7.0360e-02
8.750  19.500  7.1866e-02
8.750  19.750  7.1906e-02
8.750  20.000  7.1954e-02
8.750  20.250  7.1963e-02
8.750  20.500  7.1972e-02
8.750  20.750  7.1981e-02
8.750  21.000  7.1987e-02
8.750  21.250  7.1990e-02
8.750  21.500  7.1991e-02
8.750  21.750  7.1991e-02
8.750  22.000  7.1992e-02
8.750  22.250  7.1991e-02
8.750  22.500  7.1992e-02
8.750  22.750  7.1992e-02
8.750  23.000  7.1992e-02
8.750  23.250  7.1992e-02
8.750  23.500  7.1992e-02
8.750  23.750  7.1992e-02
8.750  24.000  7.1992e-02
9.000  17.000  8.3518e-03
9.000  17.250  9.5126e-03
9.000  17.500  1.1270e-02
9.000  17.750  1.4053e-02
9.000  18.000  1.8805e-02
9.000  18.250  2.6822e-02
9.000  18.500  3.8273e-02
9.000  18.750  4.9123e-02
9.000  19.000  5.8026e-02
9.000  19.250  6.6435e-02
9.000  19.500  7.0357e-02
9.000  19.750  7.1861e-02
9.000  20.000  7.1905e-02
9.000  20.250  7.1954e-02
9.000  20.500  7.1962e-02
9.000  20.750  7.1972e-02
9.000  21.000  7.1981e-02
9.000  21.250  7.1987e-02
9.000  21.500  7.1990e-02
9.000  21.750  7.1991e-02
9.000  22.000  7.1991e-02
9.000  22.250  7.1991e-02
9.000  22.500  7.1991e-02
9.000  22.750  7.1991e-02
9.000  23.000  7.1992e-02
9.000  23.250  7.1992e-02
9.000  23.500  7.1992e-02
9.000  23.750  7.1992e-02
9.000  24.000  7.1992e-02
9.250  17.000  7.5642e-03
9.250  17.250  8.3773e-03
9.250  17.500  9.6089e-03
9.250  17.750  1.1559e-02
9.250  18.000  1.4862e-02
9.250  18.250  2.0559e-02
9.250  18.500  2.9399e-02
9.250  18.750  4.0627e-02
9.250  19.000  5.0457e-02
9.250  19.250  6.0027e-02
9.250  19.500  6.6346e-02
9.250  19.750  7.0335e-02
9.250  20.000  7.1854e-02
9.250  20.250  7.1903e-02
9.250  20.500  7.1953e-02
9.250  20.750  7.1962e-02
9.250  21.000  7.1972e-02
9.250  21.250  7.1981e-02
9.250  21.500  7.1980e-02
9.250  21.750  7.1955e-02
9.250  22.000  7.1953e-02
9.250  22.250  7.1956e-02
9.250  22.500  7.1991e-02
9.250  22.750  7.1991e-02
9.250  23.000  7.1991e-02
9.250  23.250  7.1991e-02
9.250  23.500  7.1991e-02
9.250  23.750  7.1991e-02
9.250  24.000  7.1992e-02
9.500  17.000  6.9971e-03
9.500  17.250  7.5643e-03
9.500  17.500  8.4283e-03
9.500  17.750  9.8123e-03
9.500  18.000  1.2193e-02
9.500  18.250  1.6317e-02
9.500  18.500  2.2584e-02
9.500  18.750  3.1530e-02
9.500  19.000  4.2692e-02
9.500  19.250  5.1701e-02
9.500  19.500  6.1661e-02
9.500  19.750  6.6262e-02
9.500  20.000  7.0290e-02
9.500  20.250  7.1842e-02
9.500  20.500  7.1901e-02
9.500  20.750  7.1951e-02
9.500  21.000  7.1952e-02
9.500  21.250  7.1942e-02
9.500  21.500  7.1943e-02
9.500  21.750  7.1945e-02
9.500  22.000  7.1932e-02
9.500  22.250  7.1922e-02
9.500  22.500  7.1926e-02
9.500  22.750  7.1926e-02
9.500  23.000  7.1926e-02
9.500  23.250  7.1925e-02
9.500  23.500  7.1947e-02
9.500  23.750  7.1947e-02
9.500  24.000  7.1947e-02
9.750  17.000  6.5896e-03
9.750  17.250  6.9811e-03
9.750  17.500  7.5800e-03
9.750  17.750  8.5595e-03
9.750  18.000  1.0300e-02
9.750  18.250  1.3293e-02
9.750  18.500  1.7747e-02
9.750  18.750  2.4087e-02
9.750  19.000  3.2809e-02
9.750  19.250  4.3387e-02
9.750  19.500  5.3870e-02
9.750  19.750  6.2587e-02
9.750  20.000  6.6243e-02
9.750  20.250  7.0227e-02
9.750  20.500  7.1822e-02
9.750  20.750  7.1896e-02
9.750  21.000  7.1951e-02
9.750  21.250  7.1959e-02
9.750  21.500  7.1960e-02
9.750  21.750  7.1947e-02
9.750  22.000  7.1948e-02
9.750  22.250  7.1941e-02
9.750  22.500  7.1929e-02
9.750  22.750  7.1923e-02
9.750  23.000  7.1925e-02
9.750  23.250  7.1926e-02
9.750  23.500  7.1926e-02
9.750  23.750  7.1926e-02
9.750  24.000  7.1926e-02
10.000  17.000  6.2965e-03
10.000  17.250  6.5629e-03
10.000  17.500  6.9732e-03
10.000  17.750  7.6602e-03
10.000  18.000  8.9118e-03
10.000  18.250  1.1057e-02
10.000  18.500  1.4139e-02
10.000  18.750  1.8544e-02
10.000  19.000  2.4681e-02
10.000  19.250  3.3276e-02
10.000  19.500  4.3706e-02
10.000  19.750  5.6070e-02
10.000  20.000  6.2762e-02
10.000  20.250  6.6209e-02
10.000  20.500  7.0162e-02
10.000  20.750  7.1793e-02
10.000  21.000  7.1888e-02
10.000  21.250  7.1950e-02
10.000  21.500  7.1961e-02
10.000  21.750  7.1968e-02
10.000  22.000  7.1960e-02
10.000  22.250  7.1950e-02
10.000  22.500  7.1947e-02
10.000  22.750  7.1938e-02
10.000  23.000  7.1930e-02
10.000  23.250  7.1925e-02
10.000  23.500  7.1923e-02
10.000  23.750  7.1923e-02
10.000  24.000  7.1923e-02
10.250  17.000  6.0862e-03
10.250  17.250  6.2628e-03
10.250  17.500  6.5369e-03
10.250  17.750  7.0101e-03
10.250  18.000  7.8786e-03
10.250  18.250  9.3488e-03
10.250  18.500  1.1509e-02
10.250  18.750  1.4531e-02
10.250  19.000  1.8680e-02
10.250  19.250  2.4860e-02
10.250  19.500  3.3780e-02
10.250  19.750  4.5620e-02
10.250  20.000  5.8026e-02
10.250  20.250  6.2739e-02
10.250  20.500  6.6209e-02
10.250  20.750  7.0135e-02
10.250  21.000  7.1754e-02
10.250  21.250  7.1876e-02
10.250  21.500  7.1947e-02
10.250  21.750  7.1961e-02
10.250  22.000  7.1970e-02
10.250  22.250  7.1974e-02
10.250  22.500  7.1951e-02
10.250  22.750  7.1950e-02
10.250  23.000  7.1945e-02
10.250  23.250  7.1939e-02
10.250  23.500  7.1935e-02
10.250  23.750  7.1931e-02
10.250  24.000  7.1930e-02
10.500  17.000  5.9339e-03
10.500  17.250  6.0476e-03
10.500  17.500  6.2241e-03
10.500  17.750  6.5354e-03
10.500  18.000  7.1131e-03
10.500  18.250  8.1244e-03
10.500  18.500  9.5816e-03
10.500  18.750  1.1726e-02
10.500  19.000  1.4819e-02
10.500  19.250  1.9452e-02
10.500  19.500  2.6126e-02
10.500  19.750  3.5453e-02
10.500  20.000  4.7934e-02
10.500  20.250  5.8978e-02
10.500  20.500  6.2682e-02
10.500  20.750  6.6181e-02
10.500  21.000  7.0143e-02
10.500  21.250  7.1705e-02
10.500  21.500  7.1859e-02
10.500  21.750  7.1942e-02
10.500  22.000  7.1961e-02
10.500  22.250  7.1971e-02
10.500  22.500  7.1978e-02
10.500  22.750  7.1957e-02
10.500  23.000  7.1952e-02
10.500  23.250  7.1950e-02
10.500  23.500  7.1946e-02
10.500  23.750  7.1943e-02
10.500  24.000  7.1940e-02
10.750  17.000  5.8174e-03
10.750  17.250  5.8881e-03
10.750  17.500  5.9932e-03
10.750  17.750  6.1812e-03
10.750  18.000  6.5531e-03
10.750  18.250  7.2225e-03
10.750  18.500  8.2401e-03
10.750  18.750  9.8016e-03
10.750  19.000  1.2143e-02
10.750  19.250  1.5504e-02
10.750  19.500  2.0327e-02
10.750  19.750  2.7194e-02
10.750  20.000  3.6877e-02
10.750  20.250  4.9718e-02
10.750  20.500  5.9198e-02
10.750  20.750  6.2747e-02
10.750  21.000  6.6243e-02
10.750  21.250  7.0234e-02
10.750  21.500  7.1655e-02
10.750  21.750  7.1836e-02
10.750  22.000  7.1930e-02
10.750  22.250  7.1960e-02
10.750  22.500  7.1971e-02
10.750  22.750  7.1980e-02
10.750  23.000  7.1975e-02
10.750  23.250  7.1953e-02
10.750  23.500  7.1952e-02
10.750  23.750  7.1950e-02
10.750  24.000  7.1949e-02
11.000  17.000  5.7202e-03
11.000  17.250  5.7635e-03
11.000  17.500  5.8157e-03
11.000  17.750  5.9173e-03
11.000  18.000  6.1415e-03
11.000  18.250  6.5787e-03
11.000  18.500  7.3333e-03
11.000  18.750  8.4957e-03
11.000  19.000  1.0230e-02
11.000  19.250  1.2663e-02
11.000  19.500  1.6055e-02
11.000  19.750  2.0954e-02
11.000  20.000  2.7960e-02
11.000  20.250  3.7841e-02
11.000  20.500  5.1053e-02
11.000  20.750  5.8874e-02
11.000  21.000  6.2718e-02
11.000  21.250  6.6417e-02
11.000  21.500  7.0442e-02
11.000  21.750  7.1587e-02
11.000  22.000  7.1809e-02
11.000  22.250  7.1921e-02
11.000  22.500  7.1958e-02
11.000  22.750  7.1970e-02
11.000  23.000  7.1980e-02
11.000  23.250  7.1983e-02
11.000  23.500  7.1959e-02
11.000  23.750  7.1954e-02
11.000  24.000  7.1953e-02
11.250  17.000  5.6398e-03
11.250  17.250  5.6563e-03
11.250  17.500  5.6742e-03
11.250  17.750  5.7151e-03
11.250  18.000  5.8374e-03
11.250  18.250  6.1216e-03
11.250  18.500  6.6451e-03
11.250  18.750  7.5167e-03
11.250  19.000  8.7688e-03
11.250  19.250  1.0504e-02
11.250  19.500  1.2952e-02
11.250  19.750  1.6388e-02
11.250  20.000  2.1321e-02
11.250  20.250  2.8411e-02
11.250  20.500  3.8523e-02
11.250  20.750  5.1807e-02
11.250  21.000  5.8770e-02
11.250  21.250  6.2806e-02
11.250  21.500  6.6764e-02
11.250  21.750  7.0761e-02
11.250  22.000  7.1524e-02
11.250  22.250  7.1782e-02
11.250  22.500  7.1904e-02
11.250  22.750  7.1955e-02
11.250  23.000  7.1969e-02
11.250  23.250  7.1979e-02
11.250  23.500  7.1986e-02
11.250  23.750  7.1976e-02
11.250  24.000  7.1956e-02
11.500  17.000  5.5817e-03
11.500  17.250  5.5668e-03
11.500  17.500  5.5568e-03
11.500  17.750  5.5562e-03
11.500  18.000  5.6125e-03
11.500  18.250  5.8026e-03
11.500  18.500  6.1797e-03
11.500  18.750  6.8194e-03
11.500  19.000  7.7106e-03
11.500  19.250  8.9560e-03
11.500  19.500  1.0711e-02
11.500  19.750  1.3174e-02
11.500  20.000  1.6620e-02
11.500  20.250  2.1567e-02
11.500  20.500  2.8740e-02
11.500  20.750  3.9084e-02
11.500  21.000  5.1588e-02
11.500  21.250  5.8704e-02
11.500  21.500  6.3126e-02
11.500  21.750  6.7449e-02
11.500  22.000  7.0853e-02
11.500  22.250  7.1470e-02
11.500  22.500  7.1755e-02
11.500  22.750  7.1896e-02
11.500  23.000  7.1951e-02
11.500  23.250  7.1967e-02
11.500  23.500  7.1979e-02
11.500  23.750  7.1987e-02
11.500  24.000  7.1985e-02
11.750  17.000  5.5507e-03
11.750  17.250  5.5030e-03
11.750  17.500  5.4613e-03
11.750  17.750  5.4321e-03
11.750  18.000  5.4505e-03
11.750  18.250  5.5800e-03
11.750  18.500  5.8523e-03
11.750  18.750  6.2929e-03
11.750  19.000  6.9381e-03
11.750  19.250  7.8328e-03
11.750  19.500  9.0894e-03
11.750  19.750  1.0851e-02
11.750  20.000  1.3281e-02
11.750  20.250  1.6728e-02
11.750  20.500  2.1742e-02
11.750  20.750  2.9009e-02
11.750  21.000  3.9656e-02
11.750  21.250  5.1020e-02
11.750  21.500  5.8771e-02
11.750  21.750  6.3694e-02
11.750  22.000  6.8259e-02
11.750  22.250  7.0756e-02
11.750  22.500  7.1403e-02
11.750  22.750  7.1724e-02
11.750  23.000  7.1883e-02
11.750  23.250  7.1947e-02
11.750  23.500  7.1965e-02
11.750  23.750  7.1978e-02
11.750  24.000  7.1987e-02
12.000  17.000  5.5416e-03
12.000  17.250  5.4711e-03
12.000  17.500  5.3993e-03
12.000  17.750  5.3435e-03
12.000  18.000  5.3399e-03
12.000  18.250  5.4296e-03
12.000  18.500  5.6263e-03
12.000  18.750  5.9374e-03
12.000  19.000  6.3916e-03
12.000  19.250  7.0333e-03
12.000  19.500  7.9402e-03
12.000  19.750  9.1894e-03
12.000  20.000  1.0929e-02
12.000  20.250  1.3363e-02
12.000  20.500  1.6828e-02
12.000  20.750  2.1890e-02
12.000  21.000  2.9359e-02
12.000  21.250  4.0363e-02
12.000  21.500  5.1136e-02
12.000  21.750  5.9138e-02
12.000  22.000  6.4466e-02
12.000  22.250  6.8917e-02
12.000  22.500  7.0674e-02
12.000  22.750  7.1359e-02
12.000  23.000  7.1690e-02
12.000  23.250  7.1870e-02
12.000  23.500  7.1942e-02
12.000  23.750  7.1963e-02
12.000  24.000  7.1977e-02
12.250  17.000  4.9105e-03
12.250  17.250  5.4680e-03
12.250  17.500  5.3788e-03
12.250  17.750  5.3026e-03
12.250  18.000  5.2808e-03
12.250  18.250  5.3381e-03
12.250  18.500  5.4756e-03
12.250  18.750  5.6874e-03
12.250  19.000  6.0008e-03
12.250  19.250  6.4567e-03
12.250  19.500  7.1087e-03
12.250  19.750  8.0023e-03
12.250  20.000  9.2639e-03
12.250  20.250  1.0988e-02
12.250  20.500  1.3454e-02
12.250  20.750  1.6957e-02
12.250  21.000  2.2098e-02
12.250  21.250  2.9850e-02
12.250  21.500  4.0634e-02
12.250  21.750  5.1606e-02
12.250  22.000  5.9781e-02
12.250  22.250  6.5435e-02
12.250  22.500  6.9255e-02
12.250  22.750  7.0625e-02
12.250  23.000  7.1304e-02
12.250  23.250  7.1657e-02
12.250  23.500  7.1855e-02
12.250  23.750  7.1937e-02
12.250  24.000  7.1960e-02
12.500  17.000  2.5721e-03
12.500  17.250  5.0918e-03
12.500  17.500  5.3993e-03
12.500  17.750  5.3213e-03
12.500  18.000  5.2774e-03
12.500  18.250  5.2950e-03
12.500  18.500  5.3700e-03
12.500  18.750  5.5091e-03
12.500  19.000  5.7274e-03
12.500  19.250  6.0509e-03
12.500  19.500  6.5125e-03
12.500  19.750  7.1560e-03
12.500  20.000  8.0558e-03
12.500  20.250  9.3129e-03
12.500  20.500  1.1056e-02
12.500  20.750  1.3522e-02
12.500  21.000  1.7100e-02
12.500  21.250  2.2393e-02
12.500  21.500  3.0024e-02
12.500  21.750  4.1683e-02
12.500  22.000  5.2395e-02
12.500  22.250  6.0762e-02
12.500  22.500  6.6288e-02
12.500  22.750  6.9424e-02
12.500  23.000  7.0583e-02
12.500  23.250  7.1251e-02
12.500  23.500  7.1619e-02
12.500  23.750  7.1836e-02
12.500  24.000  7.1931e-02
12.750  17.000  1.3423e-03
12.750  17.250  3.0133e-03
12.750  17.500  5.3770e-03
12.750  17.750  5.3664e-03
12.750  18.000  5.3131e-03
12.750  18.250  5.2866e-03
12.750  18.500  5.3050e-03
12.750  18.750  5.3835e-03
12.750  19.000  5.5285e-03
12.750  19.250  5.7542e-03
12.750  19.500  6.0826e-03
12.750  19.750  6.5429e-03
12.750  20.000  7.1849e-03
12.750  20.250  8.0788e-03
12.750  20.500  9.3370e-03
12.750  20.750  1.1103e-02
12.750  21.000  1.3585e-02
12.750  21.250  1.7263e-02
12.750  21.500  2.2461e-02
12.750  21.750  3.0845e-02
12.750  22.000  4.3070e-02
12.750  22.250  5.3470e-02
12.750  22.500  6.1922e-02
12.750  22.750  6.6832e-02
12.750  23.000  6.9473e-02
12.750  23.250  7.0558e-02
12.750  23.500  7.1207e-02
12.750  23.750  7.1577e-02
12.750  24.000  7.1811e-02
13.000  17.000  2.2123e-04
13.000  17.250  5.2955e-04
13.000  17.500  2.1179e-03
13.000  17.750  4.2337e-03
13.000  18.000  4.8794e-03
13.000  18.250  5.3119e-03
13.000  18.500  5.2848e-03
13.000  18.750  5.3038e-03
13.000  19.000  5.3876e-03
13.000  19.250  5.5390e-03
13.000  19.500  5.7713e-03
13.000  19.750  6.0957e-03
13.000  20.000  6.5542e-03
13.000  20.250  7.1928e-03
13.000  20.500  8.0758e-03
13.000  20.750  9.3354e-03
13.000  21.000  1.1114e-02
13.000  21.250  1.3676e-02
13.000  21.500  1.7229e-02
13.000  21.750  2.2891e-02
13.000  22.000  3.1902e-02
13.000  22.250  4.4602e-02
13.000  22.500  5.4719e-02
13.000  22.750  6.2490e-02
13.000  23.000  6.7028e-02
13.000  23.250  6.9463e-02
13.000  23.500  7.0513e-02
13.000  23.750  7.1150e-02
13.000  24.000  7.1524e-02
13.250  17.000  1.3407e-04
13.250  17.250  2.5440e-04
13.250  17.500  6.4008e-04
13.250  17.750  1.5926e-03
13.250  18.000  3.3269e-03
13.250  18.250  4.2658e-03
13.250  18.500  5.3088e-03
13.250  18.750  5.2776e-03
13.250  19.000  5.2994e-03
13.250  19.250  5.3877e-03
13.250  19.500  5.5410e-03
13.250  19.750  5.7704e-03
13.250  20.000  6.0919e-03
13.250  20.250  6.5434e-03
13.250  20.500  7.1696e-03
13.250  20.750  8.0437e-03
13.250  21.000  9.2956e-03
13.250  21.250  1.1077e-02
13.250  21.500  1.3507e-02
13.250  21.750  1.7181e-02
13.250  22.000  2.3057e-02
13.250  22.250  3.2624e-02
13.250  22.500  4.5716e-02
13.250  22.750  5.4801e-02
13.250  23.000  6.2347e-02
13.250  23.250  6.6999e-02
13.250  23.500  6.9391e-02
13.250  23.750  7.0433e-02
13.250  24.000  7.1067e-02
13.500  17.000  8.1893e-05
13.500  17.250  1.5144e-04
13.500  17.500  3.4576e-04
13.500  17.750  8.1852e-04
13.500  18.000  1.9421e-03
13.500  18.250  3.7081e-03
13.500  18.500  4.4899e-03
13.500  18.750  5.3034e-03
13.500  19.000  5.2686e-03
13.500  19.250  5.2898e-03
13.500  19.500  5.3788e-03
13.500  19.750  5.5302e-03
13.500  20.000  5.7536e-03
13.500  20.250  6.0667e-03
13.500  20.500  6.5032e-03
13.500  20.750  7.1077e-03
13.500  21.000  7.9527e-03
13.500  21.250  9.1518e-03
13.500  21.500  1.0781e-02
13.500  21.750  1.3150e-02
13.500  22.000  1.6592e-02
13.500  22.250  2.2647e-02
13.500  22.500  3.3574e-02
13.500  22.750  4.6115e-02
13.500  23.000  5.5048e-02
13.500  23.250  6.1945e-02
13.500  23.500  6.6729e-02
13.500  23.750  6.9223e-02
13.500  24.000  7.0286e-02
13.750  17.000  4.8807e-05
13.750  17.250  9.8519e-05
13.750  17.500  2.1300e-04
13.750  17.750  4.2436e-04
13.750  18.000  1.0626e-03
13.750  18.250  2.4006e-03
13.750  18.500  3.8972e-03
13.750  18.750  4.7049e-03
13.750  19.000  5.2956e-03
13.750  19.250  5.2580e-03
13.750  19.500  5.2779e-03
13.750  19.750  5.3624e-03
13.750  20.000  5.5065e-03
13.750  20.250  5.7166e-03
13.750  20.500  6.0105e-03
13.750  20.750  6.4158e-03
13.750  21.000  6.9755e-03
13.750  21.250  7.7603e-03
13.750  21.500  8.7941e-03
13.750  21.750  1.0254e-02
13.750  22.000  1.2194e-02
13.750  22.250  1.5267e-02
13.750  22.500  2.1601e-02
13.750  22.750  3.4043e-02
13.750  23.000  4.6636e-02
13.750  23.250  5.5056e-02
13.750  23.500  6.1496e-02
13.750  23.750  6.6454e-02
13.750  24.000  6.8917e-02
14.000  17.000  2.9218e-05
14.000  17.250  5.8519e-05
14.000  17.500  1.3185e-04
14.000  17.750  2.6247e-04
14.000  18.000  5.2914e-04
14.000  18.250  1.2318e-03
14.000  18.500  2.4594e-03
14.000  18.750  4.0366e-03
14.000  19.000  5.2841e-03
14.000  19.250  5.2846e-03
14.000  19.500  5.2428e-03
14.000  19.750  5.2581e-03
14.000  20.000  5.3347e-03
14.000  20.250  5.4643e-03
14.000  20.500  5.6513e-03
14.000  20.750  5.9086e-03
14.000  21.000  6.2597e-03
14.000  21.250  6.7430e-03
14.000  21.500  7.3587e-03
14.000  21.750  8.1919e-03
14.000  22.000  9.1584e-03
14.000  22.250  1.0533e-02
14.000  22.500  1.3706e-02
14.000  22.750  2.1180e-02
14.000  23.000  3.4792e-02
14.000  23.250  4.6847e-02
14.000  23.500  5.4803e-02
14.000  23.750  6.1059e-02
14.000  24.000  6.6061e-02
