InwC 1.30000m  relative to Inci 1215.00A scaled to 1215A.
Hden   Phi(H)  Eq_Width (A)
7.000  17.000  4.6082e-03
7.000  17.250  6.1312e-03
7.000  17.500  6.3319e-03
7.000  17.750  6.4551e-03
7.000  18.000  6.4582e-03
7.000  18.250  6.4626e-03
7.000  18.500  6.4633e-03
7.000  18.750  6.4641e-03
7.000  19.000  6.4649e-03
7.000  19.250  6.4654e-03
7.000  19.500  6.4657e-03
7.000  19.750  6.4658e-03
7.000  20.000  6.4658e-03
7.000  20.250  6.4658e-03
7.000  20.500  6.4658e-03
7.000  20.750  6.4658e-03
7.000  21.000  6.4658e-03
7.000  21.250  6.4658e-03
7.000  21.500  6.4659e-03
7.000  21.750  6.4659e-03
7.000  22.000  6.4659e-03
7.000  22.250  6.4660e-03
7.000  22.500  6.4660e-03
7.000  22.750  6.4667e-03
7.000  23.000  6.4662e-03
7.000  23.250  6.4663e-03
7.000  23.500  6.4663e-03
7.000  23.750  6.4663e-03
7.000  24.000  6.4663e-03
7.250  17.000  3.4667e-03
7.250  17.250  4.6694e-03
7.250  17.500  6.1320e-03
7.250  17.750  6.3334e-03
7.250  18.000  6.4551e-03
7.250  18.250  6.4582e-03
7.250  18.500  6.4626e-03
7.250  18.750  6.4632e-03
7.250  19.000  6.4641e-03
7.250  19.250  6.4649e-03
7.250  19.500  6.4654e-03
7.250  19.750  6.4657e-03
7.250  20.000  6.4658e-03
7.250  20.250  6.4658e-03
7.250  20.500  6.4658e-03
7.250  20.750  6.4658e-03
7.250  21.000  6.4658e-03
7.250  21.250  6.4658e-03
7.250  21.500  6.4658e-03
7.250  21.750  6.4658e-03
7.250  22.000  6.4658e-03
7.250  22.250  6.4658e-03
7.250  22.500  6.4659e-03
7.250  22.750  6.4659e-03
7.250  23.000  6.4659e-03
7.250  23.250  6.4659e-03
7.250  23.500  6.4659e-03
7.250  23.750  6.4659e-03
7.250  24.000  6.4660e-03
7.500  17.000  2.4663e-03
7.500  17.250  3.5548e-03
7.500  17.500  4.7256e-03
7.500  17.750  6.1327e-03
7.500  18.000  6.3348e-03
7.500  18.250  6.4551e-03
7.500  18.500  6.4582e-03
7.500  18.750  6.4626e-03
7.500  19.000  6.4633e-03
7.500  19.250  6.4641e-03
7.500  19.500  6.4649e-03
7.500  19.750  6.4654e-03
7.500  20.000  6.4657e-03
7.500  20.250  6.4658e-03
7.500  20.500  6.4658e-03
7.500  20.750  6.4658e-03
7.500  21.000  6.4658e-03
7.500  21.250  6.4658e-03
7.500  21.500  6.4658e-03
7.500  21.750  6.4658e-03
7.500  22.000  6.4658e-03
7.500  22.250  6.4658e-03
7.500  22.500  6.4658e-03
7.500  22.750  6.4658e-03
7.500  23.000  6.4659e-03
7.500  23.250  6.4658e-03
7.500  23.500  6.4658e-03
7.500  23.750  6.4658e-03
7.500  24.000  6.4658e-03
7.750  17.000  1.6586e-03
7.750  17.250  2.5347e-03
7.750  17.500  3.6519e-03
7.750  17.750  4.7880e-03
7.750  18.000  6.1333e-03
7.750  18.250  6.3361e-03
7.750  18.500  6.4551e-03
7.750  18.750  6.4583e-03
7.750  19.000  6.4625e-03
7.750  19.250  6.4633e-03
7.750  19.500  6.4641e-03
7.750  19.750  6.4649e-03
7.750  20.000  6.4654e-03
7.750  20.250  6.4657e-03
7.750  20.500  6.4658e-03
7.750  20.750  6.4658e-03
7.750  21.000  6.4658e-03
7.750  21.250  6.4658e-03
7.750  21.500  6.4658e-03
7.750  21.750  6.4658e-03
7.750  22.000  6.4658e-03
7.750  22.250  6.4658e-03
7.750  22.500  6.4658e-03
7.750  22.750  6.4658e-03
7.750  23.000  6.4658e-03
7.750  23.250  6.4658e-03
7.750  23.500  6.4658e-03
7.750  23.750  6.4658e-03
7.750  24.000  6.4658e-03
8.000  17.000  1.1156e-03
8.000  17.250  1.6925e-03
8.000  17.500  2.5984e-03
8.000  17.750  3.7419e-03
8.000  18.000  4.8447e-03
8.000  18.250  6.1330e-03
8.000  18.500  6.3365e-03
8.000  18.750  6.4551e-03
8.000  19.000  6.4583e-03
8.000  19.250  6.4626e-03
8.000  19.500  6.4633e-03
8.000  19.750  6.4641e-03
8.000  20.000  6.4649e-03
8.000  20.250  6.4654e-03
8.000  20.500  6.4657e-03
8.000  20.750  6.4658e-03
8.000  21.000  6.4658e-03
8.000  21.250  6.4658e-03
8.000  21.500  6.4658e-03
8.000  21.750  6.4658e-03
8.000  22.000  6.4658e-03
8.000  22.250  6.4658e-03
8.000  22.500  6.4658e-03
8.000  22.750  6.4658e-03
8.000  23.000  6.4658e-03
8.000  23.250  6.4658e-03
8.000  23.500  6.4658e-03
8.000  23.750  6.4658e-03
8.000  24.000  6.4658e-03
8.250  17.000  7.7251e-04
8.250  17.250  1.1453e-03
8.250  17.500  1.7508e-03
8.250  17.750  2.7111e-03
8.250  18.000  3.9061e-03
8.250  18.250  4.9573e-03
8.250  18.500  6.1334e-03
8.250  18.750  6.3378e-03
8.250  19.000  6.4551e-03
8.250  19.250  6.4583e-03
8.250  19.500  6.4626e-03
8.250  19.750  6.4633e-03
8.250  20.000  6.4641e-03
8.250  20.250  6.4649e-03
8.250  20.500  6.4654e-03
8.250  20.750  6.4657e-03
8.250  21.000  6.4658e-03
8.250  21.250  6.4658e-03
8.250  21.500  6.4658e-03
8.250  21.750  6.4658e-03
8.250  22.000  6.4658e-03
8.250  22.250  6.4658e-03
8.250  22.500  6.4658e-03
8.250  22.750  6.4658e-03
8.250  23.000  6.4658e-03
8.250  23.250  6.4658e-03
8.250  23.500  6.4658e-03
8.250  23.750  6.4658e-03
8.250  24.000  6.4658e-03
8.500  17.000  5.4444e-04
8.500  17.250  7.9424e-04
8.500  17.500  1.1896e-03
8.500  17.750  1.8482e-03
8.500  18.000  2.8906e-03
8.500  18.250  4.1435e-03
8.500  18.500  5.1053e-03
8.500  18.750  6.1334e-03
8.500  19.000  6.3393e-03
8.500  19.250  6.4551e-03
8.500  19.500  6.4583e-03
8.500  19.750  6.4625e-03
8.500  20.000  6.4633e-03
8.500  20.250  6.4641e-03
8.500  20.500  6.4649e-03
8.500  20.750  6.4654e-03
8.500  21.000  6.4657e-03
8.500  21.250  6.4658e-03
8.500  21.500  6.4658e-03
8.500  21.750  6.4658e-03
8.500  22.000  6.4658e-03
8.500  22.250  6.4658e-03
8.500  22.500  6.4658e-03
8.500  22.750  6.4658e-03
8.500  23.000  6.4658e-03
8.500  23.250  6.4658e-03
8.500  23.500  6.4658e-03
8.500  23.750  6.4658e-03
8.500  24.000  6.4658e-03
8.750  17.000  3.8708e-04
8.750  17.250  5.6058e-04
8.750  17.500  8.2872e-04
8.750  17.750  1.2643e-03
8.750  18.000  2.0150e-03
8.750  18.250  3.1814e-03
8.750  18.500  4.3787e-03
8.750  18.750  5.2578e-03
8.750  19.000  6.1323e-03
8.750  19.250  6.3406e-03
8.750  19.500  6.4551e-03
8.750  19.750  6.4583e-03
8.750  20.000  6.4625e-03
8.750  20.250  6.4632e-03
8.750  20.500  6.4641e-03
8.750  20.750  6.4649e-03
8.750  21.000  6.4654e-03
8.750  21.250  6.4657e-03
8.750  21.500  6.4658e-03
8.750  21.750  6.4658e-03
8.750  22.000  6.4658e-03
8.750  22.250  6.4658e-03
8.750  22.500  6.4658e-03
8.750  22.750  6.4658e-03
8.750  23.000  6.4658e-03
8.750  23.250  6.4658e-03
8.750  23.500  6.4658e-03
8.750  23.750  6.4658e-03
8.750  24.000  6.4658e-03
9.000  17.000  2.7613e-04
9.000  17.250  3.9885e-04
9.000  17.500  5.8658e-04
9.000  17.750  8.8741e-04
9.000  18.000  1.4070e-03
9.000  18.250  2.2893e-03
9.000  18.500  3.5425e-03
9.000  18.750  4.6793e-03
9.000  19.000  5.4891e-03
9.000  19.250  6.1291e-03
9.000  19.500  6.3415e-03
9.000  19.750  6.4550e-03
9.000  20.000  6.4582e-03
9.000  20.250  6.4625e-03
9.000  20.500  6.4632e-03
9.000  20.750  6.4641e-03
9.000  21.000  6.4649e-03
9.000  21.250  6.4654e-03
9.000  21.500  6.4657e-03
9.000  21.750  6.4658e-03
9.000  22.000  6.4658e-03
9.000  22.250  6.4658e-03
9.000  22.500  6.4658e-03
9.000  22.750  6.4658e-03
9.000  23.000  6.4658e-03
9.000  23.250  6.4658e-03
9.000  23.500  6.4658e-03
9.000  23.750  6.4658e-03
9.000  24.000  6.4658e-03
9.250  17.000  1.9720e-04
9.250  17.250  2.8469e-04
9.250  17.500  4.1860e-04
9.250  17.750  6.3342e-04
9.250  18.000  1.0015e-03
9.250  18.250  1.6396e-03
9.250  18.500  2.6341e-03
9.250  18.750  3.8793e-03
9.250  19.000  4.8873e-03
9.250  19.250  5.7179e-03
9.250  19.500  6.1229e-03
9.250  19.750  6.3414e-03
9.250  20.000  6.4548e-03
9.250  20.250  6.4581e-03
9.250  20.500  6.4624e-03
9.250  20.750  6.4632e-03
9.250  21.000  6.4641e-03
9.250  21.250  6.4649e-03
9.250  21.500  6.4648e-03
9.250  21.750  6.4625e-03
9.250  22.000  6.4624e-03
9.250  22.250  6.4626e-03
9.250  22.500  6.4658e-03
9.250  22.750  6.4658e-03
9.250  23.000  6.4658e-03
9.250  23.250  6.4658e-03
9.250  23.500  6.4658e-03
9.250  23.750  6.4658e-03
9.250  24.000  6.4658e-03
9.500  17.000  1.4074e-04
9.500  17.250  2.0346e-04
9.500  17.500  3.0000e-04
9.500  17.750  4.5654e-04
9.500  18.000  7.2798e-04
9.500  18.250  1.2000e-03
9.500  18.500  1.9291e-03
9.500  18.750  2.9784e-03
9.500  19.000  4.2382e-03
9.500  19.250  5.0853e-03
9.500  19.500  5.8878e-03
9.500  19.750  6.1142e-03
9.500  20.000  6.3398e-03
9.500  20.250  6.4544e-03
9.500  20.500  6.4579e-03
9.500  20.750  6.4621e-03
9.500  21.000  6.4622e-03
9.500  21.250  6.4613e-03
9.500  21.500  6.4615e-03
9.500  21.750  6.4616e-03
9.500  22.000  6.4605e-03
9.500  22.250  6.4596e-03
9.500  22.500  6.4599e-03
9.500  22.750  6.4600e-03
9.500  23.000  6.4599e-03
9.500  23.250  6.4598e-03
9.500  23.500  6.4618e-03
9.500  23.750  6.4618e-03
9.500  24.000  6.4618e-03
9.750  17.000  1.0033e-04
9.750  17.250  1.4535e-04
9.750  17.500  2.1506e-04
9.750  17.750  3.3021e-04
9.750  18.000  5.3481e-04
9.750  18.250  8.8996e-04
9.750  18.500  1.4319e-03
9.750  18.750  2.2188e-03
9.750  19.000  3.2970e-03
9.750  19.250  4.4752e-03
9.750  19.500  5.3557e-03
9.750  19.750  5.9647e-03
9.750  20.000  6.1031e-03
9.750  20.250  6.3353e-03
9.750  20.500  6.4536e-03
9.750  20.750  6.4575e-03
9.750  21.000  6.4620e-03
9.750  21.250  6.4628e-03
9.750  21.500  6.4629e-03
9.750  21.750  6.4617e-03
9.750  22.000  6.4619e-03
9.750  22.250  6.4612e-03
9.750  22.500  6.4602e-03
9.750  22.750  6.4596e-03
9.750  23.000  6.4598e-03
9.750  23.250  6.4599e-03
9.750  23.500  6.4599e-03
9.750  23.750  6.4599e-03
9.750  24.000  6.4600e-03
10.000  17.000  7.1440e-05
10.000  17.250  1.0379e-04
10.000  17.500  1.5432e-04
10.000  17.750  2.3959e-04
10.000  18.000  3.9416e-04
10.000  18.250  6.6247e-04
10.000  18.500  1.0622e-03
10.000  18.750  1.6491e-03
10.000  19.000  2.4735e-03
10.000  19.250  3.5899e-03
10.000  19.500  4.6756e-03
10.000  19.750  5.5807e-03
10.000  20.000  5.9480e-03
10.000  20.250  6.0928e-03
10.000  20.500  6.3312e-03
10.000  20.750  6.4518e-03
10.000  21.000  6.4569e-03
10.000  21.250  6.4616e-03
10.000  21.500  6.4629e-03
10.000  21.750  6.4635e-03
10.000  22.000  6.4629e-03
10.000  22.250  6.4621e-03
10.000  22.500  6.4618e-03
10.000  22.750  6.4611e-03
10.000  23.000  6.4603e-03
10.000  23.250  6.4599e-03
10.000  23.500  6.4597e-03
10.000  23.750  6.4597e-03
10.000  24.000  6.4597e-03
10.250  17.000  5.0782e-05
10.250  17.250  7.4074e-05
10.250  17.500  1.1078e-04
10.250  17.750  1.7432e-04
10.250  18.000  2.9053e-04
10.250  18.250  4.8889e-04
10.250  18.500  7.9021e-04
10.250  18.750  1.2261e-03
10.250  19.000  1.8395e-03
10.250  19.250  2.7105e-03
10.250  19.500  3.7709e-03
10.250  19.750  4.8350e-03
10.250  20.000  5.7376e-03
10.250  20.250  5.9351e-03
10.250  20.500  6.0793e-03
10.250  20.750  6.3257e-03
10.250  21.000  6.4486e-03
10.250  21.250  6.4557e-03
10.250  21.500  6.4614e-03
10.250  21.750  6.4627e-03
10.250  22.000  6.4637e-03
10.250  22.250  6.4641e-03
10.250  22.500  6.4621e-03
10.250  22.750  6.4621e-03
10.250  23.000  6.4616e-03
10.250  23.250  6.4612e-03
10.250  23.500  6.4607e-03
10.250  23.750  6.4604e-03
10.250  24.000  6.4603e-03
10.500  17.000  3.6296e-05
10.500  17.250  5.3004e-05
10.500  17.500  7.9835e-05
10.500  17.750  1.2724e-04
10.500  18.000  2.1399e-04
10.500  18.250  3.6329e-04
10.500  18.500  5.8165e-04
10.500  18.750  9.0222e-04
10.500  19.000  1.3509e-03
10.500  19.250  1.9867e-03
10.500  19.500  2.8495e-03
10.500  19.750  3.8975e-03
10.500  20.000  5.0032e-03
10.500  20.250  5.8266e-03
10.500  20.500  5.9199e-03
10.500  20.750  6.0709e-03
10.500  21.000  6.3231e-03
10.500  21.250  6.4434e-03
10.500  21.500  6.4547e-03
10.500  21.750  6.4606e-03
10.500  22.000  6.4624e-03
10.500  22.250  6.4635e-03
10.500  22.500  6.4644e-03
10.500  22.750  6.4627e-03
10.500  23.000  6.4622e-03
10.500  23.250  6.4621e-03
10.500  23.500  6.4617e-03
10.500  23.750  6.4615e-03
10.500  24.000  6.4612e-03
10.750  17.000  2.5926e-05
10.750  17.250  3.7942e-05
10.750  17.500  5.7531e-05
10.750  17.750  9.2840e-05
10.750  18.000  1.5745e-04
10.750  18.250  2.6551e-04
10.750  18.500  4.2412e-04
10.750  18.750  6.5440e-04
10.750  19.000  9.8206e-04
10.750  19.250  1.4394e-03
10.750  19.500  2.0836e-03
10.750  19.750  2.9560e-03
10.750  20.000  4.0238e-03
10.750  20.250  5.1656e-03
10.750  20.500  5.8054e-03
10.750  20.750  5.9031e-03
10.750  21.000  6.0614e-03
10.750  21.250  6.3262e-03
10.750  21.500  6.4387e-03
10.750  21.750  6.4515e-03
10.750  22.000  6.4587e-03
10.750  22.250  6.4619e-03
10.750  22.500  6.4633e-03
10.750  22.750  6.4644e-03
10.750  23.000  6.4642e-03
10.750  23.250  6.4623e-03
10.750  23.500  6.4623e-03
10.750  23.750  6.4621e-03
10.750  24.000  6.4620e-03
11.000  17.000  1.8601e-05
11.000  17.250  2.7160e-05
11.000  17.500  4.1481e-05
11.000  17.750  6.7654e-05
11.000  18.000  1.1490e-04
11.000  18.250  1.9235e-04
11.000  18.500  3.0963e-04
11.000  18.750  4.7597e-04
11.000  19.000  7.1284e-04
11.000  19.250  1.0421e-03
11.000  19.500  1.5009e-03
11.000  19.750  2.1561e-03
11.000  20.000  3.0469e-03
11.000  20.250  4.1326e-03
11.000  20.500  5.3091e-03
11.000  20.750  5.7704e-03
11.000  21.000  5.8834e-03
11.000  21.250  6.0586e-03
11.000  21.500  6.3501e-03
11.000  21.750  6.4306e-03
11.000  22.000  6.4464e-03
11.000  22.250  6.4561e-03
11.000  22.500  6.4610e-03
11.000  22.750  6.4627e-03
11.000  23.000  6.4641e-03
11.000  23.250  6.4649e-03
11.000  23.500  6.4628e-03
11.000  23.750  6.4624e-03
11.000  24.000  6.4623e-03
11.250  17.000  1.3333e-05
11.250  17.250  1.9424e-05
11.250  17.500  2.9794e-05
11.250  17.750  4.8807e-05
11.250  18.000  8.2963e-05
11.250  18.250  1.3786e-04
11.250  18.500  2.1885e-04
11.250  18.750  3.3942e-04
11.250  19.000  5.0757e-04
11.250  19.250  7.4140e-04
11.250  19.500  1.0740e-03
11.250  19.750  1.5430e-03
11.250  20.000  2.2094e-03
11.250  20.250  3.1142e-03
11.250  20.500  4.2179e-03
11.250  20.750  5.3849e-03
11.250  21.000  5.7198e-03
11.250  21.250  5.8579e-03
11.250  21.500  6.0911e-03
11.250  21.750  6.3675e-03
11.250  22.000  6.4192e-03
11.250  22.250  6.4388e-03
11.250  22.500  6.4511e-03
11.250  22.750  6.4595e-03
11.250  23.000  6.4619e-03
11.250  23.250  6.4636e-03
11.250  23.500  6.4650e-03
11.250  23.750  6.4644e-03
11.250  24.000  6.4626e-03
11.500  17.000  9.5473e-06
11.500  17.250  1.3909e-05
11.500  17.500  2.1317e-05
11.500  17.750  3.4897e-05
11.500  18.000  5.9095e-05
11.500  18.250  9.7778e-05
11.500  18.500  1.5490e-04
11.500  18.750  2.4049e-04
11.500  19.000  3.5901e-04
11.500  19.250  5.2642e-04
11.500  19.500  7.6453e-04
11.500  19.750  1.1026e-03
11.500  20.000  1.5773e-03
11.500  20.250  2.2491e-03
11.500  20.500  3.1576e-03
11.500  20.750  4.2596e-03
11.500  21.000  5.3672e-03
11.500  21.250  5.6433e-03
11.500  21.500  5.8782e-03
11.500  21.750  6.1229e-03
11.500  22.000  6.3642e-03
11.500  22.250  6.4034e-03
11.500  22.500  6.4282e-03
11.500  22.750  6.4448e-03
11.500  23.000  6.4572e-03
11.500  23.250  6.4606e-03
11.500  23.500  6.4629e-03
11.500  23.750  6.4649e-03
11.500  24.000  6.4651e-03
11.750  17.000  6.9136e-06
11.750  17.250  9.9588e-06
11.750  17.500  1.5226e-05
11.750  17.750  2.4774e-05
11.750  18.000  4.1564e-05
11.750  18.250  6.8395e-05
11.750  18.500  1.0823e-04
11.750  18.750  1.6650e-04
11.750  19.000  2.5119e-04
11.750  19.250  3.7095e-04
11.750  19.500  5.4082e-04
11.750  19.750  7.8165e-04
11.750  20.000  1.1170e-03
11.750  20.250  1.5915e-03
11.750  20.500  2.2646e-03
11.750  20.750  3.1555e-03
11.750  21.000  4.2288e-03
11.750  21.250  5.1860e-03
11.750  21.500  5.6306e-03
11.750  21.750  5.8603e-03
11.750  22.000  6.1516e-03
11.750  22.250  6.3333e-03
11.750  22.500  6.3813e-03
11.750  22.750  6.4127e-03
11.750  23.000  6.4349e-03
11.750  23.250  6.4535e-03
11.750  23.500  6.4584e-03
11.750  23.750  6.4618e-03
11.750  24.000  6.4646e-03
12.000  17.000  5.0206e-06
12.000  17.250  7.1605e-06
12.000  17.500  1.0864e-05
12.000  17.750  1.7449e-05
12.000  18.000  2.8724e-05
12.000  18.250  4.6914e-05
12.000  18.500  7.4650e-05
12.000  18.750  1.1572e-04
12.000  19.000  1.7531e-04
12.000  19.250  2.6066e-04
12.000  19.500  3.8255e-04
12.000  19.750  5.5210e-04
12.000  20.000  7.8996e-04
12.000  20.250  1.1231e-03
12.000  20.500  1.5904e-03
12.000  20.750  2.2407e-03
12.000  21.000  3.0878e-03
12.000  21.250  4.0950e-03
12.000  21.500  5.1005e-03
12.000  21.750  5.5199e-03
12.000  22.000  5.8257e-03
12.000  22.250  6.1445e-03
12.000  22.500  6.2873e-03
12.000  22.750  6.3491e-03
12.000  23.000  6.3894e-03
12.000  23.250  6.4202e-03
12.000  23.500  6.4481e-03
12.000  23.750  6.4553e-03
12.000  24.000  6.4602e-03
12.250  17.000  3.4568e-06
12.250  17.250  5.2675e-06
12.250  17.500  7.8189e-06
12.250  17.750  1.2181e-05
12.250  18.000  1.9671e-05
12.250  18.250  3.2016e-05
12.250  18.500  5.1193e-05
12.250  18.750  7.9918e-05
12.250  19.000  1.2165e-04
12.250  19.250  1.8222e-04
12.250  19.500  2.6889e-04
12.250  19.750  3.8897e-04
12.250  20.000  5.5934e-04
12.250  20.250  7.9177e-04
12.250  20.500  1.1196e-03
12.250  20.750  1.5669e-03
12.250  21.000  2.1666e-03
12.250  21.250  2.9295e-03
12.250  21.500  4.0186e-03
12.250  21.750  4.8315e-03
12.250  22.000  5.3658e-03
12.250  22.250  5.7585e-03
12.250  22.500  6.0782e-03
12.250  22.750  6.2193e-03
12.250  23.000  6.3002e-03
12.250  23.250  6.3531e-03
12.250  23.500  6.3973e-03
12.250  23.750  6.4400e-03
12.250  24.000  6.4507e-03
12.500  17.000  1.8107e-06
12.500  17.250  3.7037e-06
12.500  17.500  5.6790e-06
12.500  17.750  8.5597e-06
12.500  18.000  1.3580e-05
12.500  18.250  2.1728e-05
12.500  18.500  3.4815e-05
12.500  18.750  5.5062e-05
12.500  19.000  8.4609e-05
12.500  19.250  1.2749e-04
12.500  19.500  1.8840e-04
12.500  19.750  2.7391e-04
12.500  20.000  3.9391e-04
12.500  20.250  5.6066e-04
12.500  20.500  7.8749e-04
12.500  20.750  1.0951e-03
12.500  21.000  1.5053e-03
12.500  21.250  2.0267e-03
12.500  21.500  2.8389e-03
12.500  21.750  3.7210e-03
12.500  22.000  4.4976e-03
12.500  22.250  5.1616e-03
12.500  22.500  5.6195e-03
12.500  22.750  5.9525e-03
12.500  23.000  6.1196e-03
12.500  23.250  6.2270e-03
12.500  23.500  6.2963e-03
12.500  23.750  6.3610e-03
12.500  24.000  6.4276e-03
12.750  17.000  9.0535e-07
12.750  17.250  1.9753e-06
12.750  17.500  3.9506e-06
12.750  17.750  6.0082e-06
12.750  18.000  9.3004e-06
12.750  18.250  1.4815e-05
12.750  18.500  2.3786e-05
12.750  18.750  3.7695e-05
12.750  19.000  5.8354e-05
12.750  19.250  8.8477e-05
12.750  19.500  1.3144e-04
12.750  19.750  1.9193e-04
12.750  20.000  2.7671e-04
12.750  20.250  3.9391e-04
12.750  20.500  5.5506e-04
12.750  20.750  7.7037e-04
12.750  21.000  1.0476e-03
12.750  21.250  1.3991e-03
12.750  21.500  1.9530e-03
12.750  21.750  2.5568e-03
12.750  22.000  3.3370e-03
12.750  22.250  4.1148e-03
12.750  22.500  4.8770e-03
12.750  22.750  5.3731e-03
12.750  23.000  5.7571e-03
12.750  23.250  5.9749e-03
12.750  23.500  6.1165e-03
12.750  23.750  6.2083e-03
12.750  24.000  6.3040e-03
13.000  17.000  1.0000e-07
13.000  17.250  1.0000e-07
13.000  17.500  1.6461e-06
13.000  17.750  3.6214e-06
13.000  18.000  6.1728e-06
13.000  18.250  1.0206e-05
13.000  18.500  1.6296e-05
13.000  18.750  2.5679e-05
13.000  19.000  3.9918e-05
13.000  19.250  6.0988e-05
13.000  19.500  9.1440e-05
13.000  19.750  1.3383e-04
13.000  20.000  1.9374e-04
13.000  20.250  2.7695e-04
13.000  20.500  3.8971e-04
13.000  20.750  5.4181e-04
13.000  21.000  7.3671e-04
13.000  21.250  9.7465e-04
13.000  21.500  1.3487e-03
13.000  21.750  1.7277e-03
13.000  22.000  2.2066e-03
13.000  22.250  2.8948e-03
13.000  22.500  3.6660e-03
13.000  22.750  4.4328e-03
13.000  23.000  5.0137e-03
13.000  23.250  5.4814e-03
13.000  23.500  5.7652e-03
13.000  23.750  5.9509e-03
13.000  24.000  6.0728e-03
13.250  17.000  1.0000e-07
13.250  17.250  1.0000e-07
13.250  17.500  1.0000e-07
13.250  17.750  1.5638e-06
13.250  18.000  3.6214e-06
13.250  18.250  6.4198e-06
13.250  18.500  1.1111e-05
13.250  18.750  1.7449e-05
13.250  19.000  2.7160e-05
13.250  19.250  4.1811e-05
13.250  19.500  6.2881e-05
13.250  19.750  9.2922e-05
13.250  20.000  1.3498e-04
13.250  20.250  1.9374e-04
13.250  20.500  2.7399e-04
13.250  20.750  3.8091e-04
13.250  21.000  5.1901e-04
13.250  21.250  6.8412e-04
13.250  21.500  9.4033e-04
13.250  21.750  1.1731e-03
13.250  22.000  1.4305e-03
13.250  22.250  1.8035e-03
13.250  22.500  2.4109e-03
13.250  22.750  3.1147e-03
13.250  23.000  3.8798e-03
13.250  23.250  4.5547e-03
13.250  23.500  5.1072e-03
13.250  23.750  5.4687e-03
13.250  24.000  5.7070e-03
13.500  17.000  1.0000e-07
13.500  17.250  1.0000e-07
13.500  17.500  1.0000e-07
13.500  17.750  8.2305e-07
13.500  18.000  1.9753e-06
13.500  18.250  4.1152e-06
13.500  18.500  6.9959e-06
13.500  18.750  1.1852e-05
13.500  19.000  1.8436e-05
13.500  19.250  2.8230e-05
13.500  19.500  4.2798e-05
13.500  19.750  6.3868e-05
13.500  20.000  9.3580e-05
13.500  20.250  1.3498e-04
13.500  20.500  1.9202e-04
13.500  20.750  2.6798e-04
13.500  21.000  3.6510e-04
13.500  21.250  4.8091e-04
13.500  21.500  6.5984e-04
13.500  21.750  8.0938e-04
13.500  22.000  9.3300e-04
13.500  22.250  1.1089e-03
13.500  22.500  1.4486e-03
13.500  22.750  1.9335e-03
13.500  23.000  2.5718e-03
13.500  23.250  3.3020e-03
13.500  23.500  4.0064e-03
13.500  23.750  4.6202e-03
13.500  24.000  5.0612e-03
13.750  17.000  1.0000e-07
13.750  17.250  1.0000e-07
13.750  17.500  1.0000e-07
13.750  17.750  1.0000e-07
13.750  18.000  1.0700e-06
13.750  18.250  2.3868e-06
13.750  18.500  4.5267e-06
13.750  18.750  7.6543e-06
13.750  19.000  1.2428e-05
13.750  19.250  1.9095e-05
13.750  19.500  2.8971e-05
13.750  19.750  4.3457e-05
13.750  20.000  6.4280e-05
13.750  20.250  9.3498e-05
13.750  20.500  1.3374e-04
13.750  20.750  1.8765e-04
13.750  21.000  2.5671e-04
13.750  21.250  3.3942e-04
13.750  21.500  4.6494e-04
13.750  21.750  5.6469e-04
13.750  22.000  6.2395e-04
13.750  22.250  6.7802e-04
13.750  22.500  8.4041e-04
13.750  22.750  1.1392e-03
13.750  23.000  1.5379e-03
13.750  23.250  2.0689e-03
13.750  23.500  2.7108e-03
13.750  23.750  3.3798e-03
13.750  24.000  4.0207e-03
14.000  17.000  1.0000e-07
14.000  17.250  1.0000e-07
14.000  17.500  1.0000e-07
14.000  17.750  1.0000e-07
14.000  18.000  1.0000e-07
14.000  18.250  1.2346e-06
14.000  18.500  2.5514e-06
14.000  18.750  4.8560e-06
14.000  19.000  8.3128e-06
14.000  19.250  1.2840e-05
14.000  19.500  1.9506e-05
14.000  19.750  2.9300e-05
14.000  20.000  4.3786e-05
14.000  20.250  6.4198e-05
14.000  20.500  9.2593e-05
14.000  20.750  1.3070e-04
14.000  21.000  1.7984e-04
14.000  21.250  2.3885e-04
14.000  21.500  3.2798e-04
14.000  21.750  3.9654e-04
14.000  22.000  4.2395e-04
14.000  22.250  4.2626e-04
14.000  22.500  4.9342e-04
14.000  22.750  6.6049e-04
14.000  23.000  8.9309e-04
14.000  23.250  1.1992e-03
14.000  23.500  1.6074e-03
14.000  23.750  2.1081e-03
14.000  24.000  2.7097e-03
