InwC 3704.34A  relative to Inci 1215.00A scaled to 1215A.
Hden   Phi(H)  Eq_Width (A)
7.000  17.000  3.9185e-02
7.000  17.250  5.2058e-02
7.000  17.500  5.3762e-02
7.000  17.750  5.4808e-02
7.000  18.000  5.4835e-02
7.000  18.250  5.4871e-02
7.000  18.500  5.4878e-02
7.000  18.750  5.4885e-02
7.000  19.000  5.4891e-02
7.000  19.250  5.4896e-02
7.000  19.500  5.4898e-02
7.000  19.750  5.4899e-02
7.000  20.000  5.4899e-02
7.000  20.250  5.4899e-02
7.000  20.500  5.4899e-02
7.000  20.750  5.4899e-02
7.000  21.000  5.4900e-02
7.000  21.250  5.4900e-02
7.000  21.500  5.4900e-02
7.000  21.750  5.4900e-02
7.000  22.000  5.4900e-02
7.000  22.250  5.4900e-02
7.000  22.500  5.4901e-02
7.000  22.750  5.4907e-02
7.000  23.000  5.4902e-02
7.000  23.250  5.4903e-02
7.000  23.500  5.4903e-02
7.000  23.750  5.4903e-02
7.000  24.000  5.4903e-02
7.250  17.000  2.9539e-02
7.250  17.250  3.9701e-02
7.250  17.500  5.2065e-02
7.250  17.750  5.3775e-02
7.250  18.000  5.4809e-02
7.250  18.250  5.4835e-02
7.250  18.500  5.4872e-02
7.250  18.750  5.4877e-02
7.250  19.000  5.4885e-02
7.250  19.250  5.4891e-02
7.250  19.500  5.4896e-02
7.250  19.750  5.4898e-02
7.250  20.000  5.4899e-02
7.250  20.250  5.4899e-02
7.250  20.500  5.4899e-02
7.250  20.750  5.4899e-02
7.250  21.000  5.4899e-02
7.250  21.250  5.4899e-02
7.250  21.500  5.4899e-02
7.250  21.750  5.4900e-02
7.250  22.000  5.4900e-02
7.250  22.250  5.4900e-02
7.250  22.500  5.4900e-02
7.250  22.750  5.4900e-02
7.250  23.000  5.4900e-02
7.250  23.250  5.4900e-02
7.250  23.500  5.4900e-02
7.250  23.750  5.4900e-02
7.250  24.000  5.4900e-02
7.500  17.000  2.1090e-02
7.500  17.250  3.0283e-02
7.500  17.500  4.0175e-02
7.500  17.750  5.2071e-02
7.500  18.000  5.3787e-02
7.500  18.250  5.4809e-02
7.500  18.500  5.4835e-02
7.500  18.750  5.4872e-02
7.500  19.000  5.4877e-02
7.500  19.250  5.4885e-02
7.500  19.500  5.4891e-02
7.500  19.750  5.4896e-02
7.500  20.000  5.4898e-02
7.500  20.250  5.4899e-02
7.500  20.500  5.4899e-02
7.500  20.750  5.4899e-02
7.500  21.000  5.4899e-02
7.500  21.250  5.4899e-02
7.500  21.500  5.4899e-02
7.500  21.750  5.4899e-02
7.500  22.000  5.4899e-02
7.500  22.250  5.4899e-02
7.500  22.500  5.4899e-02
7.500  22.750  5.4899e-02
7.500  23.000  5.4900e-02
7.500  23.250  5.4900e-02
7.500  23.500  5.4900e-02
7.500  23.750  5.4900e-02
7.500  24.000  5.4900e-02
7.750  17.000  1.4270e-02
7.750  17.250  2.1668e-02
7.750  17.500  3.1102e-02
7.750  17.750  4.0702e-02
7.750  18.000  5.2076e-02
7.750  18.250  5.3798e-02
7.750  18.500  5.4809e-02
7.750  18.750  5.4835e-02
7.750  19.000  5.4871e-02
7.750  19.250  5.4877e-02
7.750  19.500  5.4885e-02
7.750  19.750  5.4891e-02
7.750  20.000  5.4896e-02
7.750  20.250  5.4898e-02
7.750  20.500  5.4899e-02
7.750  20.750  5.4899e-02
7.750  21.000  5.4899e-02
7.750  21.250  5.4899e-02
7.750  21.500  5.4899e-02
7.750  21.750  5.4899e-02
7.750  22.000  5.4899e-02
7.750  22.250  5.4899e-02
7.750  22.500  5.4899e-02
7.750  22.750  5.4899e-02
7.750  23.000  5.4899e-02
7.750  23.250  5.4899e-02
7.750  23.500  5.4899e-02
7.750  23.750  5.4900e-02
7.750  24.000  5.4899e-02
8.000  17.000  9.6858e-03
8.000  17.250  1.4556e-02
8.000  17.500  2.2205e-02
8.000  17.750  3.1861e-02
8.000  18.000  4.1180e-02
8.000  18.250  5.2074e-02
8.000  18.500  5.3801e-02
8.000  18.750  5.4809e-02
8.000  19.000  5.4835e-02
8.000  19.250  5.4872e-02
8.000  19.500  5.4878e-02
8.000  19.750  5.4885e-02
8.000  20.000  5.4891e-02
8.000  20.250  5.4896e-02
8.000  20.500  5.4898e-02
8.000  20.750  5.4899e-02
8.000  21.000  5.4899e-02
8.000  21.250  5.4899e-02
8.000  21.500  5.4899e-02
8.000  21.750  5.4899e-02
8.000  22.000  5.4899e-02
8.000  22.250  5.4899e-02
8.000  22.500  5.4899e-02
8.000  22.750  5.4899e-02
8.000  23.000  5.4899e-02
8.000  23.250  5.4899e-02
8.000  23.500  5.4899e-02
8.000  23.750  5.4899e-02
8.000  24.000  5.4899e-02
8.250  17.000  6.7898e-03
8.250  17.250  9.9370e-03
8.250  17.500  1.5048e-02
8.250  17.750  2.3155e-02
8.250  18.000  3.3247e-02
8.250  18.250  4.2131e-02
8.250  18.500  5.2077e-02
8.250  18.750  5.3813e-02
8.250  19.000  5.4809e-02
8.250  19.250  5.4835e-02
8.250  19.500  5.4872e-02
8.250  19.750  5.4877e-02
8.250  20.000  5.4885e-02
8.250  20.250  5.4891e-02
8.250  20.500  5.4896e-02
8.250  20.750  5.4898e-02
8.250  21.000  5.4899e-02
8.250  21.250  5.4899e-02
8.250  21.500  5.4899e-02
8.250  21.750  5.4899e-02
8.250  22.000  5.4899e-02
8.250  22.250  5.4899e-02
8.250  22.500  5.4899e-02
8.250  22.750  5.4899e-02
8.250  23.000  5.4900e-02
8.250  23.250  5.4899e-02
8.250  23.500  5.4899e-02
8.250  23.750  5.4899e-02
8.250  24.000  5.4899e-02
8.500  17.000  4.8642e-03
8.500  17.250  6.9723e-03
8.500  17.500  1.0310e-02
8.500  17.750  1.5870e-02
8.500  18.000  2.4672e-02
8.500  18.250  3.5259e-02
8.500  18.500  4.3388e-02
8.500  18.750  5.2078e-02
8.500  19.000  5.3826e-02
8.500  19.250  5.4809e-02
8.500  19.500  5.4836e-02
8.500  19.750  5.4871e-02
8.500  20.000  5.4878e-02
8.500  20.250  5.4885e-02
8.500  20.500  5.4891e-02
8.500  20.750  5.4896e-02
8.500  21.000  5.4898e-02
8.500  21.250  5.4899e-02
8.500  21.500  5.4899e-02
8.500  21.750  5.4899e-02
8.500  22.000  5.4899e-02
8.500  22.250  5.4899e-02
8.500  22.500  5.4899e-02
8.500  22.750  5.4899e-02
8.500  23.000  5.4899e-02
8.500  23.250  5.4899e-02
8.500  23.500  5.4899e-02
8.500  23.750  5.4899e-02
8.500  24.000  5.4899e-02
8.750  17.000  3.5356e-03
8.750  17.250  5.0004e-03
8.750  17.500  7.2632e-03
8.750  17.750  1.0940e-02
8.750  18.000  1.7280e-02
8.750  18.250  2.7147e-02
8.750  18.500  3.7281e-02
8.750  18.750  4.4700e-02
8.750  19.000  5.2074e-02
8.750  19.250  5.3838e-02
8.750  19.500  5.4810e-02
8.750  19.750  5.4836e-02
8.750  20.000  5.4871e-02
8.750  20.250  5.4878e-02
8.750  20.500  5.4885e-02
8.750  20.750  5.4891e-02
8.750  21.000  5.4896e-02
8.750  21.250  5.4898e-02
8.750  21.500  5.4899e-02
8.750  21.750  5.4899e-02
8.750  22.000  5.4899e-02
8.750  22.250  5.4899e-02
8.750  22.500  5.4899e-02
8.750  22.750  5.4899e-02
8.750  23.000  5.4899e-02
8.750  23.250  5.4899e-02
8.750  23.500  5.4899e-02
8.750  23.750  5.4899e-02
8.750  24.000  5.4899e-02
9.000  17.000  2.5988e-03
9.000  17.250  3.6347e-03
9.000  17.500  5.2189e-03
9.000  17.750  7.7586e-03
9.000  18.000  1.2148e-02
9.000  18.250  1.9618e-02
9.000  18.500  3.0252e-02
9.000  18.750  3.9888e-02
9.000  19.000  4.6701e-02
9.000  19.250  5.2057e-02
9.000  19.500  5.3848e-02
9.000  19.750  5.4810e-02
9.000  20.000  5.4836e-02
9.000  20.250  5.4871e-02
9.000  20.500  5.4877e-02
9.000  20.750  5.4885e-02
9.000  21.000  5.4891e-02
9.000  21.250  5.4896e-02
9.000  21.500  5.4898e-02
9.000  21.750  5.4899e-02
9.000  22.000  5.4899e-02
9.000  22.250  5.4899e-02
9.000  22.500  5.4899e-02
9.000  22.750  5.4899e-02
9.000  23.000  5.4899e-02
9.000  23.250  5.4899e-02
9.000  23.500  5.4899e-02
9.000  23.750  5.4899e-02
9.000  24.000  5.4899e-02
9.250  17.000  1.9328e-03
9.250  17.250  2.6708e-03
9.250  17.500  3.8009e-03
9.250  17.750  5.6147e-03
9.250  18.000  8.7253e-03
9.250  18.250  1.4129e-02
9.250  18.500  2.2576e-02
9.250  18.750  3.3179e-02
9.250  19.000  4.1722e-02
9.250  19.250  4.8693e-02
9.250  19.500  5.2034e-02
9.250  19.750  5.3853e-02
9.250  20.000  5.4810e-02
9.250  20.250  5.4836e-02
9.250  20.500  5.4871e-02
9.250  20.750  5.4877e-02
9.250  21.000  5.4885e-02
9.250  21.250  5.4891e-02
9.250  21.500  5.4890e-02
9.250  21.750  5.4871e-02
9.250  22.000  5.4870e-02
9.250  22.250  5.4872e-02
9.250  22.500  5.4899e-02
9.250  22.750  5.4899e-02
9.250  23.000  5.4899e-02
9.250  23.250  5.4899e-02
9.250  23.500  5.4899e-02
9.250  23.750  5.4899e-02
9.250  24.000  5.4899e-02
9.500  17.000  1.4558e-03
9.500  17.250  1.9848e-03
9.500  17.500  2.7994e-03
9.500  17.750  4.1216e-03
9.500  18.000  6.4165e-03
9.500  18.250  1.0415e-02
9.500  18.500  1.6607e-02
9.500  18.750  2.5545e-02
9.500  19.000  3.6304e-02
9.500  19.250  4.3453e-02
9.500  19.500  5.0151e-02
9.500  19.750  5.2000e-02
9.500  20.000  5.3850e-02
9.500  20.250  5.4810e-02
9.500  20.500  5.4836e-02
9.500  20.750  5.4871e-02
9.500  21.000  5.4870e-02
9.500  21.250  5.4862e-02
9.500  21.500  5.4863e-02
9.500  21.750  5.4863e-02
9.500  22.000  5.4854e-02
9.500  22.250  5.4846e-02
9.500  22.500  5.4849e-02
9.500  22.750  5.4849e-02
9.500  23.000  5.4849e-02
9.500  23.250  5.4848e-02
9.500  23.500  5.4865e-02
9.500  23.750  5.4865e-02
9.500  24.000  5.4865e-02
9.750  17.000  1.1144e-03
9.750  17.250  1.4943e-03
9.750  17.500  2.0824e-03
9.750  17.750  3.0548e-03
9.750  18.000  4.7840e-03
9.750  18.250  7.7930e-03
9.750  18.500  1.2393e-02
9.750  18.750  1.9087e-02
9.750  19.000  2.8291e-02
9.750  19.250  3.8351e-02
9.750  19.500  4.5790e-02
9.750  19.750  5.0913e-02
9.750  20.000  5.1964e-02
9.750  20.250  5.3833e-02
9.750  20.500  5.4808e-02
9.750  20.750  5.4836e-02
9.750  21.000  5.4871e-02
9.750  21.250  5.4875e-02
9.750  21.500  5.4875e-02
9.750  21.750  5.4865e-02
9.750  22.000  5.4866e-02
9.750  22.250  5.4860e-02
9.750  22.500  5.4851e-02
9.750  22.750  5.4847e-02
9.750  23.000  5.4848e-02
9.750  23.250  5.4849e-02
9.750  23.500  5.4849e-02
9.750  23.750  5.4849e-02
9.750  24.000  5.4849e-02
10.000  17.000  8.6979e-04
10.000  17.250  1.1434e-03
10.000  17.500  1.5693e-03
10.000  17.750  2.2891e-03
10.000  18.000  3.5956e-03
10.000  18.250  5.8687e-03
10.000  18.500  9.2570e-03
10.000  18.750  1.4244e-02
10.000  19.000  2.1269e-02
10.000  19.250  3.0813e-02
10.000  19.500  4.0097e-02
10.000  19.750  4.7704e-02
10.000  20.000  5.0847e-02
10.000  20.250  5.1913e-02
10.000  20.500  5.3819e-02
10.000  20.750  5.4804e-02
10.000  21.000  5.4836e-02
10.000  21.250  5.4872e-02
10.000  21.500  5.4877e-02
10.000  21.750  5.4882e-02
10.000  22.000  5.4875e-02
10.000  22.250  5.4867e-02
10.000  22.500  5.4865e-02
10.000  22.750  5.4859e-02
10.000  23.000  5.4852e-02
10.000  23.250  5.4849e-02
10.000  23.500  5.4847e-02
10.000  23.750  5.4847e-02
10.000  24.000  5.4847e-02
10.250  17.000  6.9547e-04
10.250  17.250  8.9185e-04
10.250  17.500  1.2017e-03
10.250  17.750  1.7378e-03
10.250  18.000  2.7198e-03
10.250  18.250  4.3982e-03
10.250  18.500  6.9500e-03
10.250  18.750  1.0649e-02
10.250  19.000  1.5868e-02
10.250  19.250  2.3306e-02
10.250  19.500  3.2396e-02
10.250  19.750  4.1504e-02
10.250  20.000  4.9162e-02
10.250  20.250  5.0785e-02
10.250  20.500  5.1890e-02
10.250  20.750  5.3830e-02
10.250  21.000  5.4797e-02
10.250  21.250  5.4835e-02
10.250  21.500  5.4872e-02
10.250  21.750  5.4877e-02
10.250  22.000  5.4884e-02
10.250  22.250  5.4886e-02
10.250  22.500  5.4868e-02
10.250  22.750  5.4868e-02
10.250  23.000  5.4864e-02
10.250  23.250  5.4859e-02
10.250  23.500  5.4856e-02
10.250  23.750  5.4853e-02
10.250  24.000  5.4852e-02
10.500  17.000  5.7185e-04
10.500  17.250  7.1300e-04
10.500  17.500  9.3959e-04
10.500  17.750  1.3393e-03
10.500  18.000  2.0723e-03
10.500  18.250  3.3337e-03
10.500  18.500  5.1821e-03
10.500  18.750  7.9003e-03
10.500  19.000  1.1713e-02
10.500  19.250  1.7134e-02
10.500  19.500  2.4524e-02
10.500  19.750  3.3540e-02
10.500  20.000  4.3031e-02
10.500  20.250  5.0023e-02
10.500  20.500  5.0724e-02
10.500  20.750  5.1888e-02
10.500  21.000  5.3877e-02
10.500  21.250  5.4786e-02
10.500  21.500  5.4832e-02
10.500  21.750  5.4871e-02
10.500  22.000  5.4877e-02
10.500  22.250  5.4884e-02
10.500  22.500  5.4889e-02
10.500  22.750  5.4873e-02
10.500  23.000  5.4869e-02
10.500  23.250  5.4867e-02
10.500  23.500  5.4864e-02
10.500  23.750  5.4862e-02
10.500  24.000  5.4860e-02
10.750  17.000  4.8296e-04
10.750  17.250  5.8461e-04
10.750  17.500  7.5070e-04
10.750  17.750  1.0481e-03
10.750  18.000  1.5929e-03
10.750  18.250  2.5055e-03
10.750  18.500  3.8469e-03
10.750  18.750  5.7987e-03
10.750  19.000  8.5814e-03
10.750  19.250  1.2476e-02
10.750  19.500  1.7989e-02
10.750  19.750  2.5506e-02
10.750  20.000  3.4761e-02
10.750  20.250  4.4606e-02
10.750  20.500  4.9995e-02
10.750  20.750  5.0703e-02
10.750  21.000  5.1904e-02
10.750  21.250  5.3981e-02
10.750  21.500  5.4773e-02
10.750  21.750  5.4826e-02
10.750  22.000  5.4867e-02
10.750  22.250  5.4876e-02
10.750  22.500  5.4884e-02
10.750  22.750  5.4890e-02
10.750  23.000  5.4887e-02
10.750  23.250  5.4870e-02
10.750  23.500  5.4869e-02
10.750  23.750  5.4868e-02
10.750  24.000  5.4866e-02
11.000  17.000  4.1827e-04
11.000  17.250  4.9185e-04
11.000  17.500  6.1309e-04
11.000  17.750  8.3317e-04
11.000  18.000  1.2311e-03
11.000  18.250  1.8841e-03
11.000  18.500  2.8765e-03
11.000  18.750  4.2865e-03
11.000  19.000  6.2976e-03
11.000  19.250  9.1018e-03
11.000  19.500  1.3027e-02
11.000  19.750  1.8676e-02
11.000  20.000  2.6443e-02
11.000  20.250  3.5982e-02
11.000  20.500  4.6207e-02
11.000  20.750  4.9949e-02
11.000  21.000  5.0714e-02
11.000  21.250  5.2022e-02
11.000  21.500  5.4203e-02
11.000  21.750  5.4758e-02
11.000  22.000  5.4818e-02
11.000  22.250  5.4865e-02
11.000  22.500  5.4876e-02
11.000  22.750  5.4884e-02
11.000  23.000  5.4890e-02
11.000  23.250  5.4893e-02
11.000  23.500  5.4874e-02
11.000  23.750  5.4870e-02
11.000  24.000  5.4870e-02
11.250  17.000  3.7144e-04
11.250  17.250  4.2379e-04
11.250  17.500  5.1177e-04
11.250  17.750  6.7177e-04
11.250  18.000  9.5819e-04
11.250  18.250  1.4201e-03
11.250  18.500  2.1057e-03
11.250  18.750  3.1281e-03
11.250  19.000  4.5564e-03
11.250  19.250  6.5478e-03
11.250  19.500  9.3951e-03
11.250  19.750  1.3445e-02
11.250  20.000  1.9275e-02
11.250  20.250  2.7335e-02
11.250  20.500  3.7275e-02
11.250  20.750  4.7538e-02
11.250  21.000  4.9925e-02
11.250  21.250  5.0779e-02
11.250  21.500  5.2299e-02
11.250  21.750  5.4452e-02
11.250  22.000  5.4740e-02
11.250  22.250  5.4807e-02
11.250  22.500  5.4855e-02
11.250  22.750  5.4874e-02
11.250  23.000  5.4883e-02
11.250  23.250  5.4890e-02
11.250  23.500  5.4895e-02
11.250  23.750  5.4888e-02
11.250  24.000  5.4872e-02
11.500  17.000  3.3753e-04
11.500  17.250  3.7407e-04
11.500  17.500  4.3695e-04
11.500  17.750  5.5070e-04
11.500  18.000  7.5226e-04
11.500  18.250  1.0782e-03
11.500  18.500  1.5615e-03
11.500  18.750  2.2884e-03
11.500  19.000  3.2960e-03
11.500  19.250  4.7229e-03
11.500  19.500  6.7630e-03
11.500  19.750  9.6870e-03
11.500  20.000  1.3856e-02
11.500  20.250  1.9894e-02
11.500  20.500  2.8305e-02
11.500  20.750  3.8654e-02
11.500  21.000  4.8552e-02
11.500  21.250  4.9922e-02
11.500  21.500  5.0952e-02
11.500  21.750  5.2783e-02
11.500  22.000  5.4575e-02
11.500  22.250  5.4715e-02
11.500  22.500  5.4794e-02
11.500  22.750  5.4850e-02
11.500  23.000  5.4872e-02
11.500  23.250  5.4881e-02
11.500  23.500  5.4889e-02
11.500  23.750  5.4895e-02
11.500  24.000  5.4894e-02
11.750  17.000  3.1506e-04
11.750  17.250  3.3852e-04
11.750  17.500  3.8140e-04
11.750  17.750  4.6074e-04
11.750  18.000  6.0025e-04
11.750  18.250  8.2617e-04
11.750  18.500  1.1637e-03
11.750  18.750  1.6594e-03
11.750  19.000  2.3801e-03
11.750  19.250  3.4016e-03
11.750  19.500  4.8595e-03
11.750  19.750  6.9463e-03
11.750  20.000  9.9026e-03
11.750  20.250  1.4197e-02
11.750  20.500  2.0532e-02
11.750  20.750  2.9331e-02
11.750  21.000  4.0082e-02
11.750  21.250  4.8584e-02
11.750  21.500  4.9965e-02
11.750  21.750  5.1235e-02
11.750  22.000  5.3372e-02
11.750  22.250  5.4541e-02
11.750  22.500  5.4687e-02
11.750  22.750  5.4775e-02
11.750  23.000  5.4839e-02
11.750  23.250  5.4868e-02
11.750  23.500  5.4880e-02
11.750  23.750  5.4888e-02
11.750  24.000  5.4895e-02
12.000  17.000  3.0066e-04
12.000  17.250  3.1506e-04
12.000  17.500  3.4230e-04
12.000  17.750  3.9457e-04
12.000  18.000  4.8823e-04
12.000  18.250  6.4181e-04
12.000  18.500  8.7753e-04
12.000  18.750  1.2263e-03
12.000  19.000  1.7339e-03
12.000  19.250  2.4636e-03
12.000  19.500  3.5109e-03
12.000  19.750  4.9838e-03
12.000  20.000  7.0869e-03
12.000  20.250  1.0120e-02
12.000  20.500  1.4570e-02
12.000  20.750  2.1176e-02
12.000  21.000  3.0439e-02
12.000  21.250  4.1482e-02
12.000  21.500  4.8579e-02
12.000  21.750  5.0030e-02
12.000  22.000  5.1622e-02
12.000  22.250  5.3834e-02
12.000  22.500  5.4496e-02
12.000  22.750  5.4654e-02
12.000  23.000  5.4750e-02
12.000  23.250  5.4824e-02
12.000  23.500  5.4863e-02
12.000  23.750  5.4877e-02
12.000  24.000  5.4887e-02
12.250  17.000  2.5959e-04
12.250  17.250  3.0066e-04
12.250  17.500  3.1720e-04
12.250  17.750  3.4963e-04
12.250  18.000  4.1045e-04
12.250  18.250  5.1407e-04
12.250  18.500  6.7695e-04
12.250  18.750  9.2066e-04
12.250  19.000  1.2760e-03
12.250  19.250  1.7942e-03
12.250  19.500  2.5402e-03
12.250  19.750  3.5857e-03
12.250  20.000  5.0962e-03
12.250  20.250  7.2226e-03
12.250  20.500  1.0371e-02
12.250  20.750  1.4996e-02
12.250  21.000  2.1873e-02
12.250  21.250  3.1589e-02
12.250  21.500  4.2244e-02
12.250  21.750  4.8427e-02
12.250  22.000  5.0113e-02
12.250  22.250  5.2128e-02
12.250  22.500  5.4014e-02
12.250  22.750  5.4437e-02
12.250  23.000  5.4608e-02
12.250  23.250  5.4715e-02
12.250  23.500  5.4802e-02
12.250  23.750  5.4856e-02
12.250  24.000  5.4873e-02
12.500  17.000  1.3646e-04
12.500  17.250  2.7193e-04
12.500  17.500  3.0280e-04
12.500  17.750  3.2288e-04
12.500  18.000  3.6058e-04
12.500  18.250  4.2708e-04
12.500  18.500  5.3613e-04
12.500  18.750  7.0691e-04
12.500  19.000  9.5926e-04
12.500  19.250  1.3259e-03
12.500  19.500  1.8513e-03
12.500  19.750  2.5970e-03
12.500  20.000  3.6630e-03
12.500  20.250  5.1933e-03
12.500  20.500  7.3851e-03
12.500  20.750  1.0604e-02
12.500  21.000  1.5432e-02
12.500  21.250  2.2625e-02
12.500  21.500  3.2217e-02
12.500  21.750  4.3188e-02
12.500  22.000  4.8177e-02
12.500  22.250  5.0216e-02
12.500  22.500  5.2540e-02
12.500  22.750  5.4013e-02
12.500  23.000  5.4352e-02
12.500  23.250  5.4542e-02
12.500  23.500  5.4662e-02
12.500  23.750  5.4769e-02
12.500  24.000  5.4845e-02
12.750  17.000  7.1193e-05
12.750  17.250  1.6008e-04
12.750  17.500  2.9086e-04
12.750  17.750  3.0691e-04
12.750  18.000  3.2947e-04
12.750  18.250  3.7004e-04
12.750  18.500  4.4132e-04
12.750  18.750  5.5778e-04
12.750  19.000  7.3300e-04
12.750  19.250  9.9111e-04
12.750  19.500  1.3626e-03
12.750  19.750  1.8909e-03
12.750  20.000  2.6449e-03
12.750  20.250  3.7227e-03
12.750  20.500  5.2839e-03
12.750  20.750  7.5513e-03
12.750  21.000  1.0872e-02
12.750  21.250  1.5939e-02
12.750  21.500  2.3087e-02
12.750  21.750  3.3337e-02
12.750  22.000  4.3744e-02
12.750  22.250  4.7800e-02
12.750  22.500  5.0340e-02
12.750  22.750  5.2628e-02
12.750  23.000  5.3864e-02
12.750  23.250  5.4228e-02
12.750  23.500  5.4447e-02
12.750  23.750  5.4587e-02
12.750  24.000  5.4720e-02
13.000  17.000  1.2593e-05
13.000  17.250  2.9877e-05
13.000  17.500  1.1473e-04
13.000  17.750  2.3317e-04
13.000  18.000  2.8337e-04
13.000  18.250  3.3432e-04
13.000  18.500  3.7885e-04
13.000  18.750  4.5416e-04
13.000  19.000  5.7416e-04
13.000  19.250  7.5440e-04
13.000  19.500  1.0179e-03
13.000  19.750  1.3885e-03
13.000  20.000  1.9221e-03
13.000  20.250  2.6873e-03
13.000  20.500  3.7812e-03
13.000  20.750  5.3866e-03
13.000  21.000  7.7389e-03
13.000  21.250  1.1268e-02
13.000  21.500  1.6307e-02
13.000  21.750  2.4104e-02
13.000  22.000  3.4433e-02
13.000  22.250  4.3677e-02
13.000  22.500  4.7250e-02
13.000  22.750  5.0092e-02
13.000  23.000  5.2348e-02
13.000  23.250  5.3595e-02
13.000  23.500  5.4036e-02
13.000  23.750  5.4300e-02
13.000  24.000  5.4469e-02
13.250  17.000  7.5720e-06
13.250  17.250  1.4403e-05
13.250  17.500  3.5802e-05
13.250  17.750  8.8642e-05
13.250  18.000  1.8774e-04
13.250  18.250  2.5416e-04
13.250  18.500  3.3934e-04
13.250  18.750  3.8626e-04
13.250  19.000  4.6477e-04
13.250  19.250  5.8881e-04
13.250  19.500  7.7062e-04
13.250  19.750  1.0342e-03
13.250  20.000  1.4092e-03
13.250  20.250  1.9493e-03
13.250  20.500  2.7265e-03
13.250  20.750  3.8547e-03
13.250  21.000  5.5249e-03
13.250  21.250  8.0077e-03
13.250  21.500  1.1547e-02
13.250  21.750  1.7061e-02
13.250  22.000  2.5104e-02
13.250  22.250  3.4834e-02
13.250  22.500  4.2829e-02
13.250  22.750  4.6112e-02
13.250  23.000  4.9239e-02
13.250  23.250  5.1771e-02
13.250  23.500  5.3185e-02
13.250  23.750  5.3742e-02
13.250  24.000  5.4073e-02
13.500  17.000  4.6091e-06
13.500  17.250  8.4774e-06
13.500  17.500  1.9342e-05
13.500  17.750  4.5514e-05
13.500  18.000  1.0798e-04
13.500  18.250  2.0996e-04
13.500  18.500  2.6897e-04
13.500  18.750  3.4387e-04
13.500  19.000  3.9226e-04
13.500  19.250  4.7202e-04
13.500  19.500  5.9712e-04
13.500  19.750  7.8082e-04
13.500  20.000  1.0464e-03
13.500  20.250  1.4274e-03
13.500  20.500  1.9783e-03
13.500  20.750  2.7765e-03
13.500  21.000  3.9485e-03
13.500  21.250  5.6973e-03
13.500  21.500  8.2046e-03
13.500  21.750  1.2113e-02
13.500  22.000  1.7776e-02
13.500  22.250  2.5543e-02
13.500  22.500  3.4592e-02
13.500  22.750  4.1198e-02
13.500  23.000  4.4753e-02
13.500  23.250  4.7993e-02
13.500  23.500  5.0871e-02
13.500  23.750  5.2577e-02
13.500  24.000  5.3296e-02
13.750  17.000  2.7160e-06
13.750  17.250  5.4321e-06
13.750  17.500  1.1770e-05
13.750  17.750  2.3621e-05
13.750  18.000  5.8683e-05
13.750  18.250  1.3300e-04
13.750  18.500  2.2181e-04
13.750  18.750  2.8362e-04
13.750  19.000  3.4733e-04
13.750  19.250  3.9663e-04
13.750  19.500  4.7794e-04
13.750  19.750  6.0354e-04
13.750  20.000  7.8872e-04
13.750  20.250  1.0574e-03
13.750  20.500  1.4463e-03
13.750  20.750  2.0111e-03
13.750  21.000  2.8404e-03
13.750  21.250  4.0839e-03
13.750  21.500  5.8528e-03
13.750  21.750  8.6421e-03
13.750  22.000  1.2664e-02
13.750  22.250  1.7850e-02
13.750  22.500  2.4590e-02
13.750  22.750  3.3110e-02
13.750  23.000  3.9310e-02
13.750  23.250  4.3075e-02
13.750  23.500  4.6512e-02
13.750  23.750  4.9775e-02
13.750  24.000  5.1699e-02
14.000  17.000  1.6461e-06
14.000  17.250  3.2099e-06
14.000  17.500  7.2428e-06
14.000  17.750  1.4486e-05
14.000  18.000  2.9383e-05
14.000  18.250  6.8066e-05
14.000  18.500  1.3712e-04
14.000  18.750  2.3053e-04
14.000  19.000  3.1654e-04
14.000  19.250  3.4947e-04
14.000  19.500  3.9934e-04
14.000  19.750  4.8140e-04
14.000  20.000  6.0864e-04
14.000  20.250  7.9621e-04
14.000  20.500  1.0703e-03
14.000  20.750  1.4697e-03
14.000  21.000  2.0580e-03
14.000  21.250  2.9436e-03
14.000  21.500  4.2045e-03
14.000  21.750  6.2151e-03
14.000  22.000  9.0821e-03
14.000  22.250  1.2563e-02
14.000  22.500  1.6697e-02
14.000  22.750  2.2890e-02
14.000  23.000  3.1115e-02
14.000  23.250  3.7016e-02
14.000  23.500  4.1004e-02
14.000  23.750  4.4701e-02
14.000  24.000  4.8320e-02
