nFnu 925.144A  relative to Inci 1215.00A scaled to 1215A.
Hden   Phi(H)  Eq_Width (A)
7.000  17.000  8.3981e-02
7.000  17.250  1.0675e-01
7.000  17.500  1.0731e-01
7.000  17.750  1.0646e-01
7.000  18.000  9.9198e-02
7.000  18.250  9.1473e-02
7.000  18.500  8.4630e-02
7.000  18.750  8.0805e-02
7.000  19.000  7.8799e-02
7.000  19.250  7.7626e-02
7.000  19.500  7.7124e-02
7.000  19.750  7.6911e-02
7.000  20.000  7.6818e-02
7.000  20.250  7.6774e-02
7.000  20.500  7.6752e-02
7.000  20.750  7.6741e-02
7.000  21.000  7.6734e-02
7.000  21.250  7.6731e-02
7.000  21.500  7.6730e-02
7.000  21.750  7.6729e-02
7.000  22.000  7.6729e-02
7.000  22.250  7.6728e-02
7.000  22.500  7.6729e-02
7.000  22.750  7.6737e-02
7.000  23.000  7.6730e-02
7.000  23.250  7.6731e-02
7.000  23.500  7.6731e-02
7.000  23.750  7.6731e-02
7.000  24.000  7.6732e-02
7.250  17.000  5.4596e-02
7.250  17.250  8.0870e-02
7.250  17.500  1.0382e-01
7.250  17.750  1.0620e-01
7.250  18.000  1.0600e-01
7.250  18.250  9.8986e-02
7.250  18.500  9.1362e-02
7.250  18.750  8.4591e-02
7.250  19.000  8.0790e-02
7.250  19.250  7.8793e-02
7.250  19.500  7.7625e-02
7.250  19.750  7.7124e-02
7.250  20.000  7.6911e-02
7.250  20.250  7.6818e-02
7.250  20.500  7.6774e-02
7.250  20.750  7.6752e-02
7.250  21.000  7.6741e-02
7.250  21.250  7.6734e-02
7.250  21.500  7.6731e-02
7.250  21.750  7.6729e-02
7.250  22.000  7.6728e-02
7.250  22.250  7.6728e-02
7.250  22.500  7.6727e-02
7.250  22.750  7.6728e-02
7.250  23.000  7.6728e-02
7.250  23.250  7.6728e-02
7.250  23.500  7.6728e-02
7.250  23.750  7.6728e-02
7.250  24.000  7.6728e-02
7.500  17.000  3.4555e-02
7.500  17.250  5.1014e-02
7.500  17.500  7.8060e-02
7.500  17.750  1.0109e-01
7.500  18.000  1.0546e-01
7.500  18.250  1.0576e-01
7.500  18.500  9.8885e-02
7.500  18.750  9.1292e-02
7.500  19.000  8.4566e-02
7.500  19.250  8.0779e-02
7.500  19.500  7.8789e-02
7.500  19.750  7.7624e-02
7.500  20.000  7.7124e-02
7.500  20.250  7.6911e-02
7.500  20.500  7.6818e-02
7.500  20.750  7.6774e-02
7.500  21.000  7.6752e-02
7.500  21.250  7.6740e-02
7.500  21.500  7.6734e-02
7.500  21.750  7.6731e-02
7.500  22.000  7.6729e-02
7.500  22.250  7.6728e-02
7.500  22.500  7.6727e-02
7.500  22.750  7.6727e-02
7.500  23.000  7.6727e-02
7.500  23.250  7.6727e-02
7.500  23.500  7.6727e-02
7.500  23.750  7.6727e-02
7.500  24.000  7.6727e-02
7.750  17.000  2.3474e-02
7.750  17.250  3.1445e-02
7.750  17.500  4.8092e-02
7.750  17.750  7.5722e-02
7.750  18.000  9.9017e-02
7.750  18.250  1.0499e-01
7.750  18.500  1.0567e-01
7.750  18.750  9.8858e-02
7.750  19.000  9.1252e-02
7.750  19.250  8.4549e-02
7.750  19.500  8.0773e-02
7.750  19.750  7.8787e-02
7.750  20.000  7.7624e-02
7.750  20.250  7.7124e-02
7.750  20.500  7.6911e-02
7.750  20.750  7.6818e-02
7.750  21.000  7.6774e-02
7.750  21.250  7.6752e-02
7.750  21.500  7.6740e-02
7.750  21.750  7.6734e-02
7.750  22.000  7.6731e-02
7.750  22.250  7.6729e-02
7.750  22.500  7.6728e-02
7.750  22.750  7.6727e-02
7.750  23.000  7.6727e-02
7.750  23.250  7.6727e-02
7.750  23.500  7.6727e-02
7.750  23.750  7.6727e-02
7.750  24.000  7.6727e-02
8.000  17.000  1.6628e-02
8.000  17.250  2.0614e-02
8.000  17.500  2.8698e-02
8.000  17.750  4.5415e-02
8.000  18.000  7.3487e-02
8.000  18.250  9.7535e-02
8.000  18.500  1.0473e-01
8.000  18.750  1.0567e-01
8.000  19.000  9.8887e-02
8.000  19.250  9.1234e-02
8.000  19.500  8.4540e-02
8.000  19.750  8.0769e-02
8.000  20.000  7.8785e-02
8.000  20.250  7.7623e-02
8.000  20.500  7.7124e-02
8.000  20.750  7.6911e-02
8.000  21.000  7.6818e-02
8.000  21.250  7.6774e-02
8.000  21.500  7.6752e-02
8.000  21.750  7.6740e-02
8.000  22.000  7.6734e-02
8.000  22.250  7.6731e-02
8.000  22.500  7.6729e-02
8.000  22.750  7.6728e-02
8.000  23.000  7.6727e-02
8.000  23.250  7.6727e-02
8.000  23.500  7.6727e-02
8.000  23.750  7.6726e-02
8.000  24.000  7.6727e-02
8.250  17.000  1.2387e-02
8.250  17.250  1.4451e-02
8.250  17.500  1.8737e-02
8.250  17.750  2.7112e-02
8.250  18.000  4.4087e-02
8.250  18.250  7.2546e-02
8.250  18.500  9.6553e-02
8.250  18.750  1.0461e-01
8.250  19.000  1.0573e-01
8.250  19.250  9.8951e-02
8.250  19.500  9.1225e-02
8.250  19.750  8.4533e-02
8.250  20.000  8.0766e-02
8.250  20.250  7.8784e-02
8.250  20.500  7.7623e-02
8.250  20.750  7.7123e-02
8.250  21.000  7.6911e-02
8.250  21.250  7.6818e-02
8.250  21.500  7.6774e-02
8.250  21.750  7.6752e-02
8.250  22.000  7.6740e-02
8.250  22.250  7.6734e-02
8.250  22.500  7.6731e-02
8.250  22.750  7.6729e-02
8.250  23.000  7.6728e-02
8.250  23.250  7.6727e-02
8.250  23.500  7.6727e-02
8.250  23.750  7.6727e-02
8.250  24.000  7.6727e-02
8.500  17.000  9.6233e-03
8.500  17.250  1.0686e-02
8.500  17.500  1.2994e-02
8.500  17.750  1.7479e-02
8.500  18.000  2.6218e-02
8.500  18.250  4.3932e-02
8.500  18.500  7.2769e-02
8.500  18.750  9.5978e-02
8.500  19.000  1.0464e-01
8.500  19.250  1.0584e-01
8.500  19.500  9.9048e-02
8.500  19.750  9.1222e-02
8.500  20.000  8.4529e-02
8.500  20.250  8.0765e-02
8.500  20.500  7.8784e-02
8.500  20.750  7.7623e-02
8.500  21.000  7.7123e-02
8.500  21.250  7.6911e-02
8.500  21.500  7.6818e-02
8.500  21.750  7.6774e-02
8.500  22.000  7.6752e-02
8.500  22.250  7.6740e-02
8.500  22.500  7.6734e-02
8.500  22.750  7.6731e-02
8.500  23.000  7.6729e-02
8.500  23.250  7.6728e-02
8.500  23.500  7.6727e-02
8.500  23.750  7.6727e-02
8.500  24.000  7.6727e-02
8.750  17.000  7.8372e-03
8.750  17.250  8.3634e-03
8.750  17.500  9.6093e-03
8.750  17.750  1.2083e-02
8.750  18.000  1.6878e-02
8.750  18.250  2.6258e-02
8.750  18.500  4.5582e-02
8.750  18.750  7.4755e-02
8.750  19.000  9.5642e-02
8.750  19.250  1.0469e-01
8.750  19.500  1.0598e-01
8.750  19.750  9.9166e-02
8.750  20.000  9.1225e-02
8.750  20.250  8.4526e-02
8.750  20.500  8.0764e-02
8.750  20.750  7.8784e-02
8.750  21.000  7.7623e-02
8.750  21.250  7.7123e-02
8.750  21.500  7.6911e-02
8.750  21.750  7.6818e-02
8.750  22.000  7.6774e-02
8.750  22.250  7.6752e-02
8.750  22.500  7.6740e-02
8.750  22.750  7.6734e-02
8.750  23.000  7.6731e-02
8.750  23.250  7.6729e-02
8.750  23.500  7.6728e-02
8.750  23.750  7.6727e-02
8.750  24.000  7.6727e-02
9.000  17.000  6.6684e-03
9.000  17.250  6.9165e-03
9.000  17.500  7.5940e-03
9.000  17.750  8.9891e-03
9.000  18.000  1.1696e-02
9.000  18.250  1.6984e-02
9.000  18.500  2.7730e-02
9.000  18.750  4.9521e-02
9.000  19.000  7.8704e-02
9.000  19.250  9.5439e-02
9.000  19.500  1.0477e-01
9.000  19.750  1.0612e-01
9.000  20.000  9.9289e-02
9.000  20.250  9.1230e-02
9.000  20.500  8.4524e-02
9.000  20.750  8.0763e-02
9.000  21.000  7.8783e-02
9.000  21.250  7.7623e-02
9.000  21.500  7.7123e-02
9.000  21.750  7.6911e-02
9.000  22.000  7.6818e-02
9.000  22.250  7.6774e-02
9.000  22.500  7.6752e-02
9.000  22.750  7.6740e-02
9.000  23.000  7.6734e-02
9.000  23.250  7.6731e-02
9.000  23.500  7.6729e-02
9.000  23.750  7.6728e-02
9.000  24.000  7.6727e-02
9.250  17.000  5.8774e-03
9.250  17.250  5.9811e-03
9.250  17.500  6.3733e-03
9.250  17.750  7.2060e-03
9.250  18.000  8.8961e-03
9.250  18.250  1.1999e-02
9.250  18.500  1.8132e-02
9.250  18.750  3.0818e-02
9.250  19.000  5.5584e-02
9.250  19.250  8.3496e-02
9.250  19.500  9.5282e-02
9.250  19.750  1.0482e-01
9.250  20.000  1.0624e-01
9.250  20.250  9.9412e-02
9.250  20.500  9.1235e-02
9.250  20.750  8.4522e-02
9.250  21.000  8.0763e-02
9.250  21.250  7.8783e-02
9.250  21.500  7.7615e-02
9.250  21.750  7.7086e-02
9.250  22.000  7.6871e-02
9.250  22.250  7.6780e-02
9.250  22.500  7.6773e-02
9.250  22.750  7.6751e-02
9.250  23.000  7.6740e-02
9.250  23.250  7.6734e-02
9.250  23.500  7.6731e-02
9.250  23.750  7.6729e-02
9.250  24.000  7.6728e-02
9.500  17.000  5.3326e-03
9.500  17.250  5.3425e-03
9.500  17.500  5.6009e-03
9.500  17.750  6.1860e-03
9.500  18.000  7.2930e-03
9.500  18.250  9.2632e-03
9.500  18.500  1.2967e-02
9.500  18.750  2.0321e-02
9.500  19.000  3.5750e-02
9.500  19.250  6.3002e-02
9.500  19.500  8.6281e-02
9.500  19.750  9.5162e-02
9.500  20.000  1.0483e-01
9.500  20.250  1.0635e-01
9.500  20.500  9.9522e-02
9.500  20.750  9.1240e-02
9.500  21.000  8.4509e-02
9.500  21.250  8.0729e-02
9.500  21.500  7.8742e-02
9.500  21.750  7.7577e-02
9.500  22.000  7.7062e-02
9.500  22.250  7.6838e-02
9.500  22.500  7.6748e-02
9.500  22.750  7.6705e-02
9.500  23.000  7.6682e-02
9.500  23.250  7.6669e-02
9.500  23.500  7.6687e-02
9.500  23.750  7.6683e-02
9.500  24.000  7.6681e-02
9.750  17.000  4.9859e-03
9.750  17.250  4.8811e-03
9.750  17.500  5.0542e-03
9.750  17.750  5.5242e-03
9.750  18.000  6.3633e-03
9.750  18.250  7.7611e-03
9.750  18.500  1.0186e-02
9.750  18.750  1.4719e-02
9.750  19.000  2.3842e-02
9.750  19.250  4.2743e-02
9.750  19.500  7.0971e-02
9.750  19.750  8.7134e-02
9.750  20.000  9.5056e-02
9.750  20.250  1.0476e-01
9.750  20.500  1.0641e-01
9.750  20.750  9.9612e-02
9.750  21.000  9.1247e-02
9.750  21.250  8.4514e-02
9.750  21.500  8.0749e-02
9.750  21.750  7.8746e-02
9.750  22.000  7.7580e-02
9.750  22.250  7.7071e-02
9.750  22.500  7.6845e-02
9.750  22.750  7.6745e-02
9.750  23.000  7.6703e-02
9.750  23.250  7.6682e-02
9.750  23.500  7.6671e-02
9.750  23.750  7.6665e-02
9.750  24.000  7.6661e-02
10.000  17.000  4.8286e-03
10.000  17.250  4.5705e-03
10.000  17.500  4.6172e-03
10.000  17.750  5.0053e-03
10.000  18.000  5.7715e-03
10.000  18.250  6.8963e-03
10.000  18.500  8.6371e-03
10.000  18.750  1.1707e-02
10.000  19.000  1.7551e-02
10.000  19.250  2.9868e-02
10.000  19.500  5.4235e-02
10.000  19.750  7.7716e-02
10.000  20.000  8.7298e-02
10.000  20.250  9.4997e-02
10.000  20.500  1.0472e-01
10.000  20.750  1.0645e-01
10.000  21.000  9.9690e-02
10.000  21.250  9.1253e-02
10.000  21.500  8.4515e-02
10.000  21.750  8.0758e-02
10.000  22.000  7.8761e-02
10.000  22.250  7.7582e-02
10.000  22.500  7.7077e-02
10.000  22.750  7.6855e-02
10.000  23.000  7.6753e-02
10.000  23.250  7.6704e-02
10.000  23.500  7.6679e-02
10.000  23.750  7.6667e-02
10.000  24.000  7.6661e-02
10.250  17.000  4.8550e-03
10.250  17.250  4.4287e-03
10.250  17.500  4.3316e-03
10.250  17.750  4.6221e-03
10.250  18.000  5.3246e-03
10.250  18.250  6.3233e-03
10.250  18.500  7.7341e-03
10.250  18.750  1.0037e-02
10.250  19.000  1.4231e-02
10.250  19.250  2.2188e-02
10.250  19.500  3.7748e-02
10.250  19.750  6.2195e-02
10.250  20.000  8.0241e-02
10.250  20.250  8.7224e-02
10.250  20.500  9.5104e-02
10.250  20.750  1.0482e-01
10.250  21.000  1.0646e-01
10.250  21.250  9.9748e-02
10.250  21.500  9.1257e-02
10.250  21.750  8.4514e-02
10.250  22.000  8.0761e-02
10.250  22.250  7.8776e-02
10.250  22.500  7.7583e-02
10.250  22.750  7.7081e-02
10.250  23.000  7.6863e-02
10.250  23.250  7.6763e-02
10.250  23.500  7.6714e-02
10.250  23.750  7.6688e-02
10.250  24.000  7.6675e-02
10.500  17.000  5.0091e-03
10.500  17.250  4.4590e-03
10.500  17.500  4.2131e-03
10.500  17.750  4.3816e-03
10.500  18.000  4.9588e-03
10.500  18.250  5.8699e-03
10.500  18.500  7.0872e-03
10.500  18.750  8.8162e-03
10.500  19.000  1.1490e-02
10.500  19.250  1.6170e-02
10.500  19.500  2.5193e-02
10.500  19.750  3.9901e-02
10.500  20.000  5.7623e-02
10.500  20.250  7.4705e-02
10.500  20.500  8.7493e-02
10.500  20.750  9.5526e-02
10.500  21.000  1.0521e-01
10.500  21.250  1.0649e-01
10.500  21.500  9.9788e-02
10.500  21.750  9.1259e-02
10.500  22.000  8.4512e-02
10.500  22.250  8.0762e-02
10.500  22.500  7.8782e-02
10.500  22.750  7.7591e-02
10.500  23.000  7.7083e-02
10.500  23.250  7.6867e-02
10.500  23.500  7.6770e-02
10.500  23.750  7.6722e-02
10.500  24.000  7.6698e-02
10.750  17.000  5.2286e-03
10.750  17.250  4.6116e-03
10.750  17.500  4.2660e-03
10.750  17.750  4.3156e-03
10.750  18.000  4.7212e-03
10.750  18.250  5.4249e-03
10.750  18.500  6.4173e-03
10.750  18.750  7.6720e-03
10.750  19.000  9.4658e-03
10.750  19.250  1.2408e-02
10.750  19.500  1.7741e-02
10.750  19.750  2.8031e-02
10.750  20.000  4.2958e-02
10.750  20.250  5.9936e-02
10.750  20.500  7.6001e-02
10.750  20.750  8.8189e-02
10.750  21.000  9.6405e-02
10.750  21.250  1.0610e-01
10.750  21.500  1.0659e-01
10.750  21.750  9.9814e-02
10.750  22.000  9.1253e-02
10.750  22.250  8.4509e-02
10.750  22.500  8.0762e-02
10.750  22.750  7.8784e-02
10.750  23.000  7.7610e-02
10.750  23.250  7.7084e-02
10.750  23.500  7.6870e-02
10.750  23.750  7.6774e-02
10.750  24.000  7.6728e-02
11.000  17.000  5.4165e-03
11.000  17.250  4.8202e-03
11.000  17.500  4.4339e-03
11.000  17.750  4.3968e-03
11.000  18.000  4.6328e-03
11.000  18.250  5.0702e-03
11.000  18.500  5.7468e-03
11.000  18.750  5.4394e-03
11.000  19.000  4.9677e-03
11.000  19.250  5.7911e-03
11.000  19.500  9.3688e-03
11.000  19.750  1.7160e-02
11.000  20.000  3.0625e-02
11.000  20.250  5.1398e-02
11.000  20.500  7.5175e-02
11.000  20.750  8.2988e-02
11.000  21.000  8.9729e-02
11.000  21.250  9.8230e-02
11.000  21.500  1.0785e-01
11.000  21.750  1.0681e-01
11.000  22.000  9.9829e-02
11.000  22.250  9.1254e-02
11.000  22.500  8.4507e-02
11.000  22.750  8.0762e-02
11.000  23.000  7.8785e-02
11.000  23.250  7.7619e-02
11.000  23.500  7.7090e-02
11.000  23.750  7.6872e-02
11.000  24.000  7.6777e-02
11.250  17.000  5.2928e-03
11.250  17.250  4.9761e-03
11.250  17.500  4.6244e-03
11.250  17.750  4.5493e-03
11.250  18.000  4.6618e-03
11.250  18.250  3.5374e-03
11.250  18.500  1.4858e-03
11.250  18.750  -6.3210e-04
11.250  19.000  -1.9556e-03
11.250  19.250  -1.6238e-03
11.250  19.500  1.2242e-03
11.250  19.750  7.4491e-03
11.250  20.000  1.7912e-02
11.250  20.250  3.3473e-02
11.250  20.500  5.4994e-02
11.250  20.750  7.7546e-02
11.250  21.000  8.4515e-02
11.250  21.250  9.2123e-02
11.250  21.500  1.0137e-01
11.250  21.750  1.1042e-01
11.250  22.000  1.0719e-01
11.250  22.250  9.9844e-02
11.250  22.500  9.1238e-02
11.250  22.750  8.4504e-02
11.250  23.000  8.0762e-02
11.250  23.250  7.8785e-02
11.250  23.500  7.7622e-02
11.250  23.750  7.7109e-02
11.250  24.000  7.6874e-02
11.500  17.000  5.2453e-03
11.500  17.250  4.8714e-03
11.500  17.500  4.6883e-03
11.500  17.750  4.6677e-03
11.500  18.000  4.7146e-03
11.500  18.250  4.7691e-03
11.500  18.500  3.9573e-03
11.500  18.750  2.6118e-03
11.500  19.000  1.4478e-03
11.500  19.250  1.1805e-03
11.500  19.500  2.5250e-03
11.500  19.750  6.1965e-03
11.500  20.000  1.2910e-02
11.500  20.250  2.3381e-02
11.500  20.500  3.8324e-02
11.500  20.750  5.8455e-02
11.500  21.000  7.9432e-02
11.500  21.250  8.6979e-02
11.500  21.500  9.6046e-02
11.500  21.750  1.0613e-01
11.500  22.000  1.1331e-01
11.500  22.250  1.0776e-01
11.500  22.500  9.9872e-02
11.500  22.750  9.1238e-02
11.500  23.000  8.4502e-02
11.500  23.250  8.0761e-02
11.500  23.500  7.8786e-02
11.500  23.750  7.7623e-02
11.500  24.000  7.7119e-02
11.750  17.000  4.9630e-03
11.750  17.250  4.8034e-03
11.750  17.500  4.6042e-03
11.750  17.750  4.5659e-03
11.750  18.000  4.6026e-03
11.750  18.250  3.8565e-03
11.750  18.500  2.4923e-03
11.750  18.750  9.9750e-04
11.750  19.000  -1.4036e-04
11.750  19.250  -4.3380e-04
11.750  19.500  6.0469e-04
11.750  19.750  3.4626e-03
11.750  20.000  8.6274e-03
11.750  20.250  1.6587e-02
11.750  20.500  2.7828e-02
11.750  20.750  4.2838e-02
11.750  21.000  6.2106e-02
11.750  21.250  8.1957e-02
11.750  21.500  9.0839e-02
11.750  21.750  1.0175e-01
11.750  22.000  1.1209e-01
11.750  22.250  1.1589e-01
11.750  22.500  1.0852e-01
11.750  22.750  9.9906e-02
11.750  23.000  9.1230e-02
11.750  23.250  8.4499e-02
11.750  23.500  8.0760e-02
11.750  23.750  7.8786e-02
11.750  24.000  7.7623e-02
12.000  17.000  4.3510e-03
12.000  17.250  4.4668e-03
12.000  17.500  4.4544e-03
12.000  17.750  4.5155e-03
12.000  18.000  4.5955e-03
12.000  18.250  4.5863e-03
12.000  18.500  4.5314e-03
12.000  18.750  4.5263e-03
12.000  19.000  4.7771e-03
12.000  19.250  5.2082e-03
12.000  19.500  5.9410e-03
12.000  19.750  7.0453e-03
12.000  20.000  8.7167e-03
12.000  20.250  1.1404e-02
12.000  20.500  1.5888e-02
12.000  20.750  2.3816e-02
12.000  21.000  3.8867e-02
12.000  21.250  6.6621e-02
12.000  21.500  8.6024e-02
12.000  21.750  9.6370e-02
12.000  22.000  1.0890e-01
12.000  22.250  1.1834e-01
12.000  22.500  1.1846e-01
12.000  22.750  1.0951e-01
12.000  23.000  9.9960e-02
12.000  23.250  9.1219e-02
12.000  23.500  8.4498e-02
12.000  23.750  8.0758e-02
12.000  24.000  7.8787e-02
12.250  17.000  3.5133e-03
12.250  17.250  3.8454e-03
12.250  17.500  4.0714e-03
12.250  17.750  4.3037e-03
12.250  18.000  4.4455e-03
12.250  18.250  4.4323e-03
12.250  18.500  4.3726e-03
12.250  18.750  4.3435e-03
12.250  19.000  4.3827e-03
12.250  19.250  4.5640e-03
12.250  19.500  5.1100e-03
12.250  19.750  5.9015e-03
12.250  20.000  7.0672e-03
12.250  20.250  8.8571e-03
12.250  20.500  1.1722e-02
12.250  20.750  1.6485e-02
12.250  21.000  2.5004e-02
12.250  21.250  4.1329e-02
12.250  21.500  7.1556e-02
12.250  21.750  9.1301e-02
12.250  22.000  1.0346e-01
12.250  22.250  1.1754e-01
12.250  22.500  1.2463e-01
12.250  22.750  1.2122e-01
12.250  23.000  1.1041e-01
12.250  23.250  1.0007e-01
12.250  23.500  9.1207e-02
12.250  23.750  8.4490e-02
12.250  24.000  8.0756e-02
12.500  17.000  2.7524e-03
12.500  17.250  3.1667e-03
12.500  17.500  3.5533e-03
12.500  17.750  3.8571e-03
12.500  18.000  4.0193e-03
12.500  18.250  4.0810e-03
12.500  18.500  4.1084e-03
12.500  18.750  4.1322e-03
12.500  19.000  4.1658e-03
12.500  19.250  4.2467e-03
12.500  19.500  4.4607e-03
12.500  19.750  4.9670e-03
12.500  20.000  5.8567e-03
12.500  20.250  7.1030e-03
12.500  20.500  9.0158e-03
12.500  20.750  1.2131e-02
12.500  21.000  1.7332e-02
12.500  21.250  2.6499e-02
12.500  21.500  4.4104e-02
12.500  21.750  7.8860e-02
12.500  22.000  9.8136e-02
12.500  22.250  1.1200e-01
12.500  22.500  1.2645e-01
12.500  22.750  1.3121e-01
12.500  23.000  1.2407e-01
12.500  23.250  1.1172e-01
12.500  23.500  1.0020e-01
12.500  23.750  9.1199e-02
12.500  24.000  8.4485e-02
12.750  17.000  2.2005e-03
12.750  17.250  2.5782e-03
12.750  17.500  2.9013e-03
12.750  17.750  3.1618e-03
12.750  18.000  3.3906e-03
12.750  18.250  3.5872e-03
12.750  18.500  3.7350e-03
12.750  18.750  3.8447e-03
12.750  19.000  3.9320e-03
12.750  19.250  4.0107e-03
12.750  19.500  4.1208e-03
12.750  19.750  4.3582e-03
12.750  20.000  4.8500e-03
12.750  20.250  5.8035e-03
12.750  20.500  7.1613e-03
12.750  20.750  9.2741e-03
12.750  21.000  1.2721e-02
12.750  21.250  1.8538e-02
12.750  21.500  2.8479e-02
12.750  21.750  4.8296e-02
12.750  22.000  8.8576e-02
12.750  22.250  1.0613e-01
12.750  22.500  1.2234e-01
12.750  22.750  1.3544e-01
12.750  23.000  1.3778e-01
12.750  23.250  1.2734e-01
12.750  23.500  1.1288e-01
12.750  23.750  1.0034e-01
12.750  24.000  9.1196e-02
13.000  17.000  2.5858e-03
13.000  17.250  2.2279e-03
13.000  17.500  2.2988e-03
13.000  17.750  2.5213e-03
13.000  18.000  2.7801e-03
13.000  18.250  3.0460e-03
13.000  18.500  3.2816e-03
13.000  18.750  3.4751e-03
13.000  19.000  3.6336e-03
13.000  19.250  3.7597e-03
13.000  19.500  3.8633e-03
13.000  19.750  3.9959e-03
13.000  20.000  4.2463e-03
13.000  20.250  4.7628e-03
13.000  20.500  5.7406e-03
13.000  20.750  7.2541e-03
13.000  21.000  9.6247e-03
13.000  21.250  1.3604e-02
13.000  21.500  1.9993e-02
13.000  21.750  3.1366e-02
13.000  22.000  5.4337e-02
13.000  22.250  9.8726e-02
13.000  22.500  1.1428e-01
13.000  22.750  1.3309e-01
13.000  23.000  1.4435e-01
13.000  23.250  1.4461e-01
13.000  23.500  1.3035e-01
13.000  23.750  1.1401e-01
13.000  24.000  1.0055e-01
13.250  17.000  2.3053e-03
13.250  17.250  2.3133e-03
13.250  17.500  2.5725e-03
13.250  17.750  3.1567e-03
13.250  18.000  4.0950e-03
13.250  18.250  5.4167e-03
13.250  18.500  7.1511e-03
13.250  18.750  9.3274e-03
13.250  19.000  1.1975e-02
13.250  19.250  1.5123e-02
13.250  19.500  1.8800e-02
13.250  19.750  2.3037e-02
13.250  20.000  2.7862e-02
13.250  20.250  3.3304e-02
13.250  20.500  3.9393e-02
13.250  20.750  4.6158e-02
13.250  21.000  5.3628e-02
13.250  21.250  6.1833e-02
13.250  21.500  7.0802e-02
13.250  21.750  8.0563e-02
13.250  22.000  9.1147e-02
13.250  22.250  1.0258e-01
13.250  22.500  1.1490e-01
13.250  22.750  1.2812e-01
13.250  23.000  1.4229e-01
13.250  23.250  1.5425e-01
13.250  23.500  1.5122e-01
13.250  23.750  1.3336e-01
13.250  24.000  1.1502e-01
13.500  17.000  2.1376e-03
13.500  17.250  2.1290e-03
13.500  17.500  2.3941e-03
13.500  17.750  3.0073e-03
13.500  18.000  3.9933e-03
13.500  18.250  5.3769e-03
13.500  18.500  7.1827e-03
13.500  18.750  9.4353e-03
13.500  19.000  1.2160e-02
13.500  19.250  1.5380e-02
13.500  19.500  1.9122e-02
13.500  19.750  2.3409e-02
13.500  20.000  2.8266e-02
13.500  20.250  3.3719e-02
13.500  20.500  3.9791e-02
13.500  20.750  4.6508e-02
13.500  21.000  5.3894e-02
13.500  21.250  6.1974e-02
13.500  21.500  7.0772e-02
13.500  21.750  8.0313e-02
13.500  22.000  9.0622e-02
13.500  22.250  1.0172e-01
13.500  22.500  1.1364e-01
13.500  22.750  1.2640e-01
13.500  23.000  1.4003e-01
13.500  23.250  1.5455e-01
13.500  23.500  1.6584e-01
13.500  23.750  1.5860e-01
13.500  24.000  1.3645e-01
13.750  17.000  2.0521e-03
13.750  17.250  1.9716e-03
13.750  17.500  1.5124e-03
13.750  17.750  1.4631e-03
13.750  18.000  1.7157e-03
13.750  18.250  1.9344e-03
13.750  18.500  2.1401e-03
13.750  18.750  2.4424e-03
13.750  19.000  2.9513e-03
13.750  19.250  3.7767e-03
13.750  19.500  5.0283e-03
13.750  19.750  6.8161e-03
13.750  20.000  9.2499e-03
13.750  20.250  1.2440e-02
13.750  20.500  1.6495e-02
13.750  20.750  2.1526e-02
13.750  21.000  2.7642e-02
13.750  21.250  3.4954e-02
13.750  21.500  4.3571e-02
13.750  21.750  5.3602e-02
13.750  22.000  6.5159e-02
13.750  22.250  7.8350e-02
13.750  22.500  9.3286e-02
13.750  22.750  1.1008e-01
13.750  23.000  1.2883e-01
13.750  23.250  1.4966e-01
13.750  23.500  1.7056e-01
13.750  23.750  1.7965e-01
13.750  24.000  1.6600e-01
14.000  17.000  1.9993e-03
14.000  17.250  1.9759e-03
14.000  17.500  1.5290e-03
14.000  17.750  1.4443e-03
14.000  18.000  1.5623e-03
14.000  18.250  1.7147e-03
14.000  18.500  1.8874e-03
14.000  18.750  2.0630e-03
14.000  19.000  2.2407e-03
14.000  19.250  2.4301e-03
14.000  19.500  2.6311e-03
14.000  19.750  2.8361e-03
14.000  20.000  3.0342e-03
14.000  20.250  3.2220e-03
14.000  20.500  3.4090e-03
14.000  20.750  3.6303e-03
14.000  21.000  3.9622e-03
14.000  21.250  4.5467e-03
14.000  21.500  5.5509e-03
14.000  21.750  7.3134e-03
14.000  22.000  1.0364e-02
14.000  22.250  1.5846e-02
14.000  22.500  2.6647e-02
14.000  22.750  4.8926e-02
14.000  23.000  1.0550e-01
14.000  23.250  1.5034e-01
14.000  23.500  1.7403e-01
14.000  23.750  1.9364e-01
14.000  24.000  1.9574e-01
