InwC 1.11867m  relative to Inci 1215.00A scaled to 1215A.
Hden   Phi(H)  Eq_Width (A)
7.000  17.000  7.1637e-03
7.000  17.250  9.5313e-03
7.000  17.500  9.8433e-03
7.000  17.750  1.0035e-02
7.000  18.000  1.0040e-02
7.000  18.250  1.0046e-02
7.000  18.500  1.0047e-02
7.000  18.750  1.0049e-02
7.000  19.000  1.0050e-02
7.000  19.250  1.0051e-02
7.000  19.500  1.0051e-02
7.000  19.750  1.0051e-02
7.000  20.000  1.0051e-02
7.000  20.250  1.0051e-02
7.000  20.500  1.0051e-02
7.000  20.750  1.0051e-02
7.000  21.000  1.0052e-02
7.000  21.250  1.0052e-02
7.000  21.500  1.0052e-02
7.000  21.750  1.0052e-02
7.000  22.000  1.0052e-02
7.000  22.250  1.0052e-02
7.000  22.500  1.0052e-02
7.000  22.750  1.0053e-02
7.000  23.000  1.0052e-02
7.000  23.250  1.0052e-02
7.000  23.500  1.0052e-02
7.000  23.750  1.0052e-02
7.000  24.000  1.0052e-02
7.250  17.000  5.3891e-03
7.250  17.250  7.2588e-03
7.250  17.500  9.5325e-03
7.250  17.750  9.8456e-03
7.250  18.000  1.0035e-02
7.250  18.250  1.0040e-02
7.250  18.500  1.0046e-02
7.250  18.750  1.0047e-02
7.250  19.000  1.0049e-02
7.250  19.250  1.0050e-02
7.250  19.500  1.0051e-02
7.250  19.750  1.0051e-02
7.250  20.000  1.0051e-02
7.250  20.250  1.0051e-02
7.250  20.500  1.0051e-02
7.250  20.750  1.0051e-02
7.250  21.000  1.0051e-02
7.250  21.250  1.0051e-02
7.250  21.500  1.0052e-02
7.250  21.750  1.0052e-02
7.250  22.000  1.0052e-02
7.250  22.250  1.0052e-02
7.250  22.500  1.0052e-02
7.250  22.750  1.0052e-02
7.250  23.000  1.0052e-02
7.250  23.250  1.0052e-02
7.250  23.500  1.0052e-02
7.250  23.750  1.0052e-02
7.250  24.000  1.0052e-02
7.500  17.000  3.8340e-03
7.500  17.250  5.5261e-03
7.500  17.500  7.3462e-03
7.500  17.750  9.5336e-03
7.500  18.000  9.8477e-03
7.500  18.250  1.0035e-02
7.500  18.500  1.0040e-02
7.500  18.750  1.0046e-02
7.500  19.000  1.0047e-02
7.500  19.250  1.0049e-02
7.500  19.500  1.0050e-02
7.500  19.750  1.0051e-02
7.500  20.000  1.0051e-02
7.500  20.250  1.0051e-02
7.500  20.500  1.0051e-02
7.500  20.750  1.0051e-02
7.500  21.000  1.0051e-02
7.500  21.250  1.0051e-02
7.500  21.500  1.0051e-02
7.500  21.750  1.0051e-02
7.500  22.000  1.0051e-02
7.500  22.250  1.0052e-02
7.500  22.500  1.0052e-02
7.500  22.750  1.0052e-02
7.500  23.000  1.0052e-02
7.500  23.250  1.0052e-02
7.500  23.500  1.0052e-02
7.500  23.750  1.0052e-02
7.500  24.000  1.0052e-02
7.750  17.000  2.5784e-03
7.750  17.250  3.9403e-03
7.750  17.500  5.6770e-03
7.750  17.750  7.4432e-03
7.750  18.000  9.5345e-03
7.750  18.250  9.8499e-03
7.750  18.500  1.0035e-02
7.750  18.750  1.0040e-02
7.750  19.000  1.0046e-02
7.750  19.250  1.0047e-02
7.750  19.500  1.0049e-02
7.750  19.750  1.0050e-02
7.750  20.000  1.0051e-02
7.750  20.250  1.0051e-02
7.750  20.500  1.0051e-02
7.750  20.750  1.0051e-02
7.750  21.000  1.0051e-02
7.750  21.250  1.0051e-02
7.750  21.500  1.0051e-02
7.750  21.750  1.0051e-02
7.750  22.000  1.0051e-02
7.750  22.250  1.0051e-02
7.750  22.500  1.0051e-02
7.750  22.750  1.0051e-02
7.750  23.000  1.0052e-02
7.750  23.250  1.0052e-02
7.750  23.500  1.0051e-02
7.750  23.750  1.0052e-02
7.750  24.000  1.0051e-02
8.000  17.000  1.7342e-03
8.000  17.250  2.6310e-03
8.000  17.500  4.0393e-03
8.000  17.750  5.8168e-03
8.000  18.000  7.5314e-03
8.000  18.250  9.5342e-03
8.000  18.500  9.8504e-03
8.000  18.750  1.0035e-02
8.000  19.000  1.0040e-02
8.000  19.250  1.0047e-02
8.000  19.500  1.0047e-02
8.000  19.750  1.0049e-02
8.000  20.000  1.0050e-02
8.000  20.250  1.0051e-02
8.000  20.500  1.0051e-02
8.000  20.750  1.0051e-02
8.000  21.000  1.0051e-02
8.000  21.250  1.0051e-02
8.000  21.500  1.0051e-02
8.000  21.750  1.0051e-02
8.000  22.000  1.0051e-02
8.000  22.250  1.0051e-02
8.000  22.500  1.0051e-02
8.000  22.750  1.0051e-02
8.000  23.000  1.0051e-02
8.000  23.250  1.0051e-02
8.000  23.500  1.0051e-02
8.000  23.750  1.0051e-02
8.000  24.000  1.0052e-02
8.250  17.000  1.2010e-03
8.250  17.250  1.7805e-03
8.250  17.500  2.7216e-03
8.250  17.750  4.2144e-03
8.250  18.000  6.0723e-03
8.250  18.250  7.7067e-03
8.250  18.500  9.5349e-03
8.250  18.750  9.8525e-03
8.250  19.000  1.0035e-02
8.250  19.250  1.0040e-02
8.250  19.500  1.0046e-02
8.250  19.750  1.0047e-02
8.250  20.000  1.0049e-02
8.250  20.250  1.0050e-02
8.250  20.500  1.0051e-02
8.250  20.750  1.0051e-02
8.250  21.000  1.0051e-02
8.250  21.250  1.0051e-02
8.250  21.500  1.0051e-02
8.250  21.750  1.0051e-02
8.250  22.000  1.0051e-02
8.250  22.250  1.0051e-02
8.250  22.500  1.0051e-02
8.250  22.750  1.0051e-02
8.250  23.000  1.0052e-02
8.250  23.250  1.0051e-02
8.250  23.500  1.0051e-02
8.250  23.750  1.0051e-02
8.250  24.000  1.0051e-02
8.500  17.000  8.4642e-04
8.500  17.250  1.2346e-03
8.500  17.500  1.8491e-03
8.500  17.750  2.8730e-03
8.500  18.000  4.4940e-03
8.500  18.250  6.4428e-03
8.500  18.500  7.9381e-03
8.500  18.750  9.5351e-03
8.500  19.000  9.8548e-03
8.500  19.250  1.0035e-02
8.500  19.500  1.0040e-02
8.500  19.750  1.0046e-02
8.500  20.000  1.0047e-02
8.500  20.250  1.0049e-02
8.500  20.500  1.0050e-02
8.500  20.750  1.0051e-02
8.500  21.000  1.0051e-02
8.500  21.250  1.0051e-02
8.500  21.500  1.0051e-02
8.500  21.750  1.0051e-02
8.500  22.000  1.0051e-02
8.500  22.250  1.0051e-02
8.500  22.500  1.0051e-02
8.500  22.750  1.0051e-02
8.500  23.000  1.0051e-02
8.500  23.250  1.0051e-02
8.500  23.500  1.0051e-02
8.500  23.750  1.0051e-02
8.500  24.000  1.0051e-02
8.750  17.000  6.0173e-04
8.750  17.250  8.7144e-04
8.750  17.500  1.2881e-03
8.750  17.750  1.9652e-03
8.750  18.000  3.1328e-03
8.750  18.250  4.9486e-03
8.750  18.500  6.8126e-03
8.750  18.750  8.1779e-03
8.750  19.000  9.5342e-03
8.750  19.250  9.8570e-03
8.750  19.500  1.0035e-02
8.750  19.750  1.0040e-02
8.750  20.000  1.0046e-02
8.750  20.250  1.0047e-02
8.750  20.500  1.0049e-02
8.750  20.750  1.0050e-02
8.750  21.000  1.0051e-02
8.750  21.250  1.0051e-02
8.750  21.500  1.0051e-02
8.750  21.750  1.0051e-02
8.750  22.000  1.0051e-02
8.750  22.250  1.0051e-02
8.750  22.500  1.0051e-02
8.750  22.750  1.0051e-02
8.750  23.000  1.0052e-02
8.750  23.250  1.0051e-02
8.750  23.500  1.0051e-02
8.750  23.750  1.0051e-02
8.750  24.000  1.0051e-02
9.000  17.000  4.2930e-04
9.000  17.250  6.2000e-04
9.000  17.500  9.1169e-04
9.000  17.750  1.3793e-03
9.000  18.000  2.1875e-03
9.000  18.250  3.5616e-03
9.000  18.500  5.5157e-03
9.000  18.750  7.2868e-03
9.000  19.000  8.5424e-03
9.000  19.250  9.5309e-03
9.000  19.500  9.8585e-03
9.000  19.750  1.0035e-02
9.000  20.000  1.0040e-02
9.000  20.250  1.0046e-02
9.000  20.500  1.0047e-02
9.000  20.750  1.0049e-02
9.000  21.000  1.0050e-02
9.000  21.250  1.0051e-02
9.000  21.500  1.0051e-02
9.000  21.750  1.0051e-02
9.000  22.000  1.0051e-02
9.000  22.250  1.0051e-02
9.000  22.500  1.0051e-02
9.000  22.750  1.0051e-02
9.000  23.000  1.0051e-02
9.000  23.250  1.0051e-02
9.000  23.500  1.0051e-02
9.000  23.750  1.0051e-02
9.000  24.000  1.0051e-02
9.250  17.000  3.0667e-04
9.250  17.250  4.4247e-04
9.250  17.500  6.5053e-04
9.250  17.750  9.8453e-04
9.250  18.000  1.5570e-03
9.250  18.250  2.5509e-03
9.250  18.500  4.1025e-03
9.250  18.750  6.0477e-03
9.250  19.000  7.6181e-03
9.250  19.250  8.9044e-03
9.250  19.500  9.5243e-03
9.250  19.750  9.8589e-03
9.250  20.000  1.0035e-02
9.250  20.250  1.0040e-02
9.250  20.500  1.0046e-02
9.250  20.750  1.0047e-02
9.250  21.000  1.0049e-02
9.250  21.250  1.0050e-02
9.250  21.500  1.0050e-02
9.250  21.750  1.0046e-02
9.250  22.000  1.0046e-02
9.250  22.250  1.0047e-02
9.250  22.500  1.0051e-02
9.250  22.750  1.0051e-02
9.250  23.000  1.0051e-02
9.250  23.250  1.0051e-02
9.250  23.500  1.0051e-02
9.250  23.750  1.0051e-02
9.250  24.000  1.0051e-02
9.500  17.000  2.1885e-04
9.500  17.250  3.1621e-04
9.500  17.500  4.6617e-04
9.500  17.750  7.0955e-04
9.500  18.000  1.1318e-03
9.500  18.250  1.8667e-03
9.500  18.500  3.0040e-03
9.500  18.750  4.6444e-03
9.500  19.000  6.6166e-03
9.500  19.250  7.9340e-03
9.500  19.500  9.1739e-03
9.500  19.750  9.5151e-03
9.500  20.000  9.8574e-03
9.500  20.250  1.0034e-02
9.500  20.500  1.0039e-02
9.500  20.750  1.0046e-02
9.500  21.000  1.0046e-02
9.500  21.250  1.0045e-02
9.500  21.500  1.0045e-02
9.500  21.750  1.0045e-02
9.500  22.000  1.0043e-02
9.500  22.250  1.0042e-02
9.500  22.500  1.0042e-02
9.500  22.750  1.0042e-02
9.500  23.000  1.0042e-02
9.500  23.250  1.0042e-02
9.500  23.500  1.0045e-02
9.500  23.750  1.0045e-02
9.500  24.000  1.0045e-02
9.750  17.000  1.5605e-04
9.750  17.250  2.2593e-04
9.750  17.500  3.3416e-04
9.750  17.750  5.1309e-04
9.750  18.000  8.3111e-04
9.750  18.250  1.3840e-03
9.750  18.500  2.2287e-03
9.750  18.750  3.4581e-03
9.750  19.000  5.1479e-03
9.750  19.250  6.9949e-03
9.750  19.500  8.3639e-03
9.750  19.750  9.3025e-03
9.750  20.000  9.5030e-03
9.750  20.250  9.8529e-03
9.750  20.500  1.0033e-02
9.750  20.750  1.0039e-02
9.750  21.000  1.0046e-02
9.750  21.250  1.0047e-02
9.750  21.500  1.0047e-02
9.750  21.750  1.0045e-02
9.750  22.000  1.0045e-02
9.750  22.250  1.0044e-02
9.750  22.500  1.0043e-02
9.750  22.750  1.0042e-02
9.750  23.000  1.0042e-02
9.750  23.250  1.0042e-02
9.750  23.500  1.0042e-02
9.750  23.750  1.0042e-02
9.750  24.000  1.0042e-02
10.000  17.000  1.1103e-04
10.000  17.250  1.6140e-04
10.000  17.500  2.3975e-04
10.000  17.750  3.7210e-04
10.000  18.000  6.1226e-04
10.000  18.250  1.0295e-03
10.000  18.500  1.6516e-03
10.000  18.750  2.5675e-03
10.000  19.000  3.8586e-03
10.000  19.250  5.6137e-03
10.000  19.500  7.3190e-03
10.000  19.750  8.7224e-03
10.000  20.000  9.2840e-03
10.000  20.250  9.4918e-03
10.000  20.500  9.8490e-03
10.000  20.750  1.0031e-02
10.000  21.000  1.0038e-02
10.000  21.250  1.0046e-02
10.000  21.500  1.0047e-02
10.000  21.750  1.0048e-02
10.000  22.000  1.0047e-02
10.000  22.250  1.0046e-02
10.000  22.500  1.0045e-02
10.000  22.750  1.0044e-02
10.000  23.000  1.0043e-02
10.000  23.250  1.0042e-02
10.000  23.500  1.0042e-02
10.000  23.750  1.0042e-02
10.000  24.000  1.0042e-02
10.250  17.000  7.9012e-05
10.250  17.250  1.1514e-04
10.250  17.500  1.7210e-04
10.250  17.750  2.7062e-04
10.250  18.000  4.5095e-04
10.250  18.250  7.5868e-04
10.250  18.500  1.2265e-03
10.250  18.750  1.9050e-03
10.250  19.000  2.8641e-03
10.250  19.250  4.2332e-03
10.250  19.500  5.9059e-03
10.250  19.750  7.5765e-03
10.250  20.000  8.9748e-03
10.250  20.250  9.2699e-03
10.250  20.500  9.4777e-03
10.250  20.750  9.8448e-03
10.250  21.000  1.0028e-02
10.250  21.250  1.0037e-02
10.250  21.500  1.0045e-02
10.250  21.750  1.0047e-02
10.250  22.000  1.0048e-02
10.250  22.250  1.0049e-02
10.250  22.500  1.0046e-02
10.250  22.750  1.0046e-02
10.250  23.000  1.0045e-02
10.250  23.250  1.0044e-02
10.250  23.500  1.0044e-02
10.250  23.750  1.0043e-02
10.250  24.000  1.0043e-02
10.500  17.000  5.6461e-05
10.500  17.250  8.2305e-05
10.500  17.500  1.2395e-04
10.500  17.750  1.9737e-04
10.500  18.000  3.3177e-04
10.500  18.250  5.6247e-04
10.500  18.500  9.0049e-04
10.500  18.750  1.3980e-03
10.500  19.000  2.0980e-03
10.500  19.250  3.0952e-03
10.500  19.500  4.4560e-03
10.500  19.750  6.1125e-03
10.500  20.000  7.8491e-03
10.500  20.250  9.1246e-03
10.500  20.500  9.2533e-03
10.500  20.750  9.4700e-03
10.500  21.000  9.8458e-03
10.500  21.250  1.0022e-02
10.500  21.500  1.0036e-02
10.500  21.750  1.0044e-02
10.500  22.000  1.0047e-02
10.500  22.250  1.0048e-02
10.500  22.500  1.0049e-02
10.500  22.750  1.0047e-02
10.500  23.000  1.0046e-02
10.500  23.250  1.0046e-02
10.500  23.500  1.0045e-02
10.500  23.750  1.0045e-02
10.500  24.000  1.0044e-02
10.750  17.000  4.0329e-05
10.750  17.250  5.8930e-05
10.750  17.500  8.9383e-05
10.750  17.750  1.4387e-04
10.750  18.000  2.4354e-04
10.750  18.250  4.1004e-04
10.750  18.500  6.5457e-04
10.750  18.750  1.0109e-03
10.750  19.000  1.5207e-03
10.750  19.250  2.2362e-03
10.750  19.500  3.2501e-03
10.750  19.750  4.6307e-03
10.750  20.000  6.3235e-03
10.750  20.250  8.1184e-03
10.750  20.500  9.1028e-03
10.750  20.750  9.2357e-03
10.750  21.000  9.4630e-03
10.750  21.250  9.8564e-03
10.750  21.500  1.0017e-02
10.750  21.750  1.0032e-02
10.750  22.000  1.0042e-02
10.750  22.250  1.0046e-02
10.750  22.500  1.0048e-02
10.750  22.750  1.0049e-02
10.750  23.000  1.0049e-02
10.750  23.250  1.0046e-02
10.750  23.500  1.0046e-02
10.750  23.750  1.0046e-02
10.750  24.000  1.0045e-02
11.000  17.000  2.8889e-05
11.000  17.250  4.2140e-05
11.000  17.500  6.4280e-05
11.000  17.750  1.0461e-04
11.000  18.000  1.7728e-04
11.000  18.250  2.9605e-04
11.000  18.500  4.7613e-04
11.000  18.750  7.3267e-04
11.000  19.000  1.1001e-03
11.000  19.250  1.6139e-03
11.000  19.500  2.3344e-03
11.000  19.750  3.3700e-03
11.000  20.000  4.7867e-03
11.000  20.250  6.5161e-03
11.000  20.500  8.3694e-03
11.000  20.750  9.0641e-03
11.000  21.000  9.2157e-03
11.000  21.250  9.4677e-03
11.000  21.500  9.8944e-03
11.000  21.750  1.0008e-02
11.000  22.000  1.0027e-02
11.000  22.250  1.0039e-02
11.000  22.500  1.0045e-02
11.000  22.750  1.0047e-02
11.000  23.000  1.0049e-02
11.000  23.250  1.0050e-02
11.000  23.500  1.0047e-02
11.000  23.750  1.0046e-02
11.000  24.000  1.0046e-02
11.250  17.000  2.0741e-05
11.250  17.250  3.0123e-05
11.250  17.500  4.6091e-05
11.250  17.750  7.5391e-05
11.250  18.000  1.2757e-04
11.250  18.250  2.1136e-04
11.250  18.500  3.3539e-04
11.250  18.750  5.2066e-04
11.250  19.000  7.8058e-04
11.250  19.250  1.1443e-03
11.250  19.500  1.6650e-03
11.250  19.750  2.4049e-03
11.250  20.000  3.4647e-03
11.250  20.250  4.9153e-03
11.250  20.500  6.6879e-03
11.250  20.750  8.5315e-03
11.250  21.000  9.0086e-03
11.250  21.250  9.1920e-03
11.250  21.500  9.5170e-03
11.250  21.750  9.9279e-03
11.250  22.000  9.9950e-03
11.250  22.250  1.0018e-02
11.250  22.500  1.0033e-02
11.250  22.750  1.0043e-02
11.250  23.000  1.0046e-02
11.250  23.250  1.0049e-02
11.250  23.500  1.0050e-02
11.250  23.750  1.0049e-02
11.250  24.000  1.0046e-02
11.500  17.000  1.4815e-05
11.500  17.250  2.1564e-05
11.500  17.500  3.2922e-05
11.500  17.750  5.3745e-05
11.500  18.000  9.0453e-05
11.500  18.250  1.4938e-04
11.500  18.500  2.3646e-04
11.500  18.750  3.6765e-04
11.500  19.000  5.5021e-04
11.500  19.250  8.0955e-04
11.500  19.500  1.1811e-03
11.500  19.750  1.7130e-03
11.500  20.000  2.4672e-03
11.500  20.250  3.5467e-03
11.500  20.500  5.0230e-03
11.500  20.750  6.8164e-03
11.500  21.000  8.5733e-03
11.500  21.250  8.9254e-03
11.500  21.500  9.2184e-03
11.500  21.750  9.5776e-03
11.500  22.000  9.9311e-03
11.500  22.250  9.9769e-03
11.500  22.500  1.0006e-02
11.500  22.750  1.0026e-02
11.500  23.000  1.0041e-02
11.500  23.250  1.0045e-02
11.500  23.500  1.0048e-02
11.500  23.750  1.0050e-02
11.500  24.000  1.0050e-02
11.750  17.000  1.0782e-05
11.750  17.250  1.5391e-05
11.750  17.500  2.3457e-05
11.750  17.750  3.8025e-05
11.750  18.000  6.3457e-05
11.750  18.250  1.0420e-04
11.750  18.500  1.6469e-04
11.750  18.750  2.5374e-04
11.750  19.000  3.8362e-04
11.750  19.250  5.6823e-04
11.750  19.500  8.3235e-04
11.750  19.750  1.2100e-03
11.750  20.000  1.7421e-03
11.750  20.250  2.5049e-03
11.750  20.500  3.6039e-03
11.750  20.750  5.0832e-03
11.750  21.000  6.8644e-03
11.750  21.250  8.3746e-03
11.750  21.500  8.9016e-03
11.750  21.750  9.2115e-03
11.750  22.000  9.6397e-03
11.750  22.250  9.8951e-03
11.750  22.500  9.9513e-03
11.750  22.750  9.9883e-03
11.750  23.000  1.0015e-02
11.750  23.250  1.0037e-02
11.750  23.500  1.0043e-02
11.750  23.750  1.0047e-02
11.750  24.000  1.0050e-02
12.000  17.000  7.9012e-06
12.000  17.250  1.1193e-05
12.000  17.500  1.6708e-05
12.000  17.750  2.6667e-05
12.000  18.000  4.3786e-05
12.000  18.250  7.1276e-05
12.000  18.500  1.1342e-04
12.000  18.750  1.7580e-04
12.000  19.000  2.6675e-04
12.000  19.250  3.9778e-04
12.000  19.500  5.8626e-04
12.000  19.750  8.5136e-04
12.000  20.000  1.2278e-03
12.000  20.250  1.7630e-03
12.000  20.500  2.5278e-03
12.000  20.750  3.6177e-03
12.000  21.000  5.0715e-03
12.000  21.250  6.7865e-03
12.000  21.500  8.2486e-03
12.000  21.750  8.7752e-03
12.000  22.000  9.1897e-03
12.000  22.250  9.6537e-03
12.000  22.500  9.8407e-03
12.000  22.750  9.9135e-03
12.000  23.000  9.9612e-03
12.000  23.250  9.9982e-03
12.000  23.500  1.0030e-02
12.000  23.750  1.0039e-02
12.000  24.000  1.0045e-02
12.250  17.000  5.5144e-06
12.250  17.250  8.3128e-06
12.250  17.500  1.2099e-05
12.250  17.750  1.8683e-05
12.250  18.000  3.0041e-05
12.250  18.250  4.8642e-05
12.250  18.500  7.7695e-05
12.250  18.750  1.2115e-04
12.250  19.000  1.8444e-04
12.250  19.250  2.7687e-04
12.250  19.500  4.1029e-04
12.250  19.750  5.9728e-04
12.250  20.000  8.6593e-04
12.250  20.250  1.2388e-03
12.250  20.500  1.7756e-03
12.250  20.750  2.5290e-03
12.250  21.000  3.5758e-03
12.250  21.250  4.9493e-03
12.250  21.500  6.6924e-03
12.250  21.750  7.9165e-03
12.250  22.000  8.5965e-03
12.250  22.250  9.1351e-03
12.250  22.500  9.5849e-03
12.250  22.750  9.7598e-03
12.250  23.000  9.8560e-03
12.250  23.250  9.9189e-03
12.250  23.500  9.9717e-03
12.250  23.750  1.0021e-02
12.250  24.000  1.0034e-02
12.500  17.000  2.8807e-06
12.500  17.250  5.8436e-06
12.500  17.500  8.8066e-06
12.500  17.750  1.3251e-05
12.500  18.000  2.0741e-05
12.500  18.250  3.3086e-05
12.500  18.500  5.2757e-05
12.500  18.750  8.3210e-05
12.500  19.000  1.2798e-04
12.500  19.250  1.9292e-04
12.500  19.500  2.8626e-04
12.500  19.750  4.1860e-04
12.500  20.000  6.0700e-04
12.500  20.250  8.7366e-04
12.500  20.500  1.2450e-03
12.500  20.750  1.7643e-03
12.500  21.000  2.4864e-03
12.500  21.250  3.4539e-03
12.500  21.500  4.8305e-03
12.500  21.750  6.3547e-03
12.500  22.000  7.4910e-03
12.500  22.250  8.3552e-03
12.500  22.500  8.9896e-03
12.500  22.750  9.4374e-03
12.500  23.000  9.6403e-03
12.500  23.250  9.7689e-03
12.500  23.500  9.8519e-03
12.500  23.750  9.9292e-03
12.500  24.000  1.0007e-02
12.750  17.000  1.4815e-06
12.750  17.250  3.2099e-06
12.750  17.500  6.2551e-06
12.750  17.750  9.3827e-06
12.750  18.000  1.4403e-05
12.750  18.250  2.2634e-05
12.750  18.500  3.6049e-05
12.750  18.750  5.6955e-05
12.750  19.000  8.7984e-05
12.750  19.250  1.3350e-04
12.750  19.500  1.9893e-04
12.750  19.750  2.9210e-04
12.750  20.000  4.2436e-04
12.750  20.250  6.1103e-04
12.750  20.500  8.7399e-04
12.750  20.750  1.2374e-03
12.750  21.000  1.7281e-03
12.750  21.250  2.3914e-03
12.750  21.500  3.3558e-03
12.750  21.750  4.5060e-03
12.750  22.000  5.8610e-03
12.750  22.250  6.9837e-03
12.750  22.500  8.0126e-03
12.750  22.750  8.6977e-03
12.750  23.000  9.1997e-03
12.750  23.250  9.4658e-03
12.750  23.500  9.6368e-03
12.750  23.750  9.7473e-03
12.750  24.000  9.8619e-03
13.000  17.000  1.0000e-07
13.000  17.250  9.8765e-07
13.000  17.500  2.6337e-06
13.000  17.750  5.7613e-06
13.000  18.000  9.6296e-06
13.000  18.250  1.5720e-05
13.000  18.500  2.4774e-05
13.000  18.750  3.8765e-05
13.000  19.000  6.0082e-05
13.000  19.250  9.1770e-05
13.000  19.500  1.3786e-04
13.000  19.750  2.0272e-04
13.000  20.000  2.9572e-04
13.000  20.250  4.2741e-04
13.000  20.500  6.1070e-04
13.000  20.750  8.6675e-04
13.000  21.000  1.2119e-03
13.000  21.250  1.6658e-03
13.000  21.500  2.3254e-03
13.000  21.750  3.0988e-03
13.000  22.000  4.0442e-03
13.000  22.250  5.2307e-03
13.000  22.500  6.3675e-03
13.000  22.750  7.4457e-03
13.000  23.000  8.2454e-03
13.000  23.250  8.8575e-03
13.000  23.500  9.2098e-03
13.000  23.750  9.4371e-03
13.000  24.000  9.5850e-03
13.250  17.000  1.0000e-07
13.250  17.250  1.0000e-07
13.250  17.500  1.0700e-06
13.250  17.750  2.5514e-06
13.250  18.000  5.6790e-06
13.250  18.250  9.9588e-06
13.250  18.500  1.7037e-05
13.250  18.750  2.6502e-05
13.250  19.000  4.0905e-05
13.250  19.250  6.2798e-05
13.250  19.500  9.4486e-05
13.250  19.750  1.4033e-04
13.250  20.000  2.0519e-04
13.250  20.250  2.9753e-04
13.250  20.500  4.2716e-04
13.250  20.750  6.0634e-04
13.250  21.000  8.5045e-04
13.250  21.250  1.1668e-03
13.250  21.500  1.6219e-03
13.250  21.750  2.1254e-03
13.250  22.000  2.6986e-03
13.250  22.250  3.4261e-03
13.250  22.500  4.4813e-03
13.250  22.750  5.5658e-03
13.250  23.000  6.6923e-03
13.250  23.250  7.6449e-03
13.250  23.500  8.3840e-03
13.250  23.750  8.8427e-03
13.250  24.000  9.1392e-03
13.500  17.000  1.0000e-07
13.500  17.250  1.0000e-07
13.500  17.500  1.0000e-07
13.500  17.750  1.3169e-06
13.500  18.000  3.1276e-06
13.500  18.250  6.5021e-06
13.500  18.500  1.0864e-05
13.500  18.750  1.8189e-05
13.500  19.000  2.7819e-05
13.500  19.250  4.2387e-05
13.500  19.500  6.4280e-05
13.500  19.750  9.6049e-05
13.500  20.000  1.4165e-04
13.500  20.250  2.0634e-04
13.500  20.500  2.9778e-04
13.500  20.750  4.2420e-04
13.500  21.000  5.9514e-04
13.500  21.250  8.1712e-04
13.500  21.500  1.1360e-03
13.500  21.750  1.4745e-03
13.500  22.000  1.7989e-03
13.500  22.250  2.1752e-03
13.500  22.500  2.8107e-03
13.500  22.750  3.6855e-03
13.500  23.000  4.7328e-03
13.500  23.250  5.8623e-03
13.500  23.500  6.8985e-03
13.500  23.750  7.7509e-03
13.500  24.000  8.3274e-03
13.750  17.000  1.0000e-07
13.750  17.250  1.0000e-07
13.750  17.500  1.0000e-07
13.750  17.750  1.0000e-07
13.750  18.000  1.6461e-06
13.750  18.250  3.7037e-06
13.750  18.500  7.1605e-06
13.750  18.750  1.1852e-05
13.750  19.000  1.9012e-05
13.750  19.250  2.8807e-05
13.750  19.500  4.3539e-05
13.750  19.750  6.5350e-05
13.750  20.000  9.6955e-05
13.750  20.250  1.4230e-04
13.750  20.500  2.0642e-04
13.750  20.750  2.9547e-04
13.750  21.000  4.1630e-04
13.750  21.250  5.7407e-04
13.750  21.500  7.9794e-04
13.750  21.750  1.0314e-03
13.750  22.000  1.2235e-03
13.750  22.250  1.3691e-03
13.750  22.500  1.6607e-03
13.750  22.750  2.2353e-03
13.750  23.000  2.9850e-03
13.750  23.250  3.9137e-03
13.750  23.500  4.9709e-03
13.750  23.750  6.0099e-03
13.750  24.000  6.9421e-03
14.000  17.000  1.0000e-07
14.000  17.250  1.0000e-07
14.000  17.500  1.0000e-07
14.000  17.750  1.0000e-07
14.000  18.000  9.0535e-07
14.000  18.250  1.9753e-06
14.000  18.500  4.0329e-06
14.000  18.750  7.5720e-06
14.000  19.000  1.2922e-05
14.000  19.250  1.9506e-05
14.000  19.500  2.9383e-05
14.000  19.750  4.4115e-05
14.000  20.000  6.5926e-05
14.000  20.250  9.7449e-05
14.000  20.500  1.4230e-04
14.000  20.750  2.0494e-04
14.000  21.000  2.9037e-04
14.000  21.250  4.0239e-04
14.000  21.500  5.6115e-04
14.000  21.750  7.2551e-04
14.000  22.000  8.4255e-04
14.000  22.250  8.8354e-04
14.000  22.500  9.9086e-04
14.000  22.750  1.3005e-03
14.000  23.000  1.7668e-03
14.000  23.250  2.3597e-03
14.000  23.500  3.1203e-03
14.000  23.750  4.0035e-03
14.000  24.000  5.0032e-03
