InwC 8000.00A  relative to Inci 1215.00A scaled to 1215A.
Hden   Phi(H)  Eq_Width (A)
7.000  17.000  1.5321e-02
7.000  17.250  2.0384e-02
7.000  17.500  2.1051e-02
7.000  17.750  2.1460e-02
7.000  18.000  2.1471e-02
7.000  18.250  2.1485e-02
7.000  18.500  2.1487e-02
7.000  18.750  2.1490e-02
7.000  19.000  2.1493e-02
7.000  19.250  2.1495e-02
7.000  19.500  2.1495e-02
7.000  19.750  2.1496e-02
7.000  20.000  2.1496e-02
7.000  20.250  2.1496e-02
7.000  20.500  2.1496e-02
7.000  20.750  2.1496e-02
7.000  21.000  2.1496e-02
7.000  21.250  2.1496e-02
7.000  21.500  2.1496e-02
7.000  21.750  2.1496e-02
7.000  22.000  2.1496e-02
7.000  22.250  2.1496e-02
7.000  22.500  2.1497e-02
7.000  22.750  2.1499e-02
7.000  23.000  2.1497e-02
7.000  23.250  2.1497e-02
7.000  23.500  2.1497e-02
7.000  23.750  2.1497e-02
7.000  24.000  2.1498e-02
7.250  17.000  1.1526e-02
7.250  17.250  1.5524e-02
7.250  17.500  2.0386e-02
7.250  17.750  2.1056e-02
7.250  18.000  2.1461e-02
7.250  18.250  2.1471e-02
7.250  18.500  2.1485e-02
7.250  18.750  2.1487e-02
7.250  19.000  2.1490e-02
7.250  19.250  2.1493e-02
7.250  19.500  2.1495e-02
7.250  19.750  2.1495e-02
7.250  20.000  2.1496e-02
7.250  20.250  2.1496e-02
7.250  20.500  2.1496e-02
7.250  20.750  2.1496e-02
7.250  21.000  2.1496e-02
7.250  21.250  2.1496e-02
7.250  21.500  2.1496e-02
7.250  21.750  2.1496e-02
7.250  22.000  2.1496e-02
7.250  22.250  2.1496e-02
7.250  22.500  2.1496e-02
7.250  22.750  2.1496e-02
7.250  23.000  2.1496e-02
7.250  23.250  2.1496e-02
7.250  23.500  2.1496e-02
7.250  23.750  2.1496e-02
7.250  24.000  2.1497e-02
7.500  17.000  8.2007e-03
7.500  17.250  1.1818e-02
7.500  17.500  1.5710e-02
7.500  17.750  2.0388e-02
7.500  18.000  2.1060e-02
7.500  18.250  2.1461e-02
7.500  18.500  2.1471e-02
7.500  18.750  2.1485e-02
7.500  19.000  2.1487e-02
7.500  19.250  2.1490e-02
7.500  19.500  2.1493e-02
7.500  19.750  2.1495e-02
7.500  20.000  2.1495e-02
7.500  20.250  2.1496e-02
7.500  20.500  2.1496e-02
7.500  20.750  2.1496e-02
7.500  21.000  2.1496e-02
7.500  21.250  2.1496e-02
7.500  21.500  2.1496e-02
7.500  21.750  2.1496e-02
7.500  22.000  2.1496e-02
7.500  22.250  2.1496e-02
7.500  22.500  2.1496e-02
7.500  22.750  2.1496e-02
7.500  23.000  2.1496e-02
7.500  23.250  2.1496e-02
7.500  23.500  2.1496e-02
7.500  23.750  2.1496e-02
7.500  24.000  2.1496e-02
7.750  17.000  5.5157e-03
7.750  17.250  8.4272e-03
7.750  17.500  1.2139e-02
7.750  17.750  1.5916e-02
7.750  18.000  2.0390e-02
7.750  18.250  2.1065e-02
7.750  18.500  2.1461e-02
7.750  18.750  2.1471e-02
7.750  19.000  2.1485e-02
7.750  19.250  2.1487e-02
7.750  19.500  2.1490e-02
7.750  19.750  2.1493e-02
7.750  20.000  2.1495e-02
7.750  20.250  2.1495e-02
7.750  20.500  2.1496e-02
7.750  20.750  2.1496e-02
7.750  21.000  2.1496e-02
7.750  21.250  2.1496e-02
7.750  21.500  2.1496e-02
7.750  21.750  2.1496e-02
7.750  22.000  2.1496e-02
7.750  22.250  2.1496e-02
7.750  22.500  2.1496e-02
7.750  22.750  2.1496e-02
7.750  23.000  2.1496e-02
7.750  23.250  2.1496e-02
7.750  23.500  2.1496e-02
7.750  23.750  2.1496e-02
7.750  24.000  2.1496e-02
8.000  17.000  3.7109e-03
8.000  17.250  5.6276e-03
8.000  17.500  8.6359e-03
8.000  17.750  1.2433e-02
8.000  18.000  1.6100e-02
8.000  18.250  2.0388e-02
8.000  18.500  2.1066e-02
8.000  18.750  2.1461e-02
8.000  19.000  2.1471e-02
8.000  19.250  2.1485e-02
8.000  19.500  2.1488e-02
8.000  19.750  2.1490e-02
8.000  20.000  2.1493e-02
8.000  20.250  2.1495e-02
8.000  20.500  2.1495e-02
8.000  20.750  2.1496e-02
8.000  21.000  2.1496e-02
8.000  21.250  2.1496e-02
8.000  21.500  2.1496e-02
8.000  21.750  2.1496e-02
8.000  22.000  2.1496e-02
8.000  22.250  2.1496e-02
8.000  22.500  2.1496e-02
8.000  22.750  2.1496e-02
8.000  23.000  2.1496e-02
8.000  23.250  2.1496e-02
8.000  23.500  2.1496e-02
8.000  23.750  2.1496e-02
8.000  24.000  2.1496e-02
8.250  17.000  2.5706e-03
8.250  17.250  3.8090e-03
8.250  17.500  5.8187e-03
8.250  17.750  9.0017e-03
8.250  18.000  1.2962e-02
8.250  18.250  1.6460e-02
8.250  18.500  2.0385e-02
8.250  18.750  2.1070e-02
8.250  19.000  2.1461e-02
8.250  19.250  2.1471e-02
8.250  19.500  2.1485e-02
8.250  19.750  2.1487e-02
8.250  20.000  2.1490e-02
8.250  20.250  2.1493e-02
8.250  20.500  2.1495e-02
8.250  20.750  2.1495e-02
8.250  21.000  2.1496e-02
8.250  21.250  2.1496e-02
8.250  21.500  2.1496e-02
8.250  21.750  2.1496e-02
8.250  22.000  2.1496e-02
8.250  22.250  2.1496e-02
8.250  22.500  2.1496e-02
8.250  22.750  2.1496e-02
8.250  23.000  2.1496e-02
8.250  23.250  2.1496e-02
8.250  23.500  2.1496e-02
8.250  23.750  2.1496e-02
8.250  24.000  2.1496e-02
8.500  17.000  1.8124e-03
8.500  17.250  2.6417e-03
8.500  17.500  3.9536e-03
8.500  17.750  6.1338e-03
8.500  18.000  9.5739e-03
8.500  18.250  1.3710e-02
8.500  18.500  1.6923e-02
8.500  18.750  2.0375e-02
8.500  19.000  2.1075e-02
8.500  19.250  2.1461e-02
8.500  19.500  2.1471e-02
8.500  19.750  2.1485e-02
8.500  20.000  2.1487e-02
8.500  20.250  2.1490e-02
8.500  20.500  2.1493e-02
8.500  20.750  2.1495e-02
8.500  21.000  2.1495e-02
8.500  21.250  2.1496e-02
8.500  21.500  2.1496e-02
8.500  21.750  2.1496e-02
8.500  22.000  2.1496e-02
8.500  22.250  2.1496e-02
8.500  22.500  2.1496e-02
8.500  22.750  2.1496e-02
8.500  23.000  2.1496e-02
8.500  23.250  2.1496e-02
8.500  23.500  2.1496e-02
8.500  23.750  2.1496e-02
8.500  24.000  2.1496e-02
8.750  17.000  1.2893e-03
8.750  17.250  1.8653e-03
8.750  17.500  2.7540e-03
8.750  17.750  4.1940e-03
8.750  18.000  6.6647e-03
8.750  18.250  1.0487e-02
8.750  18.500  1.4428e-02
8.750  18.750  1.7383e-02
8.750  19.000  2.0354e-02
8.750  19.250  2.1078e-02
8.750  19.500  2.1461e-02
8.750  19.750  2.1471e-02
8.750  20.000  2.1485e-02
8.750  20.250  2.1487e-02
8.750  20.500  2.1490e-02
8.750  20.750  2.1493e-02
8.750  21.000  2.1495e-02
8.750  21.250  2.1495e-02
8.750  21.500  2.1496e-02
8.750  21.750  2.1496e-02
8.750  22.000  2.1496e-02
8.750  22.250  2.1496e-02
8.750  22.500  2.1496e-02
8.750  22.750  2.1496e-02
8.750  23.000  2.1496e-02
8.750  23.250  2.1496e-02
8.750  23.500  2.1496e-02
8.750  23.750  2.1496e-02
8.750  24.000  2.1496e-02
9.000  17.000  9.2049e-04
9.000  17.250  1.3277e-03
9.000  17.500  1.9492e-03
9.000  17.750  2.9425e-03
9.000  18.000  4.6481e-03
9.000  18.250  7.5271e-03
9.000  18.500  1.1602e-02
9.000  18.750  1.5338e-02
9.000  19.000  1.8088e-02
9.000  19.250  2.0302e-02
9.000  19.500  2.1079e-02
9.000  19.750  2.1460e-02
9.000  20.000  2.1471e-02
9.000  20.250  2.1485e-02
9.000  20.500  2.1487e-02
9.000  20.750  2.1490e-02
9.000  21.000  2.1493e-02
9.000  21.250  2.1495e-02
9.000  21.500  2.1495e-02
9.000  21.750  2.1496e-02
9.000  22.000  2.1496e-02
9.000  22.250  2.1496e-02
9.000  22.500  2.1496e-02
9.000  22.750  2.1496e-02
9.000  23.000  2.1496e-02
9.000  23.250  2.1496e-02
9.000  23.500  2.1496e-02
9.000  23.750  2.1496e-02
9.000  24.000  2.1496e-02
9.250  17.000  6.5827e-04
9.250  17.250  9.4815e-04
9.250  17.500  1.3911e-03
9.250  17.750  2.0991e-03
9.250  18.000  3.3048e-03
9.250  18.250  5.3808e-03
9.250  18.500  8.5915e-03
9.250  18.750  1.2604e-02
9.250  19.000  1.5927e-02
9.250  19.250  1.8757e-02
9.250  19.500  2.0237e-02
9.250  19.750  2.1071e-02
9.250  20.000  2.1460e-02
9.250  20.250  2.1471e-02
9.250  20.500  2.1485e-02
9.250  20.750  2.1487e-02
9.250  21.000  2.1490e-02
9.250  21.250  2.1493e-02
9.250  21.500  2.1493e-02
9.250  21.750  2.1485e-02
9.250  22.000  2.1485e-02
9.250  22.250  2.1485e-02
9.250  22.500  2.1496e-02
9.250  22.750  2.1496e-02
9.250  23.000  2.1496e-02
9.250  23.250  2.1496e-02
9.250  23.500  2.1496e-02
9.250  23.750  2.1496e-02
9.250  24.000  2.1496e-02
9.500  17.000  4.7062e-04
9.500  17.250  6.7819e-04
9.500  17.500  9.9712e-04
9.500  17.750  1.5122e-03
9.500  18.000  2.3996e-03
9.500  18.250  3.9312e-03
9.500  18.500  6.2719e-03
9.500  18.750  9.6008e-03
9.500  19.000  1.3608e-02
9.500  19.250  1.6434e-02
9.500  19.500  1.9181e-02
9.500  19.750  2.0153e-02
9.500  20.000  2.1053e-02
9.500  20.250  2.1458e-02
9.500  20.500  2.1470e-02
9.500  20.750  2.1484e-02
9.500  21.000  2.1484e-02
9.500  21.250  2.1481e-02
9.500  21.500  2.1482e-02
9.500  21.750  2.1482e-02
9.500  22.000  2.1478e-02
9.500  22.250  2.1475e-02
9.500  22.500  2.1476e-02
9.500  22.750  2.1477e-02
9.500  23.000  2.1476e-02
9.500  23.250  2.1476e-02
9.500  23.500  2.1483e-02
9.500  23.750  2.1483e-02
9.500  24.000  2.1483e-02
9.750  17.000  3.3630e-04
9.750  17.250  4.8535e-04
9.750  17.500  7.1531e-04
9.750  17.750  1.0934e-03
9.750  18.000  1.7611e-03
9.750  18.250  2.9100e-03
9.750  18.500  4.6393e-03
9.750  18.750  7.1057e-03
9.750  19.000  1.0437e-02
9.750  19.250  1.4135e-02
9.750  19.500  1.7126e-02
9.750  19.750  1.9382e-02
9.750  20.000  2.0070e-02
9.750  20.250  2.1000e-02
9.750  20.500  2.1453e-02
9.750  20.750  2.1469e-02
9.750  21.000  2.1484e-02
9.750  21.250  2.1486e-02
9.750  21.500  2.1486e-02
9.750  21.750  2.1483e-02
9.750  22.000  2.1483e-02
9.750  22.250  2.1481e-02
9.750  22.500  2.1477e-02
9.750  22.750  2.1475e-02
9.750  23.000  2.1476e-02
9.750  23.250  2.1476e-02
9.750  23.500  2.1476e-02
9.750  23.750  2.1477e-02
9.750  24.000  2.1477e-02
10.000  17.000  2.4016e-04
10.000  17.250  3.4741e-04
10.000  17.500  5.1374e-04
10.000  17.750  7.9325e-04
10.000  18.000  1.2968e-03
10.000  18.250  2.1623e-03
10.000  18.500  3.4293e-03
10.000  18.750  5.2511e-03
10.000  19.000  7.7528e-03
10.000  19.250  1.1085e-02
10.000  19.500  1.4486e-02
10.000  19.750  1.7615e-02
10.000  20.000  1.9231e-02
10.000  20.250  1.9942e-02
10.000  20.500  2.0940e-02
10.000  20.750  2.1440e-02
10.000  21.000  2.1468e-02
10.000  21.250  2.1484e-02
10.000  21.500  2.1487e-02
10.000  21.750  2.1489e-02
10.000  22.000  2.1486e-02
10.000  22.250  2.1484e-02
10.000  22.500  2.1483e-02
10.000  22.750  2.1480e-02
10.000  23.000  2.1478e-02
10.000  23.250  2.1476e-02
10.000  23.500  2.1475e-02
10.000  23.750  2.1476e-02
10.000  24.000  2.1476e-02
10.250  17.000  1.7177e-04
10.250  17.250  2.4864e-04
10.250  17.500  3.6947e-04
10.250  17.750  5.7745e-04
10.250  18.000  9.5506e-04
10.250  18.250  1.5922e-03
10.250  18.500  2.5419e-03
10.250  18.750  3.8840e-03
10.250  19.000  5.7224e-03
10.250  19.250  8.2788e-03
10.250  19.500  1.1426e-02
10.250  19.750  1.4853e-02
10.250  20.000  1.8143e-02
10.250  20.250  1.9089e-02
10.250  20.500  1.9865e-02
10.250  20.750  2.0902e-02
10.250  21.000  2.1420e-02
10.250  21.250  2.1464e-02
10.250  21.500  2.1483e-02
10.250  21.750  2.1486e-02
10.250  22.000  2.1489e-02
10.250  22.250  2.1491e-02
10.250  22.500  2.1484e-02
10.250  22.750  2.1484e-02
10.250  23.000  2.1482e-02
10.250  23.250  2.1480e-02
10.250  23.500  2.1479e-02
10.250  23.750  2.1478e-02
10.250  24.000  2.1478e-02
10.500  17.000  1.2346e-04
10.500  17.250  1.7852e-04
10.500  17.500  2.6683e-04
10.500  17.750  4.2165e-04
10.500  18.000  7.0296e-04
10.500  18.250  1.1805e-03
10.500  18.500  1.8662e-03
10.500  18.750  2.8523e-03
10.500  19.000  4.2044e-03
10.500  19.250  6.0857e-03
10.500  19.500  8.6071e-03
10.500  19.750  1.1725e-02
10.500  20.000  1.5310e-02
10.500  20.250  1.8282e-02
10.500  20.500  1.8936e-02
10.500  20.750  1.9802e-02
10.500  21.000  2.0874e-02
10.500  21.250  2.1390e-02
10.500  21.500  2.1456e-02
10.500  21.750  2.1480e-02
10.500  22.000  2.1486e-02
10.500  22.250  2.1489e-02
10.500  22.500  2.1492e-02
10.500  22.750  2.1486e-02
10.500  23.000  2.1484e-02
10.500  23.250  2.1484e-02
10.500  23.500  2.1482e-02
10.500  23.750  2.1481e-02
10.500  24.000  2.1481e-02
10.750  17.000  8.8971e-05
10.750  17.250  1.2848e-04
10.750  17.500  1.9300e-04
10.750  17.750  3.0807e-04
10.750  18.000  5.1671e-04
10.750  18.250  8.6140e-04
10.750  18.500  1.3591e-03
10.750  18.750  2.0711e-03
10.750  19.000  3.0681e-03
10.750  19.250  4.4353e-03
10.750  19.500  6.3263e-03
10.750  19.750  8.8611e-03
10.750  20.000  1.2044e-02
10.750  20.250  1.5752e-02
10.750  20.500  1.8165e-02
10.750  20.750  1.8857e-02
10.750  21.000  1.9707e-02
10.750  21.250  2.0850e-02
10.750  21.500  2.1354e-02
10.750  21.750  2.1441e-02
10.750  22.000  2.1474e-02
10.750  22.250  2.1484e-02
10.750  22.500  2.1488e-02
10.750  22.750  2.1492e-02
10.750  23.000  2.1491e-02
10.750  23.250  2.1484e-02
10.750  23.500  2.1484e-02
10.750  23.750  2.1484e-02
10.750  24.000  2.1483e-02
11.000  17.000  6.4362e-05
11.000  17.250  9.2675e-05
11.000  17.500  1.3959e-04
11.000  17.750  2.2461e-04
11.000  18.000  3.7679e-04
11.000  18.250  6.2296e-04
11.000  18.500  9.9169e-04
11.000  18.750  1.5089e-03
11.000  19.000  2.2362e-03
11.000  19.250  3.2320e-03
11.000  19.500  4.5946e-03
11.000  19.750  6.5060e-03
11.000  20.000  9.0846e-03
11.000  20.250  1.2324e-02
11.000  20.500  1.6150e-02
11.000  20.750  1.8047e-02
11.000  21.000  1.8806e-02
11.000  21.250  1.9704e-02
11.000  21.500  2.0915e-02
11.000  21.750  2.1318e-02
11.000  22.000  2.1420e-02
11.000  22.250  2.1466e-02
11.000  22.500  2.1482e-02
11.000  22.750  2.1487e-02
11.000  23.000  2.1491e-02
11.000  23.250  2.1493e-02
11.000  23.500  2.1486e-02
11.000  23.750  2.1485e-02
11.000  24.000  2.1484e-02
11.250  17.000  4.6914e-05
11.250  17.250  6.6831e-05
11.250  17.500  1.0074e-04
11.250  17.750  1.6239e-04
11.250  18.000  2.7177e-04
11.250  18.250  4.4568e-04
11.250  18.500  7.0099e-04
11.250  18.750  1.0778e-03
11.250  19.000  1.5984e-03
11.250  19.250  2.3136e-03
11.250  19.500  3.3153e-03
11.250  19.750  4.7041e-03
11.250  20.000  6.6428e-03
11.250  20.250  9.2607e-03
11.250  20.500  1.2573e-02
11.250  20.750  1.6393e-02
11.250  21.000  1.7951e-02
11.250  21.250  1.8784e-02
11.250  21.500  1.9794e-02
11.250  21.750  2.0962e-02
11.250  22.000  2.1273e-02
11.250  22.250  2.1392e-02
11.250  22.500  2.1449e-02
11.250  22.750  2.1478e-02
11.250  23.000  2.1485e-02
11.250  23.250  2.1490e-02
11.250  23.500  2.1494e-02
11.250  23.750  2.1491e-02
11.250  24.000  2.1485e-02
11.500  17.000  3.4321e-05
11.500  17.250  4.8477e-05
11.500  17.500  7.2675e-05
11.500  17.750  1.1646e-04
11.500  18.000  1.9333e-04
11.500  18.250  3.1597e-04
11.500  18.500  4.9605e-04
11.500  18.750  7.6477e-04
11.500  19.000  1.1342e-03
11.500  19.250  1.6513e-03
11.500  19.500  2.3780e-03
11.500  19.750  3.3956e-03
11.500  20.000  4.8014e-03
11.500  20.250  6.7607e-03
11.500  20.500  9.4073e-03
11.500  20.750  1.2765e-02
11.500  21.000  1.6426e-02
11.500  21.250  1.7848e-02
11.500  21.500  1.8861e-02
11.500  21.750  1.9955e-02
11.500  22.000  2.0968e-02
11.500  22.250  2.1220e-02
11.500  22.500  2.1360e-02
11.500  22.750  2.1431e-02
11.500  23.000  2.1473e-02
11.500  23.250  2.1482e-02
11.500  23.500  2.1489e-02
11.500  23.750  2.1494e-02
11.500  24.000  2.1494e-02
11.750  17.000  2.5679e-05
11.750  17.250  3.5473e-05
11.750  17.500  5.2346e-05
11.750  17.750  8.3045e-05
11.750  18.000  1.3621e-04
11.750  18.250  2.2107e-04
11.750  18.500  3.4675e-04
11.750  18.750  5.3037e-04
11.750  19.000  7.9556e-04
11.750  19.250  1.1681e-03
11.750  19.500  1.6925e-03
11.750  19.750  2.4285e-03
11.750  20.000  3.4412e-03
11.750  20.250  4.8556e-03
11.750  20.500  6.8392e-03
11.750  20.750  9.4863e-03
11.750  21.000  1.2859e-02
11.750  21.250  1.6141e-02
11.750  21.500  1.7832e-02
11.750  21.750  1.8943e-02
11.750  22.000  2.0145e-02
11.750  22.250  2.0913e-02
11.750  22.500  2.1169e-02
11.750  22.750  2.1321e-02
11.750  23.000  2.1407e-02
11.750  23.250  2.1464e-02
11.750  23.500  2.1478e-02
11.750  23.750  2.1487e-02
11.750  24.000  2.1493e-02
12.000  17.000  1.9671e-05
12.000  17.250  2.6502e-05
12.000  17.500  3.8025e-05
12.000  17.750  5.8765e-05
12.000  18.000  9.4568e-05
12.000  18.250  1.5218e-04
12.000  18.500  2.3984e-04
12.000  18.750  3.6897e-04
12.000  19.000  5.5597e-04
12.000  19.250  8.2280e-04
12.000  19.500  1.2019e-03
12.000  19.750  1.7268e-03
12.000  20.000  2.4579e-03
12.000  20.250  3.4730e-03
12.000  20.500  4.8855e-03
12.000  20.750  6.8482e-03
12.000  21.000  9.4644e-03
12.000  21.250  1.2799e-02
12.000  21.500  1.5934e-02
12.000  21.750  1.7749e-02
12.000  22.000  1.9039e-02
12.000  22.250  2.0268e-02
12.000  22.500  2.0847e-02
12.000  22.750  2.1116e-02
12.000  23.000  2.1274e-02
12.000  23.250  2.1376e-02
12.000  23.500  2.1452e-02
12.000  23.750  2.1472e-02
12.000  24.000  2.1484e-02
12.250  17.000  1.4321e-05
12.250  17.250  2.0329e-05
12.250  17.500  2.8313e-05
12.250  17.750  4.1975e-05
12.250  18.000  6.5679e-05
12.250  18.250  1.0461e-04
12.250  18.500  1.6519e-04
12.250  18.750  2.5539e-04
12.250  19.000  3.8617e-04
12.250  19.250  5.7580e-04
12.250  19.500  8.4675e-04
12.250  19.750  1.2220e-03
12.250  20.000  1.7524e-03
12.250  20.250  2.4746e-03
12.250  20.500  3.4895e-03
12.250  20.750  4.8775e-03
12.250  21.000  6.7678e-03
12.250  21.250  9.2864e-03
12.250  21.500  1.2618e-02
12.250  21.750  1.5574e-02
12.250  22.000  1.7631e-02
12.250  22.250  1.9118e-02
12.250  22.500  2.0261e-02
12.250  22.750  2.0760e-02
12.250  23.000  2.1043e-02
12.250  23.250  2.1214e-02
12.250  23.500  2.1336e-02
12.250  23.750  2.1437e-02
12.250  24.000  2.1464e-02
12.500  17.000  7.5720e-06
12.500  17.250  1.5144e-05
12.500  17.500  2.1481e-05
12.500  17.750  3.0700e-05
12.500  18.000  4.6337e-05
12.500  18.250  7.2016e-05
12.500  18.500  1.1317e-04
12.500  18.750  1.7638e-04
12.500  19.000  2.6905e-04
12.500  19.250  4.0296e-04
12.500  19.500  5.9391e-04
12.500  19.750  8.6239e-04
12.500  20.000  1.2397e-03
12.500  20.250  1.7649e-03
12.500  20.500  2.4818e-03
12.500  20.750  3.4617e-03
12.500  21.000  4.7937e-03
12.500  21.250  6.5613e-03
12.500  21.500  9.0331e-03
12.500  21.750  1.2216e-02
12.500  22.000  1.5095e-02
12.500  22.250  1.7473e-02
12.500  22.500  1.9071e-02
12.500  22.750  2.0140e-02
12.500  23.000  2.0633e-02
12.500  23.250  2.0940e-02
12.500  23.500  2.1128e-02
12.500  23.750  2.1279e-02
12.500  24.000  2.1418e-02
12.750  17.000  3.8683e-06
12.750  17.250  8.3951e-06
12.750  17.500  1.6132e-05
12.750  17.750  2.2716e-05
12.750  18.000  3.3086e-05
12.750  18.250  5.0288e-05
12.750  18.500  7.8025e-05
12.750  18.750  1.2156e-04
12.750  19.000  1.8584e-04
12.750  19.250  2.7992e-04
12.750  19.500  4.1465e-04
12.750  19.750  6.0502e-04
12.750  20.000  8.7284e-04
12.750  20.250  1.2458e-03
12.750  20.500  1.7623e-03
12.750  20.750  2.4622e-03
12.750  21.000  3.3877e-03
12.750  21.250  4.6193e-03
12.750  21.500  6.3314e-03
12.750  21.750  8.5672e-03
12.750  22.000  1.1629e-02
12.750  22.250  1.4534e-02
12.750  22.500  1.7188e-02
12.750  22.750  1.8797e-02
12.750  23.000  1.9892e-02
12.750  23.250  2.0445e-02
12.750  23.500  2.0790e-02
12.750  23.750  2.1003e-02
12.750  24.000  2.1197e-02
13.000  17.000  1.0700e-06
13.000  17.250  2.3045e-06
13.000  17.500  6.8313e-06
13.000  17.750  1.4486e-05
13.000  18.000  2.2881e-05
13.000  18.250  3.5802e-05
13.000  18.500  5.4486e-05
13.000  18.750  8.3539e-05
13.000  19.000  1.2782e-04
13.000  19.250  1.9342e-04
13.000  19.500  2.8864e-04
13.000  19.750  4.2189e-04
13.000  20.000  6.1160e-04
13.000  20.250  8.7761e-04
13.000  20.500  1.2427e-03
13.000  20.750  1.7443e-03
13.000  21.000  2.4078e-03
13.000  21.250  3.2663e-03
13.000  21.500  4.4459e-03
13.000  21.750  5.9091e-03
13.000  22.000  7.9338e-03
13.000  22.250  1.0864e-02
13.000  22.500  1.3818e-02
13.000  22.750  1.6487e-02
13.000  23.000  1.8265e-02
13.000  23.250  1.9500e-02
13.000  23.500  2.0154e-02
13.000  23.750  2.0560e-02
13.000  24.000  2.0814e-02
13.250  17.000  1.0000e-07
13.250  17.250  1.1523e-06
13.250  17.500  2.6337e-06
13.250  17.750  6.2551e-06
13.250  18.000  1.3745e-05
13.250  18.250  2.3210e-05
13.250  18.500  3.8436e-05
13.250  18.750  5.7942e-05
13.250  19.000  8.7819e-05
13.250  19.250  1.3317e-04
13.250  19.500  1.9877e-04
13.250  19.750  2.9317e-04
13.250  20.000  4.2626e-04
13.250  20.250  6.1432e-04
13.250  20.500  8.7531e-04
13.250  20.750  1.2309e-03
13.250  21.000  1.7075e-03
13.250  21.250  2.3150e-03
13.250  21.500  3.1367e-03
13.250  21.750  4.0736e-03
13.250  22.000  5.2723e-03
13.250  22.250  7.0629e-03
13.250  22.500  9.8518e-03
13.250  22.750  1.2659e-02
13.250  23.000  1.5418e-02
13.250  23.250  1.7490e-02
13.250  23.500  1.8920e-02
13.250  23.750  1.9717e-02
13.250  24.000  2.0208e-02
13.500  17.000  1.0000e-07
13.500  17.250  1.0000e-07
13.500  17.500  1.4815e-06
13.500  17.750  3.2922e-06
13.500  18.000  7.5720e-06
13.500  18.250  1.5720e-05
13.500  18.500  2.5350e-05
13.500  18.750  4.0741e-05
13.500  19.000  6.0658e-05
13.500  19.250  9.0782e-05
13.500  19.500  1.3605e-04
13.500  19.750  2.0165e-04
13.500  20.000  2.9556e-04
13.500  20.250  4.2798e-04
13.500  20.500  6.1342e-04
13.500  20.750  8.6700e-04
13.500  21.000  1.2044e-03
13.500  21.250  1.6352e-03
13.500  21.500  2.2151e-03
13.500  21.750  2.8370e-03
13.500  22.000  3.4927e-03
13.500  22.250  4.4654e-03
13.500  22.500  6.2146e-03
13.500  22.750  8.6394e-03
13.500  23.000  1.1417e-02
13.500  23.250  1.4186e-02
13.500  23.500  1.6454e-02
13.500  23.750  1.8094e-02
13.500  24.000  1.9072e-02
13.750  17.000  1.0000e-07
13.750  17.250  1.0000e-07
13.750  17.500  8.2305e-07
13.750  17.750  1.7284e-06
13.750  18.000  4.1152e-06
13.750  18.250  9.1358e-06
13.750  18.500  1.7119e-05
13.750  18.750  2.7325e-05
13.750  19.000  4.2387e-05
13.750  19.250  6.2551e-05
13.750  19.500  9.3004e-05
13.750  19.750  1.3802e-04
13.750  20.000  2.0321e-04
13.750  20.250  2.9630e-04
13.750  20.500  4.2700e-04
13.750  20.750  6.0700e-04
13.750  21.000  8.4757e-04
13.750  21.250  1.1562e-03
13.750  21.500  1.5647e-03
13.750  21.750  1.9872e-03
13.750  22.000  2.3588e-03
13.750  22.250  2.7807e-03
13.750  22.500  3.6746e-03
13.750  22.750  5.3370e-03
13.750  23.000  7.5257e-03
13.750  23.250  1.0102e-02
13.750  23.500  1.2779e-02
13.750  23.750  1.5135e-02
13.750  24.000  1.6966e-02
14.000  17.000  1.0000e-07
14.000  17.250  1.0000e-07
14.000  17.500  1.0000e-07
14.000  17.750  9.8765e-07
14.000  18.000  2.1399e-06
14.000  18.250  4.7737e-06
14.000  18.500  9.7942e-06
14.000  18.750  1.8107e-05
14.000  19.000  2.9794e-05
14.000  19.250  4.3457e-05
14.000  19.500  6.3786e-05
14.000  19.750  9.4074e-05
14.000  20.000  1.3909e-04
14.000  20.250  2.0387e-04
14.000  20.500  2.9564e-04
14.000  20.750  4.2272e-04
14.000  21.000  5.9383e-04
14.000  21.250  8.1449e-04
14.000  21.500  1.1052e-03
14.000  21.750  1.3988e-03
14.000  22.000  1.6122e-03
14.000  22.250  1.7739e-03
14.000  22.500  2.1920e-03
14.000  22.750  3.1341e-03
14.000  23.000  4.5713e-03
14.000  23.250  6.4217e-03
14.000  23.500  8.6867e-03
14.000  23.750  1.1081e-02
14.000  24.000  1.3496e-02
