InwC 7000.00A  relative to Inci 1215.00A scaled to 1215A.
Hden   Phi(H)  Eq_Width (A)
7.000  17.000  1.9357e-02
7.000  17.250  2.5752e-02
7.000  17.500  2.6595e-02
7.000  17.750  2.7112e-02
7.000  18.000  2.7125e-02
7.000  18.250  2.7143e-02
7.000  18.500  2.7146e-02
7.000  18.750  2.7150e-02
7.000  19.000  2.7153e-02
7.000  19.250  2.7155e-02
7.000  19.500  2.7156e-02
7.000  19.750  2.7157e-02
7.000  20.000  2.7157e-02
7.000  20.250  2.7157e-02
7.000  20.500  2.7157e-02
7.000  20.750  2.7157e-02
7.000  21.000  2.7157e-02
7.000  21.250  2.7157e-02
7.000  21.500  2.7157e-02
7.000  21.750  2.7157e-02
7.000  22.000  2.7158e-02
7.000  22.250  2.7158e-02
7.000  22.500  2.7158e-02
7.000  22.750  2.7161e-02
7.000  23.000  2.7158e-02
7.000  23.250  2.7159e-02
7.000  23.500  2.7159e-02
7.000  23.750  2.7159e-02
7.000  24.000  2.7159e-02
7.250  17.000  1.4563e-02
7.250  17.250  1.9613e-02
7.250  17.500  2.5755e-02
7.250  17.750  2.6601e-02
7.250  18.000  2.7112e-02
7.250  18.250  2.7125e-02
7.250  18.500  2.7143e-02
7.250  18.750  2.7146e-02
7.250  19.000  2.7150e-02
7.250  19.250  2.7153e-02
7.250  19.500  2.7155e-02
7.250  19.750  2.7156e-02
7.250  20.000  2.7157e-02
7.250  20.250  2.7157e-02
7.250  20.500  2.7157e-02
7.250  20.750  2.7157e-02
7.250  21.000  2.7157e-02
7.250  21.250  2.7157e-02
7.250  21.500  2.7157e-02
7.250  21.750  2.7157e-02
7.250  22.000  2.7157e-02
7.250  22.250  2.7157e-02
7.250  22.500  2.7157e-02
7.250  22.750  2.7157e-02
7.250  23.000  2.7157e-02
7.250  23.250  2.7158e-02
7.250  23.500  2.7158e-02
7.250  23.750  2.7158e-02
7.250  24.000  2.7158e-02
7.500  17.000  1.0363e-02
7.500  17.250  1.4933e-02
7.500  17.500  1.9849e-02
7.500  17.750  2.5758e-02
7.500  18.000  2.6607e-02
7.500  18.250  2.7112e-02
7.500  18.500  2.7125e-02
7.500  18.750  2.7143e-02
7.500  19.000  2.7146e-02
7.500  19.250  2.7150e-02
7.500  19.500  2.7153e-02
7.500  19.750  2.7155e-02
7.500  20.000  2.7156e-02
7.500  20.250  2.7157e-02
7.500  20.500  2.7157e-02
7.500  20.750  2.7157e-02
7.500  21.000  2.7157e-02
7.500  21.250  2.7157e-02
7.500  21.500  2.7157e-02
7.500  21.750  2.7157e-02
7.500  22.000  2.7157e-02
7.500  22.250  2.7157e-02
7.500  22.500  2.7157e-02
7.500  22.750  2.7157e-02
7.500  23.000  2.7157e-02
7.500  23.250  2.7157e-02
7.500  23.500  2.7157e-02
7.500  23.750  2.7157e-02
7.500  24.000  2.7157e-02
7.750  17.000  6.9712e-03
7.750  17.250  1.0649e-02
7.750  17.500  1.5339e-02
7.750  17.750  2.0109e-02
7.750  18.000  2.5760e-02
7.750  18.250  2.6612e-02
7.750  18.500  2.7112e-02
7.750  18.750  2.7125e-02
7.750  19.000  2.7143e-02
7.750  19.250  2.7146e-02
7.750  19.500  2.7150e-02
7.750  19.750  2.7153e-02
7.750  20.000  2.7155e-02
7.750  20.250  2.7156e-02
7.750  20.500  2.7157e-02
7.750  20.750  2.7157e-02
7.750  21.000  2.7157e-02
7.750  21.250  2.7157e-02
7.750  21.500  2.7157e-02
7.750  21.750  2.7157e-02
7.750  22.000  2.7157e-02
7.750  22.250  2.7157e-02
7.750  22.500  2.7157e-02
7.750  22.750  2.7157e-02
7.750  23.000  2.7157e-02
7.750  23.250  2.7157e-02
7.750  23.500  2.7157e-02
7.750  23.750  2.7157e-02
7.750  24.000  2.7157e-02
8.000  17.000  4.6914e-03
8.000  17.250  7.1128e-03
8.000  17.500  1.0914e-02
8.000  17.750  1.5711e-02
8.000  18.000  2.0343e-02
8.000  18.250  2.5758e-02
8.000  18.500  2.6614e-02
8.000  18.750  2.7112e-02
8.000  19.000  2.7125e-02
8.000  19.250  2.7144e-02
8.000  19.500  2.7146e-02
8.000  19.750  2.7150e-02
8.000  20.000  2.7153e-02
8.000  20.250  2.7155e-02
8.000  20.500  2.7156e-02
8.000  20.750  2.7157e-02
8.000  21.000  2.7157e-02
8.000  21.250  2.7157e-02
8.000  21.500  2.7157e-02
8.000  21.750  2.7157e-02
8.000  22.000  2.7157e-02
8.000  22.250  2.7157e-02
8.000  22.500  2.7157e-02
8.000  22.750  2.7157e-02
8.000  23.000  2.7157e-02
8.000  23.250  2.7157e-02
8.000  23.500  2.7157e-02
8.000  23.750  2.7157e-02
8.000  24.000  2.7157e-02
8.250  17.000  3.2510e-03
8.250  17.250  4.8156e-03
8.250  17.500  7.3552e-03
8.250  17.750  1.1379e-02
8.250  18.000  1.6386e-02
8.250  18.250  2.0804e-02
8.250  18.500  2.5756e-02
8.250  18.750  2.6619e-02
8.250  19.000  2.7112e-02
8.250  19.250  2.7125e-02
8.250  19.500  2.7143e-02
8.250  19.750  2.7146e-02
8.250  20.000  2.7150e-02
8.250  20.250  2.7153e-02
8.250  20.500  2.7155e-02
8.250  20.750  2.7156e-02
8.250  21.000  2.7157e-02
8.250  21.250  2.7157e-02
8.250  21.500  2.7157e-02
8.250  21.750  2.7157e-02
8.250  22.000  2.7157e-02
8.250  22.250  2.7157e-02
8.250  22.500  2.7157e-02
8.250  22.750  2.7157e-02
8.250  23.000  2.7157e-02
8.250  23.250  2.7157e-02
8.250  23.500  2.7157e-02
8.250  23.750  2.7157e-02
8.250  24.000  2.7157e-02
8.500  17.000  2.2934e-03
8.500  17.250  3.3412e-03
8.500  17.500  4.9991e-03
8.500  17.750  7.7567e-03
8.500  18.000  1.2113e-02
8.500  18.250  1.7350e-02
8.500  18.500  2.1402e-02
8.500  18.750  2.5748e-02
8.500  19.000  2.6625e-02
8.500  19.250  2.7112e-02
8.500  19.500  2.7125e-02
8.500  19.750  2.7143e-02
8.500  20.000  2.7146e-02
8.500  20.250  2.7150e-02
8.500  20.500  2.7153e-02
8.500  20.750  2.7155e-02
8.500  21.000  2.7156e-02
8.500  21.250  2.7157e-02
8.500  21.500  2.7157e-02
8.500  21.750  2.7157e-02
8.500  22.000  2.7157e-02
8.500  22.250  2.7157e-02
8.500  22.500  2.7157e-02
8.500  22.750  2.7157e-02
8.500  23.000  2.7157e-02
8.500  23.250  2.7157e-02
8.500  23.500  2.7157e-02
8.500  23.750  2.7157e-02
8.500  24.000  2.7157e-02
8.750  17.000  1.6326e-03
8.750  17.250  2.3604e-03
8.750  17.500  3.4839e-03
8.750  17.750  5.3059e-03
8.750  18.000  8.4376e-03
8.750  18.250  1.3291e-02
8.750  18.500  1.8289e-02
8.750  18.750  2.2007e-02
8.750  19.000  2.5729e-02
8.750  19.250  2.6630e-02
8.750  19.500  2.7113e-02
8.750  19.750  2.7125e-02
8.750  20.000  2.7143e-02
8.750  20.250  2.7146e-02
8.750  20.500  2.7150e-02
8.750  20.750  2.7153e-02
8.750  21.000  2.7155e-02
8.750  21.250  2.7156e-02
8.750  21.500  2.7157e-02
8.750  21.750  2.7157e-02
8.750  22.000  2.7157e-02
8.750  22.250  2.7157e-02
8.750  22.500  2.7157e-02
8.750  22.750  2.7157e-02
8.750  23.000  2.7157e-02
8.750  23.250  2.7157e-02
8.750  23.500  2.7157e-02
8.750  23.750  2.7157e-02
8.750  24.000  2.7157e-02
9.000  17.000  1.1667e-03
9.000  17.250  1.6812e-03
9.000  17.500  2.4673e-03
9.000  17.750  3.7247e-03
9.000  18.000  5.8885e-03
9.000  18.250  9.5508e-03
9.000  18.500  1.4744e-02
9.000  18.750  1.9487e-02
9.000  19.000  2.2931e-02
9.000  19.250  2.5682e-02
9.000  19.500  2.6632e-02
9.000  19.750  2.7112e-02
9.000  20.000  2.7125e-02
9.000  20.250  2.7143e-02
9.000  20.500  2.7146e-02
9.000  20.750  2.7150e-02
9.000  21.000  2.7153e-02
9.000  21.250  2.7155e-02
9.000  21.500  2.7156e-02
9.000  21.750  2.7157e-02
9.000  22.000  2.7157e-02
9.000  22.250  2.7157e-02
9.000  22.500  2.7157e-02
9.000  22.750  2.7157e-02
9.000  23.000  2.7157e-02
9.000  23.250  2.7157e-02
9.000  23.500  2.7157e-02
9.000  23.750  2.7157e-02
9.000  24.000  2.7157e-02
9.250  17.000  8.3556e-04
9.250  17.250  1.2019e-03
9.250  17.500  1.7622e-03
9.250  17.750  2.6590e-03
9.250  18.000  4.1898e-03
9.250  18.250  6.8335e-03
9.250  18.500  1.0936e-02
9.250  18.750  1.6070e-02
9.250  19.000  2.0283e-02
9.250  19.250  2.3821e-02
9.250  19.500  2.5623e-02
9.250  19.750  2.6626e-02
9.250  20.000  2.7112e-02
9.250  20.250  2.7125e-02
9.250  20.500  2.7143e-02
9.250  20.750  2.7146e-02
9.250  21.000  2.7150e-02
9.250  21.250  2.7153e-02
9.250  21.500  2.7153e-02
9.250  21.750  2.7143e-02
9.250  22.000  2.7143e-02
9.250  22.250  2.7144e-02
9.250  22.500  2.7157e-02
9.250  22.750  2.7157e-02
9.250  23.000  2.7157e-02
9.250  23.250  2.7157e-02
9.250  23.500  2.7157e-02
9.250  23.750  2.7157e-02
9.250  24.000  2.7157e-02
9.500  17.000  5.9844e-04
9.500  17.250  8.6091e-04
9.500  17.500  1.2644e-03
9.500  17.750  1.9173e-03
9.500  18.000  3.0448e-03
9.500  18.250  4.9968e-03
9.500  18.500  7.9928e-03
9.500  18.750  1.2275e-02
9.500  19.000  1.7428e-02
9.500  19.250  2.0992e-02
9.500  19.500  2.4414e-02
9.500  19.750  2.5545e-02
9.500  20.000  2.6611e-02
9.500  20.250  2.7110e-02
9.500  20.500  2.7125e-02
9.500  20.750  2.7142e-02
9.500  21.000  2.7142e-02
9.500  21.250  2.7138e-02
9.500  21.500  2.7139e-02
9.500  21.750  2.7139e-02
9.500  22.000  2.7135e-02
9.500  22.250  2.7131e-02
9.500  22.500  2.7132e-02
9.500  22.750  2.7132e-02
9.500  23.000  2.7132e-02
9.500  23.250  2.7132e-02
9.500  23.500  2.7140e-02
9.500  23.750  2.7140e-02
9.500  24.000  2.7140e-02
9.750  17.000  4.2881e-04
9.750  17.250  6.1720e-04
9.750  17.500  9.0823e-04
9.750  17.750  1.3878e-03
9.750  18.000  2.2364e-03
9.750  18.250  3.7021e-03
9.750  18.500  5.9192e-03
9.750  18.750  9.1022e-03
9.750  19.000  1.3427e-02
9.750  19.250  1.8200e-02
9.750  19.500  2.1951e-02
9.750  19.750  2.4701e-02
9.750  20.000  2.5467e-02
9.750  20.250  2.6563e-02
9.750  20.500  2.7106e-02
9.750  20.750  2.7124e-02
9.750  21.000  2.7142e-02
9.750  21.250  2.7145e-02
9.750  21.500  2.7145e-02
9.750  21.750  2.7140e-02
9.750  22.000  2.7141e-02
9.750  22.250  2.7138e-02
9.750  22.500  2.7133e-02
9.750  22.750  2.7131e-02
9.750  23.000  2.7132e-02
9.750  23.250  2.7132e-02
9.750  23.500  2.7132e-02
9.750  23.750  2.7132e-02
9.750  24.000  2.7132e-02
10.000  17.000  3.0733e-04
10.000  17.250  4.4288e-04
10.000  17.500  6.5350e-04
10.000  17.750  1.0081e-03
10.000  18.000  1.6483e-03
10.000  18.250  2.7532e-03
10.000  18.500  4.3799e-03
10.000  18.750  6.7370e-03
10.000  19.000  1.0001e-02
10.000  19.250  1.4373e-02
10.000  19.500  1.8764e-02
10.000  19.750  2.2661e-02
10.000  20.000  2.4561e-02
10.000  20.250  2.5348e-02
10.000  20.500  2.6510e-02
10.000  20.750  2.7094e-02
10.000  21.000  2.7123e-02
10.000  21.250  2.7142e-02
10.000  21.500  2.7145e-02
10.000  21.750  2.7148e-02
10.000  22.000  2.7145e-02
10.000  22.250  2.7141e-02
10.000  22.500  2.7140e-02
10.000  22.750  2.7137e-02
10.000  23.000  2.7134e-02
10.000  23.250  2.7132e-02
10.000  23.500  2.7131e-02
10.000  23.750  2.7131e-02
10.000  24.000  2.7131e-02
10.250  17.000  2.2091e-04
10.250  17.250  3.1811e-04
10.250  17.500  4.7119e-04
10.250  17.750  7.3498e-04
10.250  18.000  1.2153e-03
10.250  18.250  2.0290e-03
10.250  18.500  3.2495e-03
10.250  18.750  4.9889e-03
10.250  19.000  7.3948e-03
10.250  19.250  1.0766e-02
10.250  19.500  1.4905e-02
10.250  19.750  1.9293e-02
10.250  20.000  2.3341e-02
10.250  20.250  2.4424e-02
10.250  20.500  2.5276e-02
10.250  20.750  2.6479e-02
10.250  21.000  2.7076e-02
10.250  21.250  2.7119e-02
10.250  21.500  2.7141e-02
10.250  21.750  2.7145e-02
10.250  22.000  2.7149e-02
10.250  22.250  2.7150e-02
10.250  22.500  2.7141e-02
10.250  22.750  2.7141e-02
10.250  23.000  2.7140e-02
10.250  23.250  2.7137e-02
10.250  23.500  2.7135e-02
10.250  23.750  2.7134e-02
10.250  24.000  2.7134e-02
10.500  17.000  1.5984e-04
10.500  17.250  2.2955e-04
10.500  17.500  3.4132e-04
10.500  17.750  5.3778e-04
10.500  18.000  8.9572e-04
10.500  18.250  1.5055e-03
10.500  18.500  2.3870e-03
10.500  18.750  3.6643e-03
10.500  19.000  5.4295e-03
10.500  19.250  7.9030e-03
10.500  19.500  1.1236e-02
10.500  19.750  1.5335e-02
10.500  20.000  1.9919e-02
10.500  20.250  2.3590e-02
10.500  20.500  2.4281e-02
10.500  20.750  2.5221e-02
10.500  21.000  2.6463e-02
10.500  21.250  2.7049e-02
10.500  21.500  2.7112e-02
10.500  21.750  2.7139e-02
10.500  22.000  2.7145e-02
10.500  22.250  2.7149e-02
10.500  22.500  2.7152e-02
10.500  22.750  2.7144e-02
10.500  23.000  2.7142e-02
10.500  23.250  2.7141e-02
10.500  23.500  2.7140e-02
10.500  23.750  2.7139e-02
10.500  24.000  2.7138e-02
10.750  17.000  1.1630e-04
10.750  17.250  1.6626e-04
10.750  17.500  2.4798e-04
10.750  17.750  3.9399e-04
10.750  18.000  6.5942e-04
10.750  18.250  1.0995e-03
10.750  18.500  1.7387e-03
10.750  18.750  2.6585e-03
10.750  19.000  3.9552e-03
10.750  19.250  5.7464e-03
10.750  19.500  8.2420e-03
10.750  19.750  1.1603e-02
10.750  20.000  1.5793e-02
10.750  20.250  2.0537e-02
10.750  20.500  2.3480e-02
10.750  20.750  2.4207e-02
10.750  21.000  2.5142e-02
10.750  21.250  2.6460e-02
10.750  21.500  2.7017e-02
10.750  21.750  2.7099e-02
10.750  22.000  2.7133e-02
10.750  22.250  2.7143e-02
10.750  22.500  2.7148e-02
10.750  22.750  2.7152e-02
10.750  23.000  2.7151e-02
10.750  23.250  2.7142e-02
10.750  23.500  2.7142e-02
10.750  23.750  2.7141e-02
10.750  24.000  2.7141e-02
11.000  17.000  8.5103e-05
11.000  17.250  1.2091e-04
11.000  17.500  1.8041e-04
11.000  17.750  2.8823e-04
11.000  18.000  4.8181e-04
11.000  18.250  7.9597e-04
11.000  18.500  1.2686e-03
11.000  18.750  1.9350e-03
11.000  19.000  2.8775e-03
11.000  19.250  4.1769e-03
11.000  19.500  5.9686e-03
11.000  19.750  8.5018e-03
11.000  20.000  1.1937e-02
11.000  20.250  1.6215e-02
11.000  20.500  2.1117e-02
11.000  20.750  2.3368e-02
11.000  21.000  2.4163e-02
11.000  21.250  2.5159e-02
11.000  21.500  2.6551e-02
11.000  21.750  2.6984e-02
11.000  22.000  2.7080e-02
11.000  22.250  2.7126e-02
11.000  22.500  2.7141e-02
11.000  22.750  2.7147e-02
11.000  23.000  2.7151e-02
11.000  23.250  2.7154e-02
11.000  23.500  2.7145e-02
11.000  23.750  2.7143e-02
11.000  24.000  2.7142e-02
11.250  17.000  6.3045e-05
11.250  17.250  8.8313e-05
11.250  17.500  1.3119e-04
11.250  17.750  2.0947e-04
11.250  18.000  3.4856e-04
11.250  18.250  5.7037e-04
11.250  18.500  8.9704e-04
11.250  18.750  1.3812e-03
11.250  19.000  2.0535e-03
11.250  19.250  2.9827e-03
11.250  19.500  4.2939e-03
11.250  19.750  6.1271e-03
11.250  20.000  8.7102e-03
11.250  20.250  1.2220e-02
11.250  20.500  1.6614e-02
11.250  20.750  2.1518e-02
11.250  21.000  2.3278e-02
11.250  21.250  2.4155e-02
11.250  21.500  2.5282e-02
11.250  21.750  2.6633e-02
11.250  22.000  2.6943e-02
11.250  22.250  2.7054e-02
11.250  22.500  2.7110e-02
11.250  22.750  2.7138e-02
11.250  23.000  2.7145e-02
11.250  23.250  2.7151e-02
11.250  23.500  2.7154e-02
11.250  23.750  2.7151e-02
11.250  24.000  2.7143e-02
11.500  17.000  4.7078e-05
11.500  17.250  6.5021e-05
11.500  17.500  9.5638e-05
11.500  17.750  1.5119e-04
11.500  18.000  2.4897e-04
11.500  18.250  4.0519e-04
11.500  18.500  6.3531e-04
11.500  18.750  9.7975e-04
11.500  19.000  1.4553e-03
11.500  19.250  2.1245e-03
11.500  19.500  3.0713e-03
11.500  19.750  4.4080e-03
11.500  20.000  6.2734e-03
11.500  20.250  8.9037e-03
11.500  20.500  1.2484e-02
11.500  20.750  1.6972e-02
11.500  21.000  2.1679e-02
11.500  21.250  2.3184e-02
11.500  21.500  2.4249e-02
11.500  21.750  2.5500e-02
11.500  22.000  2.6657e-02
11.500  22.250  2.6893e-02
11.500  22.500  2.7024e-02
11.500  22.750  2.7094e-02
11.500  23.000  2.7133e-02
11.500  23.250  2.7142e-02
11.500  23.500  2.7149e-02
11.500  23.750  2.7154e-02
11.500  24.000  2.7154e-02
11.750  17.000  3.6132e-05
11.750  17.250  4.8477e-05
11.750  17.500  6.9794e-05
11.750  17.750  1.0881e-04
11.750  18.000  1.7638e-04
11.750  18.250  2.8444e-04
11.750  18.500  4.4486e-04
11.750  18.750  6.7984e-04
11.750  19.000  1.0202e-03
11.750  19.250  1.5006e-03
11.750  19.500  2.1809e-03
11.750  19.750  3.1429e-03
11.750  20.000  4.4802e-03
11.750  20.250  6.3710e-03
11.750  20.500  9.0628e-03
11.750  20.750  1.2691e-02
11.750  21.000  1.7239e-02
11.750  21.250  2.1418e-02
11.750  21.500  2.3166e-02
11.750  21.750  2.4367e-02
11.750  22.000  2.5759e-02
11.750  22.250  2.6605e-02
11.750  22.500  2.6845e-02
11.750  22.750  2.6988e-02
11.750  23.000  2.7072e-02
11.750  23.250  2.7125e-02
11.750  23.500  2.7138e-02
11.750  23.750  2.7147e-02
11.750  24.000  2.7154e-02
12.000  17.000  2.8560e-05
12.000  17.250  3.7119e-05
12.000  17.500  5.1687e-05
12.000  17.750  7.8025e-05
12.000  18.000  1.2354e-04
12.000  18.250  1.9679e-04
12.000  18.500  3.0848e-04
12.000  18.750  4.7350e-04
12.000  19.000  7.1300e-04
12.000  19.250  1.0562e-03
12.000  19.500  1.5463e-03
12.000  19.750  2.2294e-03
12.000  20.000  3.1896e-03
12.000  20.250  4.5402e-03
12.000  20.500  6.4504e-03
12.000  20.750  9.1569e-03
12.000  21.000  1.2809e-02
12.000  21.250  1.7348e-02
12.000  21.500  2.1182e-02
12.000  21.750  2.3095e-02
12.000  22.000  2.4512e-02
12.000  22.250  2.5937e-02
12.000  22.500  2.6540e-02
12.000  22.750  2.6794e-02
12.000  23.000  2.6944e-02
12.000  23.250  2.7043e-02
12.000  23.500  2.7114e-02
12.000  23.750  2.7133e-02
12.000  24.000  2.7145e-02
12.250  17.000  2.1399e-05
12.250  17.250  2.9383e-05
12.250  17.500  3.9342e-05
12.250  17.750  5.6708e-05
12.250  18.000  8.6749e-05
12.250  18.250  1.3630e-04
12.250  18.500  2.1350e-04
12.250  18.750  3.2856e-04
12.250  19.000  4.9588e-04
12.250  19.250  7.3918e-04
12.250  19.500  1.0883e-03
12.250  19.750  1.5748e-03
12.250  20.000  2.2686e-03
12.250  20.250  3.2244e-03
12.250  20.500  4.5907e-03
12.250  20.750  6.5013e-03
12.250  21.000  9.1703e-03
12.250  21.250  1.2771e-02
12.250  21.500  1.7199e-02
12.250  21.750  2.0804e-02
12.250  22.000  2.2995e-02
12.250  22.250  2.4658e-02
12.250  22.500  2.5956e-02
12.250  22.750  2.6453e-02
12.250  23.000  2.6722e-02
12.250  23.250  2.6886e-02
12.250  23.500  2.7004e-02
12.250  23.750  2.7100e-02
12.250  24.000  2.7125e-02
12.500  17.000  1.1276e-05
12.500  17.250  2.2551e-05
12.500  17.500  3.0782e-05
12.500  17.750  4.2387e-05
12.500  18.000  6.2140e-05
12.500  18.250  9.4815e-05
12.500  18.500  1.4716e-04
12.500  18.750  2.2774e-04
12.500  19.000  3.4626e-04
12.500  19.250  5.1786e-04
12.500  19.500  7.6329e-04
12.500  19.750  1.1103e-03
12.500  20.000  1.6017e-03
12.500  20.250  2.2939e-03
12.500  20.500  3.2546e-03
12.500  20.750  4.5981e-03
12.500  21.000  6.4804e-03
12.500  21.250  9.0613e-03
12.500  21.500  1.2529e-02
12.500  21.750  1.6868e-02
12.500  22.000  2.0293e-02
12.500  22.250  2.2860e-02
12.500  22.500  2.4670e-02
12.500  22.750  2.5843e-02
12.500  23.000  2.6325e-02
12.500  23.250  2.6621e-02
12.500  23.500  2.6802e-02
12.500  23.750  2.6950e-02
12.500  24.000  2.7081e-02
12.750  17.000  5.8436e-06
12.750  17.250  1.2593e-05
12.750  17.500  2.4115e-05
12.750  17.750  3.2428e-05
12.750  18.000  4.5432e-05
12.750  18.250  6.7160e-05
12.750  18.500  1.0247e-04
12.750  18.750  1.5794e-04
12.750  19.000  2.4008e-04
12.750  19.250  3.6041e-04
12.750  19.500  5.3333e-04
12.750  19.750  7.7877e-04
12.750  20.000  1.1266e-03
12.750  20.250  1.6160e-03
12.750  20.500  2.3051e-03
12.750  20.750  3.2605e-03
12.750  21.000  4.5658e-03
12.750  21.250  6.3766e-03
12.750  21.500  8.8374e-03
12.750  21.750  1.2131e-02
12.750  22.000  1.6284e-02
12.750  22.250  1.9680e-02
12.750  22.500  2.2610e-02
12.750  22.750  2.4426e-02
12.750  23.000  2.5592e-02
12.750  23.250  2.6136e-02
12.750  23.500  2.6472e-02
12.750  23.750  2.6680e-02
12.750  24.000  2.6869e-02
13.000  17.000  1.4815e-06
13.000  17.250  3.2922e-06
13.000  17.500  1.0041e-05
13.000  17.750  2.1152e-05
13.000  18.000  3.2181e-05
13.000  18.250  4.8807e-05
13.000  18.500  7.2510e-05
13.000  18.750  1.0947e-04
13.000  19.000  1.6601e-04
13.000  19.250  2.4988e-04
13.000  19.500  3.7193e-04
13.000  19.750  5.4346e-04
13.000  20.000  7.8922e-04
13.000  20.250  1.1371e-03
13.000  20.500  1.6221e-03
13.000  20.750  2.3037e-03
13.000  21.000  3.2364e-03
13.000  21.250  4.5010e-03
13.000  21.500  6.2128e-03
13.000  21.750  8.4781e-03
13.000  22.000  1.1497e-02
13.000  22.250  1.5428e-02
13.000  22.500  1.8896e-02
13.000  22.750  2.1905e-02
13.000  23.000  2.3885e-02
13.000  23.250  2.5190e-02
13.000  23.500  2.5842e-02
13.000  23.750  2.6243e-02
13.000  24.000  2.6492e-02
13.250  17.000  8.2305e-07
13.250  17.250  1.6461e-06
13.250  17.500  3.7860e-06
13.250  17.750  8.9712e-06
13.250  18.000  1.9588e-05
13.250  18.250  3.2263e-05
13.250  18.500  5.2181e-05
13.250  18.750  7.6955e-05
13.250  19.000  1.1498e-04
13.250  19.250  1.7292e-04
13.250  19.500  2.5695e-04
13.250  19.750  3.7835e-04
13.250  20.000  5.5037e-04
13.250  20.250  7.9572e-04
13.250  20.500  1.1411e-03
13.250  20.750  1.6224e-03
13.250  21.000  2.2895e-03
13.250  21.250  3.1840e-03
13.250  21.500  4.3819e-03
13.250  21.750  5.8896e-03
13.250  22.000  7.8202e-03
13.250  22.250  1.0471e-02
13.250  22.500  1.4217e-02
13.250  22.750  1.7569e-02
13.250  23.000  2.0750e-02
13.250  23.250  2.3070e-02
13.250  23.500  2.4593e-02
13.250  23.750  2.5399e-02
13.250  24.000  2.5889e-02
13.500  17.000  1.0000e-07
13.500  17.250  9.0535e-07
13.500  17.500  2.0576e-06
13.500  17.750  4.6914e-06
13.500  18.000  1.0947e-05
13.500  18.250  2.2387e-05
13.500  18.500  3.4979e-05
13.500  18.750  5.5062e-05
13.500  19.000  8.0329e-05
13.500  19.250  1.1877e-04
13.500  19.500  1.7679e-04
13.500  19.750  2.6107e-04
13.500  20.000  3.8222e-04
13.500  20.250  5.5465e-04
13.500  20.500  7.9934e-04
13.500  20.750  1.1411e-03
13.500  21.000  1.6117e-03
13.500  21.250  2.2449e-03
13.500  21.500  3.0928e-03
13.500  21.750  4.1225e-03
13.500  22.000  5.2760e-03
13.500  22.250  6.8123e-03
13.500  22.500  9.3595e-03
13.500  22.750  1.2690e-02
13.500  23.000  1.6118e-02
13.500  23.250  1.9369e-02
13.500  23.500  2.1956e-02
13.500  23.750  2.3734e-02
13.500  24.000  2.4739e-02
13.750  17.000  1.0000e-07
13.750  17.250  1.0000e-07
13.750  17.500  1.2346e-06
13.750  17.750  2.4691e-06
13.750  18.000  5.8436e-06
13.750  18.250  1.3169e-05
13.750  18.500  2.4280e-05
13.750  18.750  3.7695e-05
13.750  19.000  5.7202e-05
13.750  19.250  8.2798e-05
13.750  19.500  1.2165e-04
13.750  19.750  1.7951e-04
13.750  20.000  2.6362e-04
13.750  20.250  3.8461e-04
13.750  20.500  5.5671e-04
13.750  20.750  7.9852e-04
13.750  21.000  1.1328e-03
13.750  21.250  1.5850e-03
13.750  21.500  2.1833e-03
13.750  21.750  2.8990e-03
13.750  22.000  3.6165e-03
13.750  22.250  4.3499e-03
13.750  22.500  5.6503e-03
13.750  22.750  8.1285e-03
13.750  23.000  1.1232e-02
13.750  23.250  1.4531e-02
13.750  23.500  1.7768e-02
13.750  23.750  2.0525e-02
13.750  24.000  2.2544e-02
14.000  17.000  1.0000e-07
14.000  17.250  1.0000e-07
14.000  17.500  1.0000e-07
14.000  17.750  1.4815e-06
14.000  18.000  3.0453e-06
14.000  18.250  6.8313e-06
14.000  18.500  1.4074e-05
14.000  18.750  2.5597e-05
14.000  19.000  4.1235e-05
14.000  19.250  5.8519e-05
14.000  19.500  8.4362e-05
14.000  19.750  1.2329e-04
14.000  20.000  1.8123e-04
14.000  20.250  2.6535e-04
14.000  20.500  3.8609e-04
14.000  20.750  5.5654e-04
14.000  21.000  7.9358e-04
14.000  21.250  1.1162e-03
14.000  21.500  1.5423e-03
14.000  21.750  2.0482e-03
14.000  22.000  2.5043e-03
14.000  22.250  2.8388e-03
14.000  22.500  3.4247e-03
14.000  22.750  4.7959e-03
14.000  23.000  7.0313e-03
14.000  23.250  9.7423e-03
14.000  23.500  1.2773e-02
14.000  23.750  1.5796e-02
14.000  24.000  1.8706e-02
