InwC 1218.08A  relative to Inci 1215.00A scaled to 1215A.
Hden   Phi(H)  Eq_Width (A)
7.000  17.000  9.6989e-01
7.000  17.250  1.5761e-01
7.000  17.500  7.8671e-02
7.000  17.750  7.7856e-02
7.000  18.000  7.7414e-02
7.000  18.250  7.7280e-02
7.000  18.500  7.7184e-02
7.000  18.750  7.7172e-02
7.000  19.000  7.7174e-02
7.000  19.250  7.7178e-02
7.000  19.500  7.7180e-02
7.000  19.750  7.7181e-02
7.000  20.000  7.7181e-02
7.000  20.250  7.7182e-02
7.000  20.500  7.7182e-02
7.000  20.750  7.7182e-02
7.000  21.000  7.7182e-02
7.000  21.250  7.7182e-02
7.000  21.500  7.7183e-02
7.000  21.750  7.7183e-02
7.000  22.000  7.7183e-02
7.000  22.250  7.7184e-02
7.000  22.500  7.7184e-02
7.000  22.750  7.7193e-02
7.000  23.000  7.7186e-02
7.000  23.250  7.7187e-02
7.000  23.500  7.7187e-02
7.000  23.750  7.7187e-02
7.000  24.000  7.7188e-02
7.250  17.000  9.7451e-01
7.250  17.250  9.7000e-01
7.250  17.500  1.4058e-01
7.250  17.750  7.8650e-02
7.250  18.000  7.7849e-02
7.250  18.250  7.7411e-02
7.250  18.500  7.7280e-02
7.250  18.750  7.7184e-02
7.250  19.000  7.7172e-02
7.250  19.250  7.7174e-02
7.250  19.500  7.7178e-02
7.250  19.750  7.7180e-02
7.250  20.000  7.7181e-02
7.250  20.250  7.7181e-02
7.250  20.500  7.7182e-02
7.250  20.750  7.7182e-02
7.250  21.000  7.7182e-02
7.250  21.250  7.7182e-02
7.250  21.500  7.7182e-02
7.250  21.750  7.7182e-02
7.250  22.000  7.7182e-02
7.250  22.250  7.7182e-02
7.250  22.500  7.7183e-02
7.250  22.750  7.7183e-02
7.250  23.000  7.7183e-02
7.250  23.250  7.7183e-02
7.250  23.500  7.7183e-02
7.250  23.750  7.7183e-02
7.250  24.000  7.7184e-02
7.500  17.000  9.7936e-01
7.500  17.250  9.7448e-01
7.500  17.500  9.7002e-01
7.500  17.750  1.3206e-01
7.500  18.000  -7.8181e-01
7.500  18.250  -1.5206e+00
7.500  18.500  -2.0975e+00
7.500  18.750  -2.5258e+00
7.500  19.000  -2.8188e+00
7.500  19.250  -2.9898e+00
7.500  19.500  -3.0519e+00
7.500  19.750  -3.0185e+00
7.500  20.000  -2.9028e+00
7.500  20.250  -2.7181e+00
7.500  20.500  -2.4776e+00
7.500  20.750  -2.1946e+00
7.500  21.000  -1.8824e+00
7.500  21.250  -1.5541e+00
7.500  21.500  -1.2232e+00
7.500  21.750  -9.0278e-01
7.500  22.000  -6.0616e-01
7.500  22.250  -3.4659e-01
7.500  22.500  -1.3734e-01
7.500  22.750  8.3383e-03
7.500  23.000  7.7183e-02
7.500  23.250  7.7182e-02
7.500  23.500  7.7182e-02
7.500  23.750  7.7182e-02
7.500  24.000  7.7182e-02
7.750  17.000  9.8391e-01
7.750  17.250  9.7927e-01
7.750  17.500  9.7437e-01
7.750  17.750  9.6987e-01
7.750  18.000  1.2732e-01
7.750  18.250  -7.1315e-01
7.750  18.500  -1.2925e+00
7.750  18.750  -1.6439e+00
7.750  19.000  -1.8006e+00
7.750  19.250  -1.7957e+00
7.750  19.500  -1.6624e+00
7.750  19.750  -1.4339e+00
7.750  20.000  -1.1435e+00
7.750  20.250  -8.2421e-01
7.750  20.500  -5.0932e-01
7.750  20.750  -2.3200e-01
7.750  21.000  -2.5439e-02
7.750  21.250  7.7182e-02
7.750  21.500  7.7182e-02
7.750  21.750  7.7182e-02
7.750  22.000  7.7182e-02
7.750  22.250  7.7182e-02
7.750  22.500  7.7182e-02
7.750  22.750  7.7182e-02
7.750  23.000  7.7182e-02
7.750  23.250  7.7182e-02
7.750  23.500  7.7182e-02
7.750  23.750  7.7182e-02
7.750  24.000  7.7182e-02
8.000  17.000  9.8810e-01
8.000  17.250  9.8397e-01
8.000  17.500  9.7947e-01
8.000  17.750  9.7462e-01
8.000  18.000  9.6984e-01
8.000  18.250  1.3451e-01
8.000  18.500  -6.8277e-01
8.000  18.750  -1.2251e+00
8.000  19.000  -1.5306e+00
8.000  19.250  -1.6375e+00
8.000  19.500  -1.5840e+00
8.000  19.750  -1.4081e+00
8.000  20.000  -1.1482e+00
8.000  20.250  -8.4231e-01
8.000  20.500  -5.2866e-01
8.000  20.750  -2.4542e-01
8.000  21.000  -3.0747e-02
8.000  21.250  7.7182e-02
8.000  21.500  7.7182e-02
8.000  21.750  7.7182e-02
8.000  22.000  7.7182e-02
8.000  22.250  7.7182e-02
8.000  22.500  7.7182e-02
8.000  22.750  7.7182e-02
8.000  23.000  7.7182e-02
8.000  23.250  7.7182e-02
8.000  23.500  7.7182e-02
8.000  23.750  7.7182e-02
8.000  24.000  7.7182e-02
8.250  17.000  9.9139e-01
8.250  17.250  9.8796e-01
8.250  17.500  9.8377e-01
8.250  17.750  9.7918e-01
8.250  18.000  9.7416e-01
8.250  18.250  9.6910e-01
8.250  18.500  1.2891e-01
8.250  18.750  -6.7413e-01
8.250  19.000  -1.1820e+00
8.250  19.250  -1.4398e+00
8.250  19.500  -1.4928e+00
8.250  19.750  -1.3861e+00
8.250  20.000  -1.1649e+00
8.250  20.250  -8.7437e-01
8.250  20.500  -5.5973e-01
8.250  20.750  -2.6614e-01
8.250  21.000  -3.8780e-02
8.250  21.250  7.7182e-02
8.250  21.500  7.7182e-02
8.250  21.750  7.7182e-02
8.250  22.000  7.7182e-02
8.250  22.250  7.7182e-02
8.250  22.500  7.7182e-02
8.250  22.750  7.7182e-02
8.250  23.000  7.7182e-02
8.250  23.250  7.7182e-02
8.250  23.500  7.7182e-02
8.250  23.750  7.7182e-02
8.250  24.000  7.7182e-02
8.500  17.000  9.9386e-01
8.500  17.250  9.9123e-01
8.500  17.500  9.8775e-01
8.500  17.750  9.8350e-01
8.500  18.000  9.7855e-01
8.500  18.250  9.7314e-01
8.500  18.500  9.6730e-01
8.500  18.750  1.2028e-01
8.500  19.000  -7.0779e-01
8.500  19.250  -1.2567e+00
8.500  19.500  -1.5652e+00
8.500  19.750  -1.6720e+00
8.500  20.000  -1.6160e+00
8.500  20.250  -1.4360e+00
8.500  20.500  -1.1707e+00
8.500  20.750  -8.5896e-01
8.500  21.000  -5.3950e-01
8.500  21.250  -2.5113e-01
8.500  21.500  -3.2643e-02
8.500  21.750  7.7182e-02
8.500  22.000  7.7182e-02
8.500  22.250  7.7182e-02
8.500  22.500  7.7182e-02
8.500  22.750  7.7182e-02
8.500  23.000  7.7182e-02
8.500  23.250  7.7182e-02
8.500  23.500  7.7182e-02
8.500  23.750  7.7182e-02
8.500  24.000  7.7182e-02
8.750  17.000  9.9555e-01
8.750  17.250  9.9366e-01
8.750  17.500  9.9095e-01
8.750  17.750  9.8732e-01
8.750  18.000  9.8277e-01
8.750  18.250  9.7708e-01
8.750  18.500  9.7061e-01
8.750  18.750  9.6374e-01
8.750  19.000  1.0917e-01
8.750  19.250  -7.2577e-01
8.750  19.500  -1.2787e+00
8.750  19.750  -1.5890e+00
8.750  20.000  -1.6956e+00
8.750  20.250  -1.6378e+00
8.750  20.500  -1.4549e+00
8.750  20.750  -1.1859e+00
8.750  21.000  -8.7016e-01
8.750  21.250  -5.4678e-01
8.750  21.500  -2.5496e-01
8.750  21.750  -3.3914e-02
8.750  22.000  7.7182e-02
8.750  22.250  7.7182e-02
8.750  22.500  7.7182e-02
8.750  22.750  7.7182e-02
8.750  23.000  7.7182e-02
8.750  23.250  7.7182e-02
8.750  23.500  7.7182e-02
8.750  23.750  7.7182e-02
8.750  24.000  7.7182e-02
9.000  17.000  9.9661e-01
9.000  17.250  9.9529e-01
9.000  17.500  9.9329e-01
9.000  17.750  9.9041e-01
9.000  18.000  9.8648e-01
9.000  18.250  9.8124e-01
9.000  18.500  9.7467e-01
9.000  18.750  9.6683e-01
9.000  19.000  9.5701e-01
9.000  19.250  9.6574e-02
9.000  19.500  -7.4306e-01
9.000  19.750  -1.2986e+00
9.000  20.000  -1.6097e+00
9.000  20.250  -1.7157e+00
9.000  20.500  -1.6561e+00
9.000  20.750  -1.4705e+00
9.000  21.000  -1.1984e+00
9.000  21.250  -8.7933e-01
9.000  21.500  -5.5270e-01
9.000  21.750  -2.5807e-01
9.000  22.000  -3.4940e-02
9.000  22.250  7.7182e-02
9.000  22.500  7.7182e-02
9.000  22.750  7.7182e-02
9.000  23.000  7.7182e-02
9.000  23.250  7.7182e-02
9.000  23.500  7.7182e-02
9.000  23.750  7.7182e-02
9.000  24.000  7.7182e-02
9.250  17.000  9.9722e-01
9.250  17.250  9.9627e-01
9.250  17.500  9.9482e-01
9.250  17.750  9.9263e-01
9.250  18.000  9.8941e-01
9.250  18.250  9.8487e-01
9.250  18.500  9.7857e-01
9.250  18.750  9.7005e-01
9.250  19.000  9.5958e-01
9.250  19.250  9.4700e-01
9.250  19.500  8.6951e-02
9.250  19.750  -7.8290e-01
9.250  20.000  -1.4007e+00
9.250  20.250  -1.7961e+00
9.250  20.500  -1.9987e+00
9.250  20.750  -2.0379e+00
9.250  21.000  -1.9435e+00
9.250  21.250  -1.7449e+00
9.250  21.500  -1.4717e+00
9.250  21.750  -1.1535e+00
9.250  22.000  -8.1991e-01
9.250  22.250  -5.0047e-01
9.250  22.500  -2.2476e-01
9.250  22.750  -2.2351e-02
9.250  23.000  7.7182e-02
9.250  23.250  7.7182e-02
9.250  23.500  7.7182e-02
9.250  23.750  7.7182e-02
9.250  24.000  7.7182e-02
9.500  17.000  9.9754e-01
9.500  17.250  9.9681e-01
9.500  17.500  9.9571e-01
9.500  17.750  9.9404e-01
9.500  18.000  9.9152e-01
9.500  18.250  9.8772e-01
9.500  18.500  9.8207e-01
9.500  18.750  9.7392e-01
9.500  19.000  9.6285e-01
9.500  19.250  9.5023e-01
9.500  19.500  9.3691e-01
9.500  19.750  8.2100e-02
9.500  20.000  -7.9513e-01
9.500  20.250  -1.4353e+00
9.500  20.500  -1.8642e+00
9.500  20.750  -2.1076e+00
9.500  21.000  -2.1913e+00
9.500  21.250  -2.1412e+00
9.500  21.500  -1.9830e+00
9.500  21.750  -1.7426e+00
9.500  22.000  -1.4456e+00
9.500  22.250  -1.1180e+00
9.500  22.500  -7.8551e-01
9.500  22.750  -4.7396e-01
9.500  23.000  -2.0913e-01
9.500  23.250  -1.6835e-02
9.500  23.500  7.7134e-02
9.500  23.750  7.7134e-02
9.500  24.000  7.7134e-02
9.750  17.000  9.9766e-01
9.750  17.250  9.9705e-01
9.750  17.500  9.9615e-01
9.750  17.750  9.9482e-01
9.750  18.000  9.9289e-01
9.750  18.250  9.8982e-01
9.750  18.500  9.8499e-01
9.750  18.750  9.7771e-01
9.750  19.000  9.6738e-01
9.750  19.250  9.5398e-01
9.750  19.500  9.4047e-01
9.750  19.750  1.0540e-01
9.750  20.000  -7.5195e-01
9.750  20.250  -1.3782e+00
9.750  20.500  -1.7985e+00
9.750  20.750  -2.0379e+00
9.750  21.000  -2.1217e+00
9.750  21.250  -2.0748e+00
9.750  21.500  -1.9225e+00
9.750  21.750  -1.6899e+00
9.750  22.000  -1.4020e+00
9.750  22.250  -1.0841e+00
9.750  22.500  -7.6123e-01
9.750  22.750  -4.5855e-01
9.750  23.000  -2.0118e-01
9.750  23.250  -1.4250e-02
9.750  23.500  7.7112e-02
9.750  23.750  7.7112e-02
9.750  24.000  7.7112e-02
10.000  17.000  9.9768e-01
10.000  17.250  9.9712e-01
10.000  17.500  9.9636e-01
10.000  17.750  9.9525e-01
10.000  18.000  9.9375e-01
10.000  18.250  9.9132e-01
10.000  18.500  9.8738e-01
10.000  18.750  9.8136e-01
10.000  19.000  9.7288e-01
10.000  19.250  9.6201e-01
10.000  19.500  9.4777e-01
10.000  19.750  9.3231e-01
10.000  20.000  9.4268e-02
10.000  20.250  7.7817e-02
10.000  20.500  7.7702e-02
10.000  20.750  7.7705e-02
10.000  21.000  7.7344e-02
10.000  21.250  7.7265e-02
10.000  21.500  7.7180e-02
10.000  21.750  7.7167e-02
10.000  22.000  7.7151e-02
10.000  22.250  7.7138e-02
10.000  22.500  7.7134e-02
10.000  22.750  7.7125e-02
10.000  23.000  7.7116e-02
10.000  23.250  7.7111e-02
10.000  23.500  7.7108e-02
10.000  23.750  7.7108e-02
10.000  24.000  7.7109e-02
10.250  17.000  9.9767e-01
10.250  17.250  9.9711e-01
10.250  17.500  9.9642e-01
10.250  17.750  9.9553e-01
10.250  18.000  9.9427e-01
10.250  18.250  9.9238e-01
10.250  18.500  9.8925e-01
10.250  18.750  9.8453e-01
10.250  19.000  9.7775e-01
10.250  19.250  9.6834e-01
10.250  19.500  9.5511e-01
10.250  19.750  9.3904e-01
10.250  20.000  9.1820e-01
10.250  20.250  7.9849e-02
10.250  20.500  -4.0533e-01
10.250  20.750  -3.8326e-01
10.250  21.000  -1.3027e-01
10.250  21.250  7.7334e-02
10.250  21.500  7.7263e-02
10.250  21.750  7.7180e-02
10.250  22.000  7.7170e-02
10.250  22.250  7.7166e-02
10.250  22.500  7.7139e-02
10.250  22.750  7.7137e-02
10.250  23.000  7.7132e-02
10.250  23.250  7.7126e-02
10.250  23.500  7.7121e-02
10.250  23.750  7.7117e-02
10.250  24.000  7.7116e-02
10.500  17.000  9.9767e-01
10.500  17.250  9.9711e-01
10.500  17.500  9.9647e-01
10.500  17.750  9.9573e-01
10.500  18.000  9.9470e-01
10.500  18.250  9.9322e-01
10.500  18.500  9.9088e-01
10.500  18.750  9.8728e-01
10.500  19.000  9.8202e-01
10.500  19.250  9.7445e-01
10.500  19.500  9.6361e-01
10.500  19.750  9.4821e-01
10.500  20.000  9.2804e-01
10.500  20.250  9.0219e-02
10.500  20.500  -6.5800e-01
10.500  20.750  -1.0668e+00
10.500  21.000  -1.2016e+00
10.500  21.250  -1.1279e+00
10.500  21.500  -9.1117e-01
10.500  21.750  -6.1683e-01
10.500  22.000  -3.1035e-01
10.500  22.250  -5.7198e-02
10.500  22.500  7.7171e-02
10.500  22.750  7.7146e-02
10.500  23.000  7.7140e-02
10.500  23.250  7.7137e-02
10.500  23.500  7.7133e-02
10.500  23.750  7.7130e-02
10.500  24.000  7.7127e-02
10.750  17.000  9.9768e-01
10.750  17.250  9.9711e-01
10.750  17.500  9.9649e-01
10.750  17.750  9.9578e-01
10.750  18.000  9.9498e-01
10.750  18.250  9.9386e-01
10.750  18.500  9.9204e-01
10.750  18.750  9.8924e-01
10.750  19.000  9.8505e-01
10.750  19.250  9.7872e-01
10.750  19.500  9.6927e-01
10.750  19.750  9.5517e-01
10.750  20.000  9.3540e-01
10.750  20.250  9.0862e-01
10.750  20.500  8.4976e-01
10.750  20.750  7.5984e-01
10.750  21.000  6.4858e-01
10.750  21.250  5.2570e-01
10.750  21.500  4.0093e-01
10.750  21.750  2.8397e-01
10.750  22.000  1.8454e-01
10.750  22.250  1.1237e-01
10.750  22.500  7.7170e-02
10.750  22.750  7.7172e-02
10.750  23.000  7.7165e-02
10.750  23.250  7.7141e-02
10.750  23.500  7.7140e-02
10.750  23.750  7.7138e-02
10.750  24.000  7.7136e-02
11.000  17.000  9.9766e-01
11.000  17.250  9.9710e-01
11.000  17.500  9.9637e-01
11.000  17.750  9.9560e-01
11.000  18.000  9.9492e-01
11.000  18.250  9.9405e-01
11.000  18.500  9.9264e-01
11.000  18.750  9.9044e-01
11.000  19.000  9.8705e-01
11.000  19.250  9.8181e-01
11.000  19.500  9.7372e-01
11.000  19.750  9.6143e-01
11.000  20.000  9.4301e-01
11.000  20.250  9.1742e-01
11.000  20.500  8.8492e-01
11.000  20.750  8.2886e-01
11.000  21.000  7.4991e-01
11.000  21.250  6.5459e-01
11.000  21.500  5.4942e-01
11.000  21.750  4.4093e-01
11.000  22.000  3.3565e-01
11.000  22.250  2.4011e-01
11.000  22.500  1.6083e-01
11.000  22.750  1.0434e-01
11.000  23.000  7.7173e-02
11.000  23.250  7.7174e-02
11.000  23.500  7.7147e-02
11.000  23.750  7.7141e-02
11.000  24.000  7.7140e-02
11.250  17.000  9.9758e-01
11.250  17.250  9.9700e-01
11.250  17.500  9.9611e-01
11.250  17.750  9.9524e-01
11.250  18.000  9.9455e-01
11.250  18.250  9.9382e-01
11.250  18.500  9.9276e-01
11.250  18.750  9.9105e-01
11.250  19.000  9.8832e-01
11.250  19.250  9.8400e-01
11.250  19.500  9.7724e-01
11.250  19.750  9.6663e-01
11.250  20.000  9.5076e-01
11.250  20.250  9.2754e-01
11.250  20.500  8.9608e-01
11.250  20.750  8.5651e-01
11.250  21.000  7.9092e-01
11.250  21.250  7.0096e-01
11.250  21.500  5.9482e-01
11.250  21.750  4.8070e-01
11.250  22.000  3.6679e-01
11.250  22.250  2.6129e-01
11.250  22.500  1.7239e-01
11.250  22.750  1.0828e-01
11.250  23.000  7.7169e-02
11.250  23.250  7.7172e-02
11.250  23.500  7.7177e-02
11.250  23.750  7.7166e-02
11.250  24.000  7.7143e-02
11.500  17.000  9.9743e-01
11.500  17.250  9.9677e-01
11.500  17.500  9.9579e-01
11.500  17.750  9.9485e-01
11.500  18.000  9.9406e-01
11.500  18.250  9.9335e-01
11.500  18.500  9.9253e-01
11.500  18.750  9.9124e-01
11.500  19.000  9.8910e-01
11.500  19.250  9.8563e-01
11.500  19.500  9.8015e-01
11.500  19.750  9.7149e-01
11.500  20.000  9.5825e-01
11.500  20.250  9.3862e-01
11.500  20.500  9.1048e-01
11.500  20.750  8.7314e-01
11.500  21.000  8.1362e-01
11.500  21.250  7.3328e-01
11.500  21.500  6.3826e-01
11.500  21.750  5.3470e-01
11.500  22.000  4.2872e-01
11.500  22.250  3.2645e-01
11.500  22.500  2.3403e-01
11.500  22.750  1.5759e-01
11.500  23.000  1.0326e-01
11.500  23.250  7.7168e-02
11.500  23.500  7.7172e-02
11.500  23.750  7.7177e-02
11.500  24.000  7.7175e-02
11.750  17.000  9.9710e-01
11.750  17.250  9.9643e-01
11.750  17.500  9.9548e-01
11.750  17.750  9.9450e-01
11.750  18.000  9.9362e-01
11.750  18.250  9.9284e-01
11.750  18.500  9.9211e-01
11.750  18.750  9.9116e-01
11.750  19.000  9.8956e-01
11.750  19.250  9.8690e-01
11.750  19.500  9.8262e-01
11.750  19.750  9.7586e-01
11.750  20.000  9.6533e-01
11.750  20.250  9.4931e-01
11.750  20.500  9.2585e-01
11.750  20.750  8.9261e-01
11.750  21.000  8.4975e-01
11.750  21.250  7.8038e-02
11.750  21.500  7.3161e-02
11.750  21.750  7.3823e-02
11.750  22.000  7.6092e-02
11.750  22.250  7.7300e-02
11.750  22.500  7.7215e-02
11.750  22.750  7.7197e-02
11.750  23.000  7.7208e-02
11.750  23.250  7.7168e-02
11.750  23.500  7.7166e-02
11.750  23.750  7.7172e-02
11.750  24.000  7.7178e-02
12.000  17.000  9.9658e-01
12.000  17.250  9.9605e-01
12.000  17.500  9.9519e-01
12.000  17.750  9.9418e-01
12.000  18.000  9.9326e-01
12.000  18.250  9.9243e-01
12.000  18.500  9.9170e-01
12.000  18.750  9.9092e-01
12.000  19.000  9.8979e-01
12.000  19.250  9.8785e-01
12.000  19.500  9.8465e-01
12.000  19.750  9.7959e-01
12.000  20.000  9.7163e-01
12.000  20.250  9.5927e-01
12.000  20.500  9.4059e-01
12.000  20.750  9.1324e-01
12.000  21.000  8.7506e-01
12.000  21.250  8.2720e-01
12.000  21.500  7.3200e-02
12.000  21.750  7.2813e-02
12.000  22.000  7.4048e-02
12.000  22.250  7.6543e-02
12.000  22.500  7.7165e-02
12.000  22.750  7.7173e-02
12.000  23.000  7.7165e-02
12.000  23.250  7.7194e-02
12.000  23.500  7.7165e-02
12.000  23.750  7.7164e-02
12.000  24.000  7.7171e-02
12.250  17.000  9.9599e-01
12.250  17.250  9.9565e-01
12.250  17.500  9.9486e-01
12.250  17.750  9.9384e-01
12.250  18.000  9.9289e-01
12.250  18.250  9.9209e-01
12.250  18.500  9.9141e-01
12.250  18.750  9.9072e-01
12.250  19.000  9.8988e-01
12.250  19.250  9.8854e-01
12.250  19.500  9.8627e-01
12.250  19.750  9.8259e-01
12.250  20.000  9.7680e-01
12.250  20.250  9.6777e-01
12.250  20.500  9.5377e-01
12.250  20.750  9.3252e-01
12.250  21.000  9.0133e-01
12.250  21.250  8.5851e-01
12.250  21.500  8.0635e-01
12.250  21.750  7.2406e-02
12.250  22.000  7.2731e-02
12.250  22.250  7.4514e-02
12.250  22.500  7.6692e-02
12.250  22.750  7.7074e-02
12.250  23.000  7.7115e-02
12.250  23.250  7.7137e-02
12.250  23.500  7.7179e-02
12.250  23.750  7.7160e-02
12.250  24.000  7.7162e-02
12.500  17.000  9.9537e-01
12.500  17.250  9.9517e-01
12.500  17.500  9.9445e-01
12.500  17.750  9.9343e-01
12.500  18.000  9.9243e-01
12.500  18.250  9.9165e-01
12.500  18.500  9.9110e-01
12.500  18.750  9.9061e-01
12.500  19.000  9.8998e-01
12.500  19.250  9.8905e-01
12.500  19.500  9.8751e-01
12.500  19.750  9.8493e-01
12.500  20.000  9.8083e-01
12.500  20.250  9.7445e-01
12.500  20.500  9.6452e-01
12.500  20.750  9.4900e-01
12.500  21.000  9.2541e-01
12.500  21.250  8.9089e-01
12.500  21.500  8.4383e-01
12.500  21.750  7.8870e-01
12.500  22.000  7.0067e-01
12.500  22.250  5.8411e-01
12.500  22.500  4.5341e-01
12.500  22.750  3.2296e-01
12.500  23.000  2.0717e-01
12.500  23.250  1.2042e-01
12.500  23.500  7.7104e-02
12.500  23.750  7.7163e-02
12.500  24.000  7.7156e-02
12.750  17.000  9.9461e-01
12.750  17.250  9.9455e-01
12.750  17.500  9.9392e-01
12.750  17.750  9.9291e-01
12.750  18.000  9.9185e-01
12.750  18.250  9.9105e-01
12.750  18.500  9.9058e-01
12.750  18.750  9.9032e-01
12.750  19.000  9.9001e-01
12.750  19.250  9.8945e-01
12.750  19.500  9.8846e-01
12.750  19.750  9.8672e-01
12.750  20.000  9.8387e-01
12.750  20.250  9.7943e-01
12.750  20.500  9.7255e-01
12.750  20.750  9.6180e-01
12.750  21.000  9.4483e-01
12.750  21.250  9.1904e-01
12.750  21.500  8.8166e-01
12.750  21.750  8.3169e-01
12.750  22.000  7.7438e-01
12.750  22.250  7.1489e-02
12.750  22.500  7.3179e-02
12.750  22.750  7.5361e-02
12.750  23.000  7.6681e-02
12.750  23.250  7.6915e-02
12.750  23.500  7.7000e-02
12.750  23.750  7.7080e-02
12.750  24.000  7.7146e-02
13.000  17.000  9.9368e-01
13.000  17.250  9.9378e-01
13.000  17.500  9.9324e-01
13.000  17.750  9.9224e-01
13.000  18.000  9.9115e-01
13.000  18.250  9.9026e-01
13.000  18.500  9.8980e-01
13.000  18.750  9.8971e-01
13.000  19.000  9.8971e-01
13.000  19.250  9.8952e-01
13.000  19.500  9.8902e-01
13.000  19.750  9.8795e-01
13.000  20.000  9.8607e-01
13.000  20.250  9.8299e-01
13.000  20.500  9.7823e-01
13.000  20.750  9.7090e-01
13.000  21.000  9.5946e-01
13.000  21.250  9.4134e-01
13.000  21.500  9.1384e-01
13.000  21.750  8.7403e-01
13.000  22.000  8.2152e-01
13.000  22.250  7.5969e-01
13.000  22.500  7.1563e-02
13.000  22.750  7.3440e-02
13.000  23.000  7.5467e-02
13.000  23.250  7.6629e-02
13.000  23.500  7.6864e-02
13.000  23.750  7.6966e-02
13.000  24.000  7.7050e-02
13.250  17.000  9.9255e-01
13.250  17.250  9.9279e-01
13.250  17.500  9.9240e-01
13.250  17.750  9.9143e-01
13.250  18.000  9.9028e-01
13.250  18.250  9.8933e-01
13.250  18.500  9.8884e-01
13.250  18.750  9.8883e-01
13.250  19.000  9.8904e-01
13.250  19.250  9.8921e-01
13.250  19.500  9.8910e-01
13.250  19.750  9.8854e-01
13.250  20.000  9.8737e-01
13.250  20.250  9.8535e-01
13.250  20.500  9.8212e-01
13.250  20.750  9.7713e-01
13.250  21.000  9.6938e-01
13.250  21.250  9.5729e-01
13.250  21.500  9.3845e-01
13.250  21.750  9.1006e-01
13.250  22.000  8.6812e-01
13.250  22.250  8.1399e-01
13.250  22.500  7.9257e-02
13.250  22.750  7.1625e-02
13.250  23.000  7.3144e-02
13.250  23.250  7.5433e-02
13.250  23.500  7.6574e-02
13.250  23.750  7.6806e-02
13.250  24.000  7.6924e-02
13.500  17.000  9.9125e-01
13.500  17.250  9.9153e-01
13.500  17.500  9.9123e-01
13.500  17.750  9.9036e-01
13.500  18.000  9.8921e-01
13.500  18.250  9.8818e-01
13.500  18.500  9.8763e-01
13.500  18.750  9.8767e-01
13.500  19.000  9.8806e-01
13.500  19.250  9.8850e-01
13.500  19.500  9.8875e-01
13.500  19.750  9.8861e-01
13.500  20.000  9.8795e-01
13.500  20.250  9.8662e-01
13.500  20.500  9.8442e-01
13.500  20.750  9.8102e-01
13.500  21.000  9.7586e-01
13.500  21.250  9.6786e-01
13.500  21.500  9.5546e-01
13.500  21.750  9.3627e-01
13.500  22.000  9.0669e-01
13.500  22.250  8.6177e-01
13.500  22.500  8.0307e-01
13.500  22.750  7.4584e-02
13.500  23.000  7.1290e-02
13.500  23.250  7.2940e-02
13.500  23.500  7.5243e-02
13.500  23.750  7.6466e-02
13.500  24.000  7.6724e-02
13.750  17.000  9.8986e-01
13.750  17.250  9.9007e-01
13.750  17.500  9.8977e-01
13.750  17.750  9.8898e-01
13.750  18.000  9.8787e-01
13.750  18.250  9.8682e-01
13.750  18.500  9.8622e-01
13.750  18.750  9.8629e-01
13.750  19.000  9.8682e-01
13.750  19.250  9.8749e-01
13.750  19.500  9.8805e-01
13.750  19.750  9.8825e-01
13.750  20.000  9.8797e-01
13.750  20.250  9.8712e-01
13.750  20.500  9.8555e-01
13.750  20.750  9.8307e-01
13.750  21.000  9.7940e-01
13.750  21.250  9.7398e-01
13.750  21.500  9.6582e-01
13.750  21.750  9.5297e-01
13.750  22.000  9.3274e-01
13.750  22.250  9.0072e-01
13.750  22.500  8.5199e-01
13.750  22.750  7.8349e-01
13.750  23.000  7.2646e-02
13.750  23.250  7.0989e-02
13.750  23.500  7.2656e-02
13.750  23.750  7.5179e-02
13.750  24.000  7.6311e-02
14.000  17.000  9.8764e-01
14.000  17.250  9.8855e-01
14.000  17.500  9.8810e-01
14.000  17.750  9.8725e-01
14.000  18.000  9.8618e-01
14.000  18.250  9.8515e-01
14.000  18.500  9.8454e-01
14.000  18.750  9.8463e-01
14.000  19.000  9.8532e-01
14.000  19.250  9.8622e-01
14.000  19.500  9.8704e-01
14.000  19.750  9.8754e-01
14.000  20.000  9.8757e-01
14.000  20.250  9.8706e-01
14.000  20.500  9.8593e-01
14.000  20.750  9.8403e-01
14.000  21.000  9.8114e-01
14.000  21.250  9.7699e-01
14.000  21.500  9.7116e-01
14.000  21.750  9.6221e-01
14.000  22.000  9.4820e-01
14.000  22.250  9.2557e-01
14.000  22.500  8.8817e-01
14.000  22.750  8.2742e-01
14.000  23.000  7.4317e-01
14.000  23.250  7.1343e-02
14.000  23.500  7.0623e-02
14.000  23.750  7.2465e-02
14.000  24.000  7.5140e-02
