InwT 1064.34A  relative to Inci 1215.00A scaled to 1215A.
Hden   Phi(H)  Eq_Width (A)
7.000  17.000  8.1613e-02
7.000  17.250  9.3426e-02
7.000  17.500  9.5783e-02
7.000  17.750  9.4787e-02
7.000  18.000  8.9203e-02
7.000  18.250  8.4463e-02
7.000  18.500  8.0875e-02
7.000  18.750  7.9065e-02
7.000  19.000  7.8132e-02
7.000  19.250  7.7592e-02
7.000  19.500  7.7363e-02
7.000  19.750  7.7266e-02
7.000  20.000  7.7224e-02
7.000  20.250  7.7204e-02
7.000  20.500  7.7194e-02
7.000  20.750  7.7189e-02
7.000  21.000  7.7187e-02
7.000  21.250  7.7185e-02
7.000  21.500  7.7185e-02
7.000  21.750  7.7184e-02
7.000  22.000  7.7184e-02
7.000  22.250  7.7184e-02
7.000  22.500  7.7185e-02
7.000  22.750  7.7193e-02
7.000  23.000  7.7187e-02
7.000  23.250  7.7187e-02
7.000  23.500  7.7187e-02
7.000  23.750  7.7187e-02
7.000  24.000  7.7188e-02
7.250  17.000  5.7290e-02
7.250  17.250  7.9874e-02
7.250  17.500  9.2356e-02
7.250  17.750  9.5420e-02
7.250  18.000  9.4618e-02
7.250  18.250  8.9123e-02
7.250  18.500  8.4421e-02
7.250  18.750  8.0860e-02
7.250  19.000  7.9059e-02
7.250  19.250  7.8130e-02
7.250  19.500  7.7591e-02
7.250  19.750  7.7362e-02
7.250  20.000  7.7266e-02
7.250  20.250  7.7224e-02
7.250  20.500  7.7204e-02
7.250  20.750  7.7194e-02
7.250  21.000  7.7189e-02
7.250  21.250  7.7186e-02
7.250  21.500  7.7185e-02
7.250  21.750  7.7184e-02
7.250  22.000  7.7184e-02
7.250  22.250  7.7183e-02
7.250  22.500  7.7183e-02
7.250  22.750  7.7184e-02
7.250  23.000  7.7184e-02
7.250  23.250  7.7184e-02
7.250  23.500  7.7184e-02
7.250  23.750  7.7184e-02
7.250  24.000  7.7184e-02
7.500  17.000  3.8810e-02
7.500  17.250  5.4756e-02
7.500  17.500  7.8294e-02
7.500  17.750  9.1349e-02
7.500  18.000  9.5187e-02
7.500  18.250  9.4532e-02
7.500  18.500  8.9083e-02
7.500  18.750  8.4395e-02
7.500  19.000  8.0850e-02
7.500  19.250  7.9055e-02
7.500  19.500  7.8128e-02
7.500  19.750  7.7591e-02
7.500  20.000  7.7362e-02
7.500  20.250  7.7266e-02
7.500  20.500  7.7224e-02
7.500  20.750  7.7204e-02
7.500  21.000  7.7194e-02
7.500  21.250  7.7189e-02
7.500  21.500  7.7186e-02
7.500  21.750  7.7185e-02
7.500  22.000  7.7184e-02
7.500  22.250  7.7183e-02
7.500  22.500  7.7183e-02
7.500  22.750  7.7183e-02
7.500  23.000  7.7183e-02
7.500  23.250  7.7183e-02
7.500  23.500  7.7183e-02
7.500  23.750  7.7183e-02
7.500  24.000  7.7183e-02
7.750  17.000  2.7522e-02
7.750  17.250  3.6338e-02
7.750  17.500  5.2653e-02
7.750  17.750  7.6914e-02
7.750  18.000  9.0587e-02
7.750  18.250  9.5055e-02
7.750  18.500  9.4498e-02
7.750  18.750  8.9069e-02
7.750  19.000  8.4378e-02
7.750  19.250  8.0844e-02
7.750  19.500  7.9053e-02
7.750  19.750  7.8127e-02
7.750  20.000  7.7591e-02
7.750  20.250  7.7362e-02
7.750  20.500  7.7266e-02
7.750  20.750  7.7224e-02
7.750  21.000  7.7204e-02
7.750  21.250  7.7194e-02
7.750  21.500  7.7189e-02
7.750  21.750  7.7186e-02
7.750  22.000  7.7185e-02
7.750  22.250  7.7184e-02
7.750  22.500  7.7183e-02
7.750  22.750  7.7183e-02
7.750  23.000  7.7183e-02
7.750  23.250  7.7183e-02
7.750  23.500  7.7183e-02
7.750  23.750  7.7183e-02
7.750  24.000  7.7183e-02
8.000  17.000  2.0333e-02
8.000  17.250  2.5067e-02
8.000  17.500  3.3971e-02
8.000  17.750  5.0476e-02
8.000  18.000  7.5355e-02
8.000  18.250  9.0036e-02
8.000  18.500  9.4978e-02
8.000  18.750  9.4499e-02
8.000  19.000  8.9076e-02
8.000  19.250  8.4371e-02
8.000  19.500  8.0840e-02
8.000  19.750  7.9051e-02
8.000  20.000  7.8127e-02
8.000  20.250  7.7591e-02
8.000  20.500  7.7362e-02
8.000  20.750  7.7266e-02
8.000  21.000  7.7224e-02
8.000  21.250  7.7204e-02
8.000  21.500  7.7194e-02
8.000  21.750  7.7189e-02
8.000  22.000  7.7186e-02
8.000  22.250  7.7185e-02
8.000  22.500  7.7184e-02
8.000  22.750  7.7183e-02
8.000  23.000  7.7183e-02
8.000  23.250  7.7183e-02
8.000  23.500  7.7183e-02
8.000  23.750  7.7183e-02
8.000  24.000  7.7183e-02
8.250  17.000  1.5981e-02
8.250  17.250  1.8491e-02
8.250  17.500  2.3436e-02
8.250  17.750  3.2569e-02
8.250  18.000  4.9336e-02
8.250  18.250  7.4581e-02
8.250  18.500  8.9688e-02
8.250  18.750  9.4975e-02
8.250  19.000  9.4525e-02
8.250  19.250  8.9095e-02
8.250  19.500  8.4365e-02
8.250  19.750  8.0838e-02
8.250  20.000  7.9050e-02
8.250  20.250  7.8127e-02
8.250  20.500  7.7591e-02
8.250  20.750  7.7362e-02
8.250  21.000  7.7266e-02
8.250  21.250  7.7224e-02
8.250  21.500  7.7204e-02
8.250  21.750  7.7194e-02
8.250  22.000  7.7189e-02
8.250  22.250  7.7186e-02
8.250  22.500  7.7184e-02
8.250  22.750  7.7184e-02
8.250  23.000  7.7184e-02
8.250  23.250  7.7183e-02
8.250  23.500  7.7183e-02
8.250  23.750  7.7183e-02
8.250  24.000  7.7183e-02
8.500  17.000  1.3281e-02
8.500  17.250  1.4521e-02
8.500  17.500  1.7220e-02
8.500  17.750  2.2289e-02
8.500  18.000  3.1696e-02
8.500  18.250  4.9065e-02
8.500  18.500  7.4575e-02
8.500  18.750  8.9487e-02
8.500  19.000  9.5024e-02
8.500  19.250  9.4565e-02
8.500  19.500  8.9125e-02
8.500  19.750  8.4362e-02
8.500  20.000  8.0836e-02
8.500  20.250  7.9050e-02
8.500  20.500  7.8126e-02
8.500  20.750  7.7591e-02
8.500  21.000  7.7362e-02
8.500  21.250  7.7266e-02
8.500  21.500  7.7224e-02
8.500  21.750  7.7204e-02
8.500  22.000  7.7194e-02
8.500  22.250  7.7189e-02
8.500  22.500  7.7186e-02
8.500  22.750  7.7185e-02
8.500  23.000  7.7184e-02
8.500  23.250  7.7183e-02
8.500  23.500  7.7183e-02
8.500  23.750  7.7183e-02
8.500  24.000  7.7183e-02
8.750  17.000  1.1701e-02
8.750  17.250  1.2172e-02
8.750  17.500  1.3569e-02
8.750  17.750  1.6390e-02
8.750  18.000  2.1719e-02
8.750  18.250  3.1688e-02
8.750  18.500  5.0419e-02
8.750  18.750  7.6034e-02
8.750  19.000  8.9367e-02
8.750  19.250  9.5082e-02
8.750  19.500  9.4614e-02
8.750  19.750  8.9161e-02
8.750  20.000  8.4361e-02
8.750  20.250  8.0835e-02
8.750  20.500  7.9049e-02
8.750  20.750  7.8126e-02
8.750  21.000  7.7591e-02
8.750  21.250  7.7362e-02
8.750  21.500  7.7266e-02
8.750  21.750  7.7224e-02
8.750  22.000  7.7204e-02
8.750  22.250  7.7194e-02
8.750  22.500  7.7189e-02
8.750  22.750  7.7186e-02
8.750  23.000  7.7185e-02
8.750  23.250  7.7184e-02
8.750  23.500  7.7183e-02
8.750  23.750  7.7183e-02
8.750  24.000  7.7183e-02
9.000  17.000  1.0877e-02
9.000  17.250  1.0856e-02
9.000  17.500  1.1477e-02
9.000  17.750  1.3011e-02
9.000  18.000  1.6049e-02
9.000  18.250  2.1865e-02
9.000  18.500  3.3126e-02
9.000  18.750  5.3853e-02
9.000  19.000  7.8856e-02
9.000  19.250  8.9273e-02
9.000  19.500  9.5142e-02
9.000  19.750  9.4664e-02
9.000  20.000  8.9199e-02
9.000  20.250  8.4360e-02
9.000  20.500  8.0833e-02
9.000  20.750  7.9049e-02
9.000  21.000  7.8126e-02
9.000  21.250  7.7591e-02
9.000  21.500  7.7362e-02
9.000  21.750  7.7266e-02
9.000  22.000  7.7224e-02
9.000  22.250  7.7204e-02
9.000  22.500  7.7194e-02
9.000  22.750  7.7189e-02
9.000  23.000  7.7186e-02
9.000  23.250  7.7185e-02
9.000  23.500  7.7184e-02
9.000  23.750  7.7183e-02
9.000  24.000  7.7183e-02
9.250  17.000  1.0580e-02
9.250  17.250  1.0203e-02
9.250  17.500  1.0353e-02
9.250  17.750  1.1152e-02
9.250  18.000  1.3029e-02
9.250  18.250  1.6491e-02
9.250  18.500  2.3149e-02
9.250  18.750  3.6138e-02
9.250  19.000  5.9312e-02
9.250  19.250  8.2223e-02
9.250  19.500  8.9170e-02
9.250  19.750  9.5175e-02
9.250  20.000  9.4707e-02
9.250  20.250  8.9237e-02
9.250  20.500  8.4360e-02
9.250  20.750  8.0833e-02
9.250  21.000  7.9049e-02
9.250  21.250  7.8126e-02
9.250  21.500  7.7582e-02
9.250  21.750  7.7325e-02
9.250  22.000  7.7226e-02
9.250  22.250  7.7186e-02
9.250  22.500  7.7203e-02
9.250  22.750  7.7194e-02
9.250  23.000  7.7189e-02
9.250  23.250  7.7186e-02
9.250  23.500  7.7184e-02
9.250  23.750  7.7184e-02
9.250  24.000  7.7183e-02
9.500  17.000  1.0689e-02
9.500  17.250  1.0004e-02
9.500  17.500  9.8420e-03
9.500  17.750  1.0262e-02
9.500  18.000  1.1423e-02
9.500  18.250  1.3606e-02
9.500  18.500  1.7674e-02
9.500  18.750  2.5521e-02
9.500  19.000  4.0908e-02
9.500  19.250  6.6020e-02
9.500  19.500  8.3924e-02
9.500  19.750  8.9098e-02
9.500  20.000  9.5182e-02
9.500  20.250  9.4740e-02
9.500  20.500  8.9270e-02
9.500  20.750  8.4359e-02
9.500  21.000  8.0821e-02
9.500  21.250  7.9016e-02
9.500  21.500  7.8086e-02
9.500  21.750  7.7544e-02
9.500  22.000  7.7301e-02
9.500  22.250  7.7193e-02
9.500  22.500  7.7153e-02
9.500  22.750  7.7134e-02
9.500  23.000  7.7124e-02
9.500  23.250  7.7117e-02
9.500  23.500  7.7138e-02
9.500  23.750  7.7137e-02
9.500  24.000  7.7136e-02
9.750  17.000  1.1145e-02
9.750  17.250  1.0138e-02
9.750  17.500  9.7124e-03
9.750  17.750  9.9007e-03
9.750  18.000  1.0716e-02
9.750  18.250  1.2221e-02
9.750  18.500  1.4779e-02
9.750  18.750  1.9757e-02
9.750  19.000  2.9319e-02
9.750  19.250  4.7750e-02
9.750  19.500  7.2848e-02
9.750  19.750  8.4243e-02
9.750  20.000  8.9079e-02
9.750  20.250  9.5141e-02
9.750  20.500  9.4758e-02
9.750  20.750  8.9296e-02
9.750  21.000  8.4360e-02
9.750  21.250  8.0827e-02
9.750  21.500  7.9035e-02
9.750  21.750  7.8089e-02
9.750  22.000  7.7548e-02
9.750  22.250  7.7310e-02
9.750  22.500  7.7200e-02
9.750  22.750  7.7150e-02
9.750  23.000  7.7132e-02
9.750  23.250  7.7123e-02
9.750  23.500  7.7119e-02
9.750  23.750  7.7116e-02
9.750  24.000  7.7115e-02
10.000  17.000  1.1942e-02
10.000  17.250  1.0570e-02
10.000  17.500  9.8372e-03
10.000  17.750  9.8351e-03
10.000  18.000  1.0555e-02
10.000  18.250  1.1731e-02
10.000  18.500  1.3570e-02
10.000  18.750  1.6838e-02
10.000  19.000  2.3158e-02
10.000  19.250  3.5898e-02
10.000  19.500  5.9157e-02
10.000  19.750  7.8293e-02
10.000  20.000  8.4544e-02
10.000  20.250  8.9133e-02
10.000  20.500  9.5137e-02
10.000  20.750  9.4762e-02
10.000  21.000  8.9319e-02
10.000  21.250  8.4360e-02
10.000  21.500  8.0828e-02
10.000  21.750  7.9044e-02
10.000  22.000  7.8104e-02
10.000  22.250  7.7550e-02
10.000  22.500  7.7316e-02
10.000  22.750  7.7210e-02
10.000  23.000  7.7158e-02
10.000  23.250  7.7133e-02
10.000  23.500  7.7120e-02
10.000  23.750  7.7115e-02
10.000  24.000  7.7113e-02
10.250  17.000  1.3120e-02
10.250  17.250  1.1334e-02
10.250  17.500  1.0288e-02
10.250  17.750  1.0113e-02
10.250  18.000  1.0755e-02
10.250  18.250  1.1781e-02
10.250  18.500  1.3221e-02
10.250  18.750  1.5683e-02
10.250  19.000  2.0304e-02
10.250  19.250  2.8837e-02
10.250  19.500  4.4455e-02
10.250  19.750  6.6850e-02
10.250  20.000  7.9950e-02
10.250  20.250  8.4551e-02
10.250  20.500  8.9346e-02
10.250  20.750  9.5251e-02
10.250  21.000  9.4757e-02
10.250  21.250  8.9335e-02
10.250  21.500  8.4360e-02
10.250  21.750  8.0828e-02
10.250  22.000  7.9047e-02
10.250  22.250  7.8119e-02
10.250  22.500  7.7551e-02
10.250  22.750  7.7320e-02
10.250  23.000  7.7217e-02
10.250  23.250  7.7168e-02
10.250  23.500  7.7143e-02
10.250  23.750  7.7130e-02
10.250  24.000  7.7123e-02
10.500  17.000  1.4636e-02
10.500  17.250  1.2484e-02
10.500  17.500  1.1685e-02
10.500  17.750  1.2427e-02
10.500  18.000  1.4609e-02
10.500  18.250  1.8128e-02
10.500  18.500  2.2884e-02
10.500  18.750  2.8775e-02
10.500  19.000  3.5698e-02
10.500  19.250  4.3551e-02
10.500  19.500  5.2234e-02
10.500  19.750  6.1643e-02
10.500  20.000  7.1678e-02
10.500  20.250  8.0787e-02
10.500  20.500  8.4891e-02
10.500  20.750  8.9815e-02
10.500  21.000  9.5602e-02
10.500  21.250  9.4759e-02
10.500  21.500  8.9345e-02
10.500  21.750  8.4360e-02
10.500  22.000  8.0827e-02
10.500  22.250  7.9048e-02
10.500  22.500  7.8124e-02
10.500  22.750  7.7558e-02
10.500  23.000  7.7322e-02
10.500  23.250  7.7222e-02
10.500  23.500  7.7175e-02
10.500  23.750  7.7152e-02
10.500  24.000  7.7139e-02
10.750  17.000  1.6425e-02
10.750  17.250  1.3978e-02
10.750  17.500  1.3128e-02
10.750  17.750  1.4033e-02
10.750  18.000  1.6490e-02
10.750  18.250  2.0296e-02
10.750  18.500  2.5251e-02
10.750  18.750  3.1150e-02
10.750  19.000  3.7792e-02
10.750  19.250  4.4975e-02
10.750  19.500  5.2495e-02
10.750  19.750  6.0151e-02
10.750  20.000  6.7741e-02
10.750  20.250  7.5061e-02
10.750  20.500  8.1429e-02
10.750  20.750  8.5573e-02
10.750  21.000  9.0598e-02
10.750  21.250  9.6312e-02
10.750  21.500  9.4794e-02
10.750  21.750  8.9350e-02
10.750  22.000  8.4355e-02
10.750  22.250  8.0826e-02
10.750  22.500  7.9048e-02
10.750  22.750  7.8126e-02
10.750  23.000  7.7577e-02
10.750  23.250  7.7323e-02
10.750  23.500  7.7225e-02
10.750  23.750  7.7180e-02
10.750  24.000  7.7158e-02
11.000  17.000  1.8346e-02
11.000  17.250  1.5742e-02
11.000  17.500  1.4764e-02
11.000  17.750  1.5557e-02
11.000  18.000  1.7898e-02
11.000  18.250  2.1562e-02
11.000  18.500  2.6326e-02
11.000  18.750  3.1966e-02
11.000  19.000  3.8258e-02
11.000  19.250  4.4978e-02
11.000  19.500  5.1902e-02
11.000  19.750  5.8805e-02
11.000  20.000  6.5465e-02
11.000  20.250  7.1656e-02
11.000  20.500  7.7156e-02
11.000  20.750  8.2021e-02
11.000  21.000  8.6948e-02
11.000  21.250  9.2072e-02
11.000  21.500  9.7649e-02
11.000  21.750  9.4880e-02
11.000  22.000  8.9352e-02
11.000  22.250  8.4355e-02
11.000  22.500  8.0824e-02
11.000  22.750  7.9048e-02
11.000  23.000  7.8127e-02
11.000  23.250  7.7586e-02
11.000  23.500  7.7329e-02
11.000  23.750  7.7226e-02
11.000  24.000  7.7183e-02
11.250  17.000  2.0223e-02
11.250  17.250  1.7616e-02
11.250  17.500  1.5876e-02
11.250  17.750  1.5693e-02
11.250  18.000  1.7051e-02
11.250  18.250  1.9756e-02
11.250  18.500  2.3613e-02
11.250  18.750  2.8430e-02
11.250  19.000  3.4012e-02
11.250  19.250  4.0166e-02
11.250  19.500  4.6698e-02
11.250  19.750  5.3413e-02
11.250  20.000  6.0120e-02
11.250  20.250  6.6622e-02
11.250  20.500  7.2728e-02
11.250  20.750  7.8243e-02
11.250  21.000  8.3323e-02
11.250  21.250  8.8867e-02
11.250  21.500  9.4506e-02
11.250  21.750  9.9487e-02
11.250  22.000  9.5026e-02
11.250  22.250  8.9354e-02
11.250  22.500  8.4347e-02
11.250  22.750  8.0822e-02
11.250  23.000  7.9048e-02
11.250  23.250  7.8127e-02
11.250  23.500  7.7589e-02
11.250  23.750  7.7348e-02
11.250  24.000  7.7228e-02
11.500  17.000  2.1855e-02
11.500  17.250  1.9453e-02
11.500  17.500  1.7819e-02
11.500  17.750  1.7337e-02
11.500  18.000  1.7990e-02
11.500  18.250  1.9679e-02
11.500  18.500  2.2308e-02
11.500  18.750  2.5778e-02
11.500  19.000  2.9992e-02
11.500  19.250  3.4851e-02
11.500  19.500  4.0257e-02
11.500  19.750  4.6112e-02
11.500  20.000  5.2319e-02
11.500  20.250  5.8780e-02
11.500  20.500  6.5396e-02
11.500  20.750  7.2070e-02
11.500  21.000  7.8704e-02
11.500  21.250  8.5276e-02
11.500  21.500  9.1915e-02
11.500  21.750  9.8176e-02
11.500  22.000  1.0126e-01
11.500  22.250  9.5243e-02
11.500  22.500  8.9359e-02
11.500  22.750  8.4348e-02
11.500  23.000  8.0820e-02
11.500  23.250  7.9047e-02
11.500  23.500  7.8127e-02
11.500  23.750  7.7590e-02
11.500  24.000  7.7358e-02
11.750  17.000  2.2919e-02
11.750  17.250  2.0970e-02
11.750  17.500  1.9628e-02
11.750  17.750  1.9136e-02
11.750  18.000  1.8658e-02
11.750  18.250  1.7707e-02
11.750  18.500  1.6878e-02
11.750  18.750  1.6509e-02
11.750  19.000  1.6802e-02
11.750  19.250  1.7960e-02
11.750  19.500  2.0187e-02
11.750  19.750  2.3685e-02
11.750  20.000  2.8656e-02
11.750  20.250  3.5305e-02
11.750  20.500  4.3832e-02
11.750  20.750  5.4443e-02
11.750  21.000  6.7338e-02
11.750  21.250  8.0615e-02
11.750  21.500  8.8262e-02
11.750  21.750  9.6307e-02
11.750  22.000  1.0262e-01
11.750  22.250  1.0249e-01
11.750  22.500  9.5529e-02
11.750  22.750  8.9361e-02
11.750  23.000  8.4346e-02
11.750  23.250  8.0818e-02
11.750  23.500  7.9047e-02
11.750  23.750  7.8127e-02
11.750  24.000  7.7590e-02
12.000  17.000  2.3080e-02
12.000  17.250  2.1787e-02
12.000  17.500  2.0937e-02
12.000  17.750  2.0683e-02
12.000  18.000  2.0278e-02
12.000  18.250  1.9301e-02
12.000  18.500  1.9157e-02
12.000  18.750  2.0172e-02
12.000  19.000  2.2263e-02
12.000  19.250  2.5346e-02
12.000  19.500  2.9336e-02
12.000  19.750  3.4151e-02
12.000  20.000  3.9707e-02
12.000  20.250  4.5920e-02
12.000  20.500  5.2705e-02
12.000  20.750  5.9981e-02
12.000  21.000  6.7662e-02
12.000  21.250  7.5665e-02
12.000  21.500  8.3907e-02
12.000  21.750  9.2573e-02
12.000  22.000  1.0176e-01
12.000  22.250  1.0694e-01
12.000  22.500  1.0364e-01
12.000  22.750  9.5898e-02
12.000  23.000  8.9366e-02
12.000  23.250  8.4341e-02
12.000  23.500  8.0817e-02
12.000  23.750  7.9045e-02
12.000  24.000  7.8127e-02
12.250  17.000  2.2259e-02
12.250  17.250  2.1694e-02
12.250  17.500  2.1482e-02
12.250  17.750  2.1654e-02
12.250  18.000  2.1460e-02
12.250  18.250  2.0509e-02
12.250  18.500  1.9147e-02
12.250  18.750  1.7688e-02
12.250  19.000  1.6305e-02
12.250  19.250  1.5211e-02
12.250  19.500  1.4612e-02
12.250  19.750  1.4586e-02
12.250  20.000  1.3242e-02
12.250  20.250  1.1817e-02
12.250  20.500  1.2527e-02
12.250  20.750  1.7587e-02
12.250  21.000  2.9214e-02
12.250  21.250  4.9623e-02
12.250  21.500  7.5190e-02
12.250  21.750  8.8110e-02
12.250  22.000  9.8115e-02
12.250  22.250  1.0833e-01
12.250  22.500  1.1077e-01
12.250  22.750  1.0482e-01
12.250  23.000  9.6205e-02
12.250  23.250  8.9386e-02
12.250  23.500  8.4335e-02
12.250  23.750  8.0812e-02
12.250  24.000  7.9044e-02
12.500  17.000  2.1202e-02
12.500  17.250  2.1213e-02
12.500  17.500  2.1577e-02
12.500  17.750  2.1969e-02
12.500  18.000  2.1796e-02
12.500  18.250  2.1036e-02
12.500  18.500  1.9932e-02
12.500  18.750  1.8660e-02
12.500  19.000  1.7289e-02
12.500  19.250  1.5960e-02
12.500  19.500  1.4930e-02
12.500  19.750  1.4399e-02
12.500  20.000  1.4459e-02
12.500  20.250  1.2959e-02
12.500  20.500  1.1292e-02
12.500  20.750  1.1964e-02
12.500  21.000  1.7478e-02
12.500  21.250  3.0339e-02
12.500  21.500  5.3050e-02
12.500  21.750  8.1050e-02
12.500  22.000  9.3595e-02
12.500  22.250  1.0491e-01
12.500  22.500  1.1481e-01
12.500  22.750  1.1442e-01
12.500  23.000  1.0599e-01
12.500  23.250  9.6674e-02
12.500  23.500  8.9407e-02
12.500  23.750  8.4326e-02
12.500  24.000  8.0808e-02
12.750  17.000  2.0592e-02
12.750  17.250  2.0837e-02
12.750  17.500  2.1109e-02
12.750  17.750  2.1303e-02
12.750  18.000  2.1268e-02
12.750  18.250  2.0917e-02
12.750  18.500  2.0217e-02
12.750  18.750  1.9254e-02
12.750  19.000  1.8099e-02
12.750  19.250  1.6810e-02
12.750  19.500  1.5547e-02
12.750  19.750  1.4584e-02
12.750  20.000  1.4134e-02
12.750  20.250  1.4303e-02
12.750  20.500  1.2757e-02
12.750  20.750  1.1050e-02
12.750  21.000  1.1955e-02
12.750  21.250  1.8241e-02
12.750  21.500  3.2681e-02
12.750  21.750  5.8045e-02
12.750  22.000  8.8533e-02
12.750  22.250  1.0020e-01
12.750  22.500  1.1335e-01
12.750  22.750  1.2080e-01
12.750  23.000  1.1775e-01
12.750  23.250  1.0732e-01
12.750  23.500  9.7067e-02
12.750  23.750  8.9432e-02
12.750  24.000  8.4315e-02
13.000  17.000  1.9001e-02
13.000  17.250  1.9708e-02
13.000  17.500  1.9904e-02
13.000  17.750  2.0130e-02
13.000  18.000  2.0315e-02
13.000  18.250  2.0309e-02
13.000  18.500  1.9996e-02
13.000  18.750  1.9381e-02
13.000  19.000  1.8522e-02
13.000  19.250  1.7454e-02
13.000  19.500  1.6232e-02
13.000  19.750  1.5061e-02
13.000  20.000  1.4168e-02
13.000  20.250  1.1476e-02
13.000  20.500  7.8148e-03
13.000  20.750  4.9617e-03
13.000  21.000  4.6919e-03
13.000  21.250  8.7814e-03
13.000  21.500  1.9006e-02
13.000  21.750  3.7141e-02
13.000  22.000  6.4963e-02
13.000  22.250  9.5826e-02
13.000  22.500  1.0692e-01
13.000  22.750  1.2153e-01
13.000  23.000  1.2611e-01
13.000  23.250  1.2101e-01
13.000  23.500  1.0850e-01
13.000  23.750  9.7437e-02
13.000  24.000  8.9471e-02
13.250  17.000  1.7880e-02
13.250  17.250  1.8479e-02
13.250  17.500  1.8747e-02
13.250  17.750  1.8914e-02
13.250  18.000  1.9176e-02
13.250  18.250  1.9374e-02
13.250  18.500  1.9359e-02
13.250  18.750  1.9061e-02
13.250  19.000  1.8505e-02
13.250  19.250  1.7717e-02
13.250  19.500  1.6723e-02
13.250  19.750  1.5632e-02
13.250  20.000  1.4546e-02
13.250  20.250  1.3732e-02
13.250  20.500  1.1432e-02
13.250  20.750  8.4813e-03
13.250  21.000  6.5563e-03
13.250  21.250  7.3348e-03
13.250  21.500  1.2494e-02
13.250  21.750  2.3712e-02
13.250  22.000  4.2665e-02
13.250  22.250  7.1032e-02
13.250  22.500  1.0201e-01
13.250  22.750  1.1272e-01
13.250  23.000  1.2730e-01
13.250  23.250  1.3157e-01
13.250  23.500  1.2398e-01
13.250  23.750  1.0964e-01
13.250  24.000  9.7742e-02
13.500  17.000  1.6687e-02
13.500  17.250  1.7313e-02
13.500  17.500  1.7590e-02
13.500  17.750  1.7700e-02
13.500  18.000  1.7962e-02
13.500  18.250  1.8273e-02
13.500  18.500  1.8438e-02
13.500  18.750  1.8381e-02
13.500  19.000  1.8081e-02
13.500  19.250  1.7559e-02
13.500  19.500  1.6832e-02
13.500  19.750  1.5937e-02
13.500  20.000  1.4948e-02
13.500  20.250  1.4003e-02
13.500  20.500  1.3277e-02
13.500  20.750  1.2258e-02
13.500  21.000  1.1689e-02
13.500  21.250  1.2701e-02
13.500  21.500  1.6423e-02
13.500  21.750  2.3983e-02
13.500  22.000  3.6514e-02
13.500  22.250  5.5143e-02
13.500  22.500  8.1000e-02
13.500  22.750  1.0897e-01
13.500  23.000  1.2155e-01
13.500  23.250  1.3458e-01
13.500  23.500  1.3748e-01
13.500  23.750  1.2719e-01
13.500  24.000  1.1075e-01
13.750  17.000  1.5283e-02
13.750  17.250  1.6184e-02
13.750  17.500  1.6457e-02
13.750  17.750  1.6534e-02
13.750  18.000  1.6755e-02
13.750  18.250  1.7099e-02
13.750  18.500  1.7375e-02
13.750  18.750  1.7467e-02
13.750  19.000  1.7363e-02
13.750  19.250  1.7069e-02
13.750  19.500  1.6590e-02
13.750  19.750  1.5939e-02
13.750  20.000  1.5157e-02
13.750  20.250  1.4311e-02
13.750  20.500  1.3519e-02
13.750  20.750  1.2942e-02
13.750  21.000  1.2644e-02
13.750  21.250  1.3373e-02
13.750  21.500  1.6068e-02
13.750  21.750  2.1668e-02
13.750  22.000  3.1113e-02
13.750  22.250  4.5341e-02
13.750  22.500  6.5292e-02
13.750  22.750  9.1904e-02
13.750  23.000  1.2032e-01
13.750  23.250  1.3341e-01
13.750  23.500  1.4388e-01
13.750  23.750  1.4454e-01
13.750  24.000  1.3019e-01
14.000  17.000  1.3645e-02
14.000  17.250  1.4870e-02
14.000  17.500  1.5331e-02
14.000  17.750  1.5384e-02
14.000  18.000  1.5576e-02
14.000  18.250  1.5912e-02
14.000  18.500  1.6243e-02
14.000  18.750  1.6439e-02
14.000  19.000  1.6462e-02
14.000  19.250  1.6336e-02
14.000  19.500  1.6064e-02
14.000  19.750  1.5649e-02
14.000  20.000  1.5100e-02
14.000  20.250  1.4460e-02
14.000  20.500  1.3798e-02
14.000  20.750  1.3212e-02
14.000  21.000  1.3040e-02
14.000  21.250  1.3924e-02
14.000  21.500  1.6575e-02
14.000  21.750  2.1698e-02
14.000  22.000  3.0005e-02
14.000  22.250  4.2201e-02
14.000  22.500  5.8997e-02
14.000  22.750  8.1101e-02
14.000  23.000  1.0922e-01
14.000  23.250  1.3821e-01
14.000  23.500  1.5053e-01
14.000  23.750  1.5769e-01
14.000  24.000  1.5264e-01
