InwT 1035.92A  relative to Inci 1215.00A scaled to 1215A.
Hden   Phi(H)  Eq_Width (A)
7.000  17.000  7.6325e-02
7.000  17.250  9.2699e-02
7.000  17.500  9.5005e-02
7.000  17.750  9.4302e-02
7.000  18.000  8.9064e-02
7.000  18.250  8.4459e-02
7.000  18.500  8.0882e-02
7.000  18.750  7.9047e-02
7.000  19.000  7.8100e-02
7.000  19.250  7.7550e-02
7.000  19.500  7.7316e-02
7.000  19.750  7.7218e-02
7.000  20.000  7.7175e-02
7.000  20.250  7.7154e-02
7.000  20.500  7.7144e-02
7.000  20.750  7.7139e-02
7.000  21.000  7.7136e-02
7.000  21.250  7.7135e-02
7.000  21.500  7.7134e-02
7.000  21.750  7.7134e-02
7.000  22.000  7.7134e-02
7.000  22.250  7.7134e-02
7.000  22.500  7.7135e-02
7.000  22.750  7.7143e-02
7.000  23.000  7.7136e-02
7.000  23.250  7.7137e-02
7.000  23.500  7.7137e-02
7.000  23.750  7.7137e-02
7.000  24.000  7.7138e-02
7.250  17.000  5.2567e-02
7.250  17.250  7.4790e-02
7.250  17.500  9.1559e-02
7.250  17.750  9.4611e-02
7.250  18.000  9.4124e-02
7.250  18.250  8.8980e-02
7.250  18.500  8.4415e-02
7.250  18.750  8.0866e-02
7.250  19.000  7.9041e-02
7.250  19.250  7.8097e-02
7.250  19.500  7.7549e-02
7.250  19.750  7.7316e-02
7.250  20.000  7.7218e-02
7.250  20.250  7.7175e-02
7.250  20.500  7.7154e-02
7.250  20.750  7.7144e-02
7.250  21.000  7.7139e-02
7.250  21.250  7.7136e-02
7.250  21.500  7.7135e-02
7.250  21.750  7.7134e-02
7.250  22.000  7.7133e-02
7.250  22.250  7.7133e-02
7.250  22.500  7.7133e-02
7.250  22.750  7.7134e-02
7.250  23.000  7.7134e-02
7.250  23.250  7.7134e-02
7.250  23.500  7.7134e-02
7.250  23.750  7.7134e-02
7.250  24.000  7.7134e-02
7.500  17.000  3.5329e-02
7.500  17.250  5.0302e-02
7.500  17.500  7.3387e-02
7.500  17.750  9.0489e-02
7.500  18.000  9.4356e-02
7.500  18.250  9.4032e-02
7.500  18.500  8.8938e-02
7.500  18.750  8.4387e-02
7.500  19.000  8.0856e-02
7.500  19.250  7.9037e-02
7.500  19.500  7.8096e-02
7.500  19.750  7.7549e-02
7.500  20.000  7.7316e-02
7.500  20.250  7.7218e-02
7.500  20.500  7.7175e-02
7.500  20.750  7.7154e-02
7.500  21.000  7.7144e-02
7.500  21.250  7.7139e-02
7.500  21.500  7.7136e-02
7.500  21.750  7.7135e-02
7.500  22.000  7.7134e-02
7.500  22.250  7.7133e-02
7.500  22.500  7.7133e-02
7.500  22.750  7.7133e-02
7.500  23.000  7.7133e-02
7.500  23.250  7.7133e-02
7.500  23.500  7.7133e-02
7.500  23.750  7.7133e-02
7.500  24.000  7.7133e-02
7.750  17.000  2.4787e-02
7.750  17.250  3.3018e-02
7.750  17.500  4.8421e-02
7.750  17.750  7.2203e-02
7.750  18.000  8.9680e-02
7.750  18.250  9.4209e-02
7.750  18.500  9.3997e-02
7.750  18.750  8.8925e-02
7.750  19.000  8.4370e-02
7.750  19.250  8.0849e-02
7.750  19.500  7.9034e-02
7.750  19.750  7.8095e-02
7.750  20.000  7.7549e-02
7.750  20.250  7.7316e-02
7.750  20.500  7.7218e-02
7.750  20.750  7.7174e-02
7.750  21.000  7.7154e-02
7.750  21.250  7.7144e-02
7.750  21.500  7.7139e-02
7.750  21.750  7.7136e-02
7.750  22.000  7.7134e-02
7.750  22.250  7.7134e-02
7.750  22.500  7.7133e-02
7.750  22.750  7.7133e-02
7.750  23.000  7.7133e-02
7.750  23.250  7.7133e-02
7.750  23.500  7.7133e-02
7.750  23.750  7.7133e-02
7.750  24.000  7.7133e-02
8.000  17.000  1.7986e-02
8.000  17.250  2.2420e-02
8.000  17.500  3.0816e-02
8.000  17.750  4.6498e-02
8.000  18.000  7.0879e-02
8.000  18.250  8.9093e-02
8.000  18.500  9.4123e-02
8.000  18.750  9.3998e-02
8.000  19.000  8.8933e-02
8.000  19.250  8.4362e-02
8.000  19.500  8.0845e-02
8.000  19.750  7.9033e-02
8.000  20.000  7.8094e-02
8.000  20.250  7.7549e-02
8.000  20.500  7.7316e-02
8.000  20.750  7.7218e-02
8.000  21.000  7.7174e-02
8.000  21.250  7.7154e-02
8.000  21.500  7.7144e-02
8.000  21.750  7.7139e-02
8.000  22.000  7.7136e-02
8.000  22.250  7.7134e-02
8.000  22.500  7.7134e-02
8.000  22.750  7.7133e-02
8.000  23.000  7.7133e-02
8.000  23.250  7.7133e-02
8.000  23.500  7.7133e-02
8.000  23.750  7.7133e-02
8.000  24.000  7.7133e-02
8.250  17.000  1.3784e-02
8.250  17.250  1.6180e-02
8.250  17.500  2.0870e-02
8.250  17.750  2.9564e-02
8.250  18.000  4.5618e-02
8.250  18.250  7.0447e-02
8.250  18.500  8.8721e-02
8.250  18.750  9.4112e-02
8.250  19.000  9.4026e-02
8.250  19.250  8.8954e-02
8.250  19.500  8.4357e-02
8.250  19.750  8.0843e-02
8.250  20.000  7.9032e-02
8.250  20.250  7.8094e-02
8.250  20.500  7.7549e-02
8.250  20.750  7.7316e-02
8.250  21.000  7.7218e-02
8.250  21.250  7.7175e-02
8.250  21.500  7.7154e-02
8.250  21.750  7.7144e-02
8.250  22.000  7.7139e-02
8.250  22.250  7.7136e-02
8.250  22.500  7.7134e-02
8.250  22.750  7.7134e-02
8.250  23.000  7.7133e-02
8.250  23.250  7.7133e-02
8.250  23.500  7.7133e-02
8.250  23.750  7.7133e-02
8.250  24.000  7.7133e-02
8.500  17.000  1.1110e-02
8.500  17.250  1.2355e-02
8.500  17.500  1.4960e-02
8.500  17.750  1.9821e-02
8.500  18.000  2.8864e-02
8.500  18.250  4.5627e-02
8.500  18.500  7.0841e-02
8.500  18.750  8.8505e-02
8.500  19.000  9.4157e-02
8.500  19.250  9.4069e-02
8.500  19.500  8.8988e-02
8.500  19.750  8.4354e-02
8.500  20.000  8.0841e-02
8.500  20.250  7.9031e-02
8.500  20.500  7.8093e-02
8.500  20.750  7.7548e-02
8.500  21.000  7.7316e-02
8.500  21.250  7.7218e-02
8.500  21.500  7.7175e-02
8.500  21.750  7.7154e-02
8.500  22.000  7.7144e-02
8.500  22.250  7.7139e-02
8.500  22.500  7.7136e-02
8.500  22.750  7.7135e-02
8.500  23.000  7.7133e-02
8.500  23.250  7.7133e-02
8.500  23.500  7.7133e-02
8.500  23.750  7.7133e-02
8.500  24.000  7.7133e-02
8.750  17.000  9.4776e-03
8.750  17.250  1.0038e-02
8.750  17.500  1.1447e-02
8.750  17.750  1.4198e-02
8.750  18.000  1.9348e-02
8.750  18.250  2.8997e-02
8.750  18.500  4.7159e-02
8.750  18.750  7.2672e-02
8.750  19.000  8.8378e-02
8.750  19.250  9.4212e-02
8.750  19.500  9.4122e-02
8.750  19.750  8.9029e-02
8.750  20.000  8.4353e-02
8.750  20.250  8.0840e-02
8.750  20.500  7.9031e-02
8.750  20.750  7.8093e-02
8.750  21.000  7.7548e-02
8.750  21.250  7.7316e-02
8.750  21.500  7.7218e-02
8.750  21.750  7.7174e-02
8.750  22.000  7.7154e-02
8.750  22.250  7.7144e-02
8.750  22.500  7.7139e-02
8.750  22.750  7.7136e-02
8.750  23.000  7.7135e-02
8.750  23.250  7.7134e-02
8.750  23.500  7.7133e-02
8.750  23.750  7.7133e-02
8.750  24.000  7.7133e-02
9.000  17.000  8.5430e-03
9.000  17.250  8.6797e-03
9.000  17.500  9.3880e-03
9.000  17.750  1.0940e-02
9.000  18.000  1.3915e-02
9.000  18.250  1.9556e-02
9.000  18.500  3.0486e-02
9.000  18.750  5.0741e-02
9.000  19.000  7.6107e-02
9.000  19.250  8.8284e-02
9.000  19.500  9.4270e-02
9.000  19.750  9.4177e-02
9.000  20.000  8.9071e-02
9.000  20.250  8.4353e-02
9.000  20.500  8.0838e-02
9.000  20.750  7.9031e-02
9.000  21.000  7.8093e-02
9.000  21.250  7.7548e-02
9.000  21.500  7.7316e-02
9.000  21.750  7.7218e-02
9.000  22.000  7.7174e-02
9.000  22.250  7.7154e-02
9.000  22.500  7.7144e-02
9.000  22.750  7.7139e-02
9.000  23.000  7.7136e-02
9.000  23.250  7.7134e-02
9.000  23.500  7.7134e-02
9.000  23.750  7.7133e-02
9.000  24.000  7.7133e-02
9.250  17.000  8.0826e-03
9.250  17.250  7.9280e-03
9.250  17.500  8.2227e-03
9.250  17.750  9.0964e-03
9.250  18.000  1.0952e-02
9.250  18.250  1.4336e-02
9.250  18.500  2.0812e-02
9.250  18.750  3.3489e-02
9.250  19.000  5.6266e-02
9.250  19.250  8.0188e-02
9.250  19.500  8.8187e-02
9.250  19.750  9.4302e-02
9.250  20.000  9.4224e-02
9.250  20.250  8.9113e-02
9.250  20.500  8.4353e-02
9.250  20.750  8.0837e-02
9.250  21.000  7.9031e-02
9.250  21.250  7.8093e-02
9.250  21.500  7.7540e-02
9.250  21.750  7.7278e-02
9.250  22.000  7.7177e-02
9.250  22.250  7.7137e-02
9.250  22.500  7.7154e-02
9.250  22.750  7.7144e-02
9.250  23.000  7.7139e-02
9.250  23.250  7.7136e-02
9.250  23.500  7.7134e-02
9.250  23.750  7.7133e-02
9.250  24.000  7.7133e-02
9.500  17.000  7.9691e-03
9.500  17.250  7.5775e-03
9.500  17.500  7.6100e-03
9.500  17.750  8.1324e-03
9.500  18.000  9.3141e-03
9.500  18.250  1.1469e-02
9.500  18.500  1.5443e-02
9.500  18.750  2.3096e-02
9.500  19.000  3.8164e-02
9.500  19.250  6.3051e-02
9.500  19.500  8.2497e-02
9.500  19.750  8.8118e-02
9.500  20.000  9.4309e-02
9.500  20.250  9.4261e-02
9.500  20.500  8.9151e-02
9.500  20.750  8.4353e-02
9.500  21.000  8.0826e-02
9.500  21.250  7.8998e-02
9.500  21.500  7.8053e-02
9.500  21.750  7.7502e-02
9.500  22.000  7.7254e-02
9.500  22.250  7.7144e-02
9.500  22.500  7.7104e-02
9.500  22.750  7.7085e-02
9.500  23.000  7.7074e-02
9.500  23.250  7.7067e-02
9.500  23.500  7.7088e-02
9.500  23.750  7.7087e-02
9.500  24.000  7.7086e-02
9.750  17.000  8.1373e-03
9.750  17.250  7.5059e-03
9.750  17.500  7.3296e-03
9.750  17.750  7.6445e-03
9.750  18.000  8.4947e-03
9.750  18.250  9.9882e-03
9.750  18.500  1.2576e-02
9.750  18.750  1.7347e-02
9.750  19.000  2.6664e-02
9.750  19.250  4.4744e-02
9.750  19.500  7.0252e-02
9.750  19.750  8.3158e-02
9.750  20.000  8.8093e-02
9.750  20.250  9.4269e-02
9.750  20.500  9.4281e-02
9.750  20.750  8.9180e-02
9.750  21.000  8.4354e-02
9.750  21.250  8.0832e-02
9.750  21.500  7.9017e-02
9.750  21.750  7.8057e-02
9.750  22.000  7.7506e-02
9.750  22.250  7.7263e-02
9.750  22.500  7.7151e-02
9.750  22.750  7.7101e-02
9.750  23.000  7.7083e-02
9.750  23.250  7.7074e-02
9.750  23.500  7.7069e-02
9.750  23.750  7.7066e-02
9.750  24.000  7.7065e-02
10.000  17.000  8.5680e-03
10.000  17.250  7.6730e-03
10.000  17.500  7.2628e-03
10.000  17.750  7.4166e-03
10.000  18.000  8.1507e-03
10.000  18.250  9.3090e-03
10.000  18.500  1.1108e-02
10.000  18.750  1.4308e-02
10.000  19.000  2.0353e-02
10.000  19.250  3.2593e-02
10.000  19.500  4.7678e-02
10.000  19.750  6.3122e-02
10.000  20.000  7.7186e-02
10.000  20.250  8.8130e-02
10.000  20.500  9.4262e-02
10.000  20.750  9.4287e-02
10.000  21.000  8.9206e-02
10.000  21.250  8.4355e-02
10.000  21.500  8.0833e-02
10.000  21.750  7.9026e-02
10.000  22.000  7.8071e-02
10.000  22.250  7.7508e-02
10.000  22.500  7.7270e-02
10.000  22.750  7.7161e-02
10.000  23.000  7.7109e-02
10.000  23.250  7.7084e-02
10.000  23.500  7.7071e-02
10.000  23.750  7.7066e-02
10.000  24.000  7.7063e-02
10.250  17.000  9.2795e-03
10.250  17.250  8.0946e-03
10.250  17.500  7.4502e-03
10.250  17.750  7.4569e-03
10.250  18.000  8.0984e-03
10.250  18.250  9.0831e-03
10.250  18.500  1.0471e-02
10.250  18.750  1.2805e-02
10.250  19.000  1.7128e-02
10.250  19.250  2.5169e-02
10.250  19.500  4.0153e-02
10.250  19.750  6.1543e-02
10.250  20.000  7.8480e-02
10.250  20.250  8.3423e-02
10.250  20.500  8.8315e-02
10.250  20.750  9.4367e-02
10.250  21.000  9.4284e-02
10.250  21.250  8.9224e-02
10.250  21.500  8.4356e-02
10.250  21.750  8.0833e-02
10.250  22.000  7.9029e-02
10.250  22.250  7.8087e-02
10.250  22.500  7.7509e-02
10.250  22.750  7.7273e-02
10.250  23.000  7.7169e-02
10.250  23.250  7.7119e-02
10.250  23.500  7.7094e-02
10.250  23.750  7.7080e-02
10.250  24.000  7.7073e-02
10.500  17.000  1.0223e-02
10.500  17.250  8.8012e-03
10.500  17.500  7.9210e-03
10.500  17.750  7.7834e-03
10.500  18.000  8.2840e-03
10.500  18.250  9.1421e-03
10.500  18.500  1.0270e-02
10.500  18.750  1.1923e-02
10.500  19.000  1.4563e-02
10.500  19.250  1.9258e-02
10.500  19.500  2.8233e-02
10.500  19.750  4.5064e-02
10.500  20.000  6.5209e-02
10.500  20.250  7.9657e-02
10.500  20.500  8.3726e-02
10.500  20.750  8.8739e-02
10.500  21.000  9.4698e-02
10.500  21.250  9.4288e-02
10.500  21.500  8.9236e-02
10.500  21.750  8.4355e-02
10.500  22.000  8.0832e-02
10.500  22.250  7.9030e-02
10.500  22.500  7.8091e-02
10.500  22.750  7.7516e-02
10.500  23.000  7.7276e-02
10.500  23.250  7.7174e-02
10.500  23.500  7.7126e-02
10.500  23.750  7.7102e-02
10.500  24.000  7.7089e-02
10.750  17.000  1.1336e-02
10.750  17.250  9.7461e-03
10.750  17.500  9.2830e-03
10.750  17.750  1.0108e-02
10.750  18.000  1.2143e-02
10.750  18.250  1.5307e-02
10.750  18.500  1.9522e-02
10.750  18.750  2.4707e-02
10.750  19.000  3.0784e-02
10.750  19.250  3.7673e-02
10.750  19.500  4.5294e-02
10.750  19.750  5.3568e-02
10.750  20.000  6.2416e-02
10.750  20.250  7.1758e-02
10.750  20.500  8.0242e-02
10.750  20.750  8.4353e-02
10.750  21.000  8.9469e-02
10.750  21.250  9.5377e-02
10.750  21.500  9.4326e-02
10.750  21.750  8.9243e-02
10.750  22.000  8.4350e-02
10.750  22.250  8.0831e-02
10.750  22.500  7.9030e-02
10.750  22.750  7.8093e-02
10.750  23.000  7.7535e-02
10.750  23.250  7.7277e-02
10.750  23.500  7.7176e-02
10.750  23.750  7.7131e-02
10.750  24.000  7.7108e-02
11.000  17.000  1.2509e-02
11.000  17.250  1.0859e-02
11.000  17.500  1.0497e-02
11.000  17.750  1.1559e-02
11.000  18.000  1.3898e-02
11.000  18.250  1.7363e-02
11.000  18.500  2.1805e-02
11.000  18.750  2.7074e-02
11.000  19.000  3.3020e-02
11.000  19.250  3.9495e-02
11.000  19.500  4.6348e-02
11.000  19.750  5.3430e-02
11.000  20.000  6.0591e-02
11.000  20.250  6.7682e-02
11.000  20.500  7.4554e-02
11.000  20.750  8.0797e-02
11.000  21.000  8.5620e-02
11.000  21.250  9.0861e-02
11.000  21.500  9.6663e-02
11.000  21.750  9.4417e-02
11.000  22.000  8.9245e-02
11.000  22.250  8.4350e-02
11.000  22.500  8.0829e-02
11.000  22.750  7.9030e-02
11.000  23.000  7.8094e-02
11.000  23.250  7.7544e-02
11.000  23.500  7.7283e-02
11.000  23.750  7.7178e-02
11.000  24.000  7.7133e-02
11.250  17.000  1.3614e-02
11.250  17.250  1.2019e-02
11.250  17.500  1.1613e-02
11.250  17.750  1.2526e-02
11.250  18.000  1.4618e-02
11.250  18.250  1.7755e-02
11.250  18.500  2.1798e-02
11.250  18.750  2.6610e-02
11.250  19.000  3.2055e-02
11.250  19.250  3.7995e-02
11.250  19.500  4.4294e-02
11.250  19.750  5.0814e-02
11.250  20.000  5.7418e-02
11.250  20.250  6.3969e-02
11.250  20.500  7.0330e-02
11.250  20.750  7.6364e-02
11.250  21.000  8.2006e-02
11.250  21.250  8.7423e-02
11.250  21.500  9.3179e-02
11.250  21.750  9.8443e-02
11.250  22.000  9.4572e-02
11.250  22.250  8.9248e-02
11.250  22.500  8.4342e-02
11.250  22.750  8.0827e-02
11.250  23.000  7.9030e-02
11.250  23.250  7.8094e-02
11.250  23.500  7.7547e-02
11.250  23.750  7.7302e-02
11.250  24.000  7.7180e-02
11.500  17.000  1.4508e-02
11.500  17.250  1.3115e-02
11.500  17.500  1.2130e-02
11.500  17.750  1.1786e-02
11.500  18.000  1.1565e-02
11.500  18.250  1.1122e-02
11.500  18.500  1.0215e-02
11.500  18.750  9.2048e-03
11.500  19.000  8.6128e-03
11.500  19.250  8.9608e-03
11.500  19.500  1.0770e-02
11.500  19.750  1.4563e-02
11.500  20.000  2.0861e-02
11.500  20.250  3.0186e-02
11.500  20.500  4.3058e-02
11.500  20.750  6.0001e-02
11.500  21.000  7.7488e-02
11.500  21.250  8.3842e-02
11.500  21.500  9.0304e-02
11.500  21.750  9.6681e-02
11.500  22.000  1.0019e-01
11.500  22.250  9.4802e-02
11.500  22.500  8.9254e-02
11.500  22.750  8.4343e-02
11.500  23.000  8.0825e-02
11.500  23.250  7.9029e-02
11.500  23.500  7.8094e-02
11.500  23.750  7.7548e-02
11.500  24.000  7.7311e-02
11.750  17.000  1.4974e-02
11.750  17.250  1.3944e-02
11.750  17.500  1.3186e-02
11.750  17.750  1.2901e-02
11.750  18.000  1.2623e-02
11.750  18.250  1.2066e-02
11.750  18.500  1.1235e-02
11.750  18.750  1.0426e-02
11.750  19.000  9.9971e-03
11.750  19.250  1.0308e-02
11.750  19.500  1.1718e-02
11.750  19.750  1.4585e-02
11.750  20.000  1.9269e-02
11.750  20.250  2.6129e-02
11.750  20.500  3.5524e-02
11.750  20.750  4.7812e-02
11.750  21.000  6.3354e-02
11.750  21.250  7.9330e-02
11.750  21.500  8.6660e-02
11.750  21.750  9.4460e-02
11.750  22.000  1.0094e-01
11.750  22.250  1.0144e-01
11.750  22.500  9.5107e-02
11.750  22.750  8.9258e-02
11.750  23.000  8.4340e-02
11.750  23.250  8.0823e-02
11.750  23.500  7.9028e-02
11.750  23.750  7.8095e-02
11.750  24.000  7.7548e-02
12.000  17.000  1.4812e-02
12.000  17.250  1.4253e-02
12.000  17.500  1.3843e-02
12.000  17.750  1.3720e-02
12.000  18.000  1.3507e-02
12.000  18.250  1.2965e-02
12.000  18.500  1.3362e-02
12.000  18.750  1.4964e-02
12.000  19.000  1.7669e-02
12.000  19.250  2.1371e-02
12.000  19.500  2.5967e-02
12.000  19.750  3.1354e-02
12.000  20.000  3.7426e-02
12.000  20.250  4.4080e-02
12.000  20.500  5.1212e-02
12.000  20.750  5.8718e-02
12.000  21.000  6.6494e-02
12.000  21.250  7.4436e-02
12.000  21.500  8.2440e-02
12.000  21.750  9.0716e-02
12.000  22.000  9.9629e-02
12.000  22.250  1.0512e-01
12.000  22.500  1.0263e-01
12.000  22.750  9.5502e-02
12.000  23.000  8.9267e-02
12.000  23.250  8.4335e-02
12.000  23.500  8.0822e-02
12.000  23.750  7.9027e-02
12.000  24.000  7.8095e-02
12.250  17.000  1.4003e-02
12.250  17.250  1.3906e-02
12.250  17.500  1.3908e-02
12.250  17.750  1.4074e-02
12.250  18.000  1.4044e-02
12.250  18.250  1.3582e-02
12.250  18.500  1.2847e-02
12.250  18.750  1.2011e-02
12.250  19.000  1.1202e-02
12.250  19.250  1.0599e-02
12.250  19.500  8.2531e-03
12.250  19.750  4.8189e-03
12.250  20.000  1.8028e-03
12.250  20.250  7.1093e-04
12.250  20.500  3.0496e-03
12.250  20.750  1.0325e-02
12.250  21.000  2.4043e-02
12.250  21.250  4.5711e-02
12.250  21.500  7.1866e-02
12.250  21.750  8.6403e-02
12.250  22.000  9.5921e-02
12.250  22.250  1.0586e-01
12.250  22.500  1.0889e-01
12.250  22.750  1.0386e-01
12.250  23.000  9.5836e-02
12.250  23.250  8.9292e-02
12.250  23.500  8.4328e-02
12.250  23.750  8.0817e-02
12.250  24.000  7.9026e-02
12.500  17.000  1.2989e-02
12.500  17.250  1.3219e-02
12.500  17.500  1.3579e-02
12.500  17.750  1.3949e-02
12.500  18.000  1.4032e-02
12.500  18.250  1.3768e-02
12.500  18.500  1.3244e-02
12.500  18.750  1.2557e-02
12.500  19.000  1.1766e-02
12.500  19.250  1.0986e-02
12.500  19.500  1.0426e-02
12.500  19.750  7.8070e-03
12.500  20.000  3.8678e-03
12.500  20.250  3.3571e-04
12.500  20.500  -1.0619e-03
12.500  20.750  1.4023e-03
12.500  21.000  9.4558e-03
12.500  21.250  2.4826e-02
12.500  21.500  4.9240e-02
12.500  21.750  7.8004e-02
12.500  22.000  9.1545e-02
12.500  22.250  1.0227e-01
12.500  22.500  1.1205e-01
12.500  22.750  1.1252e-01
12.500  23.000  1.0509e-01
12.500  23.250  9.6342e-02
12.500  23.500  8.9319e-02
12.500  23.750  8.4320e-02
12.500  24.000  8.0813e-02
12.750  17.000  1.2135e-02
12.750  17.250  1.2539e-02
12.750  17.500  1.2943e-02
12.750  17.750  1.3303e-02
12.750  18.000  1.3544e-02
12.750  18.250  1.3571e-02
12.750  18.500  1.3331e-02
12.750  18.750  1.2866e-02
12.750  19.000  1.2232e-02
12.750  19.250  1.1480e-02
12.750  19.500  1.0738e-02
12.750  19.750  1.0222e-02
12.750  20.000  7.3975e-03
12.750  20.250  3.0945e-03
12.750  20.500  -7.5705e-04
12.750  20.750  -2.2268e-03
12.750  21.000  6.1522e-04
12.750  21.250  9.6993e-03
12.750  21.500  2.6955e-02
12.750  21.750  5.4314e-02
12.750  22.000  8.5608e-02
12.750  22.250  9.7672e-02
12.750  22.500  1.1013e-01
12.750  22.750  1.1784e-01
12.750  23.000  1.1589e-01
12.750  23.250  1.0649e-01
12.750  23.500  9.6771e-02
12.750  23.750  8.9352e-02
12.750  24.000  8.4310e-02
13.000  17.000  1.1041e-02
13.000  17.250  1.1700e-02
13.000  17.500  1.2086e-02
13.000  17.750  1.2471e-02
13.000  18.000  1.2843e-02
13.000  18.250  1.3093e-02
13.000  18.500  1.3110e-02
13.000  18.750  1.2884e-02
13.000  19.000  1.2455e-02
13.000  19.250  1.1857e-02
13.000  19.500  1.1138e-02
13.000  19.750  1.0451e-02
13.000  20.000  9.9811e-03
13.000  20.250  7.4413e-03
13.000  20.500  3.6920e-03
13.000  20.750  6.1445e-04
13.000  21.000  8.9778e-05
13.000  21.250  3.9993e-03
13.000  21.500  1.4224e-02
13.000  21.750  3.2646e-02
13.000  22.000  6.1145e-02
13.000  22.250  9.2873e-02
13.000  22.500  1.0389e-01
13.000  22.750  1.1782e-01
13.000  23.000  1.2306e-01
13.000  23.250  1.1922e-01
13.000  23.500  1.0774e-01
13.000  23.750  9.7177e-02
13.000  24.000  8.9401e-02
13.250  17.000  1.0320e-02
13.250  17.250  1.0883e-02
13.250  17.500  1.1308e-02
13.250  17.750  1.1660e-02
13.250  18.000  1.2070e-02
13.250  18.250  1.2440e-02
13.250  18.500  1.2646e-02
13.250  18.750  1.2627e-02
13.250  19.000  1.2401e-02
13.250  19.250  1.1995e-02
13.250  19.500  1.1431e-02
13.250  19.750  1.0792e-02
13.250  20.000  1.0156e-02
13.250  20.250  9.7361e-03
13.250  20.500  7.5917e-03
13.250  20.750  4.5810e-03
13.250  21.000  2.4699e-03
13.250  21.250  3.0239e-03
13.250  21.500  8.0087e-03
13.250  21.750  1.9190e-02
13.250  22.000  3.8334e-02
13.250  22.250  6.7205e-02
13.250  22.500  9.8815e-02
13.250  22.750  1.0934e-01
13.250  23.000  1.2343e-01
13.250  23.250  1.2849e-01
13.250  23.500  1.2229e-01
13.250  23.750  1.0896e-01
13.250  24.000  9.7519e-02
13.500  17.000  9.5745e-03
13.500  17.250  1.0140e-02
13.500  17.500  1.0560e-02
13.500  17.750  1.0879e-02
13.500  18.000  1.1281e-02
13.500  18.250  1.1710e-02
13.500  18.500  1.2022e-02
13.500  18.750  1.2155e-02
13.500  19.000  1.2096e-02
13.500  19.250  1.1867e-02
13.500  19.500  1.1484e-02
13.500  19.750  1.0977e-02
13.500  20.000  1.0401e-02
13.500  20.250  9.8579e-03
13.500  20.500  9.4954e-03
13.500  20.750  8.6181e-03
13.500  21.000  7.9831e-03
13.500  21.250  8.7979e-03
13.500  21.500  1.2270e-02
13.500  21.750  1.9607e-02
13.500  22.000  3.2017e-02
13.500  22.250  5.0706e-02
13.500  22.500  7.6883e-02
13.500  22.750  1.0525e-01
13.500  23.000  1.1757e-01
13.500  23.250  1.3056e-01
13.500  23.500  1.3445e-01
13.500  23.750  1.2563e-01
13.500  24.000  1.1016e-01
13.750  17.000  8.7229e-03
13.750  17.250  9.4269e-03
13.750  17.500  9.8394e-03
13.750  17.750  1.0135e-02
13.750  18.000  1.0508e-02
13.750  18.250  1.0948e-02
13.750  18.500  1.1322e-02
13.750  18.750  1.1546e-02
13.750  19.000  1.1613e-02
13.750  19.250  1.1535e-02
13.750  19.500  1.1318e-02
13.750  19.750  1.0976e-02
13.750  20.000  1.0541e-02
13.750  20.250  1.0059e-02
13.750  20.500  9.6224e-03
13.750  20.750  8.8324e-03
13.750  21.000  8.2899e-03
13.750  21.250  8.8993e-03
13.750  21.500  1.1565e-02
13.750  21.750  1.7193e-02
13.750  22.000  2.6687e-02
13.750  22.250  4.0951e-02
13.750  22.500  6.0890e-02
13.750  22.750  8.7410e-02
13.750  23.000  1.1566e-01
13.750  23.250  1.2873e-01
13.750  23.500  1.3971e-01
13.750  23.750  1.4157e-01
13.750  24.000  1.2878e-01
14.000  17.000  7.7549e-03
14.000  17.250  8.6135e-03
14.000  17.500  9.1220e-03
14.000  17.750  9.4036e-03
14.000  18.000  9.7533e-03
14.000  18.250  1.0182e-02
14.000  18.500  1.0585e-02
14.000  18.750  1.0873e-02
14.000  19.000  1.1022e-02
14.000  19.250  1.1054e-02
14.000  19.500  1.0977e-02
14.000  19.750  1.0795e-02
14.000  20.000  1.0517e-02
14.000  20.250  1.0177e-02
14.000  20.500  9.3527e-03
14.000  20.750  8.4416e-03
14.000  21.000  8.0943e-03
14.000  21.250  8.9615e-03
14.000  21.500  1.1694e-02
14.000  21.750  1.6941e-02
14.000  22.000  2.5355e-02
14.000  22.250  3.7585e-02
14.000  22.500  5.4282e-02
14.000  22.750  7.6097e-02
14.000  23.000  1.0368e-01
14.000  23.250  1.3215e-01
14.000  23.500  1.4499e-01
14.000  23.750  1.5323e-01
14.000  24.000  1.4976e-01
