InwC 2392.03A  relative to Inci 1215.00A scaled to 1215A.
Hden   Phi(H)  Eq_Width (A)
7.000  17.000  4.7879e-02
7.000  17.250  6.3476e-02
7.000  17.500  6.7193e-02
7.000  17.750  6.8780e-02
7.000  18.000  6.8813e-02
7.000  18.250  6.8860e-02
7.000  18.500  6.8868e-02
7.000  18.750  6.8877e-02
7.000  19.000  6.8885e-02
7.000  19.250  6.8892e-02
7.000  19.500  6.8894e-02
7.000  19.750  6.8895e-02
7.000  20.000  6.8896e-02
7.000  20.250  6.8896e-02
7.000  20.500  6.8896e-02
7.000  20.750  6.8896e-02
7.000  21.000  6.8896e-02
7.000  21.250  6.8897e-02
7.000  21.500  6.8897e-02
7.000  21.750  6.8897e-02
7.000  22.000  6.8897e-02
7.000  22.250  6.8898e-02
7.000  22.500  6.8898e-02
7.000  22.750  6.8906e-02
7.000  23.000  6.8900e-02
7.000  23.250  6.8900e-02
7.000  23.500  6.8900e-02
7.000  23.750  6.8900e-02
7.000  24.000  6.8901e-02
7.250  17.000  3.6466e-02
7.250  17.250  4.8459e-02
7.250  17.500  6.3506e-02
7.250  17.750  6.7216e-02
7.250  18.000  6.8780e-02
7.250  18.250  6.8813e-02
7.250  18.500  6.8860e-02
7.250  18.750  6.8868e-02
7.250  19.000  6.8877e-02
7.250  19.250  6.8886e-02
7.250  19.500  6.8892e-02
7.250  19.750  6.8894e-02
7.250  20.000  6.8895e-02
7.250  20.250  6.8896e-02
7.250  20.500  6.8896e-02
7.250  20.750  6.8896e-02
7.250  21.000  6.8896e-02
7.250  21.250  6.8896e-02
7.250  21.500  6.8896e-02
7.250  21.750  6.8897e-02
7.250  22.000  6.8896e-02
7.250  22.250  6.8896e-02
7.250  22.500  6.8897e-02
7.250  22.750  6.8897e-02
7.250  23.000  6.8897e-02
7.250  23.250  6.8897e-02
7.250  23.500  6.8897e-02
7.250  23.750  6.8897e-02
7.250  24.000  6.8898e-02
7.500  17.000  2.6698e-02
7.500  17.250  3.7276e-02
7.500  17.500  4.8970e-02
7.500  17.750  6.3527e-02
7.500  18.000  6.7236e-02
7.500  18.250  6.8780e-02
7.500  18.500  6.8813e-02
7.500  18.750  6.8860e-02
7.500  19.000  6.8868e-02
7.500  19.250  6.8877e-02
7.500  19.500  6.8885e-02
7.500  19.750  6.8892e-02
7.500  20.000  6.8894e-02
7.500  20.250  6.8895e-02
7.500  20.500  6.8896e-02
7.500  20.750  6.8896e-02
7.500  21.000  6.8896e-02
7.500  21.250  6.8896e-02
7.500  21.500  6.8896e-02
7.500  21.750  6.8896e-02
7.500  22.000  6.8896e-02
7.500  22.250  6.8896e-02
7.500  22.500  6.8896e-02
7.500  22.750  6.8896e-02
7.500  23.000  6.8897e-02
7.500  23.250  6.8897e-02
7.500  23.500  6.8897e-02
7.500  23.750  6.8897e-02
7.500  24.000  6.8897e-02
7.750  17.000  1.8844e-02
7.750  17.250  2.7310e-02
7.750  17.500  3.8131e-02
7.750  17.750  4.9503e-02
7.750  18.000  6.3535e-02
7.750  18.250  6.7255e-02
7.750  18.500  6.8779e-02
7.750  18.750  6.8813e-02
7.750  19.000  6.8859e-02
7.750  19.250  6.8868e-02
7.750  19.500  6.8877e-02
7.750  19.750  6.8886e-02
7.750  20.000  6.8892e-02
7.750  20.250  6.8894e-02
7.750  20.500  6.8895e-02
7.750  20.750  6.8896e-02
7.750  21.000  6.8896e-02
7.750  21.250  6.8896e-02
7.750  21.500  6.8896e-02
7.750  21.750  6.8896e-02
7.750  22.000  6.8896e-02
7.750  22.250  6.8896e-02
7.750  22.500  6.8896e-02
7.750  22.750  6.8896e-02
7.750  23.000  6.8896e-02
7.750  23.250  6.8896e-02
7.750  23.500  6.8896e-02
7.750  23.750  6.8896e-02
7.750  24.000  6.8896e-02
8.000  17.000  1.3553e-02
8.000  17.250  1.9128e-02
8.000  17.500  2.7840e-02
8.000  17.750  3.8865e-02
8.000  18.000  4.9926e-02
8.000  18.250  6.3512e-02
8.000  18.500  6.7256e-02
8.000  18.750  6.8779e-02
8.000  19.000  6.8814e-02
8.000  19.250  6.8861e-02
8.000  19.500  6.8868e-02
8.000  19.750  6.8877e-02
8.000  20.000  6.8886e-02
8.000  20.250  6.8892e-02
8.000  20.500  6.8894e-02
8.000  20.750  6.8895e-02
8.000  21.000  6.8896e-02
8.000  21.250  6.8896e-02
8.000  21.500  6.8896e-02
8.000  21.750  6.8896e-02
8.000  22.000  6.8896e-02
8.000  22.250  6.8896e-02
8.000  22.500  6.8896e-02
8.000  22.750  6.8896e-02
8.000  23.000  6.8896e-02
8.000  23.250  6.8896e-02
8.000  23.500  6.8896e-02
8.000  23.750  6.8896e-02
8.000  24.000  6.8896e-02
8.250  17.000  1.0191e-02
8.250  17.250  1.3796e-02
8.250  17.500  1.9600e-02
8.250  17.750  2.8737e-02
8.250  18.000  4.0153e-02
8.250  18.250  5.0778e-02
8.250  18.500  6.3482e-02
8.250  18.750  6.7271e-02
8.250  19.000  6.8778e-02
8.250  19.250  6.8813e-02
8.250  19.500  6.8860e-02
8.250  19.750  6.8868e-02
8.250  20.000  6.8877e-02
8.250  20.250  6.8886e-02
8.250  20.500  6.8892e-02
8.250  20.750  6.8894e-02
8.250  21.000  6.8895e-02
8.250  21.250  6.8896e-02
8.250  21.500  6.8896e-02
8.250  21.750  6.8896e-02
8.250  22.000  6.8896e-02
8.250  22.250  6.8896e-02
8.250  22.500  6.8896e-02
8.250  22.750  6.8896e-02
8.250  23.000  6.8897e-02
8.250  23.250  6.8896e-02
8.250  23.500  6.8896e-02
8.250  23.750  6.8896e-02
8.250  24.000  6.8896e-02
8.500  17.000  7.9408e-03
8.500  17.250  1.0355e-02
8.500  17.500  1.4136e-02
8.500  17.750  2.0357e-02
8.500  18.000  3.0092e-02
8.500  18.250  4.1910e-02
8.500  18.500  5.1817e-02
8.500  18.750  6.3412e-02
8.500  19.000  6.7282e-02
8.500  19.250  6.8775e-02
8.500  19.500  6.8813e-02
8.500  19.750  6.8859e-02
8.500  20.000  6.8868e-02
8.500  20.250  6.8877e-02
8.500  20.500  6.8885e-02
8.500  20.750  6.8892e-02
8.500  21.000  6.8894e-02
8.500  21.250  6.8895e-02
8.500  21.500  6.8896e-02
8.500  21.750  6.8896e-02
8.500  22.000  6.8896e-02
8.500  22.250  6.8896e-02
8.500  22.500  6.8896e-02
8.500  22.750  6.8896e-02
8.500  23.000  6.8896e-02
8.500  23.250  6.8896e-02
8.500  23.500  6.8896e-02
8.500  23.750  6.8896e-02
8.500  24.000  6.8896e-02
8.750  17.000  6.3770e-03
8.750  17.250  8.0501e-03
8.750  17.500  1.0601e-02
8.750  17.750  1.4682e-02
8.750  18.000  2.1594e-02
8.750  18.250  3.2219e-02
8.750  18.500  4.3440e-02
8.750  18.750  5.2795e-02
8.750  19.000  6.3306e-02
8.750  19.250  6.7285e-02
8.750  19.500  6.8772e-02
8.750  19.750  6.8813e-02
8.750  20.000  6.8859e-02
8.750  20.250  6.8868e-02
8.750  20.500  6.8877e-02
8.750  20.750  6.8886e-02
8.750  21.000  6.8892e-02
8.750  21.250  6.8894e-02
8.750  21.500  6.8895e-02
8.750  21.750  6.8896e-02
8.750  22.000  6.8896e-02
8.750  22.250  6.8896e-02
8.750  22.500  6.8896e-02
8.750  22.750  6.8896e-02
8.750  23.000  6.8896e-02
8.750  23.250  6.8896e-02
8.750  23.500  6.8896e-02
8.750  23.750  6.8896e-02
8.750  24.000  6.8896e-02
9.000  17.000  5.2670e-03
9.000  17.250  6.4424e-03
9.000  17.500  8.2135e-03
9.000  17.750  1.1000e-02
9.000  18.000  1.5715e-02
9.000  18.250  2.3588e-02
9.000  18.500  3.4768e-02
9.000  18.750  4.5451e-02
9.000  19.000  5.4465e-02
9.000  19.250  6.3159e-02
9.000  19.500  6.7270e-02
9.000  19.750  6.8766e-02
9.000  20.000  6.8811e-02
9.000  20.250  6.8859e-02
9.000  20.500  6.8868e-02
9.000  20.750  6.8877e-02
9.000  21.000  6.8885e-02
9.000  21.250  6.8892e-02
9.000  21.500  6.8894e-02
9.000  21.750  6.8895e-02
9.000  22.000  6.8896e-02
9.000  22.250  6.8896e-02
9.000  22.500  6.8896e-02
9.000  22.750  6.8896e-02
9.000  23.000  6.8896e-02
9.000  23.250  6.8896e-02
9.000  23.500  6.8896e-02
9.000  23.750  6.8896e-02
9.000  24.000  6.8896e-02
9.250  17.000  4.4742e-03
9.250  17.250  5.3012e-03
9.250  17.500  6.5473e-03
9.250  17.750  8.5061e-03
9.250  18.000  1.1787e-02
9.250  18.250  1.7377e-02
9.250  18.500  2.5957e-02
9.250  18.750  3.6830e-02
9.250  19.000  4.6544e-02
9.250  19.250  5.6302e-02
9.250  19.500  6.3014e-02
9.250  19.750  6.7231e-02
9.250  20.000  6.8755e-02
9.250  20.250  6.8809e-02
9.250  20.500  6.8858e-02
9.250  20.750  6.8868e-02
9.250  21.000  6.8877e-02
9.250  21.250  6.8885e-02
9.250  21.500  6.8885e-02
9.250  21.750  6.8861e-02
9.250  22.000  6.8859e-02
9.250  22.250  6.8862e-02
9.250  22.500  6.8895e-02
9.250  22.750  6.8895e-02
9.250  23.000  6.8896e-02
9.250  23.250  6.8896e-02
9.250  23.500  6.8896e-02
9.250  23.750  6.8896e-02
9.250  24.000  6.8896e-02
9.500  17.000  3.9049e-03
9.500  17.250  4.4863e-03
9.500  17.500  5.3667e-03
9.500  17.750  6.7640e-03
9.500  18.000  9.1371e-03
9.500  18.250  1.3183e-02
9.500  18.500  1.9237e-02
9.500  18.750  2.7774e-02
9.500  19.000  3.8472e-02
9.500  19.250  4.7540e-02
9.500  19.500  5.7789e-02
9.500  19.750  6.2874e-02
9.500  20.000  6.7162e-02
9.500  20.250  6.8738e-02
9.500  20.500  6.8805e-02
9.500  20.750  6.8856e-02
9.500  21.000  6.8858e-02
9.500  21.250  6.8848e-02
9.500  21.500  6.8850e-02
9.500  21.750  6.8851e-02
9.500  22.000  6.8839e-02
9.500  22.250  6.8830e-02
9.500  22.500  6.8833e-02
9.500  22.750  6.8834e-02
9.500  23.000  6.8833e-02
9.500  23.250  6.8832e-02
9.500  23.500  6.8853e-02
9.500  23.750  6.8853e-02
9.500  24.000  6.8853e-02
9.750  17.000  3.4970e-03
9.750  17.250  3.9035e-03
9.750  17.500  4.5212e-03
9.750  17.750  5.5204e-03
9.750  18.000  7.2661e-03
9.750  18.250  1.0208e-02
9.750  18.500  1.4494e-02
9.750  18.750  2.0476e-02
9.750  19.000  2.8627e-02
9.750  19.250  3.8758e-02
9.750  19.500  4.9461e-02
9.750  19.750  5.8634e-02
9.750  20.000  6.2812e-02
9.750  20.250  6.7071e-02
9.750  20.500  6.8710e-02
9.750  20.750  6.8798e-02
9.750  21.000  6.8856e-02
9.750  21.250  6.8864e-02
9.750  21.500  6.8865e-02
9.750  21.750  6.8853e-02
9.750  22.000  6.8854e-02
9.750  22.250  6.8847e-02
9.750  22.500  6.8836e-02
9.750  22.750  6.8830e-02
9.750  23.000  6.8832e-02
9.750  23.250  6.8833e-02
9.750  23.500  6.8833e-02
9.750  23.750  6.8833e-02
9.750  24.000  6.8834e-02
10.000  17.000  3.2046e-03
10.000  17.250  3.4870e-03
10.000  17.500  3.9184e-03
10.000  17.750  4.6315e-03
10.000  18.000  5.9027e-03
10.000  18.250  8.0250e-03
10.000  18.500  1.0989e-02
10.000  18.750  1.5108e-02
10.000  19.000  2.0736e-02
10.000  19.250  2.8602e-02
10.000  19.500  3.8688e-02
10.000  19.750  5.1487e-02
10.000  20.000  5.8805e-02
10.000  20.250  6.2726e-02
10.000  20.500  6.6972e-02
10.000  20.750  6.8670e-02
10.000  21.000  6.8787e-02
10.000  21.250  6.8853e-02
10.000  21.500  6.8866e-02
10.000  21.750  6.8873e-02
10.000  22.000  6.8866e-02
10.000  22.250  6.8856e-02
10.000  22.500  6.8853e-02
10.000  22.750  6.8845e-02
10.000  23.000  6.8837e-02
10.000  23.250  6.8833e-02
10.000  23.500  6.8830e-02
10.000  23.750  6.8830e-02
10.000  24.000  6.8831e-02
10.250  17.000  2.9960e-03
10.250  17.250  3.1891e-03
10.250  17.500  3.4871e-03
10.250  17.750  3.9930e-03
10.250  18.000  4.8967e-03
10.250  18.250  6.3747e-03
10.250  18.500  8.4656e-03
10.250  18.750  1.1281e-02
10.250  19.000  1.5039e-02
10.250  19.250  2.0610e-02
10.250  19.500  2.8905e-02
10.250  19.750  4.0567e-02
10.250  20.000  5.3354e-02
10.250  20.250  5.8701e-02
10.250  20.500  6.2683e-02
10.250  20.750  6.6912e-02
10.250  21.000  6.8616e-02
10.250  21.250  6.8771e-02
10.250  21.500  6.8849e-02
10.250  21.750  6.8866e-02
10.250  22.000  6.8875e-02
10.250  22.250  6.8879e-02
10.250  22.500  6.8857e-02
10.250  22.750  6.8856e-02
10.250  23.000  6.8852e-02
10.250  23.250  6.8846e-02
10.250  23.500  6.8842e-02
10.250  23.750  6.8838e-02
10.250  24.000  6.8837e-02
10.500  17.000  2.8472e-03
10.500  17.250  2.9770e-03
10.500  17.500  3.1796e-03
10.500  17.750  3.5303e-03
10.500  18.000  4.1583e-03
10.500  18.250  5.2035e-03
10.500  18.500  6.6410e-03
10.500  18.750  8.6622e-03
10.500  19.000  1.1500e-02
10.500  19.250  1.5704e-02
10.500  19.500  2.1788e-02
10.500  19.750  3.0537e-02
10.500  20.000  4.2832e-02
10.500  20.250  5.4136e-02
10.500  20.500  5.8571e-02
10.500  20.750  6.2598e-02
10.500  21.000  6.6881e-02
10.500  21.250  6.8548e-02
10.500  21.500  6.8746e-02
10.500  21.750  6.8841e-02
10.500  22.000  6.8865e-02
10.500  22.250  6.8876e-02
10.500  22.500  6.8883e-02
10.500  22.750  6.8863e-02
10.500  23.000  6.8858e-02
10.500  23.250  6.8856e-02
10.500  23.500  6.8853e-02
10.500  23.750  6.8849e-02
10.500  24.000  6.8847e-02
10.750  17.000  2.7371e-03
10.750  17.250  2.8227e-03
10.750  17.500  2.9556e-03
10.750  17.750  3.1896e-03
10.750  18.000  3.6223e-03
10.750  18.250  4.3449e-03
10.750  18.500  5.3774e-03
10.750  18.750  6.8789e-03
10.750  19.000  9.0551e-03
10.750  19.250  1.2129e-02
10.750  19.500  1.6512e-02
10.750  19.750  2.2785e-02
10.750  20.000  3.1874e-02
10.750  20.250  4.4473e-02
10.750  20.500  5.4352e-02
10.750  20.750  5.8596e-02
10.750  21.000  6.2620e-02
10.750  21.250  6.6928e-02
10.750  21.500  6.8480e-02
10.750  21.750  6.8715e-02
10.750  22.000  6.8827e-02
10.750  22.250  6.8864e-02
10.750  22.500  6.8875e-02
10.750  22.750  6.8884e-02
10.750  23.000  6.8880e-02
10.750  23.250  6.8859e-02
10.750  23.500  6.8858e-02
10.750  23.750  6.8857e-02
10.750  24.000  6.8855e-02
11.000  17.000  2.6514e-03
11.000  17.250  2.7069e-03
11.000  17.500  2.7882e-03
11.000  17.750  2.9392e-03
11.000  18.000  3.2300e-03
11.000  18.250  3.7302e-03
11.000  18.500  4.5140e-03
11.000  18.750  5.6500e-03
11.000  19.000  7.2834e-03
11.000  19.250  9.5327e-03
11.000  19.500  1.2636e-02
11.000  19.750  1.7079e-02
11.000  20.000  2.3456e-02
11.000  20.250  3.2693e-02
11.000  20.500  4.5561e-02
11.000  20.750  5.3913e-02
11.000  21.000  5.8505e-02
11.000  21.250  6.2755e-02
11.000  21.500  6.7079e-02
11.000  21.750  6.8387e-02
11.000  22.000  6.8677e-02
11.000  22.250  6.8813e-02
11.000  22.500  6.8861e-02
11.000  22.750  6.8874e-02
11.000  23.000  6.8884e-02
11.000  23.250  6.8888e-02
11.000  23.500  6.8865e-02
11.000  23.750  6.8860e-02
11.000  24.000  6.8859e-02
11.250  17.000  2.5848e-03
11.250  17.250  2.6146e-03
11.250  17.500  2.6607e-03
11.250  17.750  2.7514e-03
11.250  18.000  2.9415e-03
11.250  18.250  3.2894e-03
11.250  18.500  3.8483e-03
11.250  18.750  4.7116e-03
11.250  19.000  5.9105e-03
11.250  19.250  7.5407e-03
11.250  19.500  9.8016e-03
11.250  19.750  1.2933e-02
11.250  20.000  1.7383e-02
11.250  20.250  2.3791e-02
11.250  20.500  3.3175e-02
11.250  20.750  4.6040e-02
11.250  21.000  5.3734e-02
11.250  21.250  5.8546e-02
11.250  21.500  6.3043e-02
11.250  21.750  6.7359e-02
11.250  22.000  6.8300e-02
11.250  22.250  6.8641e-02
11.250  22.500  6.8792e-02
11.250  22.750  6.8857e-02
11.250  23.000  6.8873e-02
11.250  23.250  6.8883e-02
11.250  23.500  6.8891e-02
11.250  23.750  6.8882e-02
11.250  24.000  6.8862e-02
11.500  17.000  2.5362e-03
11.500  17.250  2.5422e-03
11.500  17.500  2.5615e-03
11.500  17.750  2.6096e-03
11.500  18.000  2.7300e-03
11.500  18.250  2.9765e-03
11.500  18.500  3.3852e-03
11.500  18.750  4.0260e-03
11.500  19.000  4.8957e-03
11.500  19.250  6.0873e-03
11.500  19.500  7.7328e-03
11.500  19.750  1.0001e-02
11.500  20.000  1.3124e-02
11.500  20.250  1.7550e-02
11.500  20.500  2.3970e-02
11.500  20.750  3.3492e-02
11.500  21.000  4.5484e-02
11.500  21.250  5.3608e-02
11.500  21.500  5.8841e-02
11.500  21.750  6.3675e-02
11.500  22.000  6.7401e-02
11.500  22.250  6.8226e-02
11.500  22.500  6.8602e-02
11.500  22.750  6.8780e-02
11.500  23.000  6.8852e-02
11.500  23.250  6.8870e-02
11.500  23.500  6.8883e-02
11.500  23.750  6.8891e-02
11.500  24.000  6.8890e-02
11.750  17.000  2.5073e-03
11.750  17.250  2.4908e-03
11.750  17.500  2.4852e-03
11.750  17.750  2.5040e-03
11.750  18.000  2.5789e-03
11.750  18.250  2.7529e-03
11.750  18.500  3.0495e-03
11.750  18.750  3.4988e-03
11.750  19.000  4.1399e-03
11.750  19.250  5.0136e-03
11.750  19.500  6.2147e-03
11.750  19.750  7.8632e-03
11.750  20.000  1.0093e-02
11.750  20.250  1.3196e-02
11.750  20.500  1.7634e-02
11.750  20.750  2.4073e-02
11.750  21.000  3.3802e-02
11.750  21.250  4.4788e-02
11.750  21.500  5.3636e-02
11.750  21.750  5.9402e-02
11.750  22.000  6.4424e-02
11.750  22.250  6.7269e-02
11.750  22.500  6.8134e-02
11.750  22.750  6.8561e-02
11.750  23.000  6.8762e-02
11.750  23.250  6.8846e-02
11.750  23.500  6.8867e-02
11.750  23.750  6.8882e-02
11.750  24.000  6.8891e-02
12.000  17.000  2.4937e-03
12.000  17.250  2.4621e-03
12.000  17.500  2.4355e-03
12.000  17.750  2.4304e-03
12.000  18.000  2.4743e-03
12.000  18.250  2.5957e-03
12.000  18.500  2.8100e-03
12.000  18.750  3.1331e-03
12.000  19.000  3.5946e-03
12.000  19.250  4.2344e-03
12.000  19.500  5.1186e-03
12.000  19.750  6.3108e-03
12.000  20.000  7.9354e-03
12.000  20.250  1.0158e-02
12.000  20.500  1.3252e-02
12.000  20.750  1.7688e-02
12.000  21.000  2.4237e-02
12.000  21.250  3.4242e-02
12.000  21.500  4.4818e-02
12.000  21.750  5.4008e-02
12.000  22.000  6.0169e-02
12.000  22.250  6.5035e-02
12.000  22.500  6.7158e-02
12.000  22.750  6.8075e-02
12.000  23.000  6.8515e-02
12.000  23.250  6.8744e-02
12.000  23.500  6.8840e-02
12.000  23.750  6.8864e-02
12.000  24.000  6.8880e-02
12.250  17.000  2.2061e-03
12.250  17.250  2.4533e-03
12.250  17.500  2.4150e-03
12.250  17.750  2.3924e-03
12.250  18.000  2.4123e-03
12.250  18.250  2.4938e-03
12.250  18.500  2.6452e-03
12.250  18.750  2.8718e-03
12.250  19.000  3.1986e-03
12.250  19.250  3.6631e-03
12.250  19.500  4.3113e-03
12.250  19.750  5.1816e-03
12.250  20.000  6.3826e-03
12.250  20.250  7.9886e-03
12.250  20.500  1.0227e-02
12.250  20.750  1.3328e-02
12.250  21.000  1.7790e-02
12.250  21.250  2.4530e-02
12.250  21.500  3.4311e-02
12.250  21.750  4.5303e-02
12.250  22.000  5.4698e-02
12.250  22.250  6.1118e-02
12.250  22.500  6.5354e-02
12.250  22.750  6.7093e-02
12.250  23.000  6.8001e-02
12.250  23.250  6.8470e-02
12.250  23.500  6.8725e-02
12.250  23.750  6.8833e-02
12.250  24.000  6.8861e-02
12.500  17.000  1.1577e-03
12.500  17.250  2.2845e-03
12.500  17.500  2.4224e-03
12.500  17.750  2.3940e-03
12.500  18.000  2.3918e-03
12.500  18.250  2.4352e-03
12.500  18.500  2.5294e-03
12.500  18.750  2.6857e-03
12.500  19.000  2.9189e-03
12.500  19.250  3.2544e-03
12.500  19.500  3.7222e-03
12.500  19.750  4.3613e-03
12.500  20.000  5.2361e-03
12.500  20.250  6.4308e-03
12.500  20.500  8.0475e-03
12.500  20.750  1.0274e-02
12.500  21.000  1.3414e-02
12.500  21.250  1.7964e-02
12.500  21.500  2.4555e-02
12.500  21.750  3.5132e-02
12.500  22.000  4.6132e-02
12.500  22.250  5.5765e-02
12.500  22.500  6.1938e-02
12.500  22.750  6.5525e-02
12.500  23.000  6.7040e-02
12.500  23.250  6.7931e-02
12.500  23.500  6.8420e-02
12.500  23.750  6.8700e-02
12.500  24.000  6.8825e-02
12.750  17.000  6.0642e-04
12.750  17.250  1.3584e-03
12.750  17.500  2.4193e-03
12.750  17.750  2.4164e-03
12.750  18.000  2.4000e-03
12.750  18.250  2.4083e-03
12.750  18.500  2.4552e-03
12.750  18.750  2.5549e-03
12.750  19.000  2.7153e-03
12.750  19.250  2.9538e-03
12.750  19.500  3.2919e-03
12.750  19.750  3.7570e-03
12.750  20.000  4.3942e-03
12.750  20.250  5.2629e-03
12.750  20.500  6.4564e-03
12.750  20.750  8.0868e-03
12.750  21.000  1.0312e-02
12.750  21.250  1.3509e-02
12.750  21.500  1.7936e-02
12.750  21.750  2.5138e-02
12.750  22.000  3.6330e-02
12.750  22.250  4.7316e-02
12.750  22.500  5.6983e-02
12.750  22.750  6.2465e-02
12.750  23.000  6.5580e-02
12.750  23.250  6.7009e-02
12.750  23.500  6.7873e-02
12.750  23.750  6.8365e-02
12.750  24.000  6.8667e-02
13.000  17.000  1.0066e-04
13.000  17.250  2.4049e-04
13.000  17.500  9.5753e-04
13.000  17.750  1.9112e-03
13.000  18.000  2.2046e-03
13.000  18.250  2.4086e-03
13.000  18.500  2.4193e-03
13.000  18.750  2.4681e-03
13.000  19.000  2.5710e-03
13.000  19.250  2.7361e-03
13.000  19.500  2.9789e-03
13.000  19.750  3.3118e-03
13.000  20.000  3.7748e-03
13.000  20.250  4.4088e-03
13.000  20.500  5.2677e-03
13.000  20.750  6.4597e-03
13.000  21.000  8.0916e-03
13.000  21.250  1.0364e-02
13.000  21.500  1.3416e-02
13.000  21.750  1.8185e-02
13.000  22.000  2.5920e-02
13.000  22.250  3.7743e-02
13.000  22.500  4.8668e-02
13.000  22.750  5.7521e-02
13.000  23.000  6.2662e-02
13.000  23.250  6.5576e-02
13.000  23.500  6.6956e-02
13.000  23.750  6.7802e-02
13.000  24.000  6.8296e-02
13.250  17.000  6.0988e-05
13.250  17.250  1.1572e-04
13.250  17.500  2.9062e-04
13.250  17.750  7.2198e-04
13.250  18.000  1.5074e-03
13.250  18.250  1.9367e-03
13.250  18.500  2.4159e-03
13.250  18.750  2.4252e-03
13.250  19.000  2.4764e-03
13.250  19.250  2.5827e-03
13.250  19.500  2.7479e-03
13.250  19.750  2.9870e-03
13.250  20.000  3.3174e-03
13.250  20.250  3.7745e-03
13.250  20.500  4.3982e-03
13.250  20.750  5.2491e-03
13.250  21.000  6.4300e-03
13.250  21.250  8.0486e-03
13.250  21.500  1.0173e-02
13.250  21.750  1.3259e-02
13.250  22.000  1.8165e-02
13.250  22.250  2.6397e-02
13.250  22.500  3.8779e-02
13.250  22.750  4.8771e-02
13.250  23.000  5.7347e-02
13.250  23.250  6.2634e-02
13.250  23.500  6.5498e-02
13.250  23.750  6.6861e-02
13.250  24.000  6.7698e-02
13.500  17.000  3.7284e-05
13.500  17.250  6.8889e-05
13.500  17.500  1.5712e-04
13.500  17.750  3.7152e-04
13.500  18.000  8.8115e-04
13.500  18.250  1.6832e-03
13.500  18.500  2.0421e-03
13.500  18.750  2.4203e-03
13.500  19.000  2.4280e-03
13.500  19.250  2.4785e-03
13.500  19.500  2.5844e-03
13.500  19.750  2.7478e-03
13.500  20.000  2.9819e-03
13.500  20.250  3.3061e-03
13.500  20.500  3.7520e-03
13.500  20.750  4.3584e-03
13.500  21.000  5.1830e-03
13.500  21.250  6.3086e-03
13.500  21.500  7.7681e-03
13.500  21.750  9.7809e-03
13.500  22.000  1.2616e-02
13.500  22.250  1.7703e-02
13.500  22.500  2.7141e-02
13.500  22.750  3.9140e-02
13.500  23.000  4.9053e-02
13.500  23.250  5.6960e-02
13.500  23.500  6.2357e-02
13.500  23.750  6.5300e-02
13.500  24.000  6.6683e-02
13.750  17.000  2.2140e-05
13.750  17.250  4.4774e-05
13.750  17.500  9.6790e-05
13.750  17.750  1.9284e-04
13.750  18.000  4.8247e-04
13.750  18.250  1.0904e-03
13.750  18.500  1.7722e-03
13.750  18.750  2.1437e-03
13.750  19.000  2.4216e-03
13.750  19.250  2.4276e-03
13.750  19.500  2.4774e-03
13.750  19.750  2.5796e-03
13.750  20.000  2.7374e-03
13.750  20.250  2.9619e-03
13.750  20.500  3.2724e-03
13.750  20.750  3.6951e-03
13.750  21.000  4.2659e-03
13.750  21.250  5.0363e-03
13.750  21.500  6.0010e-03
13.750  21.750  7.2765e-03
13.750  22.000  8.8884e-03
13.750  22.250  1.1488e-02
13.750  22.500  1.6874e-02
13.750  22.750  2.7502e-02
13.750  23.000  3.9672e-02
13.750  23.250  4.9089e-02
13.750  23.500  5.6490e-02
13.750  23.750  6.2009e-02
13.750  24.000  6.4934e-02
14.000  17.000  1.3251e-05
14.000  17.250  2.6584e-05
14.000  17.500  5.9835e-05
14.000  17.750  1.1918e-04
14.000  18.000  2.4041e-04
14.000  18.250  5.5975e-04
14.000  18.500  1.1186e-03
14.000  18.750  1.8379e-03
14.000  19.000  2.4083e-03
14.000  19.250  2.4193e-03
14.000  19.500  2.4228e-03
14.000  19.750  2.4691e-03
14.000  20.000  2.5659e-03
14.000  20.250  2.7137e-03
14.000  20.500  2.9225e-03
14.000  20.750  3.2073e-03
14.000  21.000  3.5904e-03
14.000  21.250  4.1011e-03
14.000  21.500  4.7203e-03
14.000  21.750  5.4985e-03
14.000  22.000  6.3466e-03
14.000  22.250  7.5867e-03
14.000  22.500  1.0409e-02
14.000  22.750  1.6712e-02
14.000  23.000  2.8138e-02
14.000  23.250  3.9900e-02
14.000  23.500  4.8814e-02
14.000  23.750  5.5897e-02
14.000  24.000  6.1466e-02
