InwC 2430.05A  relative to Inci 1215.00A scaled to 1215A.
Hden   Phi(H)  Eq_Width (A)
7.000  17.000  4.7566e-02
7.000  17.250  6.3116e-02
7.000  17.500  6.6834e-02
7.000  17.750  6.8416e-02
7.000  18.000  6.8449e-02
7.000  18.250  6.8495e-02
7.000  18.500  6.8503e-02
7.000  18.750  6.8512e-02
7.000  19.000  6.8521e-02
7.000  19.250  6.8527e-02
7.000  19.500  6.8529e-02
7.000  19.750  6.8530e-02
7.000  20.000  6.8531e-02
7.000  20.250  6.8531e-02
7.000  20.500  6.8531e-02
7.000  20.750  6.8531e-02
7.000  21.000  6.8532e-02
7.000  21.250  6.8532e-02
7.000  21.500  6.8532e-02
7.000  21.750  6.8532e-02
7.000  22.000  6.8533e-02
7.000  22.250  6.8533e-02
7.000  22.500  6.8533e-02
7.000  22.750  6.8541e-02
7.000  23.000  6.8535e-02
7.000  23.250  6.8536e-02
7.000  23.500  6.8535e-02
7.000  23.750  6.8536e-02
7.000  24.000  6.8536e-02
7.250  17.000  3.6186e-02
7.250  17.250  4.8143e-02
7.250  17.500  6.3146e-02
7.250  17.750  6.6856e-02
7.250  18.000  6.8416e-02
7.250  18.250  6.8449e-02
7.250  18.500  6.8496e-02
7.250  18.750  6.8503e-02
7.250  19.000  6.8513e-02
7.250  19.250  6.8521e-02
7.250  19.500  6.8527e-02
7.250  19.750  6.8529e-02
7.250  20.000  6.8530e-02
7.250  20.250  6.8531e-02
7.250  20.500  6.8531e-02
7.250  20.750  6.8531e-02
7.250  21.000  6.8531e-02
7.250  21.250  6.8531e-02
7.250  21.500  6.8531e-02
7.250  21.750  6.8532e-02
7.250  22.000  6.8532e-02
7.250  22.250  6.8532e-02
7.250  22.500  6.8532e-02
7.250  22.750  6.8532e-02
7.250  23.000  6.8532e-02
7.250  23.250  6.8533e-02
7.250  23.500  6.8533e-02
7.250  23.750  6.8533e-02
7.250  24.000  6.8533e-02
7.500  17.000  2.6446e-02
7.500  17.250  3.6992e-02
7.500  17.500  4.8652e-02
7.500  17.750  6.3167e-02
7.500  18.000  6.6876e-02
7.500  18.250  6.8415e-02
7.500  18.500  6.8449e-02
7.500  18.750  6.8495e-02
7.500  19.000  6.8503e-02
7.500  19.250  6.8513e-02
7.500  19.500  6.8521e-02
7.500  19.750  6.8527e-02
7.500  20.000  6.8529e-02
7.500  20.250  6.8530e-02
7.500  20.500  6.8531e-02
7.500  20.750  6.8531e-02
7.500  21.000  6.8531e-02
7.500  21.250  6.8531e-02
7.500  21.500  6.8531e-02
7.500  21.750  6.8531e-02
7.500  22.000  6.8531e-02
7.500  22.250  6.8531e-02
7.500  22.500  6.8532e-02
7.500  22.750  6.8531e-02
7.500  23.000  6.8532e-02
7.500  23.250  6.8532e-02
7.500  23.500  6.8532e-02
7.500  23.750  6.8532e-02
7.500  24.000  6.8532e-02
7.750  17.000  1.8613e-02
7.750  17.250  2.7055e-02
7.750  17.500  3.7842e-02
7.750  17.750  4.9180e-02
7.750  18.000  6.3174e-02
7.750  18.250  6.6895e-02
7.750  18.500  6.8415e-02
7.750  18.750  6.8449e-02
7.750  19.000  6.8495e-02
7.750  19.250  6.8503e-02
7.750  19.500  6.8513e-02
7.750  19.750  6.8521e-02
7.750  20.000  6.8527e-02
7.750  20.250  6.8529e-02
7.750  20.500  6.8530e-02
7.750  20.750  6.8531e-02
7.750  21.000  6.8531e-02
7.750  21.250  6.8531e-02
7.750  21.500  6.8531e-02
7.750  21.750  6.8531e-02
7.750  22.000  6.8531e-02
7.750  22.250  6.8531e-02
7.750  22.500  6.8531e-02
7.750  22.750  6.8531e-02
7.750  23.000  6.8531e-02
7.750  23.250  6.8531e-02
7.750  23.500  6.8531e-02
7.750  23.750  6.8532e-02
7.750  24.000  6.8531e-02
8.000  17.000  1.3335e-02
8.000  17.250  1.8895e-02
8.000  17.500  2.7580e-02
8.000  17.750  3.8569e-02
8.000  18.000  4.9598e-02
8.000  18.250  6.3149e-02
8.000  18.500  6.6896e-02
8.000  18.750  6.8414e-02
8.000  19.000  6.8449e-02
8.000  19.250  6.8496e-02
8.000  19.500  6.8503e-02
8.000  19.750  6.8513e-02
8.000  20.000  6.8521e-02
8.000  20.250  6.8527e-02
8.000  20.500  6.8529e-02
8.000  20.750  6.8530e-02
8.000  21.000  6.8531e-02
8.000  21.250  6.8531e-02
8.000  21.500  6.8531e-02
8.000  21.750  6.8531e-02
8.000  22.000  6.8531e-02
8.000  22.250  6.8531e-02
8.000  22.500  6.8531e-02
8.000  22.750  6.8531e-02
8.000  23.000  6.8531e-02
8.000  23.250  6.8531e-02
8.000  23.500  6.8531e-02
8.000  23.750  6.8531e-02
8.000  24.000  6.8532e-02
8.250  17.000  9.9809e-03
8.250  17.250  1.3577e-02
8.250  17.500  1.9363e-02
8.250  17.750  2.8469e-02
8.250  18.000  3.9844e-02
8.250  18.250  5.0439e-02
8.250  18.500  6.3116e-02
8.250  18.750  6.6910e-02
8.250  19.000  6.8413e-02
8.250  19.250  6.8449e-02
8.250  19.500  6.8495e-02
8.250  19.750  6.8503e-02
8.250  20.000  6.8513e-02
8.250  20.250  6.8521e-02
8.250  20.500  6.8527e-02
8.250  20.750  6.8529e-02
8.250  21.000  6.8530e-02
8.250  21.250  6.8531e-02
8.250  21.500  6.8531e-02
8.250  21.750  6.8531e-02
8.250  22.000  6.8531e-02
8.250  22.250  6.8531e-02
8.250  22.500  6.8531e-02
8.250  22.750  6.8531e-02
8.250  23.000  6.8532e-02
8.250  23.250  6.8531e-02
8.250  23.500  6.8531e-02
8.250  23.750  6.8531e-02
8.250  24.000  6.8531e-02
8.500  17.000  7.7358e-03
8.500  17.250  1.0144e-02
8.500  17.500  1.3914e-02
8.500  17.750  2.0113e-02
8.500  18.000  2.9808e-02
8.500  18.250  4.1578e-02
8.500  18.500  5.1461e-02
8.500  18.750  6.3042e-02
8.500  19.000  6.6921e-02
8.500  19.250  6.8411e-02
8.500  19.500  6.8449e-02
8.500  19.750  6.8494e-02
8.500  20.000  6.8503e-02
8.500  20.250  6.8512e-02
8.500  20.500  6.8521e-02
8.500  20.750  6.8527e-02
8.500  21.000  6.8529e-02
8.500  21.250  6.8530e-02
8.500  21.500  6.8531e-02
8.500  21.750  6.8531e-02
8.500  22.000  6.8531e-02
8.500  22.250  6.8531e-02
8.500  22.500  6.8531e-02
8.500  22.750  6.8531e-02
8.500  23.000  6.8531e-02
8.500  23.250  6.8531e-02
8.500  23.500  6.8531e-02
8.500  23.750  6.8531e-02
8.500  24.000  6.8531e-02
8.750  17.000  6.1754e-03
8.750  17.250  7.8444e-03
8.750  17.500  1.0388e-02
8.750  17.750  1.4454e-02
8.750  18.000  2.1336e-02
8.750  18.250  3.1907e-02
8.750  18.500  4.3078e-02
8.750  18.750  5.2418e-02
8.750  19.000  6.2932e-02
8.750  19.250  6.6923e-02
8.750  19.500  6.8407e-02
8.750  19.750  6.8448e-02
8.750  20.000  6.8494e-02
8.750  20.250  6.8503e-02
8.750  20.500  6.8513e-02
8.750  20.750  6.8521e-02
8.750  21.000  6.8527e-02
8.750  21.250  6.8529e-02
8.750  21.500  6.8530e-02
8.750  21.750  6.8531e-02
8.750  22.000  6.8531e-02
8.750  22.250  6.8531e-02
8.750  22.500  6.8531e-02
8.750  22.750  6.8531e-02
8.750  23.000  6.8531e-02
8.750  23.250  6.8531e-02
8.750  23.500  6.8531e-02
8.750  23.750  6.8531e-02
8.750  24.000  6.8531e-02
9.000  17.000  5.0679e-03
9.000  17.250  6.2405e-03
9.000  17.500  8.0064e-03
9.000  17.750  1.0783e-02
9.000  18.000  1.5476e-02
9.000  18.250  2.3305e-02
9.000  18.500  3.4418e-02
9.000  18.750  4.5052e-02
9.000  19.000  5.4063e-02
9.000  19.250  6.2776e-02
9.000  19.500  6.6907e-02
9.000  19.750  6.8401e-02
9.000  20.000  6.8447e-02
9.000  20.250  6.8494e-02
9.000  20.500  6.8503e-02
9.000  20.750  6.8512e-02
9.000  21.000  6.8521e-02
9.000  21.250  6.8527e-02
9.000  21.500  6.8529e-02
9.000  21.750  6.8530e-02
9.000  22.000  6.8531e-02
9.000  22.250  6.8531e-02
9.000  22.500  6.8531e-02
9.000  22.750  6.8531e-02
9.000  23.000  6.8531e-02
9.000  23.250  6.8531e-02
9.000  23.500  6.8531e-02
9.000  23.750  6.8531e-02
9.000  24.000  6.8531e-02
9.250  17.000  4.2770e-03
9.250  17.250  5.1022e-03
9.250  17.500  6.3449e-03
9.250  17.750  8.2965e-03
9.250  18.000  1.1562e-02
9.250  18.250  1.7118e-02
9.250  18.500  2.5638e-02
9.250  18.750  3.6437e-02
9.250  19.000  4.6113e-02
9.250  19.250  5.5876e-02
9.250  19.500  6.2625e-02
9.250  19.750  6.6865e-02
9.250  20.000  6.8390e-02
9.250  20.250  6.8444e-02
9.250  20.500  6.8493e-02
9.250  20.750  6.8503e-02
9.250  21.000  6.8513e-02
9.250  21.250  6.8521e-02
9.250  21.500  6.8520e-02
9.250  21.750  6.8496e-02
9.250  22.000  6.8495e-02
9.250  22.250  6.8497e-02
9.250  22.500  6.8530e-02
9.250  22.750  6.8531e-02
9.250  23.000  6.8531e-02
9.250  23.250  6.8531e-02
9.250  23.500  6.8531e-02
9.250  23.750  6.8531e-02
9.250  24.000  6.8531e-02
9.500  17.000  3.7092e-03
9.500  17.250  4.2896e-03
9.500  17.500  5.1677e-03
9.500  17.750  6.5603e-03
9.500  18.000  8.9220e-03
9.500  18.250  1.2943e-02
9.500  18.500  1.8949e-02
9.500  18.750  2.7409e-02
9.500  19.000  3.8021e-02
9.500  19.250  4.7076e-02
9.500  19.500  5.7342e-02
9.500  19.750  6.2478e-02
9.500  20.000  6.6793e-02
9.500  20.250  6.8372e-02
9.500  20.500  6.8440e-02
9.500  20.750  6.8492e-02
9.500  21.000  6.8493e-02
9.500  21.250  6.8484e-02
9.500  21.500  6.8485e-02
9.500  21.750  6.8486e-02
9.500  22.000  6.8475e-02
9.500  22.250  6.8465e-02
9.500  22.500  6.8468e-02
9.500  22.750  6.8469e-02
9.500  23.000  6.8468e-02
9.500  23.250  6.8468e-02
9.500  23.500  6.8489e-02
9.500  23.750  6.8489e-02
9.500  24.000  6.8489e-02
9.750  17.000  3.3024e-03
9.750  17.250  3.7086e-03
9.750  17.500  4.3252e-03
9.750  17.750  5.3214e-03
9.750  18.000  7.0591e-03
9.750  18.250  9.9819e-03
9.750  18.500  1.4229e-02
9.750  18.750  2.0147e-02
9.750  19.000  2.8206e-02
9.750  19.250  3.8258e-02
9.750  19.500  4.8964e-02
9.750  19.750  5.8176e-02
9.750  20.000  6.2411e-02
9.750  20.250  6.6699e-02
9.750  20.500  6.8343e-02
9.750  20.750  6.8433e-02
9.750  21.000  6.8491e-02
9.750  21.250  6.8500e-02
9.750  21.500  6.8500e-02
9.750  21.750  6.8488e-02
9.750  22.000  6.8490e-02
9.750  22.250  6.8483e-02
9.750  22.500  6.8472e-02
9.750  22.750  6.8466e-02
9.750  23.000  6.8467e-02
9.750  23.250  6.8468e-02
9.750  23.500  6.8469e-02
9.750  23.750  6.8469e-02
9.750  24.000  6.8469e-02
10.000  17.000  3.0110e-03
10.000  17.250  3.2935e-03
10.000  17.500  3.7247e-03
10.000  17.750  4.4363e-03
10.000  18.000  5.7024e-03
10.000  18.250  7.8105e-03
10.000  18.500  1.0746e-02
10.000  18.750  1.4813e-02
10.000  19.000  2.0363e-02
10.000  19.250  2.8123e-02
10.000  19.500  3.8145e-02
10.000  19.750  5.0966e-02
10.000  20.000  5.8345e-02
10.000  20.250  6.2319e-02
10.000  20.500  6.6596e-02
10.000  20.750  6.8302e-02
10.000  21.000  6.8422e-02
10.000  21.250  6.8488e-02
10.000  21.500  6.8501e-02
10.000  21.750  6.8508e-02
10.000  22.000  6.8501e-02
10.000  22.250  6.8491e-02
10.000  22.500  6.8488e-02
10.000  22.750  6.8480e-02
10.000  23.000  6.8473e-02
10.000  23.250  6.8468e-02
10.000  23.500  6.8466e-02
10.000  23.750  6.8466e-02
10.000  24.000  6.8466e-02
10.250  17.000  2.8031e-03
10.250  17.250  2.9966e-03
10.250  17.500  3.2951e-03
10.250  17.750  3.8008e-03
10.250  18.000  4.7021e-03
10.250  18.250  6.1709e-03
10.250  18.500  8.2410e-03
10.250  18.750  1.1018e-02
10.250  19.000  1.4715e-02
10.250  19.250  2.0200e-02
10.250  19.500  2.8403e-02
10.250  19.750  4.0016e-02
10.250  20.000  5.2818e-02
10.250  20.250  5.8231e-02
10.250  20.500  6.2270e-02
10.250  20.750  6.6533e-02
10.250  21.000  6.8246e-02
10.250  21.250  6.8405e-02
10.250  21.500  6.8484e-02
10.250  21.750  6.8501e-02
10.250  22.000  6.8511e-02
10.250  22.250  6.8514e-02
10.250  22.500  6.8492e-02
10.250  22.750  6.8492e-02
10.250  23.000  6.8487e-02
10.250  23.250  6.8481e-02
10.250  23.500  6.8477e-02
10.250  23.750  6.8474e-02
10.250  24.000  6.8473e-02
10.500  17.000  2.6549e-03
10.500  17.250  2.7854e-03
10.500  17.500  2.9890e-03
10.500  17.750  3.3407e-03
10.500  18.000  3.9684e-03
10.500  18.250  5.0086e-03
10.500  18.500  6.4329e-03
10.500  18.750  8.4277e-03
10.500  19.000  1.1223e-02
10.500  19.250  1.5364e-02
10.500  19.500  2.1365e-02
10.500  19.750  3.0027e-02
10.500  20.000  4.2270e-02
10.500  20.250  5.3579e-02
10.500  20.500  5.8093e-02
10.500  20.750  6.2178e-02
10.500  21.000  6.6496e-02
10.500  21.250  6.8176e-02
10.500  21.500  6.8380e-02
10.500  21.750  6.8476e-02
10.500  22.000  6.8501e-02
10.500  22.250  6.8511e-02
10.500  22.500  6.8518e-02
10.500  22.750  6.8499e-02
10.500  23.000  6.8494e-02
10.500  23.250  6.8491e-02
10.500  23.500  6.8488e-02
10.500  23.750  6.8485e-02
10.500  24.000  6.8482e-02
10.750  17.000  2.5456e-03
10.750  17.250  2.6319e-03
10.750  17.500  2.7663e-03
10.750  17.750  3.0021e-03
10.750  18.000  3.4364e-03
10.750  18.250  4.1573e-03
10.750  18.500  5.1825e-03
10.750  18.750  6.6672e-03
10.750  19.000  8.8142e-03
10.750  19.250  1.1844e-02
10.750  19.500  1.6163e-02
10.750  19.750  2.2351e-02
10.750  20.000  3.1350e-02
10.750  20.250  4.3889e-02
10.750  20.500  5.3793e-02
10.750  20.750  5.8112e-02
10.750  21.000  6.2195e-02
10.750  21.250  6.6538e-02
10.750  21.500  6.8105e-02
10.750  21.750  6.8347e-02
10.750  22.000  6.8461e-02
10.750  22.250  6.8499e-02
10.750  22.500  6.8510e-02
10.750  22.750  6.8519e-02
10.750  23.000  6.8515e-02
10.750  23.250  6.8494e-02
10.750  23.500  6.8494e-02
10.750  23.750  6.8492e-02
10.750  24.000  6.8490e-02
11.000  17.000  2.4610e-03
11.000  17.250  2.5171e-03
11.000  17.500  2.6000e-03
11.000  17.750  2.7535e-03
11.000  18.000  3.0470e-03
11.000  18.250  3.5479e-03
11.000  18.500  4.3276e-03
11.000  18.750  5.4529e-03
11.000  19.000  7.0667e-03
11.000  19.250  9.2854e-03
11.000  19.500  1.2344e-02
11.000  19.750  1.6721e-02
11.000  20.000  2.3009e-02
11.000  20.250  3.2150e-02
11.000  20.500  4.4947e-02
11.000  20.750  5.3342e-02
11.000  21.000  5.8014e-02
11.000  21.250  6.2324e-02
11.000  21.500  6.6682e-02
11.000  21.750  6.8009e-02
11.000  22.000  6.8308e-02
11.000  22.250  6.8447e-02
11.000  22.500  6.8496e-02
11.000  22.750  6.8509e-02
11.000  23.000  6.8519e-02
11.000  23.250  6.8523e-02
11.000  23.500  6.8500e-02
11.000  23.750  6.8495e-02
11.000  24.000  6.8494e-02
11.250  17.000  2.3953e-03
11.250  17.250  2.4260e-03
11.250  17.500  2.4737e-03
11.250  17.750  2.5675e-03
11.250  18.000  2.7608e-03
11.250  18.250  3.1105e-03
11.250  18.500  3.6680e-03
11.250  18.750  4.5246e-03
11.250  19.000  5.7109e-03
11.250  19.250  7.3214e-03
11.250  19.500  9.5510e-03
11.250  19.750  1.2636e-02
11.250  20.000  1.7016e-02
11.250  20.250  2.3330e-02
11.250  20.500  3.2608e-02
11.250  20.750  4.5393e-02
11.250  21.000  5.3154e-02
11.250  21.250  5.8049e-02
11.250  21.500  6.2606e-02
11.250  21.750  6.6958e-02
11.250  22.000  6.7920e-02
11.250  22.250  6.8270e-02
11.250  22.500  6.8425e-02
11.250  22.750  6.8492e-02
11.250  23.000  6.8508e-02
11.250  23.250  6.8519e-02
11.250  23.500  6.8526e-02
11.250  23.750  6.8517e-02
11.250  24.000  6.8497e-02
11.500  17.000  2.3476e-03
11.500  17.250  2.3549e-03
11.500  17.500  2.3760e-03
11.500  17.750  2.4272e-03
11.500  18.000  2.5510e-03
11.500  18.250  2.7997e-03
11.500  18.500  3.2080e-03
11.500  18.750  3.8448e-03
11.500  19.000  4.7070e-03
11.500  19.250  5.8860e-03
11.500  19.500  7.5110e-03
11.500  19.750  9.7470e-03
11.500  20.000  1.2820e-02
11.500  20.250  1.7173e-02
11.500  20.500  2.3491e-02
11.500  20.750  3.2898e-02
11.500  21.000  4.4803e-02
11.500  21.250  5.3022e-02
11.500  21.500  5.8341e-02
11.500  21.750  6.3232e-02
11.500  22.000  6.6995e-02
11.500  22.250  6.7843e-02
11.500  22.500  6.8231e-02
11.500  22.750  6.8412e-02
11.500  23.000  6.8487e-02
11.500  23.250  6.8505e-02
11.500  23.500  6.8518e-02
11.500  23.750  6.8526e-02
11.500  24.000  6.8525e-02
11.750  17.000  2.3188e-03
11.750  17.250  2.3044e-03
11.750  17.500  2.3012e-03
11.750  17.750  2.3230e-03
11.750  18.000  2.4012e-03
11.750  18.250  2.5772e-03
11.750  18.500  2.8737e-03
11.750  18.750  3.3211e-03
11.750  19.000  3.9579e-03
11.750  19.250  4.8240e-03
11.750  19.500  6.0121e-03
11.750  19.750  7.6394e-03
11.750  20.000  9.8360e-03
11.750  20.250  1.2888e-02
11.750  20.500  1.7246e-02
11.750  20.750  2.3575e-02
11.750  21.000  3.3179e-02
11.750  21.250  4.4095e-02
11.750  21.500  5.3045e-02
11.750  21.750  5.8901e-02
11.750  22.000  6.3973e-02
11.750  22.250  6.6858e-02
11.750  22.500  6.7748e-02
11.750  22.750  6.8188e-02
11.750  23.000  6.8394e-02
11.750  23.250  6.8480e-02
11.750  23.500  6.8502e-02
11.750  23.750  6.8517e-02
11.750  24.000  6.8526e-02
12.000  17.000  2.3050e-03
12.000  17.250  2.2759e-03
12.000  17.500  2.2523e-03
12.000  17.750  2.2504e-03
12.000  18.000  2.2973e-03
12.000  18.250  2.4202e-03
12.000  18.500  2.6347e-03
12.000  18.750  2.9571e-03
12.000  19.000  3.4164e-03
12.000  19.250  4.0519e-03
12.000  19.500  4.9281e-03
12.000  19.750  6.1071e-03
12.000  20.000  7.7100e-03
12.000  20.250  9.8983e-03
12.000  20.500  1.2937e-02
12.000  20.750  1.7288e-02
12.000  21.000  2.3719e-02
12.000  21.250  3.3590e-02
12.000  21.500  4.4117e-02
12.000  21.750  5.3417e-02
12.000  22.000  5.9667e-02
12.000  22.250  6.4579e-02
12.000  22.500  6.6744e-02
12.000  22.750  6.7688e-02
12.000  23.000  6.8141e-02
12.000  23.250  6.8376e-02
12.000  23.500  6.8474e-02
12.000  23.750  6.8499e-02
12.000  24.000  6.8515e-02
12.250  17.000  2.0385e-03
12.250  17.250  2.2667e-03
12.250  17.500  2.2318e-03
12.250  17.750  2.2127e-03
12.250  18.000  2.2355e-03
12.250  18.250  2.3183e-03
12.250  18.500  2.4700e-03
12.250  18.750  2.6965e-03
12.250  19.000  3.0226e-03
12.250  19.250  3.4849e-03
12.250  19.500  4.1284e-03
12.250  19.750  4.9908e-03
12.250  20.000  6.1779e-03
12.250  20.250  7.7618e-03
12.250  20.500  9.9629e-03
12.250  20.750  1.3005e-02
12.250  21.000  1.7378e-02
12.250  21.250  2.3990e-02
12.250  21.500  3.3639e-02
12.250  21.750  4.4602e-02
12.250  22.000  5.4112e-02
12.250  22.250  6.0613e-02
12.250  22.500  6.4895e-02
12.250  22.750  6.6677e-02
12.250  23.000  6.7611e-02
12.250  23.250  6.8095e-02
12.250  23.500  6.8355e-02
12.250  23.750  6.8467e-02
12.250  24.000  6.8496e-02
12.500  17.000  1.0700e-03
12.500  17.250  2.1107e-03
12.500  17.500  2.2382e-03
12.500  17.750  2.2133e-03
12.500  18.000  2.2142e-03
12.500  18.250  2.2593e-03
12.500  18.500  2.3543e-03
12.500  18.750  2.5109e-03
12.500  19.000  2.7440e-03
12.500  19.250  3.0785e-03
12.500  19.500  3.5439e-03
12.500  19.750  4.1783e-03
12.500  20.000  5.0448e-03
12.500  20.250  6.2253e-03
12.500  20.500  7.8184e-03
12.500  20.750  1.0006e-02
12.500  21.000  1.3084e-02
12.500  21.250  1.7537e-02
12.500  21.500  2.4001e-02
12.500  21.750  3.4435e-02
12.500  22.000  4.5435e-02
12.500  22.250  5.5188e-02
12.500  22.500  6.1429e-02
12.500  22.750  6.5066e-02
12.500  23.000  6.6622e-02
12.500  23.250  6.7539e-02
12.500  23.500  6.8043e-02
12.500  23.750  6.8330e-02
12.500  24.000  6.8459e-02
12.750  17.000  5.6082e-04
12.750  17.250  1.2559e-03
12.750  17.500  2.2364e-03
12.750  17.750  2.2347e-03
12.750  18.000  2.2213e-03
12.750  18.250  2.2319e-03
12.750  18.500  2.2802e-03
12.750  18.750  2.3806e-03
12.750  19.000  2.5412e-03
12.750  19.250  2.7793e-03
12.750  19.500  3.1161e-03
12.750  19.750  3.5788e-03
12.750  20.000  4.2112e-03
12.750  20.250  5.0714e-03
12.750  20.500  6.2500e-03
12.750  20.750  7.8556e-03
12.750  21.000  1.0040e-02
12.750  21.250  1.3169e-02
12.750  21.500  1.7499e-02
12.750  21.750  2.4559e-02
12.750  22.000  3.5611e-02
12.750  22.250  4.6628e-02
12.750  22.500  5.6411e-02
12.750  22.750  6.1955e-02
12.750  23.000  6.5123e-02
12.750  23.250  6.6591e-02
12.750  23.500  6.7480e-02
12.750  23.750  6.7986e-02
12.750  24.000  6.8297e-02
13.000  17.000  9.3169e-05
13.000  17.250  2.2263e-04
13.000  17.500  8.8609e-04
13.000  17.750  1.7689e-03
13.000  18.000  2.0410e-03
13.000  18.250  2.2312e-03
13.000  18.500  2.2439e-03
13.000  18.750  2.2940e-03
13.000  19.000  2.3975e-03
13.000  19.250  2.5626e-03
13.000  19.500  2.8049e-03
13.000  19.750  3.1364e-03
13.000  20.000  3.5968e-03
13.000  20.250  4.2259e-03
13.000  20.500  5.0760e-03
13.000  20.750  6.2525e-03
13.000  21.000  7.8579e-03
13.000  21.250  1.0085e-02
13.000  21.500  1.3069e-02
13.000  21.750  1.7729e-02
13.000  22.000  2.5313e-02
13.000  22.250  3.7008e-02
13.000  22.500  4.7988e-02
13.000  22.750  5.6946e-02
13.000  23.000  6.2151e-02
13.000  23.250  6.5120e-02
13.000  23.500  6.6537e-02
13.000  23.750  6.7407e-02
13.000  24.000  6.7916e-02
13.250  17.000  5.6461e-05
13.250  17.250  1.0716e-04
13.250  17.500  2.6897e-04
13.250  17.750  6.6831e-04
13.250  18.000  1.3960e-03
13.250  18.250  1.7943e-03
13.250  18.500  2.2393e-03
13.250  18.750  2.2508e-03
13.250  19.000  2.3032e-03
13.250  19.250  2.4100e-03
13.250  19.500  2.5751e-03
13.250  19.750  2.8135e-03
13.250  20.000  3.1425e-03
13.250  20.250  3.5970e-03
13.250  20.500  4.2157e-03
13.250  20.750  5.0575e-03
13.250  21.000  6.2217e-03
13.250  21.250  7.8112e-03
13.250  21.500  9.8900e-03
13.250  21.750  1.2899e-02
13.250  22.000  1.7693e-02
13.250  22.250  2.5767e-02
13.250  22.500  3.8033e-02
13.250  22.750  4.8094e-02
13.250  23.000  5.6770e-02
13.250  23.250  6.2125e-02
13.250  23.500  6.5040e-02
13.250  23.750  6.6440e-02
13.250  24.000  6.7301e-02
13.500  17.000  3.4486e-05
13.500  17.250  6.3704e-05
13.500  17.500  1.4543e-04
13.500  17.750  3.4395e-04
13.500  18.000  8.1597e-04
13.500  18.250  1.5595e-03
13.500  18.500  1.8929e-03
13.500  18.750  2.2448e-03
13.500  19.000  2.2545e-03
13.500  19.250  2.3063e-03
13.500  19.500  2.4125e-03
13.500  19.750  2.5757e-03
13.500  20.000  2.8092e-03
13.500  20.250  3.1320e-03
13.500  20.500  3.5754e-03
13.500  20.750  4.1768e-03
13.500  21.000  4.9919e-03
13.500  21.250  6.0994e-03
13.500  21.500  7.5291e-03
13.500  21.750  9.4905e-03
13.500  22.000  1.2252e-02
13.500  22.250  1.7231e-02
13.500  22.500  2.6493e-02
13.500  22.750  3.8388e-02
13.500  23.000  4.8379e-02
13.500  23.250  5.6385e-02
13.500  23.500  6.1847e-02
13.500  23.750  6.4840e-02
13.500  24.000  6.6259e-02
13.750  17.000  2.0494e-05
13.750  17.250  4.1399e-05
13.750  17.500  8.9547e-05
13.750  17.750  1.7852e-04
13.750  18.000  4.4667e-04
13.750  18.250  1.0101e-03
13.750  18.500  1.6426e-03
13.750  18.750  1.9880e-03
13.750  19.000  2.2468e-03
13.750  19.250  2.2550e-03
13.750  19.500  2.3059e-03
13.750  19.750  2.4084e-03
13.750  20.000  2.5661e-03
13.750  20.250  2.7903e-03
13.750  20.500  3.0998e-03
13.750  20.750  3.5202e-03
13.750  21.000  4.0860e-03
13.750  21.250  4.8462e-03
13.750  21.500  5.7928e-03
13.750  21.750  7.0358e-03
13.750  22.000  8.6028e-03
13.750  22.250  1.1148e-02
13.750  22.500  1.6431e-02
13.750  22.750  2.6844e-02
13.750  23.000  3.8920e-02
13.750  23.250  4.8419e-02
13.750  23.500  5.5914e-02
13.750  23.750  6.1492e-02
13.750  24.000  6.4468e-02
14.000  17.000  1.2263e-05
14.000  17.250  2.4609e-05
14.000  17.500  5.5391e-05
14.000  17.750  1.1029e-04
14.000  18.000  2.2263e-04
14.000  18.250  5.1844e-04
14.000  18.500  1.0365e-03
14.000  18.750  1.7042e-03
14.000  19.000  2.2342e-03
14.000  19.250  2.2453e-03
14.000  19.500  2.2510e-03
14.000  19.750  2.2985e-03
14.000  20.000  2.3957e-03
14.000  20.250  2.5437e-03
14.000  20.500  2.7525e-03
14.000  20.750  3.0368e-03
14.000  21.000  3.4181e-03
14.000  21.250  3.9242e-03
14.000  21.500  4.5341e-03
14.000  21.750  5.2937e-03
14.000  22.000  6.1176e-03
14.000  22.250  7.3365e-03
14.000  22.500  1.0117e-02
14.000  22.750  1.6293e-02
14.000  23.000  2.7467e-02
14.000  23.250  3.9151e-02
14.000  23.500  4.8143e-02
14.000  23.750  5.5306e-02
14.000  24.000  6.0933e-02
