nFnu 913.000A  relative to Inci 1215.00A scaled to 1215A.
Hden   Phi(H)  Eq_Width (A)
7.000  17.000  8.3991e-02
7.000  17.250  1.0660e-01
7.000  17.500  1.0692e-01
7.000  17.750  1.0612e-01
7.000  18.000  9.9073e-02
7.000  18.250  9.1447e-02
7.000  18.500  8.4628e-02
7.000  18.750  8.0782e-02
7.000  19.000  7.8762e-02
7.000  19.250  7.7581e-02
7.000  19.500  7.7075e-02
7.000  19.750  7.6860e-02
7.000  20.000  7.6766e-02
7.000  20.250  7.6722e-02
7.000  20.500  7.6700e-02
7.000  20.750  7.6688e-02
7.000  21.000  7.6682e-02
7.000  21.250  7.6679e-02
7.000  21.500  7.6677e-02
7.000  21.750  7.6676e-02
7.000  22.000  7.6676e-02
7.000  22.250  7.6676e-02
7.000  22.500  7.6676e-02
7.000  22.750  7.6685e-02
7.000  23.000  7.6678e-02
7.000  23.250  7.6679e-02
7.000  23.500  7.6679e-02
7.000  23.750  7.6679e-02
7.000  24.000  7.6679e-02
7.250  17.000  5.4646e-02
7.250  17.250  8.0821e-02
7.250  17.500  1.0361e-01
7.250  17.750  1.0578e-01
7.250  18.000  1.0565e-01
7.250  18.250  9.8856e-02
7.250  18.500  9.1334e-02
7.250  18.750  8.4587e-02
7.250  19.000  8.0766e-02
7.250  19.250  7.8757e-02
7.250  19.500  7.7580e-02
7.250  19.750  7.7075e-02
7.250  20.000  7.6860e-02
7.250  20.250  7.6766e-02
7.250  20.500  7.6722e-02
7.250  20.750  7.6700e-02
7.250  21.000  7.6688e-02
7.250  21.250  7.6682e-02
7.250  21.500  7.6678e-02
7.250  21.750  7.6677e-02
7.250  22.000  7.6676e-02
7.250  22.250  7.6675e-02
7.250  22.500  7.6675e-02
7.250  22.750  7.6675e-02
7.250  23.000  7.6675e-02
7.250  23.250  7.6675e-02
7.250  23.500  7.6675e-02
7.250  23.750  7.6675e-02
7.250  24.000  7.6676e-02
7.500  17.000  3.4596e-02
7.500  17.250  5.1015e-02
7.500  17.500  7.7961e-02
7.500  17.750  1.0083e-01
7.500  18.000  1.0502e-01
7.500  18.250  1.0540e-01
7.500  18.500  9.8753e-02
7.500  18.750  9.1263e-02
7.500  19.000  8.4561e-02
7.500  19.250  8.0756e-02
7.500  19.500  7.8753e-02
7.500  19.750  7.7579e-02
7.500  20.000  7.7075e-02
7.500  20.250  7.6860e-02
7.500  20.500  7.6766e-02
7.500  20.750  7.6722e-02
7.500  21.000  7.6700e-02
7.500  21.250  7.6688e-02
7.500  21.500  7.6682e-02
7.500  21.750  7.6678e-02
7.500  22.000  7.6676e-02
7.500  22.250  7.6675e-02
7.500  22.500  7.6675e-02
7.500  22.750  7.6674e-02
7.500  23.000  7.6675e-02
7.500  23.250  7.6674e-02
7.500  23.500  7.6674e-02
7.500  23.750  7.6674e-02
7.500  24.000  7.6674e-02
7.750  17.000  2.3490e-02
7.750  17.250  3.1443e-02
7.750  17.500  4.8051e-02
7.750  17.750  7.5581e-02
7.750  18.000  9.8712e-02
7.750  18.250  1.0454e-01
7.750  18.500  1.0530e-01
7.750  18.750  9.8724e-02
7.750  19.000  9.1222e-02
7.750  19.250  8.4545e-02
7.750  19.500  8.0749e-02
7.750  19.750  7.8750e-02
7.750  20.000  7.7579e-02
7.750  20.250  7.7075e-02
7.750  20.500  7.6860e-02
7.750  20.750  7.6766e-02
7.750  21.000  7.6722e-02
7.750  21.250  7.6700e-02
7.750  21.500  7.6688e-02
7.750  21.750  7.6682e-02
7.750  22.000  7.6678e-02
7.750  22.250  7.6676e-02
7.750  22.500  7.6675e-02
7.750  22.750  7.6675e-02
7.750  23.000  7.6674e-02
7.750  23.250  7.6674e-02
7.750  23.500  7.6674e-02
7.750  23.750  7.6674e-02
7.750  24.000  7.6674e-02
8.000  17.000  1.6612e-02
8.000  17.250  2.0591e-02
8.000  17.500  2.8663e-02
8.000  17.750  4.5344e-02
8.000  18.000  7.3317e-02
8.000  18.250  9.7201e-02
8.000  18.500  1.0426e-01
8.000  18.750  1.0530e-01
8.000  19.000  9.8754e-02
8.000  19.250  9.1204e-02
8.000  19.500  8.4535e-02
8.000  19.750  8.0745e-02
8.000  20.000  7.8748e-02
8.000  20.250  7.7578e-02
8.000  20.500  7.7074e-02
8.000  20.750  7.6860e-02
8.000  21.000  7.6766e-02
8.000  21.250  7.6722e-02
8.000  21.500  7.6700e-02
8.000  21.750  7.6688e-02
8.000  22.000  7.6682e-02
8.000  22.250  7.6678e-02
8.000  22.500  7.6676e-02
8.000  22.750  7.6675e-02
8.000  23.000  7.6675e-02
8.000  23.250  7.6674e-02
8.000  23.500  7.6674e-02
8.000  23.750  7.6674e-02
8.000  24.000  7.6674e-02
8.250  17.000  1.2347e-02
8.250  17.250  1.4403e-02
8.250  17.500  1.8687e-02
8.250  17.750  2.7055e-02
8.250  18.000  4.3996e-02
8.250  18.250  7.2354e-02
8.250  18.500  9.6197e-02
8.250  18.750  1.0414e-01
8.250  19.000  1.0537e-01
8.250  19.250  9.8820e-02
8.250  19.500  9.1194e-02
8.250  19.750  8.4528e-02
8.250  20.000  8.0742e-02
8.250  20.250  7.8748e-02
8.250  20.500  7.7578e-02
8.250  20.750  7.7074e-02
8.250  21.000  7.6860e-02
8.250  21.250  7.6766e-02
8.250  21.500  7.6722e-02
8.250  21.750  7.6700e-02
8.250  22.000  7.6688e-02
8.250  22.250  7.6682e-02
8.250  22.500  7.6678e-02
8.250  22.750  7.6676e-02
8.250  23.000  7.6676e-02
8.250  23.250  7.6675e-02
8.250  23.500  7.6674e-02
8.250  23.750  7.6674e-02
8.250  24.000  7.6674e-02
8.500  17.000  9.5686e-03
8.500  17.250  1.0620e-02
8.500  17.500  1.2924e-02
8.500  17.750  1.7411e-02
8.500  18.000  2.6148e-02
8.500  18.250  4.3826e-02
8.500  18.500  7.2561e-02
8.500  18.750  9.5610e-02
8.500  19.000  1.0416e-01
8.500  19.250  1.0548e-01
8.500  19.500  9.8919e-02
8.500  19.750  9.1191e-02
8.500  20.000  8.4524e-02
8.500  20.250  8.0741e-02
8.500  20.500  7.8747e-02
8.500  20.750  7.7578e-02
8.500  21.000  7.7074e-02
8.500  21.250  7.6860e-02
8.500  21.500  7.6766e-02
8.500  21.750  7.6722e-02
8.500  22.000  7.6700e-02
8.500  22.250  7.6688e-02
8.500  22.500  7.6682e-02
8.500  22.750  7.6678e-02
8.500  23.000  7.6676e-02
8.500  23.250  7.6675e-02
8.500  23.500  7.6674e-02
8.500  23.750  7.6674e-02
8.500  24.000  7.6674e-02
8.750  17.000  7.7778e-03
8.750  17.250  8.2897e-03
8.750  17.500  9.5270e-03
8.750  17.750  1.2000e-02
8.750  18.000  1.6798e-02
8.750  18.250  2.6176e-02
8.750  18.500  4.5461e-02
8.750  18.750  7.4533e-02
8.750  19.000  9.5267e-02
8.750  19.250  1.0421e-01
8.750  19.500  1.0562e-01
8.750  19.750  9.9039e-02
8.750  20.000  9.1195e-02
8.750  20.250  8.4521e-02
8.750  20.500  8.0740e-02
8.750  20.750  7.8747e-02
8.750  21.000  7.7578e-02
8.750  21.250  7.7074e-02
8.750  21.500  7.6860e-02
8.750  21.750  7.6766e-02
8.750  22.000  7.6722e-02
8.750  22.250  7.6700e-02
8.750  22.500  7.6688e-02
8.750  22.750  7.6682e-02
8.750  23.000  7.6679e-02
8.750  23.250  7.6676e-02
8.750  23.500  7.6675e-02
8.750  23.750  7.6675e-02
8.750  24.000  7.6674e-02
9.000  17.000  6.6103e-03
9.000  17.250  6.8427e-03
9.000  17.500  7.5081e-03
9.000  17.750  8.8962e-03
9.000  18.000  1.1603e-02
9.000  18.250  1.6895e-02
9.000  18.500  2.7637e-02
9.000  18.750  4.9383e-02
9.000  19.000  7.8469e-02
9.000  19.250  9.5063e-02
9.000  19.500  1.0429e-01
9.000  19.750  1.0576e-01
9.000  20.000  9.9164e-02
9.000  20.250  9.1201e-02
9.000  20.500  8.4519e-02
9.000  20.750  8.0739e-02
9.000  21.000  7.8747e-02
9.000  21.250  7.7578e-02
9.000  21.500  7.7074e-02
9.000  21.750  7.6860e-02
9.000  22.000  7.6766e-02
9.000  22.250  7.6722e-02
9.000  22.500  7.6700e-02
9.000  22.750  7.6688e-02
9.000  23.000  7.6682e-02
9.000  23.250  7.6678e-02
9.000  23.500  7.6676e-02
9.000  23.750  7.6675e-02
9.000  24.000  7.6674e-02
9.250  17.000  5.8236e-03
9.250  17.250  5.9118e-03
9.250  17.500  6.2898e-03
9.250  17.750  7.1114e-03
9.250  18.000  8.7952e-03
9.250  18.250  1.1898e-02
9.250  18.500  1.8035e-02
9.250  18.750  3.0711e-02
9.250  19.000  5.5430e-02
9.250  19.250  8.3248e-02
9.250  19.500  9.4909e-02
9.250  19.750  1.0433e-01
9.250  20.000  1.0589e-01
9.250  20.250  9.9290e-02
9.250  20.500  9.1206e-02
9.250  20.750  8.4517e-02
9.250  21.000  8.0739e-02
9.250  21.250  7.8747e-02
9.250  21.500  7.7570e-02
9.250  21.750  7.7037e-02
9.250  22.000  7.6820e-02
9.250  22.250  7.6729e-02
9.250  22.500  7.6721e-02
9.250  22.750  7.6699e-02
9.250  23.000  7.6688e-02
9.250  23.250  7.6681e-02
9.250  23.500  7.6678e-02
9.250  23.750  7.6676e-02
9.250  24.000  7.6675e-02
9.500  17.000  5.2829e-03
9.500  17.250  5.2793e-03
9.500  17.500  5.5229e-03
9.500  17.750  6.0941e-03
9.500  18.000  7.1902e-03
9.500  18.250  9.1544e-03
9.500  18.500  1.2858e-02
9.500  18.750  2.0215e-02
9.500  19.000  3.5625e-02
9.500  19.250  6.2833e-02
9.500  19.500  8.6022e-02
9.500  19.750  9.4791e-02
9.500  20.000  1.0434e-01
9.500  20.250  1.0599e-01
9.500  20.500  9.9403e-02
9.500  20.750  9.1212e-02
9.500  21.000  8.4504e-02
9.500  21.250  8.0705e-02
9.500  21.500  7.8706e-02
9.500  21.750  7.7532e-02
9.500  22.000  7.7013e-02
9.500  22.250  7.6787e-02
9.500  22.500  7.6696e-02
9.500  22.750  7.6653e-02
9.500  23.000  7.6630e-02
9.500  23.250  7.6617e-02
9.500  23.500  7.6634e-02
9.500  23.750  7.6631e-02
9.500  24.000  7.6629e-02
9.750  17.000  4.9377e-03
9.750  17.250  4.8235e-03
9.750  17.500  4.9830e-03
9.750  17.750  5.4376e-03
9.750  18.000  6.2624e-03
9.750  18.250  7.6494e-03
9.750  18.500  1.0069e-02
9.750  18.750  1.4602e-02
9.750  19.000  2.3723e-02
9.750  19.250  4.2598e-02
9.750  19.500  7.0785e-02
9.750  19.750  8.6862e-02
9.750  20.000  9.4683e-02
9.750  20.250  1.0427e-01
9.750  20.500  1.0606e-01
9.750  20.750  9.9495e-02
9.750  21.000  9.1219e-02
9.750  21.250  8.4509e-02
9.750  21.500  8.0725e-02
9.750  21.750  7.8709e-02
9.750  22.000  7.7535e-02
9.750  22.250  7.7022e-02
9.750  22.500  7.6794e-02
9.750  22.750  7.6693e-02
9.750  23.000  7.6651e-02
9.750  23.250  7.6629e-02
9.750  23.500  7.6618e-02
9.750  23.750  7.6612e-02
9.750  24.000  7.6609e-02
10.000  17.000  4.7762e-03
10.000  17.250  4.5157e-03
10.000  17.500  4.5524e-03
10.000  17.750  4.9253e-03
10.000  18.000  5.6747e-03
10.000  18.250  6.7855e-03
10.000  18.500  8.5174e-03
10.000  18.750  1.1583e-02
10.000  19.000  1.7423e-02
10.000  19.250  2.9722e-02
10.000  19.500  5.4056e-02
10.000  19.750  7.7513e-02
10.000  20.000  8.7005e-02
10.000  20.250  9.4616e-02
10.000  20.500  1.0423e-01
10.000  20.750  1.0610e-01
10.000  21.000  9.9575e-02
10.000  21.250  9.1226e-02
10.000  21.500  8.4510e-02
10.000  21.750  8.0734e-02
10.000  22.000  7.8724e-02
10.000  22.250  7.7537e-02
10.000  22.500  7.7028e-02
10.000  22.750  7.6804e-02
10.000  23.000  7.6701e-02
10.000  23.250  7.6652e-02
10.000  23.500  7.6627e-02
10.000  23.750  7.6615e-02
10.000  24.000  7.6609e-02
10.250  17.000  4.7894e-03
10.250  17.250  4.3701e-03
10.250  17.500  4.2694e-03
10.250  17.750  4.5475e-03
10.250  18.000  5.2331e-03
10.250  18.250  6.2164e-03
10.250  18.500  7.6156e-03
10.250  18.750  9.9105e-03
10.250  19.000  1.4097e-02
10.250  19.250  2.2038e-02
10.250  19.500  3.7569e-02
10.250  19.750  6.1994e-02
10.250  20.000  8.0021e-02
10.250  20.250  8.6927e-02
10.250  20.500  9.4705e-02
10.250  20.750  1.0432e-01
10.250  21.000  1.0611e-01
10.250  21.250  9.9634e-02
10.250  21.500  9.1230e-02
10.250  21.750  8.4509e-02
10.250  22.000  8.0737e-02
10.250  22.250  7.8740e-02
10.250  22.500  7.7538e-02
10.250  22.750  7.7032e-02
10.250  23.000  7.6812e-02
10.250  23.250  7.6711e-02
10.250  23.500  7.6661e-02
10.250  23.750  7.6636e-02
10.250  24.000  7.6623e-02
10.500  17.000  4.9204e-03
10.500  17.250  4.3867e-03
10.500  17.500  4.1458e-03
10.500  17.750  4.3073e-03
10.500  18.000  4.8712e-03
10.500  18.250  5.7681e-03
10.500  18.500  6.9730e-03
10.500  18.750  8.6913e-03
10.500  19.000  1.1356e-02
10.500  19.250  1.6021e-02
10.500  19.500  2.5024e-02
10.500  19.750  3.9713e-02
10.500  20.000  5.7409e-02
10.500  20.250  7.4449e-02
10.500  20.500  8.7169e-02
10.500  20.750  9.5094e-02
10.500  21.000  1.0469e-01
10.500  21.250  1.0614e-01
10.500  21.500  9.9676e-02
10.500  21.750  9.1232e-02
10.500  22.000  8.4507e-02
10.500  22.250  8.0738e-02
10.500  22.500  7.8745e-02
10.500  22.750  7.7546e-02
10.500  23.000  7.7034e-02
10.500  23.250  7.6816e-02
10.500  23.500  7.6718e-02
10.500  23.750  7.6670e-02
10.500  24.000  7.6645e-02
10.750  17.000  5.1086e-03
10.750  17.250  4.5158e-03
10.750  17.500  4.1824e-03
10.750  17.750  4.2320e-03
10.750  18.000  4.6313e-03
10.750  18.250  5.3262e-03
10.750  18.500  6.3077e-03
10.750  18.750  7.5508e-03
10.750  19.000  9.3328e-03
10.750  19.250  1.2263e-02
10.750  19.500  1.7580e-02
10.750  19.750  2.7844e-02
10.750  20.000  4.2743e-02
10.750  20.250  5.9688e-02
10.750  20.500  7.5704e-02
10.750  20.750  8.7819e-02
10.750  21.000  9.5928e-02
10.750  21.250  1.0555e-01
10.750  21.500  1.0624e-01
10.750  21.750  9.9702e-02
10.750  22.000  9.1226e-02
10.750  22.250  8.4505e-02
10.750  22.500  8.0738e-02
10.750  22.750  7.8747e-02
10.750  23.000  7.7565e-02
10.750  23.250  7.7035e-02
10.750  23.500  7.6819e-02
10.750  23.750  7.6723e-02
10.750  24.000  7.6676e-02
11.000  17.000  5.2642e-03
11.000  17.250  4.6933e-03
11.000  17.500  4.3235e-03
11.000  17.750  4.2922e-03
11.000  18.000  4.5306e-03
11.000  18.250  4.9675e-03
11.000  18.500  5.6367e-03
11.000  18.750  5.3228e-03
11.000  19.000  4.8452e-03
11.000  19.250  5.6601e-03
11.000  19.500  9.2238e-03
11.000  19.750  1.6992e-02
11.000  20.000  3.0422e-02
11.000  20.250  5.1154e-02
11.000  20.500  7.4906e-02
11.000  20.750  8.2659e-02
11.000  21.000  8.9279e-02
11.000  21.250  9.7683e-02
11.000  21.500  1.0725e-01
11.000  21.750  1.0647e-01
11.000  22.000  9.9716e-02
11.000  22.250  9.1227e-02
11.000  22.500  8.4502e-02
11.000  22.750  8.0738e-02
11.000  23.000  7.8748e-02
11.000  23.250  7.7574e-02
11.000  23.500  7.7041e-02
11.000  23.750  7.6821e-02
11.000  24.000  7.6725e-02
11.250  17.000  5.1555e-03
11.250  17.250  4.8207e-03
11.250  17.500  4.4810e-03
11.250  17.750  4.4137e-03
11.250  18.000  4.5356e-03
11.250  18.250  3.4165e-03
11.250  18.500  1.3639e-03
11.250  18.750  -7.6076e-04
11.250  19.000  -2.0959e-03
11.250  19.250  -1.7799e-03
11.250  19.500  1.0486e-03
11.250  19.750  7.2513e-03
11.250  20.000  1.7690e-02
11.250  20.250  3.3225e-02
11.250  20.500  5.4719e-02
11.250  20.750  7.7234e-02
11.250  21.000  8.4113e-02
11.250  21.250  9.1581e-02
11.250  21.500  1.0072e-01
11.250  21.750  1.0976e-01
11.250  22.000  1.0685e-01
11.250  22.250  9.9732e-02
11.250  22.500  9.1211e-02
11.250  22.750  8.4500e-02
11.250  23.000  8.0738e-02
11.250  23.250  7.8748e-02
11.250  23.500  7.7577e-02
11.250  23.750  7.7060e-02
11.250  24.000  7.6823e-02
11.500  17.000  5.0755e-03
11.500  17.250  4.7253e-03
11.500  17.500  4.5259e-03
11.500  17.750  4.4999e-03
11.500  18.000  4.5575e-03
11.500  18.250  4.6271e-03
11.500  18.500  3.8235e-03
11.500  18.750  2.4779e-03
11.500  19.000  1.3064e-03
11.500  19.250  1.0251e-03
11.500  19.500  2.3502e-03
11.500  19.750  5.9978e-03
11.500  20.000  1.2684e-02
11.500  20.250  2.3125e-02
11.500  20.500  3.8038e-02
11.500  20.750  5.8137e-02
11.500  21.000  7.9066e-02
11.500  21.250  8.6487e-02
11.500  21.500  9.5380e-02
11.500  21.750  1.0535e-01
11.500  22.000  1.1261e-01
11.500  22.250  1.0742e-01
11.500  22.500  9.9760e-02
11.500  22.750  9.1210e-02
11.500  23.000  8.4497e-02
11.500  23.250  8.0737e-02
11.500  23.500  7.8749e-02
11.500  23.750  7.7578e-02
11.500  24.000  7.7070e-02
11.750  17.000  4.7553e-03
11.750  17.250  4.6200e-03
11.750  17.500  4.4315e-03
11.750  17.750  4.3973e-03
11.750  18.000  4.4444e-03
11.750  18.250  3.7079e-03
11.750  18.500  2.3496e-03
11.750  18.750  8.5657e-04
11.750  19.000  -2.8404e-04
11.750  19.250  -5.8512e-04
11.750  19.500  4.4042e-04
11.750  19.750  3.2797e-03
11.750  20.000  8.4198e-03
11.750  20.250  1.6348e-02
11.750  20.500  2.7551e-02
11.750  20.750  4.2516e-02
11.750  21.000  6.1731e-02
11.750  21.250  8.1507e-02
11.750  21.500  9.0230e-02
11.750  21.750  1.0091e-01
11.750  22.000  1.1116e-01
11.750  22.250  1.1516e-01
11.750  22.500  1.0818e-01
11.750  22.750  9.9795e-02
11.750  23.000  9.1201e-02
11.750  23.250  8.4494e-02
11.750  23.500  8.0736e-02
11.750  23.750  7.8749e-02
11.750  24.000  7.7578e-02
12.000  17.000  4.1101e-03
12.000  17.250  4.2474e-03
12.000  17.500  4.2460e-03
12.000  17.750  4.3137e-03
12.000  18.000  4.4054e-03
12.000  18.250  4.4131e-03
12.000  18.500  4.3775e-03
12.000  18.750  4.3928e-03
12.000  19.000  4.6365e-03
12.000  19.250  5.0670e-03
12.000  19.500  5.7992e-03
12.000  19.750  6.8983e-03
12.000  20.000  8.5568e-03
12.000  20.250  1.1221e-02
12.000  20.500  1.5674e-02
12.000  20.750  2.3558e-02
12.000  21.000  3.8536e-02
12.000  21.250  6.6159e-02
12.000  21.500  8.5455e-02
12.000  21.750  9.5595e-02
12.000  22.000  1.0785e-01
12.000  22.250  1.1727e-01
12.000  22.500  1.1774e-01
12.000  22.750  1.0918e-01
12.000  23.000  9.9850e-02
12.000  23.250  9.1190e-02
12.000  23.500  8.4493e-02
12.000  23.750  8.0734e-02
12.000  24.000  7.8750e-02
12.250  17.000  3.2529e-03
12.250  17.250  3.5997e-03
12.250  17.500  3.8351e-03
12.250  17.750  4.0743e-03
12.250  18.000  4.2254e-03
12.250  18.250  4.2257e-03
12.250  18.500  4.1847e-03
12.250  18.750  4.1787e-03
12.250  19.000  4.2416e-03
12.250  19.250  4.4412e-03
12.250  19.500  4.9706e-03
12.250  19.750  5.7558e-03
12.250  20.000  6.9137e-03
12.250  20.250  8.6851e-03
12.250  20.500  1.1522e-02
12.250  20.750  1.6244e-02
12.250  21.000  2.4703e-02
12.250  21.250  4.0930e-02
12.250  21.500  7.0981e-02
12.250  21.750  9.0573e-02
12.250  22.000  1.0246e-01
12.250  22.250  1.1623e-01
12.250  22.500  1.2346e-01
12.250  22.750  1.2050e-01
12.250  23.000  1.1009e-01
12.250  23.250  9.9963e-02
12.250  23.500  9.1178e-02
12.250  23.750  8.4485e-02
12.250  24.000  8.0732e-02
12.500  17.000  2.4900e-03
12.500  17.250  2.9112e-03
12.500  17.500  3.3022e-03
12.500  17.750  3.6076e-03
12.500  18.000  3.7719e-03
12.500  18.250  3.8417e-03
12.500  18.500  3.8854e-03
12.500  18.750  3.9322e-03
12.500  19.000  3.9927e-03
12.500  19.250  4.0999e-03
12.500  19.500  4.3333e-03
12.500  19.750  4.8379e-03
12.500  20.000  5.7077e-03
12.500  20.250  6.9400e-03
12.500  20.500  8.8281e-03
12.500  20.750  1.1903e-02
12.500  21.000  1.7046e-02
12.500  21.250  2.6137e-02
12.500  21.500  4.3619e-02
12.500  21.750  7.8124e-02
12.500  22.000  9.7195e-02
12.500  22.250  1.1073e-01
12.500  22.500  1.2492e-01
12.500  22.750  1.2995e-01
12.500  23.000  1.2337e-01
12.500  23.250  1.1142e-01
12.500  23.500  1.0009e-01
12.500  23.750  9.1169e-02
12.500  24.000  8.4480e-02
12.750  17.000  1.9463e-03
12.750  17.250  2.3231e-03
12.750  17.500  2.6424e-03
12.750  17.750  2.8965e-03
12.750  18.000  3.1208e-03
12.750  18.250  3.3203e-03
12.750  18.500  3.4801e-03
12.750  18.750  3.6102e-03
12.750  19.000  3.7240e-03
12.750  19.250  3.8319e-03
12.750  19.500  3.9699e-03
12.750  19.750  4.2265e-03
12.750  20.000  4.7244e-03
12.750  20.250  5.6508e-03
12.750  20.500  6.9854e-03
12.750  20.750  9.0628e-03
12.750  21.000  1.2454e-02
12.750  21.250  1.8189e-02
12.750  21.500  2.8033e-02
12.750  21.750  4.7698e-02
12.750  22.000  8.7592e-02
12.750  22.250  1.0492e-01
12.750  22.500  1.2070e-01
12.750  22.750  1.3371e-01
12.750  23.000  1.3648e-01
12.750  23.250  1.2666e-01
12.750  23.500  1.1260e-01
12.750  23.750  1.0024e-01
12.750  24.000  9.1167e-02
13.000  17.000  2.1178e-03
13.000  17.250  1.9249e-03
13.000  17.500  2.0346e-03
13.000  17.750  2.2472e-03
13.000  18.000  2.4974e-03
13.000  18.250  2.7598e-03
13.000  18.500  3.0012e-03
13.000  18.750  3.2102e-03
13.000  19.000  3.3921e-03
13.000  19.250  3.5467e-03
13.000  19.500  3.6812e-03
13.000  19.750  3.8414e-03
13.000  20.000  4.1105e-03
13.000  20.250  4.6310e-03
13.000  20.500  5.5873e-03
13.000  20.750  7.0613e-03
13.000  21.000  9.3810e-03
13.000  21.250  1.3279e-02
13.000  21.500  1.9564e-02
13.000  21.750  3.0809e-02
13.000  22.000  5.3580e-02
13.000  22.250  9.7459e-02
13.000  22.500  1.1279e-01
13.000  22.750  1.3112e-01
13.000  23.000  1.4247e-01
13.000  23.250  1.4329e-01
13.000  23.500  1.2971e-01
13.000  23.750  1.1376e-01
13.000  24.000  1.0045e-01
13.250  17.000  1.8384e-03
13.250  17.250  1.8941e-03
13.250  17.500  2.1782e-03
13.250  17.750  2.7618e-03
13.250  18.000  3.6764e-03
13.250  18.250  4.9535e-03
13.250  18.500  6.6248e-03
13.250  18.750  8.7219e-03
13.250  19.000  1.1276e-02
13.250  19.250  1.4320e-02
13.250  19.500  1.7883e-02
13.250  19.750  2.1999e-02
13.250  20.000  2.6699e-02
13.250  20.250  3.2014e-02
13.250  20.500  3.7976e-02
13.250  20.750  4.4616e-02
13.250  21.000  5.1966e-02
13.250  21.250  6.0058e-02
13.250  21.500  6.8923e-02
13.250  21.750  7.8593e-02
13.250  22.000  8.9099e-02
13.250  22.250  1.0047e-01
13.250  22.500  1.1275e-01
13.250  22.750  1.2595e-01
13.250  23.000  1.4012e-01
13.250  23.250  1.5224e-01
13.250  23.500  1.4991e-01
13.250  23.750  1.3276e-01
13.250  24.000  1.1479e-01
13.500  17.000  1.6691e-03
13.500  17.250  1.6981e-03
13.500  17.500  1.9702e-03
13.500  17.750  2.5565e-03
13.500  18.000  3.4854e-03
13.500  18.250  4.7850e-03
13.500  18.500  6.4836e-03
13.500  18.750  8.6095e-03
13.500  19.000  1.1191e-02
13.500  19.250  1.4256e-02
13.500  19.500  1.7833e-02
13.500  19.750  2.1950e-02
13.500  20.000  2.6636e-02
13.500  20.250  3.1918e-02
13.500  20.500  3.7826e-02
13.500  20.750  4.4386e-02
13.500  21.000  5.1628e-02
13.500  21.250  5.9580e-02
13.500  21.500  6.8269e-02
13.500  21.750  7.7725e-02
13.500  22.000  8.7975e-02
13.500  22.250  9.9048e-02
13.500  22.500  1.1097e-01
13.500  22.750  1.2377e-01
13.500  23.000  1.3748e-01
13.500  23.250  1.5213e-01
13.500  23.500  1.6373e-01
13.500  23.750  1.5732e-01
13.500  24.000  1.3589e-01
13.750  17.000  1.5770e-03
13.750  17.250  1.5431e-03
13.750  17.500  1.2957e-03
13.750  17.750  8.7113e-04
13.750  18.000  3.6847e-04
13.750  18.250  -1.1336e-04
13.750  18.500  -4.7540e-04
13.750  18.750  -6.1869e-04
13.750  19.000  -4.4427e-04
13.750  19.250  1.4680e-04
13.750  19.500  1.2535e-03
13.750  19.750  2.9748e-03
13.750  20.000  5.4096e-03
13.750  20.250  8.6569e-03
13.750  20.500  1.2816e-02
13.750  20.750  1.7985e-02
13.750  21.000  2.4263e-02
13.750  21.250  3.1750e-02
13.750  21.500  4.0544e-02
13.750  21.750  5.0745e-02
13.750  22.000  6.2450e-02
13.750  22.250  7.5760e-02
13.750  22.500  9.0773e-02
13.750  22.750  1.0759e-01
13.750  23.000  1.2630e-01
13.750  23.250  1.4702e-01
13.750  23.500  1.6786e-01
13.750  23.750  1.7745e-01
13.750  24.000  1.6477e-01
14.000  17.000  1.5188e-03
14.000  17.250  1.5214e-03
14.000  17.500  1.2170e-03
14.000  17.750  1.1766e-03
14.000  18.000  1.2863e-03
14.000  18.250  1.4270e-03
14.000  18.500  1.5887e-03
14.000  18.750  1.7582e-03
14.000  19.000  1.9362e-03
14.000  19.250  2.1322e-03
14.000  19.500  2.3455e-03
14.000  19.750  2.5685e-03
14.000  20.000  2.7883e-03
14.000  20.250  2.9993e-03
14.000  20.500  3.2075e-03
14.000  20.750  3.4453e-03
14.000  21.000  3.7841e-03
14.000  21.250  4.3604e-03
14.000  21.500  5.3413e-03
14.000  21.750  7.0528e-03
14.000  22.000  1.0021e-02
14.000  22.250  1.5374e-02
14.000  22.500  2.5959e-02
14.000  22.750  4.7907e-02
14.000  23.000  1.0327e-01
14.000  23.250  1.4707e-01
14.000  23.500  1.7065e-01
14.000  23.750  1.9053e-01
14.000  24.000  1.9347e-01
