InwC 1585.12A  relative to Inci 1215.00A scaled to 1215A.
Hden   Phi(H)  Eq_Width (A)
7.000  17.000  6.0994e-02
7.000  17.250  7.0490e-02
7.000  17.500  7.3957e-02
7.000  17.750  7.5591e-02
7.000  18.000  7.5627e-02
7.000  18.250  7.5678e-02
7.000  18.500  7.5687e-02
7.000  18.750  7.5696e-02
7.000  19.000  7.5705e-02
7.000  19.250  7.5712e-02
7.000  19.500  7.5715e-02
7.000  19.750  7.5716e-02
7.000  20.000  7.5716e-02
7.000  20.250  7.5717e-02
7.000  20.500  7.5717e-02
7.000  20.750  7.5717e-02
7.000  21.000  7.5717e-02
7.000  21.250  7.5717e-02
7.000  21.500  7.5718e-02
7.000  21.750  7.5718e-02
7.000  22.000  7.5718e-02
7.000  22.250  7.5719e-02
7.000  22.500  7.5719e-02
7.000  22.750  7.5727e-02
7.000  23.000  7.5721e-02
7.000  23.250  7.5722e-02
7.000  23.500  7.5722e-02
7.000  23.750  7.5722e-02
7.000  24.000  7.5722e-02
7.250  17.000  5.4682e-02
7.250  17.250  6.1273e-02
7.250  17.500  7.0518e-02
7.250  17.750  7.3979e-02
7.250  18.000  7.5591e-02
7.250  18.250  7.5627e-02
7.250  18.500  7.5678e-02
7.250  18.750  7.5686e-02
7.250  19.000  7.5697e-02
7.250  19.250  7.5705e-02
7.250  19.500  7.5713e-02
7.250  19.750  7.5715e-02
7.250  20.000  7.5716e-02
7.250  20.250  7.5716e-02
7.250  20.500  7.5717e-02
7.250  20.750  7.5717e-02
7.250  21.000  7.5717e-02
7.250  21.250  7.5717e-02
7.250  21.500  7.5717e-02
7.250  21.750  7.5717e-02
7.250  22.000  7.5717e-02
7.250  22.250  7.5717e-02
7.250  22.500  7.5717e-02
7.250  22.750  7.5718e-02
7.250  23.000  7.5718e-02
7.250  23.250  7.5718e-02
7.250  23.500  7.5718e-02
7.250  23.750  7.5718e-02
7.250  24.000  7.5719e-02
7.500  17.000  4.9853e-02
7.500  17.250  5.5037e-02
7.500  17.500  6.1516e-02
7.500  17.750  7.0542e-02
7.500  18.000  7.4000e-02
7.500  18.250  7.5591e-02
7.500  18.500  7.5627e-02
7.500  18.750  7.5678e-02
7.500  19.000  7.5687e-02
7.500  19.250  7.5697e-02
7.500  19.500  7.5705e-02
7.500  19.750  7.5713e-02
7.500  20.000  7.5715e-02
7.500  20.250  7.5716e-02
7.500  20.500  7.5717e-02
7.500  20.750  7.5717e-02
7.500  21.000  7.5717e-02
7.500  21.250  7.5717e-02
7.500  21.500  7.5717e-02
7.500  21.750  7.5717e-02
7.500  22.000  7.5717e-02
7.500  22.250  7.5717e-02
7.500  22.500  7.5717e-02
7.500  22.750  7.5717e-02
7.500  23.000  7.5718e-02
7.500  23.250  7.5717e-02
7.500  23.500  7.5717e-02
7.500  23.750  7.5717e-02
7.500  24.000  7.5717e-02
7.750  17.000  4.6252e-02
7.750  17.250  5.0099e-02
7.750  17.500  5.5404e-02
7.750  17.750  6.1762e-02
7.750  18.000  7.0561e-02
7.750  18.250  7.4020e-02
7.750  18.500  7.5591e-02
7.750  18.750  7.5627e-02
7.750  19.000  7.5677e-02
7.750  19.250  7.5687e-02
7.750  19.500  7.5697e-02
7.750  19.750  7.5705e-02
7.750  20.000  7.5713e-02
7.750  20.250  7.5715e-02
7.750  20.500  7.5716e-02
7.750  20.750  7.5716e-02
7.750  21.000  7.5717e-02
7.750  21.250  7.5717e-02
7.750  21.500  7.5717e-02
7.750  21.750  7.5717e-02
7.750  22.000  7.5717e-02
7.750  22.250  7.5717e-02
7.750  22.500  7.5717e-02
7.750  22.750  7.5717e-02
7.750  23.000  7.5717e-02
7.750  23.250  7.5717e-02
7.750  23.500  7.5717e-02
7.750  23.750  7.5717e-02
7.750  24.000  7.5717e-02
8.000  17.000  4.3942e-02
8.000  17.250  4.6340e-02
8.000  17.500  5.0295e-02
8.000  17.750  5.5702e-02
8.000  18.000  6.1937e-02
8.000  18.250  7.0561e-02
8.000  18.500  7.4025e-02
8.000  18.750  7.5591e-02
8.000  19.000  7.5628e-02
8.000  19.250  7.5679e-02
8.000  19.500  7.5687e-02
8.000  19.750  7.5696e-02
8.000  20.000  7.5705e-02
8.000  20.250  7.5713e-02
8.000  20.500  7.5715e-02
8.000  20.750  7.5716e-02
8.000  21.000  7.5716e-02
8.000  21.250  7.5717e-02
8.000  21.500  7.5717e-02
8.000  21.750  7.5717e-02
8.000  22.000  7.5717e-02
8.000  22.250  7.5717e-02
8.000  22.500  7.5717e-02
8.000  22.750  7.5717e-02
8.000  23.000  7.5717e-02
8.000  23.250  7.5717e-02
8.000  23.500  7.5717e-02
8.000  23.750  7.5717e-02
8.000  24.000  7.5717e-02
8.250  17.000  4.2525e-02
8.250  17.250  4.3994e-02
8.250  17.500  4.6478e-02
8.250  17.750  5.0619e-02
8.250  18.000  5.6246e-02
8.250  18.250  6.2331e-02
8.250  18.500  7.0570e-02
8.250  18.750  7.4044e-02
8.250  19.000  7.5591e-02
8.250  19.250  7.5628e-02
8.250  19.500  7.5678e-02
8.250  19.750  7.5686e-02
8.250  20.000  7.5697e-02
8.250  20.250  7.5706e-02
8.250  20.500  7.5713e-02
8.250  20.750  7.5715e-02
8.250  21.000  7.5716e-02
8.250  21.250  7.5716e-02
8.250  21.500  7.5717e-02
8.250  21.750  7.5717e-02
8.250  22.000  7.5717e-02
8.250  22.250  7.5717e-02
8.250  22.500  7.5717e-02
8.250  22.750  7.5717e-02
8.250  23.000  7.5717e-02
8.250  23.250  7.5717e-02
8.250  23.500  7.5717e-02
8.250  23.750  7.5717e-02
8.250  24.000  7.5717e-02
8.500  17.000  4.1591e-02
8.500  17.250  4.2521e-02
8.500  17.500  4.4041e-02
8.500  17.750  4.6682e-02
8.500  18.000  5.1108e-02
8.500  18.250  5.6993e-02
8.500  18.500  6.2828e-02
8.500  18.750  7.0563e-02
8.500  19.000  7.4064e-02
8.500  19.250  7.5590e-02
8.500  19.500  7.5628e-02
8.500  19.750  7.5677e-02
8.500  20.000  7.5687e-02
8.500  20.250  7.5697e-02
8.500  20.500  7.5705e-02
8.500  20.750  7.5713e-02
8.500  21.000  7.5715e-02
8.500  21.250  7.5716e-02
8.500  21.500  7.5716e-02
8.500  21.750  7.5717e-02
8.500  22.000  7.5717e-02
8.500  22.250  7.5717e-02
8.500  22.500  7.5717e-02
8.500  22.750  7.5717e-02
8.500  23.000  7.5717e-02
8.500  23.250  7.5717e-02
8.500  23.500  7.5717e-02
8.500  23.750  7.5717e-02
8.500  24.000  7.5717e-02
8.750  17.000  4.0940e-02
8.750  17.250  4.1545e-02
8.750  17.500  4.2497e-02
8.750  17.750  4.4094e-02
8.750  18.000  4.7012e-02
8.750  18.250  5.1886e-02
8.750  18.500  5.7636e-02
8.750  18.750  6.3350e-02
8.750  19.000  7.0549e-02
8.750  19.250  7.4081e-02
8.750  19.500  7.5589e-02
8.750  19.750  7.5628e-02
8.750  20.000  7.5678e-02
8.750  20.250  7.5687e-02
8.750  20.500  7.5697e-02
8.750  20.750  7.5705e-02
8.750  21.000  7.5713e-02
8.750  21.250  7.5715e-02
8.750  21.500  7.5716e-02
8.750  21.750  7.5716e-02
8.750  22.000  7.5717e-02
8.750  22.250  7.5717e-02
8.750  22.500  7.5717e-02
8.750  22.750  7.5717e-02
8.750  23.000  7.5717e-02
8.750  23.250  7.5717e-02
8.750  23.500  7.5717e-02
8.750  23.750  7.5717e-02
8.750  24.000  7.5717e-02
9.000  17.000  4.0464e-02
9.000  17.250  4.0850e-02
9.000  17.500  4.1446e-02
9.000  17.750  4.2427e-02
9.000  18.000  4.4233e-02
9.000  18.250  4.7590e-02
9.000  18.500  5.2898e-02
9.000  18.750  5.8592e-02
9.000  19.000  6.4342e-02
9.000  19.250  7.0523e-02
9.000  19.500  7.4091e-02
9.000  19.750  7.5587e-02
9.000  20.000  7.5628e-02
9.000  20.250  7.5678e-02
9.000  20.500  7.5687e-02
9.000  20.750  7.5696e-02
9.000  21.000  7.5705e-02
9.000  21.250  7.5713e-02
9.000  21.500  7.5715e-02
9.000  21.750  7.5716e-02
9.000  22.000  7.5716e-02
9.000  22.250  7.5717e-02
9.000  22.500  7.5717e-02
9.000  22.750  7.5717e-02
9.000  23.000  7.5717e-02
9.000  23.250  7.5717e-02
9.000  23.500  7.5717e-02
9.000  23.750  7.5717e-02
9.000  24.000  7.5717e-02
9.250  17.000  4.0112e-02
9.250  17.250  4.0339e-02
9.250  17.500  4.0690e-02
9.250  17.750  4.1273e-02
9.250  18.000  4.2363e-02
9.250  18.250  4.4534e-02
9.250  18.500  4.8332e-02
9.250  18.750  5.3726e-02
9.250  19.000  5.9196e-02
9.250  19.250  6.5635e-02
9.250  19.500  7.0495e-02
9.250  19.750  7.4088e-02
9.250  20.000  7.5583e-02
9.250  20.250  7.5627e-02
9.250  20.500  7.5677e-02
9.250  20.750  7.5686e-02
9.250  21.000  7.5697e-02
9.250  21.250  7.5705e-02
9.250  21.500  7.5705e-02
9.250  21.750  7.5678e-02
9.250  22.000  7.5676e-02
9.250  22.250  7.5680e-02
9.250  22.500  7.5716e-02
9.250  22.750  7.5716e-02
9.250  23.000  7.5717e-02
9.250  23.250  7.5717e-02
9.250  23.500  7.5717e-02
9.250  23.750  7.5717e-02
9.250  24.000  7.5717e-02
9.500  17.000  3.9848e-02
9.500  17.250  3.9957e-02
9.500  17.500  4.0131e-02
9.500  17.750  4.0436e-02
9.500  18.000  4.1069e-02
9.500  18.250  4.2439e-02
9.500  18.500  4.4835e-02
9.500  18.750  4.8757e-02
9.500  19.000  5.4402e-02
9.500  19.250  5.9882e-02
9.500  19.500  6.6877e-02
9.500  19.750  7.0473e-02
9.500  20.000  7.4071e-02
9.500  20.250  7.5577e-02
9.500  20.500  7.5626e-02
9.500  20.750  7.5676e-02
9.500  21.000  7.5676e-02
9.500  21.250  7.5665e-02
9.500  21.500  7.5666e-02
9.500  21.750  7.5667e-02
9.500  22.000  7.5655e-02
9.500  22.250  7.5644e-02
9.500  22.500  7.5647e-02
9.500  22.750  7.5648e-02
9.500  23.000  7.5647e-02
9.500  23.250  7.5647e-02
9.500  23.500  7.5670e-02
9.500  23.750  7.5670e-02
9.500  24.000  7.5670e-02
9.750  17.000  3.9649e-02
9.750  17.250  3.9672e-02
9.750  17.500  3.9712e-02
9.750  17.750  3.9806e-02
9.750  18.000  4.0111e-02
9.750  18.250  4.0855e-02
9.750  18.500  4.2237e-02
9.750  18.750  4.4649e-02
9.750  19.000  4.8645e-02
9.750  19.250  5.4435e-02
9.750  19.500  6.1236e-02
9.750  19.750  6.7626e-02
9.750  20.000  7.0492e-02
9.750  20.250  7.4041e-02
9.750  20.500  7.5567e-02
9.750  20.750  7.5624e-02
9.750  21.000  7.5677e-02
9.750  21.250  7.5683e-02
9.750  21.500  7.5683e-02
9.750  21.750  7.5670e-02
9.750  22.000  7.5671e-02
9.750  22.250  7.5663e-02
9.750  22.500  7.5651e-02
9.750  22.750  7.5644e-02
9.750  23.000  7.5646e-02
9.750  23.250  7.5647e-02
9.750  23.500  7.5648e-02
9.750  23.750  7.5648e-02
9.750  24.000  7.5648e-02
10.000  17.000  3.9495e-02
10.000  17.250  3.9458e-02
10.000  17.500  3.9403e-02
10.000  17.750  3.9335e-02
10.000  18.000  3.9351e-02
10.000  18.250  3.9582e-02
10.000  18.500  4.0142e-02
10.000  18.750  4.1386e-02
10.000  19.000  4.3776e-02
10.000  19.250  4.8039e-02
10.000  19.500  5.4335e-02
10.000  19.750  6.2814e-02
10.000  20.000  6.7778e-02
10.000  20.250  7.0508e-02
10.000  20.500  7.4015e-02
10.000  20.750  7.5551e-02
10.000  21.000  7.5620e-02
10.000  21.250  7.5676e-02
10.000  21.500  7.5685e-02
10.000  21.750  7.5692e-02
10.000  22.000  7.5684e-02
10.000  22.250  7.5673e-02
10.000  22.500  7.5669e-02
10.000  22.750  7.5661e-02
10.000  23.000  7.5652e-02
10.000  23.250  7.5647e-02
10.000  23.500  7.5644e-02
10.000  23.750  7.5645e-02
10.000  24.000  7.5645e-02
10.250  17.000  3.9370e-02
10.250  17.250  3.9293e-02
10.250  17.500  3.9164e-02
10.250  17.750  3.8969e-02
10.250  18.000  3.8719e-02
10.250  18.250  3.8515e-02
10.250  18.500  3.8482e-02
10.250  18.750  3.8843e-02
10.250  19.000  3.9892e-02
10.250  19.250  4.2560e-02
10.250  19.500  4.7793e-02
10.250  19.750  5.5605e-02
10.250  20.000  6.4359e-02
10.250  20.250  6.7832e-02
10.250  20.500  7.0543e-02
10.250  20.750  7.4021e-02
10.250  21.000  7.5531e-02
10.250  21.250  7.5614e-02
10.250  21.500  7.5675e-02
10.250  21.750  7.5686e-02
10.250  22.000  7.5695e-02
10.250  22.250  7.5699e-02
10.250  22.500  7.5674e-02
10.250  22.750  7.5673e-02
10.250  23.000  7.5668e-02
10.250  23.250  7.5662e-02
10.250  23.500  7.5657e-02
10.250  23.750  7.5653e-02
10.250  24.000  7.5652e-02
10.500  17.000  3.9256e-02
10.500  17.250  3.9158e-02
10.500  17.500  3.8975e-02
10.500  17.750  3.8665e-02
10.500  18.000  3.8191e-02
10.500  18.250  3.7642e-02
10.500  18.500  3.7164e-02
10.500  18.750  3.7042e-02
10.500  19.000  3.7691e-02
10.500  19.250  3.9675e-02
10.500  19.500  4.3243e-02
10.500  19.750  4.8929e-02
10.500  20.000  5.7260e-02
10.500  20.250  6.5253e-02
10.500  20.500  6.7847e-02
10.500  20.750  7.0564e-02
10.500  21.000  7.4062e-02
10.500  21.250  7.5504e-02
10.500  21.500  7.5604e-02
10.500  21.750  7.5673e-02
10.500  22.000  7.5686e-02
10.500  22.250  7.5696e-02
10.500  22.500  7.5703e-02
10.500  22.750  7.5681e-02
10.500  23.000  7.5675e-02
10.500  23.250  7.5673e-02
10.500  23.500  7.5669e-02
10.500  23.750  7.5666e-02
10.500  24.000  7.5663e-02
10.750  17.000  3.9123e-02
10.750  17.250  3.9024e-02
10.750  17.500  3.8799e-02
10.750  17.750  3.8371e-02
10.750  18.000  3.7723e-02
10.750  18.250  3.6957e-02
10.750  18.500  3.6245e-02
10.750  18.750  3.5924e-02
10.750  19.000  3.6409e-02
10.750  19.250  3.7776e-02
10.750  19.500  4.0104e-02
10.750  19.750  4.3857e-02
10.750  20.000  4.9840e-02
10.750  20.250  5.8527e-02
10.750  20.500  6.5443e-02
10.750  20.750  6.7927e-02
10.750  21.000  7.0631e-02
10.750  21.250  7.4176e-02
10.750  21.500  7.5475e-02
10.750  21.750  7.5592e-02
10.750  22.000  7.5665e-02
10.750  22.250  7.5685e-02
10.750  22.500  7.5696e-02
10.750  22.750  7.5705e-02
10.750  23.000  7.5700e-02
10.750  23.250  7.5676e-02
10.750  23.500  7.5676e-02
10.750  23.750  7.5673e-02
10.750  24.000  7.5672e-02
11.000  17.000  3.8941e-02
11.000  17.250  3.8865e-02
11.000  17.500  3.8598e-02
11.000  17.750  3.8082e-02
11.000  18.000  3.7302e-02
11.000  18.250  3.6378e-02
11.000  18.500  3.5558e-02
11.000  18.750  3.5190e-02
11.000  19.000  3.5539e-02
11.000  19.250  3.6498e-02
11.000  19.500  3.7995e-02
11.000  19.750  4.0371e-02
11.000  20.000  4.4198e-02
11.000  20.250  5.0366e-02
11.000  20.500  5.9507e-02
11.000  20.750  6.5263e-02
11.000  21.000  6.7929e-02
11.000  21.250  7.0768e-02
11.000  21.500  7.4399e-02
11.000  21.750  7.5432e-02
11.000  22.000  7.5577e-02
11.000  22.250  7.5661e-02
11.000  22.500  7.5684e-02
11.000  22.750  7.5695e-02
11.000  23.000  7.5705e-02
11.000  23.250  7.5708e-02
11.000  23.500  7.5682e-02
11.000  23.750  7.5677e-02
11.000  24.000  7.5676e-02
11.250  17.000  3.8740e-02
11.250  17.250  3.8637e-02
11.250  17.500  3.8347e-02
11.250  17.750  3.7760e-02
11.250  18.000  3.6853e-02
11.250  18.250  3.5799e-02
11.250  18.500  3.4948e-02
11.250  18.750  3.4600e-02
11.250  19.000  3.4859e-02
11.250  19.250  3.5504e-02
11.250  19.500  3.6421e-02
11.250  19.750  3.7907e-02
11.250  20.000  4.0357e-02
11.250  20.250  4.4214e-02
11.250  20.500  5.0647e-02
11.250  20.750  6.0105e-02
11.250  21.000  6.5214e-02
11.250  21.250  6.7981e-02
11.250  21.500  7.1047e-02
11.250  21.750  7.4700e-02
11.250  22.000  7.5379e-02
11.250  22.250  7.5561e-02
11.250  22.500  7.5649e-02
11.250  22.750  7.5683e-02
11.250  23.000  7.5695e-02
11.250  23.250  7.5705e-02
11.250  23.500  7.5711e-02
11.250  23.750  7.5701e-02
11.250  24.000  7.5679e-02
11.500  17.000  3.8587e-02
11.500  17.250  3.8371e-02
11.500  17.500  3.8026e-02
11.500  17.750  3.7353e-02
11.500  18.000  3.6314e-02
11.500  18.250  3.5181e-02
11.500  18.500  3.4391e-02
11.500  18.750  3.4153e-02
11.500  19.000  3.4344e-02
11.500  19.250  3.4474e-02
11.500  19.500  3.4714e-02
11.500  19.750  3.5429e-02
11.500  20.000  3.6989e-02
11.500  20.250  3.9760e-02
11.500  20.500  4.4110e-02
11.500  20.750  5.0837e-02
11.500  21.000  6.0011e-02
11.500  21.250  6.5151e-02
11.500  21.500  6.8176e-02
11.500  21.750  7.1605e-02
11.500  22.000  7.4790e-02
11.500  22.250  7.5318e-02
11.500  22.500  7.5540e-02
11.500  22.750  7.5646e-02
11.500  23.000  7.5681e-02
11.500  23.250  7.5694e-02
11.500  23.500  7.5704e-02
11.500  23.750  7.5712e-02
11.500  24.000  7.5710e-02
11.750  17.000  3.8507e-02
11.750  17.250  3.8140e-02
11.750  17.500  3.7652e-02
11.750  17.750  3.6844e-02
11.750  18.000  3.5663e-02
11.750  18.250  3.4571e-02
11.750  18.500  3.3941e-02
11.750  18.750  3.3809e-02
11.750  19.000  3.3927e-02
11.750  19.250  3.4204e-02
11.750  19.500  3.4662e-02
11.750  19.750  3.5338e-02
11.750  20.000  3.6279e-02
11.750  20.250  3.7668e-02
11.750  20.500  3.9938e-02
11.750  20.750  4.3912e-02
11.750  21.000  5.1053e-02
11.750  21.250  5.9651e-02
11.750  21.500  6.5157e-02
11.750  21.750  6.8515e-02
11.750  22.000  7.2286e-02
11.750  22.250  7.4670e-02
11.750  22.500  7.5236e-02
11.750  22.750  7.5508e-02
11.750  23.000  7.5636e-02
11.750  23.250  7.5678e-02
11.750  23.500  7.5693e-02
11.750  23.750  7.5704e-02
11.750  24.000  7.5712e-02
12.000  17.000  3.8481e-02
12.000  17.250  3.7970e-02
12.000  17.500  3.7274e-02
12.000  17.750  3.6261e-02
12.000  18.000  3.5035e-02
12.000  18.250  3.4082e-02
12.000  18.500  3.3637e-02
12.000  18.750  3.3518e-02
12.000  19.000  3.3567e-02
12.000  19.250  3.3734e-02
12.000  19.500  3.4047e-02
12.000  19.750  3.4510e-02
12.000  20.000  3.5153e-02
12.000  20.250  3.6041e-02
12.000  20.500  3.7370e-02
12.000  20.750  3.9609e-02
12.000  21.000  4.3778e-02
12.000  21.250  5.1418e-02
12.000  21.500  5.9820e-02
12.000  21.750  6.5333e-02
12.000  22.000  6.8957e-02
12.000  22.250  7.2827e-02
12.000  22.500  7.4538e-02
12.000  22.750  7.5161e-02
12.000  23.000  7.5466e-02
12.000  23.250  7.5624e-02
12.000  23.500  7.5675e-02
12.000  23.750  7.5691e-02
12.000  24.000  7.5703e-02
12.250  17.000  3.4093e-02
12.250  17.250  3.7827e-02
12.250  17.500  3.6928e-02
12.250  17.750  3.5741e-02
12.250  18.000  3.4577e-02
12.250  18.250  3.3760e-02
12.250  18.500  3.3372e-02
12.250  18.750  3.3240e-02
12.250  19.000  3.3228e-02
12.250  19.250  3.3315e-02
12.250  19.500  3.3535e-02
12.250  19.750  3.3871e-02
12.250  20.000  3.4327e-02
12.250  20.250  3.4922e-02
12.250  20.500  3.5762e-02
12.250  20.750  3.7038e-02
12.250  21.000  3.9286e-02
12.250  21.250  4.3738e-02
12.250  21.500  5.1508e-02
12.250  21.750  6.0122e-02
12.250  22.000  6.5620e-02
12.250  22.250  6.9517e-02
12.250  22.500  7.3061e-02
12.250  22.750  7.4430e-02
12.250  23.000  7.5083e-02
12.250  23.250  7.5420e-02
12.250  23.500  7.5608e-02
12.250  23.750  7.5672e-02
12.250  24.000  7.5690e-02
12.500  17.000  1.7889e-02
12.500  17.250  3.5017e-02
12.500  17.500  3.6725e-02
12.500  17.750  3.5552e-02
12.500  18.000  3.4306e-02
12.500  18.250  3.3383e-02
12.500  18.500  3.3062e-02
12.500  18.750  3.2898e-02
12.500  19.000  3.2862e-02
12.500  19.250  3.2928e-02
12.500  19.500  3.3088e-02
12.500  19.750  3.3334e-02
12.500  20.000  3.3673e-02
12.500  20.250  3.4098e-02
12.500  20.500  3.4649e-02
12.500  20.750  3.5412e-02
12.500  21.000  3.6647e-02
12.500  21.250  3.8963e-02
12.500  21.500  4.3509e-02
12.500  21.750  5.2250e-02
12.500  22.000  6.0615e-02
12.500  22.250  6.6043e-02
12.500  22.500  7.0096e-02
12.500  22.750  7.3136e-02
12.500  23.000  7.4340e-02
12.500  23.250  7.5005e-02
12.500  23.500  7.5371e-02
12.500  23.750  7.5587e-02
12.500  24.000  7.5668e-02
12.750  17.000  9.3271e-03
12.750  17.250  2.0693e-02
12.750  17.500  3.6080e-02
12.750  17.750  3.4994e-02
12.750  18.000  3.3657e-02
12.750  18.250  3.2979e-02
12.750  18.500  3.2642e-02
12.750  18.750  3.2473e-02
12.750  19.000  3.2453e-02
12.750  19.250  3.2510e-02
12.750  19.500  3.2656e-02
12.750  19.750  3.2860e-02
12.750  20.000  3.3115e-02
12.750  20.250  3.3430e-02
12.750  20.500  3.3803e-02
12.750  20.750  3.4284e-02
12.750  21.000  3.4946e-02
12.750  21.250  3.6127e-02
12.750  21.500  3.8452e-02
12.750  21.750  4.3725e-02
12.750  22.000  5.3298e-02
12.750  22.250  6.1174e-02
12.750  22.500  6.6502e-02
12.750  22.750  7.0444e-02
12.750  23.000  7.3135e-02
12.750  23.250  7.4275e-02
12.750  23.500  7.4947e-02
12.750  23.750  7.5330e-02
12.750  24.000  7.5563e-02
13.000  17.000  1.5407e-03
13.000  17.250  3.6784e-03
13.000  17.500  1.4248e-02
13.000  17.750  2.7020e-02
13.000  18.000  3.0435e-02
13.000  18.250  3.2543e-02
13.000  18.500  3.2136e-02
13.000  18.750  3.1974e-02
13.000  19.000  3.1967e-02
13.000  19.250  3.2042e-02
13.000  19.500  3.2183e-02
13.000  19.750  3.2379e-02
13.000  20.000  3.2602e-02
13.000  20.250  3.2847e-02
13.000  20.500  3.3105e-02
13.000  20.750  3.3392e-02
13.000  21.000  3.3757e-02
13.000  21.250  3.4306e-02
13.000  21.500  3.5372e-02
13.000  21.750  3.7948e-02
13.000  22.000  4.4111e-02
13.000  22.250  5.4492e-02
13.000  22.500  6.1829e-02
13.000  22.750  6.6762e-02
13.000  23.000  7.0597e-02
13.000  23.250  7.3131e-02
13.000  23.500  7.4227e-02
13.000  23.750  7.4901e-02
13.000  24.000  7.5283e-02
13.250  17.000  9.3449e-04
13.250  17.250  1.7702e-03
13.250  17.500  4.4289e-03
13.250  17.750  1.0680e-02
13.250  18.000  2.1071e-02
13.250  18.250  2.6165e-02
13.250  18.500  3.1656e-02
13.250  18.750  3.1412e-02
13.250  19.000  3.1399e-02
13.250  19.250  3.1500e-02
13.250  19.500  3.1667e-02
13.250  19.750  3.1861e-02
13.250  20.000  3.2073e-02
13.250  20.250  3.2287e-02
13.250  20.500  3.2486e-02
13.250  20.750  3.2640e-02
13.250  21.000  3.2781e-02
13.250  21.250  3.2941e-02
13.250  21.500  3.3282e-02
13.250  21.750  3.4120e-02
13.250  22.000  3.6978e-02
13.250  22.250  4.4360e-02
13.250  22.500  5.5380e-02
13.250  22.750  6.1955e-02
13.250  23.000  6.6736e-02
13.250  23.250  7.0643e-02
13.250  23.500  7.3103e-02
13.250  23.750  7.4184e-02
13.250  24.000  7.4834e-02
13.500  17.000  5.7160e-04
13.500  17.250  1.0547e-03
13.500  17.500  2.4011e-03
13.500  17.750  5.5854e-03
13.500  18.000  1.2645e-02
13.500  18.250  2.2675e-02
13.500  18.500  2.6751e-02
13.500  18.750  3.0897e-02
13.500  19.000  3.0790e-02
13.500  19.250  3.0893e-02
13.500  19.500  3.1084e-02
13.500  19.750  3.1293e-02
13.500  20.000  3.1505e-02
13.500  20.250  3.1705e-02
13.500  20.500  3.1868e-02
13.500  20.750  3.1969e-02
13.500  21.000  3.1951e-02
13.500  21.250  3.1816e-02
13.500  21.500  3.1677e-02
13.500  21.750  3.1459e-02
13.500  22.000  3.1870e-02
13.500  22.250  3.5278e-02
13.500  22.500  4.4917e-02
13.500  22.750  5.5955e-02
13.500  23.000  6.2114e-02
13.500  23.250  6.6608e-02
13.500  23.500  7.0542e-02
13.500  23.750  7.3022e-02
13.500  24.000  7.4097e-02
13.750  17.000  3.4058e-04
13.750  17.250  6.8691e-04
13.750  17.500  1.4820e-03
13.750  17.750  2.9259e-03
13.750  18.000  7.0918e-03
13.750  18.250  1.5102e-02
13.750  18.500  2.3179e-02
13.750  18.750  2.7255e-02
13.750  19.000  3.0264e-02
13.750  19.250  3.0256e-02
13.750  19.500  3.0433e-02
13.750  19.750  3.0670e-02
13.750  20.000  3.0896e-02
13.750  20.250  3.1088e-02
13.750  20.500  3.1232e-02
13.750  20.750  3.1287e-02
13.750  21.000  3.1190e-02
13.750  21.250  3.0874e-02
13.750  21.500  3.0379e-02
13.750  21.750  2.9446e-02
13.750  22.000  2.8329e-02
13.750  22.250  2.8423e-02
13.750  22.500  3.3035e-02
13.750  22.750  4.5291e-02
13.750  23.000  5.6496e-02
13.750  23.250  6.2201e-02
13.750  23.500  6.6446e-02
13.750  23.750  7.0496e-02
13.750  24.000  7.2872e-02
14.000  17.000  2.0420e-04
14.000  17.250  4.0815e-04
14.000  17.500  9.1835e-04
14.000  17.750  1.8171e-03
14.000  18.000  3.6007e-03
14.000  18.250  8.0548e-03
14.000  18.500  1.5193e-02
14.000  18.750  2.3458e-02
14.000  19.000  2.9521e-02
14.000  19.250  2.9703e-02
14.000  19.500  2.9758e-02
14.000  19.750  2.9987e-02
14.000  20.000  3.0238e-02
14.000  20.250  3.0441e-02
14.000  20.500  3.0569e-02
14.000  20.750  3.0592e-02
14.000  21.000  3.0437e-02
14.000  21.250  2.9997e-02
14.000  21.500  2.9265e-02
14.000  21.750  2.7850e-02
14.000  22.000  2.5752e-02
14.000  22.250  2.3832e-02
14.000  22.500  2.4554e-02
14.000  22.750  3.1528e-02
14.000  23.000  4.6097e-02
14.000  23.250  5.6722e-02
14.000  23.500  6.2026e-02
14.000  23.750  6.6219e-02
14.000  24.000  7.0409e-02
