InwC 10000.0A  relative to Inci 1215.00A scaled to 1215A.
Hden   Phi(H)  Eq_Width (A)
7.000  17.000  9.6048e-03
7.000  17.250  1.2779e-02
7.000  17.500  1.3197e-02
7.000  17.750  1.3454e-02
7.000  18.000  1.3461e-02
7.000  18.250  1.3470e-02
7.000  18.500  1.3471e-02
7.000  18.750  1.3473e-02
7.000  19.000  1.3474e-02
7.000  19.250  1.3476e-02
7.000  19.500  1.3476e-02
7.000  19.750  1.3476e-02
7.000  20.000  1.3476e-02
7.000  20.250  1.3476e-02
7.000  20.500  1.3476e-02
7.000  20.750  1.3476e-02
7.000  21.000  1.3476e-02
7.000  21.250  1.3477e-02
7.000  21.500  1.3477e-02
7.000  21.750  1.3477e-02
7.000  22.000  1.3477e-02
7.000  22.250  1.3477e-02
7.000  22.500  1.3477e-02
7.000  22.750  1.3478e-02
7.000  23.000  1.3477e-02
7.000  23.250  1.3477e-02
7.000  23.500  1.3477e-02
7.000  23.750  1.3477e-02
7.000  24.000  1.3477e-02
7.250  17.000  7.2255e-03
7.250  17.250  9.7323e-03
7.250  17.500  1.2781e-02
7.250  17.750  1.3200e-02
7.250  18.000  1.3454e-02
7.250  18.250  1.3461e-02
7.250  18.500  1.3470e-02
7.250  18.750  1.3471e-02
7.250  19.000  1.3473e-02
7.250  19.250  1.3474e-02
7.250  19.500  1.3476e-02
7.250  19.750  1.3476e-02
7.250  20.000  1.3476e-02
7.250  20.250  1.3476e-02
7.250  20.500  1.3476e-02
7.250  20.750  1.3476e-02
7.250  21.000  1.3476e-02
7.250  21.250  1.3476e-02
7.250  21.500  1.3476e-02
7.250  21.750  1.3477e-02
7.250  22.000  1.3476e-02
7.250  22.250  1.3477e-02
7.250  22.500  1.3477e-02
7.250  22.750  1.3477e-02
7.250  23.000  1.3477e-02
7.250  23.250  1.3477e-02
7.250  23.500  1.3477e-02
7.250  23.750  1.3477e-02
7.250  24.000  1.3477e-02
7.500  17.000  5.1406e-03
7.500  17.250  7.4092e-03
7.500  17.500  9.8494e-03
7.500  17.750  1.2782e-02
7.500  18.000  1.3203e-02
7.500  18.250  1.3454e-02
7.500  18.500  1.3461e-02
7.500  18.750  1.3470e-02
7.500  19.000  1.3471e-02
7.500  19.250  1.3473e-02
7.500  19.500  1.3474e-02
7.500  19.750  1.3476e-02
7.500  20.000  1.3476e-02
7.500  20.250  1.3476e-02
7.500  20.500  1.3476e-02
7.500  20.750  1.3476e-02
7.500  21.000  1.3476e-02
7.500  21.250  1.3476e-02
7.500  21.500  1.3476e-02
7.500  21.750  1.3476e-02
7.500  22.000  1.3476e-02
7.500  22.250  1.3476e-02
7.500  22.500  1.3476e-02
7.500  22.750  1.3476e-02
7.500  23.000  1.3477e-02
7.500  23.250  1.3477e-02
7.500  23.500  1.3477e-02
7.500  23.750  1.3477e-02
7.500  24.000  1.3477e-02
7.750  17.000  3.4571e-03
7.750  17.250  5.2830e-03
7.750  17.500  7.6114e-03
7.750  17.750  9.9795e-03
7.750  18.000  1.2783e-02
7.750  18.250  1.3206e-02
7.750  18.500  1.3454e-02
7.750  18.750  1.3461e-02
7.750  19.000  1.3469e-02
7.750  19.250  1.3471e-02
7.750  19.500  1.3473e-02
7.750  19.750  1.3474e-02
7.750  20.000  1.3476e-02
7.750  20.250  1.3476e-02
7.750  20.500  1.3476e-02
7.750  20.750  1.3476e-02
7.750  21.000  1.3476e-02
7.750  21.250  1.3476e-02
7.750  21.500  1.3476e-02
7.750  21.750  1.3476e-02
7.750  22.000  1.3476e-02
7.750  22.250  1.3476e-02
7.750  22.500  1.3476e-02
7.750  22.750  1.3476e-02
7.750  23.000  1.3476e-02
7.750  23.250  1.3476e-02
7.750  23.500  1.3476e-02
7.750  23.750  1.3476e-02
7.750  24.000  1.3476e-02
8.000  17.000  2.3254e-03
8.000  17.250  3.5277e-03
8.000  17.500  5.4156e-03
8.000  17.750  7.7989e-03
8.000  18.000  1.0098e-02
8.000  18.250  1.2783e-02
8.000  18.500  1.3207e-02
8.000  18.750  1.3454e-02
8.000  19.000  1.3461e-02
8.000  19.250  1.3470e-02
8.000  19.500  1.3471e-02
8.000  19.750  1.3473e-02
8.000  20.000  1.3474e-02
8.000  20.250  1.3476e-02
8.000  20.500  1.3476e-02
8.000  20.750  1.3476e-02
8.000  21.000  1.3476e-02
8.000  21.250  1.3476e-02
8.000  21.500  1.3476e-02
8.000  21.750  1.3476e-02
8.000  22.000  1.3476e-02
8.000  22.250  1.3476e-02
8.000  22.500  1.3476e-02
8.000  22.750  1.3476e-02
8.000  23.000  1.3476e-02
8.000  23.250  1.3476e-02
8.000  23.500  1.3476e-02
8.000  23.750  1.3476e-02
8.000  24.000  1.3476e-02
8.250  17.000  1.6105e-03
8.250  17.250  2.3873e-03
8.250  17.500  3.6491e-03
8.250  17.750  5.6505e-03
8.250  18.000  8.1417e-03
8.250  18.250  1.0333e-02
8.250  18.500  1.2784e-02
8.250  18.750  1.3210e-02
8.250  19.000  1.3454e-02
8.250  19.250  1.3461e-02
8.250  19.500  1.3470e-02
8.250  19.750  1.3471e-02
8.250  20.000  1.3473e-02
8.250  20.250  1.3474e-02
8.250  20.500  1.3476e-02
8.250  20.750  1.3476e-02
8.250  21.000  1.3476e-02
8.250  21.250  1.3476e-02
8.250  21.500  1.3476e-02
8.250  21.750  1.3476e-02
8.250  22.000  1.3476e-02
8.250  22.250  1.3476e-02
8.250  22.500  1.3476e-02
8.250  22.750  1.3476e-02
8.250  23.000  1.3477e-02
8.250  23.250  1.3476e-02
8.250  23.500  1.3476e-02
8.250  23.750  1.3476e-02
8.250  24.000  1.3476e-02
8.500  17.000  1.1351e-03
8.500  17.250  1.6555e-03
8.500  17.500  2.4794e-03
8.500  17.750  3.8521e-03
8.500  18.000  6.0258e-03
8.500  18.250  8.6395e-03
8.500  18.500  1.0644e-02
8.500  18.750  1.2784e-02
8.500  19.000  1.3213e-02
8.500  19.250  1.3454e-02
8.500  19.500  1.3461e-02
8.500  19.750  1.3469e-02
8.500  20.000  1.3471e-02
8.500  20.250  1.3473e-02
8.500  20.500  1.3474e-02
8.500  20.750  1.3476e-02
8.500  21.000  1.3476e-02
8.500  21.250  1.3476e-02
8.500  21.500  1.3476e-02
8.500  21.750  1.3476e-02
8.500  22.000  1.3476e-02
8.500  22.250  1.3476e-02
8.500  22.500  1.3476e-02
8.500  22.750  1.3476e-02
8.500  23.000  1.3476e-02
8.500  23.250  1.3476e-02
8.500  23.500  1.3476e-02
8.500  23.750  1.3476e-02
8.500  24.000  1.3476e-02
8.750  17.000  8.0708e-04
8.750  17.250  1.1686e-03
8.750  17.500  1.7272e-03
8.750  17.750  2.6350e-03
8.750  18.000  4.2008e-03
8.750  18.250  6.6372e-03
8.750  18.500  9.1382e-03
8.750  18.750  1.0968e-02
8.750  19.000  1.2784e-02
8.750  19.250  1.3216e-02
8.750  19.500  1.3454e-02
8.750  19.750  1.3461e-02
8.750  20.000  1.3469e-02
8.750  20.250  1.3471e-02
8.750  20.500  1.3473e-02
8.750  20.750  1.3474e-02
8.750  21.000  1.3476e-02
8.750  21.250  1.3476e-02
8.750  21.500  1.3476e-02
8.750  21.750  1.3476e-02
8.750  22.000  1.3476e-02
8.750  22.250  1.3476e-02
8.750  22.500  1.3476e-02
8.750  22.750  1.3476e-02
8.750  23.000  1.3476e-02
8.750  23.250  1.3476e-02
8.750  23.500  1.3476e-02
8.750  23.750  1.3476e-02
8.750  24.000  1.3476e-02
9.000  17.000  5.7580e-04
9.000  17.250  8.3144e-04
9.000  17.500  1.2225e-03
9.000  17.750  1.8495e-03
9.000  18.000  2.9333e-03
9.000  18.250  4.7776e-03
9.000  18.500  7.4018e-03
9.000  18.750  9.7793e-03
9.000  19.000  1.1460e-02
9.000  19.250  1.2781e-02
9.000  19.500  1.3218e-02
9.000  19.750  1.3454e-02
9.000  20.000  1.3461e-02
9.000  20.250  1.3469e-02
9.000  20.500  1.3471e-02
9.000  20.750  1.3473e-02
9.000  21.000  1.3474e-02
9.000  21.250  1.3476e-02
9.000  21.500  1.3476e-02
9.000  21.750  1.3476e-02
9.000  22.000  1.3476e-02
9.000  22.250  1.3476e-02
9.000  22.500  1.3476e-02
9.000  22.750  1.3476e-02
9.000  23.000  1.3476e-02
9.000  23.250  1.3476e-02
9.000  23.500  1.3476e-02
9.000  23.750  1.3476e-02
9.000  24.000  1.3476e-02
9.250  17.000  4.1136e-04
9.250  17.250  5.9350e-04
9.250  17.500  8.7243e-04
9.250  17.750  1.3202e-03
9.250  18.000  2.0881e-03
9.250  18.250  3.4219e-03
9.250  18.500  5.5062e-03
9.250  18.750  8.1212e-03
9.250  19.000  1.0229e-02
9.250  19.250  1.1950e-02
9.250  19.500  1.2774e-02
9.250  19.750  1.3219e-02
9.250  20.000  1.3454e-02
9.250  20.250  1.3461e-02
9.250  20.500  1.3469e-02
9.250  20.750  1.3471e-02
9.250  21.000  1.3473e-02
9.250  21.250  1.3474e-02
9.250  21.500  1.3474e-02
9.250  21.750  1.3469e-02
9.250  22.000  1.3469e-02
9.250  22.250  1.3470e-02
9.250  22.500  1.3476e-02
9.250  22.750  1.3476e-02
9.250  23.000  1.3476e-02
9.250  23.250  1.3476e-02
9.250  23.500  1.3476e-02
9.250  23.750  1.3476e-02
9.250  24.000  1.3476e-02
9.500  17.000  2.9366e-04
9.500  17.250  4.2412e-04
9.500  17.500  6.2519e-04
9.500  17.750  9.5144e-04
9.500  18.000  1.5178e-03
9.500  18.250  2.5041e-03
9.500  18.500  4.0318e-03
9.500  18.750  6.2381e-03
9.500  19.000  8.8922e-03
9.500  19.250  1.0659e-02
9.500  19.500  1.2315e-02
9.500  19.750  1.2765e-02
9.500  20.000  1.3218e-02
9.500  20.250  1.3454e-02
9.500  20.500  1.3460e-02
9.500  20.750  1.3469e-02
9.500  21.000  1.3469e-02
9.500  21.250  1.3467e-02
9.500  21.500  1.3467e-02
9.500  21.750  1.3468e-02
9.500  22.000  1.3465e-02
9.500  22.250  1.3463e-02
9.500  22.500  1.3464e-02
9.500  22.750  1.3464e-02
9.500  23.000  1.3464e-02
9.500  23.250  1.3464e-02
9.500  23.500  1.3468e-02
9.500  23.750  1.3468e-02
9.500  24.000  1.3468e-02
9.750  17.000  2.0947e-04
9.750  17.250  3.0313e-04
9.750  17.500  4.4823e-04
9.750  17.750  6.8807e-04
9.750  18.000  1.1146e-03
9.750  18.250  1.8563e-03
9.750  18.500  2.9906e-03
9.750  18.750  4.6437e-03
9.750  19.000  6.9192e-03
9.750  19.250  9.4068e-03
9.750  19.500  1.1242e-02
9.750  19.750  1.2494e-02
9.750  20.000  1.2752e-02
9.750  20.250  1.3213e-02
9.750  20.500  1.3453e-02
9.750  20.750  1.3460e-02
9.750  21.000  1.3469e-02
9.750  21.250  1.3470e-02
9.750  21.500  1.3470e-02
9.750  21.750  1.3468e-02
9.750  22.000  1.3468e-02
9.750  22.250  1.3467e-02
9.750  22.500  1.3465e-02
9.750  22.750  1.3464e-02
9.750  23.000  1.3464e-02
9.750  23.250  1.3464e-02
9.750  23.500  1.3464e-02
9.750  23.750  1.3464e-02
9.750  24.000  1.3464e-02
10.000  17.000  1.4914e-04
10.000  17.250  2.1663e-04
10.000  17.500  3.2156e-04
10.000  17.750  4.9901e-04
10.000  18.000  8.2091e-04
10.000  18.250  1.3805e-03
10.000  18.500  2.2153e-03
10.000  18.750  3.4461e-03
10.000  19.000  5.1842e-03
10.000  19.250  7.5517e-03
10.000  19.500  9.8510e-03
10.000  19.750  1.1730e-02
10.000  20.000  1.2475e-02
10.000  20.250  1.2741e-02
10.000  20.500  1.3210e-02
10.000  20.750  1.3451e-02
10.000  21.000  1.3459e-02
10.000  21.250  1.3469e-02
10.000  21.500  1.3471e-02
10.000  21.750  1.3472e-02
10.000  22.000  1.3470e-02
10.000  22.250  1.3469e-02
10.000  22.500  1.3468e-02
10.000  22.750  1.3466e-02
10.000  23.000  1.3465e-02
10.000  23.250  1.3464e-02
10.000  23.500  1.3464e-02
10.000  23.750  1.3464e-02
10.000  24.000  1.3464e-02
10.250  17.000  1.0626e-04
10.250  17.250  1.5465e-04
10.250  17.500  2.3095e-04
10.250  17.750  3.6296e-04
10.250  18.000  6.0453e-04
10.250  18.250  1.0169e-03
10.250  18.500  1.6440e-03
10.250  18.750  2.5547e-03
10.250  19.000  3.8449e-03
10.250  19.250  5.6913e-03
10.250  19.500  7.9517e-03
10.250  19.750  1.0204e-02
10.250  20.000  1.2074e-02
10.250  20.250  1.2461e-02
10.250  20.500  1.2727e-02
10.250  20.750  1.3207e-02
10.250  21.000  1.3447e-02
10.250  21.250  1.3458e-02
10.250  21.500  1.3468e-02
10.250  21.750  1.3470e-02
10.250  22.000  1.3472e-02
10.250  22.250  1.3473e-02
10.250  22.500  1.3469e-02
10.250  22.750  1.3469e-02
10.250  23.000  1.3468e-02
10.250  23.250  1.3467e-02
10.250  23.500  1.3466e-02
10.250  23.750  1.3465e-02
10.250  24.000  1.3465e-02
10.500  17.000  7.5967e-05
10.500  17.250  1.1062e-04
10.500  17.500  1.6634e-04
10.500  17.750  2.6469e-04
10.500  18.000  4.4453e-04
10.500  18.250  7.5325e-04
10.500  18.500  1.2058e-03
10.500  18.750  1.8727e-03
10.500  19.000  2.8132e-03
10.500  19.250  4.1567e-03
10.500  19.500  5.9951e-03
10.500  19.750  8.2361e-03
10.500  20.000  1.0577e-02
10.500  20.250  1.2284e-02
10.500  20.500  1.2444e-02
10.500  20.750  1.2721e-02
10.500  21.000  1.3212e-02
10.500  21.250  1.3441e-02
10.500  21.500  1.3457e-02
10.500  21.750  1.3467e-02
10.500  22.000  1.3470e-02
10.500  22.250  1.3472e-02
10.500  22.500  1.3474e-02
10.500  22.750  1.3470e-02
10.500  23.000  1.3469e-02
10.500  23.250  1.3469e-02
10.500  23.500  1.3468e-02
10.500  23.750  1.3467e-02
10.500  24.000  1.3467e-02
10.750  17.000  5.4403e-05
10.750  17.250  7.9177e-05
10.750  17.500  1.2000e-04
10.750  17.750  1.9300e-04
10.750  18.000  3.2617e-04
10.750  18.250  5.4856e-04
10.750  18.500  8.7539e-04
10.750  18.750  1.3524e-03
10.750  19.000  2.0365e-03
10.750  19.250  2.9993e-03
10.750  19.500  4.3676e-03
10.750  19.750  6.2361e-03
10.750  20.000  8.5300e-03
10.750  20.250  1.0952e-02
10.750  20.500  1.2263e-02
10.750  20.750  1.2427e-02
10.750  21.000  1.2717e-02
10.750  21.250  1.3231e-02
10.750  21.500  1.3436e-02
10.750  21.750  1.3453e-02
10.750  22.000  1.3465e-02
10.750  22.250  1.3470e-02
10.750  22.500  1.3472e-02
10.750  22.750  1.3474e-02
10.750  23.000  1.3473e-02
10.750  23.250  1.3469e-02
10.750  23.500  1.3469e-02
10.750  23.750  1.3469e-02
10.750  24.000  1.3468e-02
11.000  17.000  3.8930e-05
11.000  17.250  5.6708e-05
11.000  17.500  8.6337e-05
11.000  17.750  1.4025e-04
11.000  18.000  2.3720e-04
11.000  18.250  3.9556e-04
11.000  18.500  6.3588e-04
11.000  18.750  9.7893e-04
11.000  19.000  1.4712e-03
11.000  19.250  2.1617e-03
11.000  19.500  3.1329e-03
11.000  19.750  4.5333e-03
11.000  20.000  6.4565e-03
11.000  20.250  8.8066e-03
11.000  20.500  1.1310e-02
11.000  20.750  1.2224e-02
11.000  21.000  1.2408e-02
11.000  21.250  1.2729e-02
11.000  21.500  1.3282e-02
11.000  21.750  1.3427e-02
11.000  22.000  1.3447e-02
11.000  22.250  1.3462e-02
11.000  22.500  1.3468e-02
11.000  22.750  1.3471e-02
11.000  23.000  1.3473e-02
11.000  23.250  1.3475e-02
11.000  23.500  1.3470e-02
11.000  23.750  1.3469e-02
11.000  24.000  1.3469e-02
11.250  17.000  2.8066e-05
11.250  17.250  4.0576e-05
11.250  17.500  6.1893e-05
11.250  17.750  1.0099e-04
11.250  18.000  1.7062e-04
11.250  18.250  2.8206e-04
11.250  18.500  4.4733e-04
11.250  18.750  6.9465e-04
11.250  19.000  1.0425e-03
11.250  19.250  1.5305e-03
11.250  19.500  2.2314e-03
11.250  19.750  3.2310e-03
11.250  20.000  4.6692e-03
11.250  20.250  6.6473e-03
11.250  20.500  9.0675e-03
11.250  20.750  1.1562e-02
11.250  21.000  1.2167e-02
11.250  21.250  1.2387e-02
11.250  21.500  1.2793e-02
11.250  21.750  1.3331e-02
11.250  22.000  1.3413e-02
11.250  22.250  1.3439e-02
11.250  22.500  1.3456e-02
11.250  22.750  1.3467e-02
11.250  23.000  1.3470e-02
11.250  23.250  1.3473e-02
11.250  23.500  1.3475e-02
11.250  23.750  1.3473e-02
11.250  24.000  1.3470e-02
11.500  17.000  2.0165e-05
11.500  17.250  2.9053e-05
11.500  17.500  4.4280e-05
11.500  17.750  7.2016e-05
11.500  18.000  1.2091e-04
11.500  18.250  1.9918e-04
11.500  18.500  3.1506e-04
11.500  18.750  4.8988e-04
11.500  19.000  7.3374e-04
11.500  19.250  1.0812e-03
11.500  19.500  1.5806e-03
11.500  19.750  2.2983e-03
11.500  20.000  3.3212e-03
11.500  20.250  4.7946e-03
11.500  20.500  6.8230e-03
11.500  20.750  9.2908e-03
11.500  21.000  1.1673e-02
11.500  21.250  1.2082e-02
11.500  21.500  1.2419e-02
11.500  21.750  1.2880e-02
11.500  22.000  1.3340e-02
11.500  22.250  1.3393e-02
11.500  22.500  1.3426e-02
11.500  22.750  1.3449e-02
11.500  23.000  1.3464e-02
11.500  23.250  1.3469e-02
11.500  23.500  1.3472e-02
11.500  23.750  1.3475e-02
11.500  24.000  1.3475e-02
11.750  17.000  1.4733e-05
11.750  17.250  2.0905e-05
11.750  17.500  3.1523e-05
11.750  17.750  5.0947e-05
11.750  18.000  8.4691e-05
11.750  18.250  1.3877e-04
11.750  18.500  2.1926e-04
11.750  18.750  3.3786e-04
11.750  19.000  5.1103e-04
11.750  19.250  7.5794e-04
11.750  19.500  1.1122e-03
11.750  19.750  1.6212e-03
11.750  20.000  2.3421e-03
11.750  20.250  3.3831e-03
11.750  20.500  4.8968e-03
11.750  20.750  6.9547e-03
11.750  21.000  9.4342e-03
11.750  21.250  1.1475e-02
11.750  21.500  1.2051e-02
11.750  21.750  1.2423e-02
11.750  22.000  1.2973e-02
11.750  22.250  1.3300e-02
11.750  22.500  1.3365e-02
11.750  22.750  1.3406e-02
11.750  23.000  1.3437e-02
11.750  23.250  1.3460e-02
11.750  23.500  1.3466e-02
11.750  23.750  1.3471e-02
11.750  24.000  1.3475e-02
12.000  17.000  1.0947e-05
12.000  17.250  1.5309e-05
12.000  17.500  2.2551e-05
12.000  17.750  3.5720e-05
12.000  18.000  5.8436e-05
12.000  18.250  9.4979e-05
12.000  18.500  1.5086e-04
12.000  18.750  2.3383e-04
12.000  19.000  3.5490e-04
12.000  19.250  5.2979e-04
12.000  19.500  7.8214e-04
12.000  19.750  1.1388e-03
12.000  20.000  1.6483e-03
12.000  20.250  2.3785e-03
12.000  20.500  3.4328e-03
12.000  20.750  4.9561e-03
12.000  21.000  7.0174e-03
12.000  21.250  9.4421e-03
12.000  21.500  1.1325e-02
12.000  21.750  1.1918e-02
12.000  22.000  1.2415e-02
12.000  22.250  1.3010e-02
12.000  22.500  1.3240e-02
12.000  22.750  1.3323e-02
12.000  23.000  1.3377e-02
12.000  23.250  1.3418e-02
12.000  23.500  1.3453e-02
12.000  23.750  1.3462e-02
12.000  24.000  1.3469e-02
12.250  17.000  7.7366e-06
12.250  17.250  1.1358e-05
12.250  17.500  1.6461e-05
12.250  17.750  2.5103e-05
12.250  18.000  4.0165e-05
12.250  18.250  6.4856e-05
12.250  18.500  1.0337e-04
12.250  18.750  1.6099e-04
12.250  19.000  2.4510e-04
12.250  19.250  3.6823e-04
12.250  19.500  5.4650e-04
12.250  19.750  7.9753e-04
12.250  20.000  1.1606e-03
12.250  20.250  1.6689e-03
12.250  20.500  2.4090e-03
12.250  20.750  3.4642e-03
12.250  21.000  4.9612e-03
12.250  21.250  6.9636e-03
12.250  21.500  9.3595e-03
12.250  21.750  1.0958e-02
12.250  22.000  1.1727e-02
12.250  22.250  1.2377e-02
12.250  22.500  1.2945e-02
12.250  22.750  1.3150e-02
12.250  23.000  1.3259e-02
12.250  23.250  1.3330e-02
12.250  23.500  1.3389e-02
12.250  23.750  1.3443e-02
12.250  24.000  1.3457e-02
12.500  17.000  4.0329e-06
12.500  17.250  8.1481e-06
12.500  17.500  1.2099e-05
12.500  17.750  1.8025e-05
12.500  18.000  2.7901e-05
12.500  18.250  4.4198e-05
12.500  18.500  7.0288e-05
12.500  18.750  1.1053e-04
12.500  19.000  1.6988e-04
12.500  19.250  2.5630e-04
12.500  19.500  3.8066e-04
12.500  19.750  5.5802e-04
12.500  20.000  8.1210e-04
12.500  20.250  1.1750e-03
12.500  20.500  1.6867e-03
12.500  20.750  2.4147e-03
12.500  21.000  3.4513e-03
12.500  21.250  4.8833e-03
12.500  21.500  6.8467e-03
12.500  21.750  9.0344e-03
12.500  22.000  1.0476e-02
12.500  22.250  1.1464e-02
12.500  22.500  1.2237e-02
12.500  22.750  1.2786e-02
12.500  23.000  1.3018e-02
12.500  23.250  1.3163e-02
12.500  23.500  1.3256e-02
12.500  23.750  1.3343e-02
12.500  24.000  1.3427e-02
12.750  17.000  2.0576e-06
12.750  17.250  4.4444e-06
12.750  17.500  8.7243e-06
12.750  17.750  1.2922e-05
12.750  18.000  1.9506e-05
12.750  18.250  3.0370e-05
12.750  18.500  4.8066e-05
12.750  18.750  7.5720e-05
12.750  19.000  1.1679e-04
12.750  19.250  1.7712e-04
12.750  19.500  2.6420e-04
12.750  19.750  3.8872e-04
12.750  20.000  5.6675e-04
12.750  20.250  8.2025e-04
12.750  20.500  1.1820e-03
12.750  20.750  1.6911e-03
12.750  21.000  2.3970e-03
12.750  21.250  3.3860e-03
12.750  21.500  4.7848e-03
12.750  21.750  6.5385e-03
12.750  22.000  8.4933e-03
12.750  22.250  9.8843e-03
12.750  22.500  1.1084e-02
12.750  22.750  1.1920e-02
12.750  23.000  1.2522e-02
12.750  23.250  1.2825e-02
12.750  23.500  1.3018e-02
12.750  23.750  1.3142e-02
12.750  24.000  1.3269e-02
13.000  17.000  1.0000e-07
13.000  17.250  1.3169e-06
13.000  17.500  3.7037e-06
13.000  17.750  7.9835e-06
13.000  18.000  1.3086e-05
13.000  18.250  2.1235e-05
13.000  18.500  3.3086e-05
13.000  18.750  5.1605e-05
13.000  19.000  7.9753e-05
13.000  19.250  1.2173e-04
13.000  19.500  1.8296e-04
13.000  19.750  2.6938e-04
13.000  20.000  3.9424e-04
13.000  20.250  5.7259e-04
13.000  20.500  8.2420e-04
13.000  20.750  1.1823e-03
13.000  21.000  1.6788e-03
13.000  21.250  2.3584e-03
13.000  21.500  3.3221e-03
13.000  21.750  4.5460e-03
13.000  22.000  6.0381e-03
13.000  22.250  7.7352e-03
13.000  22.500  9.1424e-03
13.000  22.750  1.0433e-02
13.000  23.000  1.1407e-02
13.000  23.250  1.2138e-02
13.000  23.500  1.2541e-02
13.000  23.750  1.2798e-02
13.000  24.000  1.2964e-02
13.250  17.000  1.0000e-07
13.250  17.250  1.0000e-07
13.250  17.500  1.4815e-06
13.250  17.750  3.5391e-06
13.250  18.000  7.7366e-06
13.250  18.250  1.3498e-05
13.250  18.500  2.2963e-05
13.250  18.750  3.5391e-05
13.250  19.000  5.4403e-05
13.250  19.250  8.3292e-05
13.250  19.500  1.2527e-04
13.250  19.750  1.8617e-04
13.250  20.000  2.7309e-04
13.250  20.250  3.9786e-04
13.250  20.500  5.7514e-04
13.250  20.750  8.2519e-04
13.250  21.000  1.1756e-03
13.250  21.250  1.6500e-03
13.250  21.500  2.3172e-03
13.250  21.750  3.1361e-03
13.250  22.000  4.1091e-03
13.250  22.250  5.2725e-03
13.250  22.500  6.7729e-03
13.250  22.750  8.1525e-03
13.250  23.000  9.5365e-03
13.250  23.250  1.0710e-02
13.250  23.500  1.1600e-02
13.250  23.750  1.2130e-02
13.250  24.000  1.2467e-02
13.500  17.000  1.0000e-07
13.500  17.250  1.0000e-07
13.500  17.500  1.0000e-07
13.500  17.750  1.8107e-06
13.500  18.000  4.2798e-06
13.500  18.250  8.9712e-06
13.500  18.500  1.4815e-05
13.500  18.750  2.4444e-05
13.500  19.000  3.7119e-05
13.500  19.250  5.6296e-05
13.500  19.500  8.5267e-05
13.500  19.750  1.2741e-04
13.500  20.000  1.8831e-04
13.500  20.250  2.7547e-04
13.500  20.500  4.0008e-04
13.500  20.750  5.7588e-04
13.500  21.000  8.2066e-04
13.500  21.250  1.1530e-03
13.500  21.500  1.6214e-03
13.500  21.750  2.1821e-03
13.500  22.000  2.7772e-03
13.500  22.250  3.4398e-03
13.500  22.500  4.4263e-03
13.500  22.750  5.6953e-03
13.500  23.000  7.0827e-03
13.500  23.250  8.5197e-03
13.500  23.500  9.8235e-03
13.500  23.750  1.0868e-02
13.500  24.000  1.1545e-02
13.750  17.000  1.0000e-07
13.750  17.250  1.0000e-07
13.750  17.500  1.0000e-07
13.750  17.750  9.8765e-07
13.750  18.000  2.3045e-06
13.750  18.250  5.1029e-06
13.750  18.500  9.7942e-06
13.750  18.750  1.6049e-05
13.750  19.000  2.5514e-05
13.750  19.250  3.8354e-05
13.750  19.500  5.7778e-05
13.750  19.750  8.6667e-05
13.750  20.000  1.2881e-04
13.750  20.250  1.8963e-04
13.750  20.500  2.7687e-04
13.750  20.750  4.0033e-04
13.750  21.000  5.7267e-04
13.750  21.250  8.0823e-04
13.750  21.500  1.1368e-03
13.750  21.750  1.5281e-03
13.750  22.000  1.9076e-03
13.750  22.250  2.2136e-03
13.750  22.500  2.6768e-03
13.750  22.750  3.5722e-03
13.750  23.000  4.6982e-03
13.750  23.250  5.9875e-03
13.750  23.500  7.3923e-03
13.750  23.750  8.7418e-03
13.750  24.000  9.9134e-03
14.000  17.000  1.0000e-07
14.000  17.250  1.0000e-07
14.000  17.500  1.0000e-07
14.000  17.750  1.0000e-07
14.000  18.000  1.2346e-06
14.000  18.250  2.6337e-06
14.000  18.500  5.5144e-06
14.000  18.750  1.0370e-05
14.000  19.000  1.7449e-05
14.000  19.250  2.6173e-05
14.000  19.500  3.9177e-05
14.000  19.750  5.8601e-05
14.000  20.000  8.7572e-05
14.000  20.250  1.2979e-04
14.000  20.500  1.9070e-04
14.000  20.750  2.7720e-04
14.000  21.000  3.9860e-04
14.000  21.250  5.6551e-04
14.000  21.500  7.9819e-04
14.000  21.750  1.0758e-03
14.000  22.000  1.3238e-03
14.000  22.250  1.4554e-03
14.000  22.500  1.6258e-03
14.000  22.750  2.0949e-03
14.000  23.000  2.8486e-03
14.000  23.250  3.7679e-03
14.000  23.500  4.8789e-03
14.000  23.750  6.1117e-03
14.000  24.000  7.4707e-03
