InwC 925.144A  relative to Inci 1215.00A scaled to 1215A.
Hden   Phi(H)  Eq_Width (A)
7.000  17.000  5.8227e-02
7.000  17.250  7.2151e-02
7.000  17.500  7.5050e-02
7.000  17.750  7.6599e-02
7.000  18.000  7.6636e-02
7.000  18.250  7.6687e-02
7.000  18.500  7.6696e-02
7.000  18.750  7.6706e-02
7.000  19.000  7.6715e-02
7.000  19.250  7.6722e-02
7.000  19.500  7.6724e-02
7.000  19.750  7.6725e-02
7.000  20.000  7.6726e-02
7.000  20.250  7.6726e-02
7.000  20.500  7.6726e-02
7.000  20.750  7.6727e-02
7.000  21.000  7.6727e-02
7.000  21.250  7.6727e-02
7.000  21.500  7.6727e-02
7.000  21.750  7.6727e-02
7.000  22.000  7.6728e-02
7.000  22.250  7.6728e-02
7.000  22.500  7.6729e-02
7.000  22.750  7.6737e-02
7.000  23.000  7.6730e-02
7.000  23.250  7.6731e-02
7.000  23.500  7.6731e-02
7.000  23.750  7.6731e-02
7.000  24.000  7.6732e-02
7.250  17.000  3.7119e-02
7.250  17.250  5.8014e-02
7.250  17.500  7.2169e-02
7.250  17.750  7.5070e-02
7.250  18.000  7.6600e-02
7.250  18.250  7.6636e-02
7.250  18.500  7.6688e-02
7.250  18.750  7.6696e-02
7.250  19.000  7.6706e-02
7.250  19.250  7.6715e-02
7.250  19.500  7.6722e-02
7.250  19.750  7.6724e-02
7.250  20.000  7.6725e-02
7.250  20.250  7.6726e-02
7.250  20.500  7.6726e-02
7.250  20.750  7.6726e-02
7.250  21.000  7.6727e-02
7.250  21.250  7.6726e-02
7.250  21.500  7.6727e-02
7.250  21.750  7.6727e-02
7.250  22.000  7.6727e-02
7.250  22.250  7.6727e-02
7.250  22.500  7.6727e-02
7.250  22.750  7.6727e-02
7.250  23.000  7.6727e-02
7.250  23.250  7.6728e-02
7.250  23.500  7.6728e-02
7.250  23.750  7.6728e-02
7.250  24.000  7.6728e-02
7.500  17.000  2.2193e-02
7.500  17.250  3.6451e-02
7.500  17.500  5.7853e-02
7.500  17.750  7.2187e-02
7.500  18.000  7.5089e-02
7.500  18.250  7.6600e-02
7.500  18.500  7.6636e-02
7.500  18.750  7.6687e-02
7.500  19.000  7.6696e-02
7.500  19.250  7.6706e-02
7.500  19.500  7.6715e-02
7.500  19.750  7.6722e-02
7.500  20.000  7.6724e-02
7.500  20.250  7.6725e-02
7.500  20.500  7.6726e-02
7.500  20.750  7.6726e-02
7.500  21.000  7.6726e-02
7.500  21.250  7.6726e-02
7.500  21.500  7.6726e-02
7.500  21.750  7.6726e-02
7.500  22.000  7.6726e-02
7.500  22.250  7.6727e-02
7.500  22.500  7.6727e-02
7.500  22.750  7.6727e-02
7.500  23.000  7.6727e-02
7.500  23.250  7.6727e-02
7.500  23.500  7.6727e-02
7.500  23.750  7.6727e-02
7.500  24.000  7.6727e-02
7.750  17.000  1.3796e-02
7.750  17.250  2.1669e-02
7.750  17.500  3.5974e-02
7.750  17.750  5.7713e-02
7.750  18.000  7.2201e-02
7.750  18.250  7.5108e-02
7.750  18.500  7.6600e-02
7.750  18.750  7.6636e-02
7.750  19.000  7.6687e-02
7.750  19.250  7.6696e-02
7.750  19.500  7.6706e-02
7.750  19.750  7.6715e-02
7.750  20.000  7.6722e-02
7.750  20.250  7.6724e-02
7.750  20.500  7.6726e-02
7.750  20.750  7.6726e-02
7.750  21.000  7.6726e-02
7.750  21.250  7.6726e-02
7.750  21.500  7.6726e-02
7.750  21.750  7.6727e-02
7.750  22.000  7.6726e-02
7.750  22.250  7.6726e-02
7.750  22.500  7.6726e-02
7.750  22.750  7.6726e-02
7.750  23.000  7.6727e-02
7.750  23.250  7.6727e-02
7.750  23.500  7.6727e-02
7.750  23.750  7.6727e-02
7.750  24.000  7.6726e-02
8.000  17.000  9.1743e-03
8.000  17.250  1.3333e-02
8.000  17.500  2.1027e-02
8.000  17.750  3.5249e-02
8.000  18.000  5.7242e-02
8.000  18.250  7.2206e-02
8.000  18.500  7.5112e-02
8.000  18.750  7.6600e-02
8.000  19.000  7.6637e-02
8.000  19.250  7.6688e-02
8.000  19.500  7.6696e-02
8.000  19.750  7.6706e-02
8.000  20.000  7.6715e-02
8.000  20.250  7.6722e-02
8.000  20.500  7.6724e-02
8.000  20.750  7.6725e-02
8.000  21.000  7.6726e-02
8.000  21.250  7.6726e-02
8.000  21.500  7.6726e-02
8.000  21.750  7.6726e-02
8.000  22.000  7.6726e-02
8.000  22.250  7.6726e-02
8.000  22.500  7.6726e-02
8.000  22.750  7.6726e-02
8.000  23.000  7.6726e-02
8.000  23.250  7.6726e-02
8.000  23.500  7.6726e-02
8.000  23.750  7.6726e-02
8.000  24.000  7.6727e-02
8.250  17.000  6.7686e-03
8.250  17.250  8.9420e-03
8.250  17.500  1.3050e-02
8.250  17.750  2.0734e-02
8.250  18.000  3.5087e-02
8.250  18.250  5.7331e-02
8.250  18.500  7.2220e-02
8.250  18.750  7.5131e-02
8.250  19.000  7.6600e-02
8.250  19.250  7.6637e-02
8.250  19.500  7.6688e-02
8.250  19.750  7.6696e-02
8.250  20.000  7.6706e-02
8.250  20.250  7.6715e-02
8.250  20.500  7.6722e-02
8.250  20.750  7.6724e-02
8.250  21.000  7.6725e-02
8.250  21.250  7.6726e-02
8.250  21.500  7.6726e-02
8.250  21.750  7.6726e-02
8.250  22.000  7.6726e-02
8.250  22.250  7.6726e-02
8.250  22.500  7.6726e-02
8.250  22.750  7.6727e-02
8.250  23.000  7.6727e-02
8.250  23.250  7.6727e-02
8.250  23.500  7.6726e-02
8.250  23.750  7.6727e-02
8.250  24.000  7.6727e-02
8.500  17.000  5.4633e-03
8.500  17.250  6.5911e-03
8.500  17.500  8.7514e-03
8.500  17.750  1.2830e-02
8.500  18.000  2.0626e-02
8.500  18.250  3.5520e-02
8.500  18.500  5.8033e-02
8.500  18.750  7.2231e-02
8.500  19.000  7.5152e-02
8.500  19.250  7.6600e-02
8.500  19.500  7.6637e-02
8.500  19.750  7.6687e-02
8.500  20.000  7.6696e-02
8.500  20.250  7.6706e-02
8.500  20.500  7.6715e-02
8.500  20.750  7.6722e-02
8.500  21.000  7.6724e-02
8.500  21.250  7.6725e-02
8.500  21.500  7.6726e-02
8.500  21.750  7.6726e-02
8.500  22.000  7.6726e-02
8.500  22.250  7.6726e-02
8.500  22.500  7.6726e-02
8.500  22.750  7.6727e-02
8.500  23.000  7.6726e-02
8.500  23.250  7.6726e-02
8.500  23.500  7.6726e-02
8.500  23.750  7.6726e-02
8.500  24.000  7.6726e-02
8.750  17.000  4.7314e-03
8.750  17.250  5.3164e-03
8.750  17.500  6.4469e-03
8.750  17.750  8.6096e-03
8.750  18.000  1.2822e-02
8.750  18.250  2.1097e-02
8.750  18.500  3.7283e-02
8.750  18.750  6.0040e-02
8.750  19.000  7.2243e-02
8.750  19.250  7.5172e-02
8.750  19.500  7.6601e-02
8.750  19.750  7.6637e-02
8.750  20.000  7.6687e-02
8.750  20.250  7.6696e-02
8.750  20.500  7.6706e-02
8.750  20.750  7.6715e-02
8.750  21.000  7.6722e-02
8.750  21.250  7.6724e-02
8.750  21.500  7.6725e-02
8.750  21.750  7.6726e-02
8.750  22.000  7.6726e-02
8.750  22.250  7.6726e-02
8.750  22.500  7.6726e-02
8.750  22.750  7.6726e-02
8.750  23.000  7.6727e-02
8.750  23.250  7.6726e-02
8.750  23.500  7.6726e-02
8.750  23.750  7.6726e-02
8.750  24.000  7.6726e-02
9.000  17.000  4.2932e-03
9.000  17.250  4.5982e-03
9.000  17.500  5.1966e-03
9.000  17.750  6.3634e-03
9.000  18.000  8.6504e-03
9.000  18.250  1.3257e-02
9.000  18.500  2.2722e-02
9.000  18.750  4.0953e-02
9.000  19.000  6.3532e-02
9.000  19.250  7.2253e-02
9.000  19.500  7.5188e-02
9.000  19.750  7.6600e-02
9.000  20.000  7.6638e-02
9.000  20.250  7.6687e-02
9.000  20.500  7.6696e-02
9.000  20.750  7.6706e-02
9.000  21.000  7.6715e-02
9.000  21.250  7.6722e-02
9.000  21.500  7.6724e-02
9.000  21.750  7.6725e-02
9.000  22.000  7.6726e-02
9.000  22.250  7.6726e-02
9.000  22.500  7.6726e-02
9.000  22.750  7.6726e-02
9.000  23.000  7.6726e-02
9.000  23.250  7.6726e-02
9.000  23.500  7.6726e-02
9.000  23.750  7.6726e-02
9.000  24.000  7.6726e-02
9.250  17.000  4.0016e-03
9.250  17.250  4.1658e-03
9.250  17.500  4.4958e-03
9.250  17.750  5.1620e-03
9.250  18.000  6.5513e-03
9.250  18.250  9.1747e-03
9.250  18.500  1.4555e-02
9.250  18.750  2.5714e-02
9.250  19.000  4.6462e-02
9.250  19.250  6.7595e-02
9.250  19.500  7.2260e-02
9.250  19.750  7.5199e-02
9.250  20.000  7.6600e-02
9.250  20.250  7.6638e-02
9.250  20.500  7.6687e-02
9.250  20.750  7.6696e-02
9.250  21.000  7.6706e-02
9.250  21.250  7.6715e-02
9.250  21.500  7.6714e-02
9.250  21.750  7.6687e-02
9.250  22.000  7.6685e-02
9.250  22.250  7.6689e-02
9.250  22.500  7.6725e-02
9.250  22.750  7.6726e-02
9.250  23.000  7.6726e-02
9.250  23.250  7.6726e-02
9.250  23.500  7.6726e-02
9.250  23.750  7.6726e-02
9.250  24.000  7.6726e-02
9.500  17.000  3.8052e-03
9.500  17.250  3.8812e-03
9.500  17.500  4.0848e-03
9.500  17.750  4.5282e-03
9.500  18.000  5.4105e-03
9.500  18.250  7.0408e-03
9.500  18.500  1.0226e-02
9.500  18.750  1.6761e-02
9.500  19.000  3.0288e-02
9.500  19.250  5.3178e-02
9.500  19.500  6.9843e-02
9.500  19.750  7.2270e-02
9.500  20.000  7.5203e-02
9.500  20.250  7.6599e-02
9.500  20.500  7.6638e-02
9.500  20.750  7.6686e-02
9.500  21.000  7.6685e-02
9.500  21.250  7.6674e-02
9.500  21.500  7.6675e-02
9.500  21.750  7.6676e-02
9.500  22.000  7.6663e-02
9.500  22.250  7.6653e-02
9.500  22.500  7.6656e-02
9.500  22.750  7.6657e-02
9.500  23.000  7.6656e-02
9.500  23.250  7.6655e-02
9.500  23.500  7.6679e-02
9.500  23.750  7.6679e-02
9.500  24.000  7.6679e-02
9.750  17.000  3.6907e-03
9.750  17.250  3.6802e-03
9.750  17.500  3.8090e-03
9.750  17.750  4.1419e-03
9.750  18.000  4.7838e-03
9.750  18.250  5.9212e-03
9.750  18.500  7.9876e-03
9.750  18.750  1.1980e-02
9.750  19.000  2.0163e-02
9.750  19.250  3.6690e-02
9.750  19.500  6.0275e-02
9.750  19.750  7.0422e-02
9.750  20.000  7.2294e-02
9.750  20.250  7.5199e-02
9.750  20.500  7.6596e-02
9.750  20.750  7.6638e-02
9.750  21.000  7.6687e-02
9.750  21.250  7.6693e-02
9.750  21.500  7.6693e-02
9.750  21.750  7.6679e-02
9.750  22.000  7.6680e-02
9.750  22.250  7.6672e-02
9.750  22.500  7.6660e-02
9.750  22.750  7.6653e-02
9.750  23.000  7.6655e-02
9.750  23.250  7.6656e-02
9.750  23.500  7.6656e-02
9.750  23.750  7.6657e-02
9.750  24.000  7.6657e-02
10.000  17.000  3.6670e-03
10.000  17.250  3.5479e-03
10.000  17.500  3.5852e-03
10.000  17.750  3.8461e-03
10.000  18.000  4.4138e-03
10.000  18.250  5.3067e-03
10.000  18.500  6.7853e-03
10.000  18.750  9.4923e-03
10.000  19.000  1.4744e-02
10.000  19.250  2.5778e-02
10.000  19.500  4.7038e-02
10.000  19.750  6.6164e-02
10.000  20.000  7.0498e-02
10.000  20.250  7.2324e-02
10.000  20.500  7.5205e-02
10.000  20.750  7.6593e-02
10.000  21.000  7.6637e-02
10.000  21.250  7.6688e-02
10.000  21.500  7.6695e-02
10.000  21.750  7.6702e-02
10.000  22.000  7.6693e-02
10.000  22.250  7.6682e-02
10.000  22.500  7.6678e-02
10.000  22.750  7.6670e-02
10.000  23.000  7.6661e-02
10.000  23.250  7.6656e-02
10.000  23.500  7.6653e-02
10.000  23.750  7.6653e-02
10.000  24.000  7.6654e-02
10.250  17.000  3.7321e-03
10.250  17.250  3.5027e-03
10.250  17.500  3.4477e-03
10.250  17.750  3.6459e-03
10.250  18.000  4.1612e-03
10.250  18.250  4.9374e-03
10.250  18.500  6.1192e-03
10.250  18.750  8.1567e-03
10.250  19.000  1.1951e-02
10.250  19.250  1.9118e-02
10.250  19.500  3.2908e-02
10.250  19.750  5.4277e-02
10.250  20.000  6.8269e-02
10.250  20.250  7.0564e-02
10.250  20.500  7.2368e-02
10.250  20.750  7.5242e-02
10.250  21.000  7.6588e-02
10.250  21.250  7.6636e-02
10.250  21.500  7.6688e-02
10.250  21.750  7.6696e-02
10.250  22.000  7.6705e-02
10.250  22.250  7.6708e-02
10.250  22.500  7.6683e-02
10.250  22.750  7.6682e-02
10.250  23.000  7.6677e-02
10.250  23.250  7.6671e-02
10.250  23.500  7.6666e-02
10.250  23.750  7.6662e-02
10.250  24.000  7.6661e-02
10.500  17.000  3.8553e-03
10.500  17.250  3.5394e-03
10.500  17.500  3.3963e-03
10.500  17.750  3.5264e-03
10.500  18.000  3.9631e-03
10.500  18.250  4.6756e-03
10.500  18.500  6.6187e-03
10.500  18.750  9.8844e-03
10.500  19.000  1.4262e-02
10.500  19.250  1.9540e-02
10.500  19.500  2.5507e-02
10.500  19.750  3.1954e-02
10.500  20.000  3.8667e-02
10.500  20.250  4.5438e-02
10.500  20.500  5.2054e-02
10.500  20.750  5.8305e-02
10.500  21.000  6.3980e-02
10.500  21.250  6.8867e-02
10.500  21.500  7.2756e-02
10.500  21.750  7.5436e-02
10.500  22.000  7.6696e-02
10.500  22.250  7.6706e-02
10.500  22.500  7.6713e-02
10.500  22.750  7.6690e-02
10.500  23.000  7.6684e-02
10.500  23.250  7.6682e-02
10.500  23.500  7.6678e-02
10.500  23.750  7.6674e-02
10.500  24.000  7.6672e-02
10.750  17.000  4.0016e-03
10.750  17.250  3.6301e-03
10.750  17.500  3.4227e-03
10.750  17.750  3.4950e-03
10.750  18.000  3.8299e-03
10.750  18.250  4.3918e-03
10.750  18.500  5.1873e-03
10.750  18.750  7.1833e-03
10.750  19.000  1.0474e-02
10.750  19.250  1.4853e-02
10.750  19.500  2.0111e-02
10.750  19.750  2.6042e-02
10.750  20.000  3.2438e-02
10.750  20.250  3.9092e-02
10.750  20.500  4.5795e-02
10.750  20.750  5.2342e-02
10.750  21.000  5.8523e-02
10.750  21.250  6.4132e-02
10.750  21.500  6.8962e-02
10.750  21.750  7.2804e-02
10.750  22.000  7.5451e-02
10.750  22.250  7.6696e-02
10.750  22.500  7.6706e-02
10.750  22.750  7.6714e-02
10.750  23.000  7.6709e-02
10.750  23.250  7.6685e-02
10.750  23.500  7.6685e-02
10.750  23.750  7.6682e-02
10.750  24.000  7.6680e-02
11.000  17.000  4.1159e-03
11.000  17.250  3.7369e-03
11.000  17.500  3.4953e-03
11.000  17.750  3.5179e-03
11.000  18.000  3.7545e-03
11.000  18.250  4.1324e-03
11.000  18.500  4.6636e-03
11.000  18.750  5.4142e-03
11.000  19.000  7.2295e-03
11.000  19.250  1.0197e-02
11.000  19.500  1.4144e-02
11.000  19.750  1.8900e-02
11.000  20.000  2.4295e-02
11.000  20.250  3.0155e-02
11.000  20.500  3.6310e-02
11.000  20.750  4.2589e-02
11.000  21.000  4.8821e-02
11.000  21.250  5.4833e-02
11.000  21.500  6.0454e-02
11.000  21.750  6.5514e-02
11.000  22.000  6.9840e-02
11.000  22.250  7.3262e-02
11.000  22.500  7.5608e-02
11.000  22.750  7.6706e-02
11.000  23.000  7.6715e-02
11.000  23.250  7.6718e-02
11.000  23.500  7.6691e-02
11.000  23.750  7.6686e-02
11.000  24.000  7.6685e-02
11.250  17.000  4.1367e-03
11.250  17.250  3.8058e-03
11.250  17.500  3.5609e-03
11.250  17.750  3.5511e-03
11.250  18.000  3.7081e-03
11.250  18.250  3.9266e-03
11.250  18.500  4.2366e-03
11.250  18.750  4.7505e-03
11.250  19.000  5.5332e-03
11.250  19.250  6.6870e-03
11.250  19.500  9.1347e-03
11.250  19.750  1.2929e-02
11.250  20.000  1.7831e-02
11.250  20.250  2.3603e-02
11.250  20.500  3.0006e-02
11.250  20.750  3.6801e-02
11.250  21.000  4.3751e-02
11.250  21.250  5.0617e-02
11.250  21.500  5.7161e-02
11.250  21.750  6.3143e-02
11.250  22.000  6.8326e-02
11.250  22.250  7.2471e-02
11.250  22.500  7.5341e-02
11.250  22.750  7.6695e-02
11.250  23.000  7.6706e-02
11.250  23.250  7.6715e-02
11.250  23.500  7.6721e-02
11.250  23.750  7.6710e-02
11.250  24.000  7.6688e-02
11.500  17.000  3.9998e-03
11.500  17.250  3.7851e-03
11.500  17.500  3.5704e-03
11.500  17.750  3.5467e-03
11.500  18.000  3.6432e-03
11.500  18.250  3.7578e-03
11.500  18.500  3.9356e-03
11.500  18.750  4.2523e-03
11.500  19.000  4.7851e-03
11.500  19.250  5.6042e-03
11.500  19.500  6.8233e-03
11.500  19.750  8.7894e-03
11.500  20.000  1.2169e-02
11.500  20.250  1.7058e-02
11.500  20.500  2.3171e-02
11.500  20.750  3.0164e-02
11.500  21.000  3.7694e-02
11.500  21.250  4.5420e-02
11.500  21.500  5.2999e-02
11.500  21.750  6.0086e-02
11.500  22.000  6.6341e-02
11.500  22.250  7.1420e-02
11.500  22.500  7.4980e-02
11.500  22.750  7.6679e-02
11.500  23.000  7.6695e-02
11.500  23.250  7.6705e-02
11.500  23.500  7.6715e-02
11.500  23.750  7.6722e-02
11.500  24.000  7.6720e-02
11.750  17.000  3.6137e-03
11.750  17.250  3.5911e-03
11.750  17.500  3.4705e-03
11.750  17.750  3.4706e-03
11.750  18.000  3.5563e-03
11.750  18.250  3.6305e-03
11.750  18.500  3.7201e-03
11.750  18.750  3.8899e-03
11.750  19.000  4.2137e-03
11.750  19.250  4.7700e-03
11.750  19.500  5.6198e-03
11.750  19.750  6.8877e-03
11.750  20.000  8.9405e-03
11.750  20.250  1.2493e-02
11.750  20.500  1.8965e-02
11.750  20.750  3.1241e-02
11.750  21.000  5.2580e-02
11.750  21.250  6.6905e-02
11.750  21.500  6.9622e-02
11.750  21.750  7.1631e-02
11.750  22.000  7.4699e-02
11.750  22.250  7.6341e-02
11.750  22.500  7.6515e-02
11.750  22.750  7.6610e-02
11.750  23.000  7.6677e-02
11.750  23.250  7.6694e-02
11.750  23.500  7.6705e-02
11.750  23.750  7.6715e-02
11.750  24.000  7.6722e-02
12.000  17.000  2.9373e-03
12.000  17.250  3.1516e-03
12.000  17.500  3.2021e-03
12.000  17.750  3.3042e-03
12.000  18.000  3.4329e-03
12.000  18.250  3.4833e-03
12.000  18.500  3.5045e-03
12.000  18.750  3.5842e-03
12.000  19.000  3.7775e-03
12.000  19.250  4.1328e-03
12.000  19.500  4.7148e-03
12.000  19.750  5.5872e-03
12.000  20.000  6.8914e-03
12.000  20.250  9.0021e-03
12.000  20.500  1.2655e-02
12.000  20.750  1.9360e-02
12.000  21.000  3.2122e-02
12.000  21.250  5.4738e-02
12.000  21.500  6.7284e-02
12.000  21.750  6.9875e-02
12.000  22.000  7.2249e-02
12.000  22.250  7.5390e-02
12.000  22.500  7.6308e-02
12.000  22.750  7.6496e-02
12.000  23.000  7.6599e-02
12.000  23.250  7.6673e-02
12.000  23.500  7.6694e-02
12.000  23.750  7.6705e-02
12.000  24.000  7.6714e-02
12.250  17.000  2.1095e-03
12.250  17.250  2.4908e-03
12.250  17.500  2.7565e-03
12.250  17.750  3.0168e-03
12.250  18.000  3.1810e-03
12.250  18.250  3.2014e-03
12.250  18.500  3.2044e-03
12.250  18.750  3.2689e-03
12.250  19.000  3.4087e-03
12.250  19.250  3.6492e-03
12.250  19.500  4.0341e-03
12.250  19.750  4.6336e-03
12.250  20.000  5.5143e-03
12.250  20.250  6.8330e-03
12.250  20.500  8.9708e-03
12.250  20.750  1.2696e-02
12.250  21.000  1.9636e-02
12.250  21.250  3.3021e-02
12.250  21.500  5.6396e-02
12.250  21.750  6.7570e-02
12.250  22.000  7.0231e-02
12.250  22.250  7.3076e-02
12.250  22.500  7.5723e-02
12.250  22.750  7.6281e-02
12.250  23.000  7.6477e-02
12.250  23.250  7.6587e-02
12.250  23.500  7.6669e-02
12.250  23.750  7.6693e-02
12.250  24.000  7.6704e-02
12.500  17.000  1.4376e-03
12.500  17.250  1.8593e-03
12.500  17.500  2.2479e-03
12.500  17.750  2.5352e-03
12.500  18.000  2.6730e-03
12.500  18.250  2.7313e-03
12.500  18.500  2.7973e-03
12.500  18.750  2.9030e-03
12.500  19.000  3.0487e-03
12.500  19.250  3.2436e-03
12.500  19.500  3.5179e-03
12.500  19.750  3.9206e-03
12.500  20.000  4.5260e-03
12.500  20.250  5.4041e-03
12.500  20.500  6.7115e-03
12.500  20.750  8.8615e-03
12.500  21.000  1.2661e-02
12.500  21.250  1.9816e-02
12.500  21.500  3.3658e-02
12.500  21.750  5.9000e-02
12.500  22.000  6.7966e-02
12.500  22.250  7.0725e-02
12.500  22.500  7.3877e-02
12.500  22.750  7.5863e-02
12.500  23.000  7.6258e-02
12.500  23.250  7.6456e-02
12.500  23.500  7.6574e-02
12.500  23.750  7.6663e-02
12.500  24.000  7.6692e-02
12.750  17.000  1.0089e-03
12.750  17.250  1.3517e-03
12.750  17.500  1.6269e-03
12.750  17.750  1.8248e-03
12.750  18.000  1.9886e-03
12.750  18.250  2.1457e-03
12.750  18.500  2.2997e-03
12.750  18.750  2.4664e-03
12.750  19.000  2.6537e-03
12.750  19.250  2.8573e-03
12.750  19.500  3.0881e-03
12.750  19.750  3.3812e-03
12.750  20.000  3.7914e-03
12.750  20.250  4.3900e-03
12.750  20.500  5.2519e-03
12.750  20.750  6.5509e-03
12.750  21.000  8.7060e-03
12.750  21.250  1.2613e-02
12.750  21.500  1.9947e-02
12.750  21.750  3.5037e-02
12.750  22.000  6.1841e-02
12.750  22.250  6.8349e-02
12.750  22.500  7.1405e-02
12.750  22.750  7.4382e-02
12.750  23.000  7.5893e-02
12.750  23.250  7.6240e-02
12.750  23.500  7.6440e-02
12.750  23.750  7.6563e-02
12.750  24.000  7.6654e-02
13.000  17.000  6.4016e-04
13.000  17.250  8.7638e-04
13.000  17.500  1.0479e-03
13.000  17.750  1.1896e-03
13.000  18.000  1.3603e-03
13.000  18.250  1.5519e-03
13.000  18.500  1.7560e-03
13.000  18.750  1.9728e-03
13.000  19.000  2.2049e-03
13.000  19.250  2.4420e-03
13.000  19.500  2.6782e-03
13.000  19.750  2.9300e-03
13.000  20.000  3.2303e-03
13.000  20.250  3.6378e-03
13.000  20.500  4.2294e-03
13.000  20.750  5.0663e-03
13.000  21.000  6.3503e-03
13.000  21.250  8.5463e-03
13.000  21.500  1.2506e-02
13.000  21.750  2.0448e-02
13.000  22.000  3.7171e-02
13.000  22.250  6.4122e-02
13.000  22.500  6.8801e-02
13.000  22.750  7.1923e-02
13.000  23.000  7.4582e-02
13.000  23.250  7.5892e-02
13.000  23.500  7.6226e-02
13.000  23.750  7.6426e-02
13.000  24.000  7.6549e-02
13.250  17.000  4.1177e-04
13.250  17.250  5.6543e-04
13.250  17.500  6.8840e-04
13.250  17.750  7.6947e-04
13.250  18.000  8.8477e-04
13.250  18.250  1.0470e-03
13.250  18.500  1.2441e-03
13.250  18.750  1.4703e-03
13.250  19.000  1.7219e-03
13.250  19.250  1.9882e-03
13.250  19.500  2.2523e-03
13.250  19.750  2.5105e-03
13.250  20.000  2.7713e-03
13.250  20.250  3.0728e-03
13.250  20.500  3.4702e-03
13.250  20.750  4.0337e-03
13.250  21.000  4.8543e-03
13.250  21.250  6.1307e-03
13.250  21.500  8.3291e-03
13.250  21.750  1.2400e-02
13.250  22.000  2.1118e-02
13.250  22.250  3.9780e-02
13.250  22.500  6.5111e-02
13.250  22.750  6.8814e-02
13.250  23.000  7.1948e-02
13.250  23.250  7.4612e-02
13.250  23.500  7.5880e-02
13.250  23.750  7.6211e-02
13.250  24.000  7.6405e-02
13.500  17.000  2.7514e-04
13.500  17.250  3.6963e-04
13.500  17.500  4.4864e-04
13.500  17.750  5.0091e-04
13.500  18.000  5.7078e-04
13.500  18.250  6.8140e-04
13.500  18.500  8.3358e-04
13.500  18.750  1.0246e-03
13.500  19.000  1.2563e-03
13.500  19.250  1.5182e-03
13.500  19.500  1.7934e-03
13.500  19.750  2.0637e-03
13.500  20.000  2.3234e-03
13.500  20.250  2.5857e-03
13.500  20.500  2.8804e-03
13.500  20.750  3.2652e-03
13.500  21.000  3.8072e-03
13.500  21.250  4.5940e-03
13.500  21.500  5.8556e-03
13.500  21.750  8.0255e-03
13.500  22.000  1.2313e-02
13.500  22.250  2.2171e-02
13.500  22.500  4.4072e-02
13.500  22.750  6.5562e-02
13.500  23.000  6.8903e-02
13.500  23.250  7.1689e-02
13.500  23.500  7.4480e-02
13.500  23.750  7.5849e-02
13.500  24.000  7.6180e-02
13.750  17.000  1.9177e-04
13.750  17.250  2.5284e-04
13.750  17.500  3.0255e-04
13.750  17.750  3.3778e-04
13.750  18.000  3.7835e-04
13.750  18.250  4.4543e-04
13.750  18.500  5.4543e-04
13.750  18.750  6.8313e-04
13.750  19.000  8.6305e-04
13.750  19.250  1.0866e-03
13.750  19.500  1.3423e-03
13.750  19.750  1.6119e-03
13.750  20.000  1.8773e-03
13.750  20.250  2.1308e-03
13.750  20.500  2.3869e-03
13.750  20.750  2.6736e-03
13.750  21.000  3.0408e-03
13.750  21.250  3.5574e-03
13.750  21.500  4.3170e-03
13.750  21.750  5.5261e-03
13.750  22.000  7.7597e-03
13.750  22.250  1.2550e-02
13.750  22.500  2.3657e-02
13.750  22.750  4.8379e-02
13.750  23.000  6.5953e-02
13.750  23.250  6.8924e-02
13.750  23.500  7.1507e-02
13.750  23.750  7.4537e-02
13.750  24.000  7.5793e-02
14.000  17.000  1.3901e-04
14.000  17.250  1.8181e-04
14.000  17.500  2.1564e-04
14.000  17.750  2.3720e-04
14.000  18.000  2.6255e-04
14.000  18.250  3.0198e-04
14.000  18.500  3.6329e-04
14.000  18.750  4.5119e-04
14.000  19.000  5.7383e-04
14.000  19.250  7.3901e-04
14.000  19.500  9.4642e-04
14.000  19.750  1.1867e-03
14.000  20.000  1.4423e-03
14.000  20.250  1.6959e-03
14.000  20.500  1.9386e-03
14.000  20.750  2.1829e-03
14.000  21.000  2.4578e-03
14.000  21.250  2.8128e-03
14.000  21.500  3.3170e-03
14.000  21.750  4.0347e-03
14.000  22.000  5.2563e-03
14.000  22.250  7.7087e-03
14.000  22.500  1.3339e-02
14.000  22.750  2.6799e-02
14.000  23.000  5.2783e-02
14.000  23.250  6.6198e-02
14.000  23.500  6.8921e-02
14.000  23.750  7.1691e-02
14.000  24.000  7.4718e-02
