InwC 1103.23A  relative to Inci 1215.00A scaled to 1215A.
Hden   Phi(H)  Eq_Width (A)
7.000  17.000  1.0951e-01
7.000  17.250  7.2441e-02
7.000  17.500  7.5511e-02
7.000  17.750  7.7099e-02
7.000  18.000  7.7136e-02
7.000  18.250  7.7188e-02
7.000  18.500  7.7196e-02
7.000  18.750  7.7206e-02
7.000  19.000  7.7215e-02
7.000  19.250  7.7222e-02
7.000  19.500  7.7225e-02
7.000  19.750  7.7226e-02
7.000  20.000  7.7226e-02
7.000  20.250  7.7227e-02
7.000  20.500  7.7227e-02
7.000  20.750  7.7227e-02
7.000  21.000  7.7227e-02
7.000  21.250  7.7227e-02
7.000  21.500  7.7228e-02
7.000  21.750  7.7228e-02
7.000  22.000  7.7228e-02
7.000  22.250  7.7228e-02
7.000  22.500  7.7229e-02
7.000  22.750  7.7238e-02
7.000  23.000  7.7231e-02
7.000  23.250  7.7232e-02
7.000  23.500  7.7232e-02
7.000  23.750  7.7232e-02
7.000  24.000  7.7233e-02
7.250  17.000  1.3850e-01
7.250  17.250  1.0753e-01
7.250  17.500  7.2460e-02
7.250  17.750  7.5533e-02
7.250  18.000  7.7099e-02
7.250  18.250  7.7136e-02
7.250  18.500  7.7188e-02
7.250  18.750  7.7196e-02
7.250  19.000  7.7206e-02
7.250  19.250  7.7215e-02
7.250  19.500  7.7222e-02
7.250  19.750  7.7225e-02
7.250  20.000  7.7226e-02
7.250  20.250  7.7227e-02
7.250  20.500  7.7227e-02
7.250  20.750  7.7227e-02
7.250  21.000  7.7227e-02
7.250  21.250  7.7227e-02
7.250  21.500  7.7227e-02
7.250  21.750  7.7227e-02
7.250  22.000  7.7227e-02
7.250  22.250  7.7227e-02
7.250  22.500  7.7227e-02
7.250  22.750  7.7228e-02
7.250  23.000  7.7228e-02
7.250  23.250  7.7228e-02
7.250  23.500  7.7228e-02
7.250  23.750  7.7228e-02
7.250  24.000  7.7229e-02
7.500  17.000  1.6420e-01
7.500  17.250  1.3559e-01
7.500  17.500  1.0569e-01
7.500  17.750  8.5818e-02
7.500  18.000  7.6378e-02
7.500  18.250  7.4024e-02
7.500  18.500  7.5409e-02
7.500  18.750  7.7188e-02
7.500  19.000  7.7196e-02
7.500  19.250  7.7206e-02
7.500  19.500  7.7215e-02
7.500  19.750  7.7222e-02
7.500  20.000  7.7225e-02
7.500  20.250  7.7226e-02
7.500  20.500  7.7226e-02
7.500  20.750  7.7227e-02
7.500  21.000  7.7227e-02
7.500  21.250  7.7227e-02
7.500  21.500  7.7227e-02
7.500  21.750  7.7227e-02
7.500  22.000  7.7227e-02
7.500  22.250  7.7227e-02
7.500  22.500  7.7227e-02
7.500  22.750  7.7227e-02
7.500  23.000  7.7227e-02
7.500  23.250  7.7227e-02
7.500  23.500  7.7227e-02
7.500  23.750  7.7227e-02
7.500  24.000  7.7227e-02
7.750  17.000  1.8323e-01
7.750  17.250  1.6181e-01
7.750  17.500  1.3234e-01
7.750  17.750  1.0358e-01
7.750  18.000  8.3764e-02
7.750  18.250  7.5572e-02
7.750  18.500  7.7099e-02
7.750  18.750  7.7136e-02
7.750  19.000  7.7187e-02
7.750  19.250  7.7196e-02
7.750  19.500  7.7206e-02
7.750  19.750  7.7215e-02
7.750  20.000  7.7222e-02
7.750  20.250  7.7225e-02
7.750  20.500  7.7226e-02
7.750  20.750  7.7226e-02
7.750  21.000  7.7226e-02
7.750  21.250  7.7227e-02
7.750  21.500  7.7227e-02
7.750  21.750  7.7227e-02
7.750  22.000  7.7227e-02
7.750  22.250  7.7227e-02
7.750  22.500  7.7227e-02
7.750  22.750  7.7227e-02
7.750  23.000  7.7227e-02
7.750  23.250  7.7227e-02
7.750  23.500  7.7227e-02
7.750  23.750  7.7227e-02
7.750  24.000  7.7227e-02
8.000  17.000  1.9334e-01
8.000  17.250  1.8160e-01
8.000  17.500  1.5938e-01
8.000  17.750  1.2911e-01
8.000  18.000  1.0146e-01
8.000  18.250  7.2500e-02
8.000  18.500  7.5576e-02
8.000  18.750  7.7099e-02
8.000  19.000  7.7136e-02
8.000  19.250  7.7188e-02
8.000  19.500  7.7196e-02
8.000  19.750  7.7206e-02
8.000  20.000  7.7215e-02
8.000  20.250  7.7222e-02
8.000  20.500  7.7225e-02
8.000  20.750  7.7226e-02
8.000  21.000  7.7226e-02
8.000  21.250  7.7227e-02
8.000  21.500  7.7227e-02
8.000  21.750  7.7227e-02
8.000  22.000  7.7227e-02
8.000  22.250  7.7227e-02
8.000  22.500  7.7227e-02
8.000  22.750  7.7227e-02
8.000  23.000  7.7227e-02
8.000  23.250  7.7227e-02
8.000  23.500  7.7227e-02
8.000  23.750  7.7227e-02
8.000  24.000  7.7227e-02
8.250  17.000  1.9680e-01
8.250  17.250  1.9166e-01
8.250  17.500  1.7916e-01
8.250  17.750  1.5534e-01
8.250  18.000  1.2349e-01
8.250  18.250  9.7571e-02
8.250  18.500  7.2514e-02
8.250  18.750  7.5596e-02
8.250  19.000  7.7099e-02
8.250  19.250  7.7136e-02
8.250  19.500  7.7188e-02
8.250  19.750  7.7196e-02
8.250  20.000  7.7206e-02
8.250  20.250  7.7215e-02
8.250  20.500  7.7222e-02
8.250  20.750  7.7225e-02
8.250  21.000  7.7226e-02
8.250  21.250  7.7226e-02
8.250  21.500  7.7227e-02
8.250  21.750  7.7227e-02
8.250  22.000  7.7227e-02
8.250  22.250  7.7227e-02
8.250  22.500  7.7227e-02
8.250  22.750  7.7227e-02
8.250  23.000  7.7227e-02
8.250  23.250  7.7227e-02
8.250  23.500  7.7227e-02
8.250  23.750  7.7227e-02
8.250  24.000  7.7227e-02
8.500  17.000  1.9589e-01
8.500  17.250  1.9509e-01
8.500  17.500  1.8930e-01
8.500  17.750  1.7517e-01
8.500  18.000  1.4902e-01
8.500  18.250  1.1527e-01
8.500  18.500  9.2473e-02
8.500  18.750  7.2522e-02
8.500  19.000  7.5617e-02
8.500  19.250  7.7099e-02
8.500  19.500  7.6783e-02
8.500  19.750  7.6753e-02
8.500  20.000  7.6893e-02
8.500  20.250  7.7085e-02
8.500  20.500  7.7215e-02
8.500  20.750  7.7222e-02
8.500  21.000  7.7225e-02
8.500  21.250  7.7226e-02
8.500  21.500  7.7226e-02
8.500  21.750  7.7227e-02
8.500  22.000  7.7227e-02
8.500  22.250  7.7227e-02
8.500  22.500  7.7227e-02
8.500  22.750  7.7227e-02
8.500  23.000  7.7227e-02
8.500  23.250  7.7227e-02
8.500  23.500  7.7227e-02
8.500  23.750  7.7227e-02
8.500  24.000  7.7227e-02
8.750  17.000  1.9169e-01
8.750  17.250  1.9409e-01
8.750  17.500  1.9266e-01
8.750  17.750  1.8557e-01
8.750  18.000  1.6876e-01
8.750  18.250  1.3889e-01
8.750  18.500  1.0692e-01
8.750  18.750  8.7424e-02
8.750  19.000  7.2529e-02
8.750  19.250  7.5637e-02
8.750  19.500  8.0778e-02
8.750  19.750  8.3072e-02
8.750  20.000  8.3245e-02
8.750  20.250  8.2021e-02
8.750  20.500  8.0125e-02
8.750  20.750  7.8284e-02
8.750  21.000  7.7222e-02
8.750  21.250  7.7225e-02
8.750  21.500  7.7226e-02
8.750  21.750  7.7226e-02
8.750  22.000  7.7227e-02
8.750  22.250  7.7227e-02
8.750  22.500  7.7227e-02
8.750  22.750  7.7227e-02
8.750  23.000  7.7227e-02
8.750  23.250  7.7227e-02
8.750  23.500  7.7227e-02
8.750  23.750  7.7227e-02
8.750  24.000  7.7227e-02
9.000  17.000  1.8461e-01
9.000  17.250  1.8971e-01
9.000  17.500  1.9150e-01
9.000  17.750  1.8885e-01
9.000  18.000  1.7898e-01
9.000  18.250  1.5865e-01
9.000  18.500  1.2653e-01
9.000  18.750  9.6572e-02
9.000  19.000  8.0463e-02
9.000  19.250  7.2533e-02
9.000  19.500  6.8300e-02
9.000  19.750  6.6648e-02
9.000  20.000  6.6975e-02
9.000  20.250  6.8679e-02
9.000  20.500  7.1157e-02
9.000  20.750  7.3809e-02
9.000  21.000  7.6031e-02
9.000  21.250  7.7222e-02
9.000  21.500  7.7225e-02
9.000  21.750  7.7226e-02
9.000  22.000  7.7226e-02
9.000  22.250  7.7227e-02
9.000  22.500  7.7227e-02
9.000  22.750  7.7227e-02
9.000  23.000  7.7227e-02
9.000  23.250  7.7227e-02
9.000  23.500  7.7227e-02
9.000  23.750  7.7227e-02
9.000  24.000  7.7227e-02
9.250  17.000  1.7496e-01
9.250  17.250  1.8236e-01
9.250  17.500  1.8682e-01
9.250  17.750  1.8736e-01
9.250  18.000  1.8253e-01
9.250  18.250  1.6919e-01
9.250  18.500  1.4644e-01
9.250  18.750  1.1492e-01
9.250  19.000  8.9880e-02
9.250  19.250  7.4860e-02
9.250  19.500  7.2536e-02
9.250  19.750  7.3072e-02
9.250  20.000  7.3622e-02
9.250  20.250  7.4173e-02
9.250  20.500  7.4713e-02
9.250  20.750  7.5231e-02
9.250  21.000  7.5715e-02
9.250  21.250  7.6151e-02
9.250  21.500  7.6529e-02
9.250  21.750  7.6836e-02
9.250  22.000  7.7060e-02
9.250  22.250  7.7189e-02
9.250  22.500  7.7226e-02
9.250  22.750  7.7226e-02
9.250  23.000  7.7226e-02
9.250  23.250  7.7227e-02
9.250  23.500  7.7227e-02
9.250  23.750  7.7227e-02
9.250  24.000  7.7227e-02
9.500  17.000  1.6323e-01
9.500  17.250  1.7240e-01
9.500  17.500  1.7900e-01
9.500  17.750  1.8208e-01
9.500  18.000  1.8038e-01
9.500  18.250  1.7192e-01
9.500  18.500  1.5768e-01
9.500  18.750  1.3452e-01
9.500  19.000  1.0273e-01
9.500  19.250  8.4318e-02
9.500  19.500  7.1780e-02
9.500  19.750  7.2542e-02
9.500  20.000  7.5851e-02
9.500  20.250  7.8152e-02
9.500  20.500  7.9586e-02
9.500  20.750  8.0298e-02
9.500  21.000  8.0433e-02
9.500  21.250  8.0133e-02
9.500  21.500  7.9543e-02
9.500  21.750  7.8807e-02
9.500  22.000  7.8067e-02
9.500  22.250  7.7469e-02
9.500  22.500  7.7156e-02
9.500  22.750  7.7157e-02
9.500  23.000  7.7156e-02
9.500  23.250  7.7155e-02
9.500  23.500  7.7179e-02
9.500  23.750  7.7179e-02
9.500  24.000  7.7179e-02
9.750  17.000  1.4981e-01
9.750  17.250  1.6015e-01
9.750  17.500  1.6843e-01
9.750  17.750  1.7344e-01
9.750  18.000  1.7381e-01
9.750  18.250  1.6887e-01
9.750  18.500  1.6053e-01
9.750  18.750  1.4605e-01
9.750  19.000  1.2304e-01
9.750  19.250  9.4815e-02
9.750  19.500  7.7221e-02
9.750  19.750  7.0454e-02
9.750  20.000  6.7138e-02
9.750  20.250  6.5368e-02
9.750  20.500  6.4891e-02
9.750  20.750  6.5453e-02
9.750  21.000  6.6800e-02
9.750  21.250  6.8678e-02
9.750  21.500  7.0834e-02
9.750  21.750  7.3013e-02
9.750  22.000  7.4964e-02
9.750  22.250  7.6430e-02
9.750  22.500  7.7160e-02
9.750  22.750  7.7153e-02
9.750  23.000  7.7155e-02
9.750  23.250  7.7156e-02
9.750  23.500  7.7156e-02
9.750  23.750  7.7157e-02
9.750  24.000  7.7157e-02
10.000  17.000  1.3505e-01
10.000  17.250  1.4605e-01
10.000  17.500  1.5536e-01
10.000  17.750  1.6151e-01
10.000  18.000  1.6329e-01
10.000  18.250  1.6098e-01
10.000  18.500  1.5743e-01
10.000  18.750  1.4992e-01
10.000  19.000  1.3626e-01
10.000  19.250  1.1273e-01
10.000  19.500  8.8280e-02
10.000  19.750  7.2457e-02
10.000  20.000  7.0553e-02
10.000  20.250  7.2602e-02
10.000  20.500  7.5654e-02
10.000  20.750  7.7086e-02
10.000  21.000  7.7135e-02
10.000  21.250  7.7188e-02
10.000  21.500  7.7195e-02
10.000  21.750  7.7202e-02
10.000  22.000  7.7193e-02
10.000  22.250  7.7182e-02
10.000  22.500  7.7179e-02
10.000  22.750  7.7170e-02
10.000  23.000  7.7161e-02
10.000  23.250  7.7156e-02
10.000  23.500  7.7153e-02
10.000  23.750  7.7153e-02
10.000  24.000  7.7154e-02
10.250  17.000  1.1924e-01
10.250  17.250  1.3055e-01
10.250  17.500  1.4020e-01
10.250  17.750  1.4668e-01
10.250  18.000  1.4906e-01
10.250  18.250  1.4909e-01
10.250  18.500  1.4870e-01
10.250  18.750  1.4687e-01
10.250  19.000  1.4107e-01
10.250  19.250  1.2721e-01
10.250  19.500  1.0652e-01
10.250  19.750  8.4674e-02
10.250  20.000  7.0139e-02
10.250  20.250  7.0624e-02
10.250  20.500  7.2648e-02
10.250  20.750  7.5686e-02
10.250  21.000  7.7078e-02
10.250  21.250  7.7133e-02
10.250  21.500  7.7188e-02
10.250  21.750  7.7196e-02
10.250  22.000  7.7205e-02
10.250  22.250  7.7208e-02
10.250  22.500  7.7183e-02
10.250  22.750  7.7182e-02
10.250  23.000  7.7177e-02
10.250  23.250  7.7171e-02
10.250  23.500  7.7166e-02
10.250  23.750  7.7162e-02
10.250  24.000  7.7161e-02
10.500  17.000  1.0223e-01
10.500  17.250  1.1376e-01
10.500  17.500  1.2325e-01
10.500  17.750  1.2936e-01
10.500  18.000  1.3169e-01
10.500  18.250  1.3225e-01
10.500  18.500  1.3593e-01
10.500  18.750  1.3898e-01
10.500  19.000  1.3981e-01
10.500  19.250  1.3531e-01
10.500  19.500  1.2344e-01
10.500  19.750  1.0364e-01
10.500  20.000  8.1183e-02
10.500  20.250  6.9052e-02
10.500  20.500  7.0671e-02
10.500  20.750  7.2704e-02
10.500  21.000  7.5764e-02
10.500  21.250  7.7068e-02
10.500  21.500  7.7129e-02
10.500  21.750  7.7187e-02
10.500  22.000  7.7196e-02
10.500  22.250  7.7206e-02
10.500  22.500  7.7213e-02
10.500  22.750  7.7190e-02
10.500  23.000  7.7184e-02
10.500  23.250  7.7182e-02
10.500  23.500  7.7178e-02
10.500  23.750  7.7175e-02
10.500  24.000  7.7172e-02
10.750  17.000  8.4257e-02
10.750  17.250  9.5928e-02
10.750  17.500  1.0501e-01
10.750  17.750  1.1025e-01
10.750  18.000  1.1193e-01
10.750  18.250  1.1362e-01
10.750  18.500  1.1957e-01
10.750  18.750  1.2646e-01
10.750  19.000  1.3244e-01
10.750  19.250  1.3508e-01
10.750  19.500  1.3191e-01
10.750  19.750  1.2037e-01
10.750  20.000  1.0023e-01
10.750  20.250  7.7206e-02
10.750  20.500  6.9193e-02
10.750  20.750  7.0755e-02
10.750  21.000  7.2805e-02
10.750  21.250  7.5928e-02
10.750  21.500  7.7056e-02
10.750  21.750  7.7125e-02
10.750  22.000  7.7182e-02
10.750  22.250  7.7196e-02
10.750  22.500  7.7206e-02
10.750  22.750  7.7214e-02
10.750  23.000  7.7209e-02
10.750  23.250  7.7185e-02
10.750  23.500  7.7185e-02
10.750  23.750  7.7183e-02
10.750  24.000  7.7181e-02
11.000  17.000  6.5473e-02
11.000  17.250  7.7373e-02
11.000  17.500  8.5851e-02
11.000  17.750  9.0094e-02
11.000  18.000  9.1321e-02
11.000  18.250  9.3847e-02
11.000  18.500  1.0025e-01
11.000  18.750  1.0943e-01
11.000  19.000  1.1938e-01
11.000  19.250  1.2760e-01
11.000  19.500  1.3152e-01
11.000  19.750  1.2879e-01
11.000  20.000  1.1701e-01
11.000  20.250  9.6272e-02
11.000  20.500  7.2871e-02
11.000  20.750  6.9140e-02
11.000  21.000  7.0815e-02
11.000  21.250  7.3001e-02
11.000  21.500  7.6224e-02
11.000  21.750  7.7039e-02
11.000  22.000  7.7119e-02
11.000  22.250  7.7181e-02
11.000  22.500  7.7195e-02
11.000  22.750  7.7206e-02
11.000  23.000  7.7215e-02
11.000  23.250  7.7218e-02
11.000  23.500  7.7192e-02
11.000  23.750  7.7186e-02
11.000  24.000  7.7185e-02
11.250  17.000  4.7820e-02
11.250  17.250  5.8608e-02
11.250  17.500  6.6476e-02
11.250  17.750  6.9914e-02
11.250  18.000  7.1053e-02
11.250  18.250  7.4264e-02
11.250  18.500  8.1412e-02
11.250  18.750  9.1018e-02
11.250  19.000  1.0276e-01
11.250  19.250  1.1456e-01
11.250  19.500  1.2346e-01
11.250  19.750  1.2780e-01
11.250  20.000  1.2528e-01
11.250  20.250  1.1315e-01
11.250  20.500  9.1667e-02
11.250  20.750  7.6788e-02
11.250  21.000  7.0589e-02
11.250  21.250  7.0360e-02
11.250  21.500  7.3390e-02
11.250  21.750  7.6587e-02
11.250  22.000  7.7018e-02
11.250  22.250  7.7113e-02
11.250  22.500  7.7173e-02
11.250  22.750  7.7195e-02
11.250  23.000  7.7206e-02
11.250  23.250  7.7215e-02
11.250  23.500  7.7221e-02
11.250  23.750  7.7211e-02
11.250  24.000  7.7188e-02
11.500  17.000  3.3285e-02
11.500  17.250  4.1719e-02
11.500  17.500  4.8000e-02
11.500  17.750  5.0853e-02
11.500  18.000  5.2418e-02
11.500  18.250  5.6126e-02
11.500  18.500  6.3164e-02
11.500  18.750  7.2593e-02
11.500  19.000  8.4406e-02
11.500  19.250  9.7068e-02
11.500  19.500  1.0933e-01
11.500  19.750  1.1858e-01
11.500  20.000  1.2341e-01
11.500  20.250  1.2127e-01
11.500  20.500  1.0881e-01
11.500  20.750  8.6532e-02
11.500  21.000  7.2442e-02
11.500  21.250  6.8238e-02
11.500  21.500  7.0066e-02
11.500  21.750  7.4073e-02
11.500  22.000  7.6755e-02
11.500  22.250  7.6994e-02
11.500  22.500  7.7104e-02
11.500  22.750  7.7174e-02
11.500  23.000  7.7194e-02
11.500  23.250  7.7205e-02
11.500  23.500  7.7215e-02
11.500  23.750  7.7222e-02
11.500  24.000  7.7220e-02
11.750  17.000  2.1769e-02
11.750  17.250  2.8023e-02
11.750  17.500  3.2622e-02
11.750  17.750  3.4860e-02
11.750  18.000  3.6945e-02
11.750  18.250  4.1182e-02
11.750  18.500  4.7713e-02
11.750  18.750  5.6026e-02
11.750  19.000  6.6118e-02
11.750  19.250  7.7978e-02
11.750  19.500  9.0800e-02
11.750  19.750  1.0329e-01
11.750  20.000  1.1317e-01
11.750  20.250  1.1875e-01
11.750  20.500  1.1689e-01
11.750  20.750  1.0391e-01
11.750  21.000  8.1115e-02
11.750  21.250  6.5907e-02
11.750  21.500  6.9318e-02
11.750  21.750  7.1649e-02
11.750  22.000  7.4899e-02
11.750  22.250  7.6708e-02
11.750  22.500  7.6961e-02
11.750  22.750  7.7091e-02
11.750  23.000  7.7171e-02
11.750  23.250  7.7193e-02
11.750  23.500  7.7205e-02
11.750  23.750  7.7215e-02
11.750  24.000  7.7222e-02
12.000  17.000  1.3129e-02
12.000  17.250  1.7462e-02
12.000  17.500  2.0853e-02
12.000  17.750  2.3139e-02
12.000  18.000  2.5949e-02
12.000  18.250  3.0121e-02
12.000  18.500  3.5293e-02
12.000  18.750  4.1584e-02
12.000  19.000  4.9467e-02
12.000  19.250  5.9385e-02
12.000  19.500  7.1165e-02
12.000  19.750  8.4142e-02
12.000  20.000  9.7083e-02
12.000  20.250  1.0747e-01
12.000  20.500  1.1356e-01
12.000  20.750  1.1207e-01
12.000  21.000  9.8550e-02
12.000  21.250  7.5785e-02
12.000  21.500  6.6247e-02
12.000  21.750  6.9559e-02
12.000  22.000  7.2239e-02
12.000  22.250  7.5567e-02
12.000  22.500  7.6655e-02
12.000  22.750  7.6931e-02
12.000  23.000  7.7074e-02
12.000  23.250  7.7165e-02
12.000  23.500  7.7192e-02
12.000  23.750  7.7204e-02
12.000  24.000  7.7214e-02
12.250  17.000  7.3441e-03
12.250  17.250  1.0111e-02
12.250  17.500  1.2621e-02
12.250  17.750  1.5075e-02
12.250  18.000  1.7982e-02
12.250  18.250  2.1214e-02
12.250  18.500  2.5037e-02
12.250  18.750  2.9927e-02
12.250  19.000  3.6098e-02
12.250  19.250  4.3817e-02
12.250  19.500  5.3443e-02
12.250  19.750  6.5042e-02
12.250  20.000  7.7925e-02
12.250  20.250  9.1046e-02
12.250  20.500  1.0143e-01
12.250  20.750  1.0782e-01
12.250  21.000  1.0658e-01
12.250  21.250  9.2645e-02
12.250  21.500  7.1980e-02
12.250  21.750  6.6543e-02
12.250  22.000  6.9906e-02
12.250  22.250  7.3020e-02
12.250  22.500  7.5883e-02
12.250  22.750  7.6611e-02
12.250  23.000  7.6900e-02
12.250  23.250  7.7055e-02
12.250  23.500  7.7159e-02
12.250  23.750  7.7191e-02
12.250  24.000  7.7204e-02
12.500  17.000  4.1858e-03
12.500  17.250  5.9384e-03
12.500  17.500  7.8466e-03
12.500  17.750  9.7851e-03
12.500  18.000  1.1715e-02
12.500  18.250  1.3955e-02
12.500  18.500  1.6880e-02
12.500  18.750  2.0756e-02
12.500  19.000  2.5717e-02
12.500  19.250  3.1857e-02
12.500  19.500  3.9358e-02
12.500  19.750  4.8511e-02
12.500  20.000  5.9546e-02
12.500  20.250  7.2008e-02
12.500  20.500  8.4745e-02
12.500  20.750  9.4989e-02
12.500  21.000  1.0142e-01
12.500  21.250  1.0007e-01
12.500  21.500  8.7790e-02
12.500  21.750  6.7786e-02
12.500  22.000  6.6972e-02
12.500  22.250  7.0392e-02
12.500  22.500  7.3782e-02
12.500  22.750  7.6010e-02
12.500  23.000  7.6574e-02
12.500  23.250  7.6867e-02
12.500  23.500  7.7035e-02
12.500  23.750  7.7150e-02
12.500  24.000  7.7189e-02
12.750  17.000  2.6552e-03
12.750  17.250  3.7665e-03
12.750  17.500  4.8443e-03
12.750  17.750  5.8607e-03
12.750  18.000  7.0680e-03
12.750  18.250  8.7043e-03
12.750  18.500  1.0884e-02
12.750  18.750  1.3792e-02
12.750  19.000  1.7656e-02
12.750  19.250  2.2528e-02
12.750  19.500  2.8486e-02
12.750  19.750  3.5652e-02
12.750  20.000  4.4183e-02
12.750  20.250  5.4408e-02
12.750  20.500  6.6110e-02
12.750  20.750  7.8081e-02
12.750  21.000  8.7905e-02
12.750  21.250  9.3844e-02
12.750  21.500  9.3842e-02
12.750  21.750  8.0868e-02
12.750  22.000  6.4752e-02
12.750  22.250  6.7402e-02
12.750  22.500  7.1034e-02
12.750  22.750  7.4258e-02
12.750  23.000  7.6034e-02
12.750  23.250  7.6546e-02
12.750  23.500  7.6842e-02
12.750  23.750  7.7018e-02
12.750  24.000  7.7138e-02
13.000  17.000  1.6235e-03
13.000  17.250  2.2868e-03
13.000  17.500  2.8470e-03
13.000  17.750  3.3891e-03
13.000  18.000  4.1560e-03
13.000  18.250  5.2340e-03
13.000  18.500  6.7234e-03
13.000  18.750  8.7672e-03
13.000  19.000  1.1571e-02
13.000  19.250  1.5274e-02
13.000  19.500  1.9915e-02
13.000  19.750  2.5567e-02
13.000  20.000  3.2244e-02
13.000  20.250  4.0118e-02
13.000  20.500  4.9410e-02
13.000  20.750  5.9998e-02
13.000  21.000  7.0860e-02
13.000  21.250  7.9525e-02
13.000  21.500  8.6062e-02
13.000  21.750  8.4503e-02
13.000  22.000  7.3206e-02
13.000  22.250  6.3482e-02
13.000  22.500  6.7911e-02
13.000  22.750  7.1500e-02
13.000  23.000  7.4449e-02
13.000  23.250  7.6031e-02
13.000  23.500  7.6524e-02
13.000  23.750  7.6821e-02
13.000  24.000  7.6997e-02
13.250  17.000  1.0245e-03
13.250  17.250  1.4237e-03
13.250  17.500  1.7751e-03
13.250  17.750  2.0432e-03
13.250  18.000  2.4519e-03
13.250  18.250  3.0975e-03
13.250  18.500  4.0340e-03
13.250  18.750  5.3646e-03
13.250  19.000  7.2504e-03
13.250  19.250  9.8648e-03
13.250  19.500  1.3312e-02
13.250  19.750  1.7670e-02
13.250  20.000  2.2899e-02
13.250  20.250  2.9060e-02
13.250  20.500  3.6213e-02
13.250  20.750  4.4348e-02
13.250  21.000  5.3517e-02
13.250  21.250  6.2589e-02
13.250  21.500  7.1022e-02
13.250  21.750  7.4572e-02
13.250  22.000  7.3378e-02
13.250  22.250  6.5783e-02
13.250  22.500  6.3481e-02
13.250  22.750  6.7945e-02
13.250  23.000  7.1511e-02
13.250  23.250  7.4481e-02
13.250  23.500  7.6013e-02
13.250  23.750  7.6502e-02
13.250  24.000  7.6789e-02
13.500  17.000  6.7967e-04
13.500  17.250  9.1391e-04
13.500  17.500  1.1220e-03
13.500  17.750  1.2772e-03
13.500  18.000  1.4941e-03
13.500  18.250  1.8556e-03
13.500  18.500  2.4082e-03
13.500  18.750  3.2149e-03
13.500  19.000  4.4019e-03
13.500  19.250  6.1069e-03
13.500  19.500  8.4752e-03
13.500  19.750  1.1605e-02
13.500  20.000  1.5550e-02
13.500  20.250  2.0341e-02
13.500  20.500  2.5881e-02
13.500  20.750  3.2232e-02
13.500  21.000  3.9161e-02
13.500  21.250  4.6544e-02
13.500  21.500  5.4400e-02
13.500  21.750  5.8972e-02
13.500  22.000  6.1028e-02
13.500  22.250  6.1959e-02
13.500  22.500  5.9671e-02
13.500  22.750  6.3965e-02
13.500  23.000  6.8047e-02
13.500  23.250  7.1273e-02
13.500  23.500  7.4350e-02
13.500  23.750  7.5968e-02
13.500  24.000  7.6457e-02
13.750  17.000  4.7457e-04
13.750  17.250  6.2000e-04
13.750  17.500  7.4486e-04
13.750  17.750  8.4198e-04
13.750  18.000  9.5918e-04
13.750  18.250  1.1560e-03
13.750  18.500  1.4659e-03
13.750  18.750  1.9342e-03
13.750  19.000  2.6345e-03
13.750  19.250  3.6792e-03
13.750  19.500  5.1910e-03
13.750  19.750  7.2952e-03
13.750  20.000  1.0088e-02
13.750  20.250  1.3604e-02
13.750  20.500  1.7877e-02
13.750  20.750  2.2778e-02
13.750  21.000  2.8109e-02
13.750  21.250  3.3755e-02
13.750  21.500  4.0095e-02
13.750  21.750  4.3950e-02
13.750  22.000  4.5888e-02
13.750  22.250  4.8179e-02
13.750  22.500  5.2673e-02
13.750  22.750  5.6221e-02
13.750  23.000  6.4393e-02
13.750  23.250  6.8078e-02
13.750  23.500  7.1087e-02
13.750  23.750  7.4379e-02
13.750  24.000  7.5888e-02
14.000  17.000  3.4667e-04
14.000  17.250  4.4634e-04
14.000  17.500  5.2724e-04
14.000  17.750  5.8444e-04
14.000  18.000  6.5407e-04
14.000  18.250  7.6321e-04
14.000  18.500  9.3687e-04
14.000  18.750  1.1995e-03
14.000  19.000  1.5980e-03
14.000  19.250  2.2060e-03
14.000  19.500  3.1158e-03
14.000  19.750  4.4405e-03
14.000  20.000  6.2904e-03
14.000  20.250  8.7556e-03
14.000  20.500  1.1846e-02
14.000  20.750  1.5535e-02
14.000  21.000  1.9679e-02
14.000  21.250  2.4015e-02
14.000  21.500  2.8918e-02
14.000  21.750  3.2368e-02
14.000  22.000  3.3766e-02
14.000  22.250  3.4556e-02
14.000  22.500  3.8579e-02
14.000  22.750  4.6873e-02
14.000  23.000  5.5199e-02
14.000  23.250  6.4631e-02
14.000  23.500  6.8030e-02
14.000  23.750  7.1175e-02
14.000  24.000  7.4496e-02
