InwT 1000.00A  relative to Inci 1215.00A scaled to 1215A.
Hden   Phi(H)  Eq_Width (A)
7.000  17.000  7.5407e-02
7.000  17.250  9.1755e-02
7.000  17.500  9.3937e-02
7.000  17.750  9.3597e-02
7.000  18.000  8.8836e-02
7.000  18.250  8.4427e-02
7.000  18.500  8.0870e-02
7.000  18.750  7.9002e-02
7.000  19.000  7.8032e-02
7.000  19.250  7.7469e-02
7.000  19.500  7.7229e-02
7.000  19.750  7.7128e-02
7.000  20.000  7.7084e-02
7.000  20.250  7.7063e-02
7.000  20.500  7.7052e-02
7.000  20.750  7.7047e-02
7.000  21.000  7.7044e-02
7.000  21.250  7.7043e-02
7.000  21.500  7.7042e-02
7.000  21.750  7.7042e-02
7.000  22.000  7.7042e-02
7.000  22.250  7.7042e-02
7.000  22.500  7.7042e-02
7.000  22.750  7.7051e-02
7.000  23.000  7.7044e-02
7.000  23.250  7.7045e-02
7.000  23.500  7.7045e-02
7.000  23.750  7.7045e-02
7.000  24.000  7.7046e-02
7.250  17.000  5.1693e-02
7.250  17.250  7.3763e-02
7.250  17.500  9.0515e-02
7.250  17.750  9.3499e-02
7.250  18.000  9.3403e-02
7.250  18.250  8.8745e-02
7.250  18.500  8.4380e-02
7.250  18.750  8.0853e-02
7.250  19.000  7.8995e-02
7.250  19.250  7.8030e-02
7.250  19.500  7.7469e-02
7.250  19.750  7.7229e-02
7.250  20.000  7.7128e-02
7.250  20.250  7.7084e-02
7.250  20.500  7.7063e-02
7.250  20.750  7.7052e-02
7.250  21.000  7.7047e-02
7.250  21.250  7.7044e-02
7.250  21.500  7.7042e-02
7.250  21.750  7.7042e-02
7.250  22.000  7.7041e-02
7.250  22.250  7.7041e-02
7.250  22.500  7.7041e-02
7.250  22.750  7.7041e-02
7.250  23.000  7.7041e-02
7.250  23.250  7.7042e-02
7.250  23.500  7.7041e-02
7.250  23.750  7.7042e-02
7.250  24.000  7.7042e-02
7.500  17.000  3.4558e-02
7.500  17.250  4.9317e-02
7.500  17.500  7.2263e-02
7.500  17.750  8.9355e-02
7.500  18.000  9.3211e-02
7.500  18.250  9.3304e-02
7.500  18.500  8.8701e-02
7.500  18.750  8.4350e-02
7.500  19.000  8.0842e-02
7.500  19.250  7.8991e-02
7.500  19.500  7.8028e-02
7.500  19.750  7.7468e-02
7.500  20.000  7.7229e-02
7.500  20.250  7.7128e-02
7.500  20.500  7.7084e-02
7.500  20.750  7.7063e-02
7.500  21.000  7.7052e-02
7.500  21.250  7.7047e-02
7.500  21.500  7.7044e-02
7.500  21.750  7.7042e-02
7.500  22.000  7.7041e-02
7.500  22.250  7.7041e-02
7.500  22.500  7.7041e-02
7.500  22.750  7.7040e-02
7.500  23.000  7.7041e-02
7.500  23.250  7.7041e-02
7.500  23.500  7.7041e-02
7.500  23.750  7.7041e-02
7.500  24.000  7.7041e-02
7.750  17.000  2.4084e-02
7.750  17.250  3.2132e-02
7.750  17.500  4.7341e-02
7.750  17.750  7.0999e-02
7.750  18.000  8.8476e-02
7.750  18.250  9.3041e-02
7.750  18.500  9.3266e-02
7.750  18.750  8.8687e-02
7.750  19.000  8.4332e-02
7.750  19.250  8.0835e-02
7.750  19.500  7.8988e-02
7.750  19.750  7.8027e-02
7.750  20.000  7.7468e-02
7.750  20.250  7.7229e-02
7.750  20.500  7.7128e-02
7.750  20.750  7.7083e-02
7.750  21.000  7.7063e-02
7.750  21.250  7.7052e-02
7.750  21.500  7.7047e-02
7.750  21.750  7.7044e-02
7.750  22.000  7.7042e-02
7.750  22.250  7.7041e-02
7.750  22.500  7.7041e-02
7.750  22.750  7.7040e-02
7.750  23.000  7.7040e-02
7.750  23.250  7.7040e-02
7.750  23.500  7.7040e-02
7.750  23.750  7.7040e-02
7.750  24.000  7.7040e-02
8.000  17.000  1.7301e-02
8.000  17.250  2.1614e-02
8.000  17.500  2.9845e-02
8.000  17.750  4.5351e-02
8.000  18.000  6.9619e-02
8.000  18.250  8.7842e-02
8.000  18.500  9.2943e-02
8.000  18.750  9.3268e-02
8.000  19.000  8.8698e-02
8.000  19.250  8.4324e-02
8.000  19.500  8.0831e-02
8.000  19.750  7.8986e-02
8.000  20.000  7.8027e-02
8.000  20.250  7.7468e-02
8.000  20.500  7.7229e-02
8.000  20.750  7.7128e-02
8.000  21.000  7.7084e-02
8.000  21.250  7.7063e-02
8.000  21.500  7.7052e-02
8.000  21.750  7.7047e-02
8.000  22.000  7.7044e-02
8.000  22.250  7.7042e-02
8.000  22.500  7.7041e-02
8.000  22.750  7.7041e-02
8.000  23.000  7.7040e-02
8.000  23.250  7.7040e-02
8.000  23.500  7.7040e-02
8.000  23.750  7.7040e-02
8.000  24.000  7.7040e-02
8.250  17.000  1.3056e-02
8.250  17.250  1.5404e-02
8.250  17.500  1.9986e-02
8.250  17.750  2.8532e-02
8.250  18.000  4.4421e-02
8.250  18.250  6.9147e-02
8.250  18.500  8.7434e-02
8.250  18.750  9.2921e-02
8.250  19.000  9.3298e-02
8.250  19.250  8.8723e-02
8.250  19.500  8.4318e-02
8.250  19.750  8.0828e-02
8.250  20.000  7.8985e-02
8.250  20.250  7.8026e-02
8.250  20.500  7.7468e-02
8.250  20.750  7.7229e-02
8.250  21.000  7.7128e-02
8.250  21.250  7.7084e-02
8.250  21.500  7.7063e-02
8.250  21.750  7.7052e-02
8.250  22.000  7.7047e-02
8.250  22.250  7.7044e-02
8.250  22.500  7.7042e-02
8.250  22.750  7.7041e-02
8.250  23.000  7.7041e-02
8.250  23.250  7.7040e-02
8.250  23.500  7.7040e-02
8.250  23.750  7.7040e-02
8.250  24.000  7.7040e-02
8.500  17.000  1.0279e-02
8.500  17.250  1.1564e-02
8.500  17.500  1.4124e-02
8.500  17.750  1.8885e-02
8.500  18.000  2.7791e-02
8.500  18.250  4.4392e-02
8.500  18.500  6.9514e-02
8.500  18.750  8.7198e-02
8.500  19.000  9.2960e-02
8.500  19.250  9.3345e-02
8.500  19.500  8.8762e-02
8.500  19.750  8.4316e-02
8.500  20.000  8.0826e-02
8.500  20.250  7.8984e-02
8.500  20.500  7.8026e-02
8.500  20.750  7.7468e-02
8.500  21.000  7.7229e-02
8.500  21.250  7.7128e-02
8.500  21.500  7.7084e-02
8.500  21.750  7.7063e-02
8.500  22.000  7.7052e-02
8.500  22.250  7.7047e-02
8.500  22.500  7.7044e-02
8.500  22.750  7.7042e-02
8.500  23.000  7.7041e-02
8.500  23.250  7.7041e-02
8.500  23.500  7.7040e-02
8.500  23.750  7.7040e-02
8.500  24.000  7.7040e-02
8.750  17.000  8.4664e-03
8.750  17.250  9.1748e-03
8.750  17.500  1.0619e-02
8.750  17.750  1.3324e-02
8.750  18.000  1.8375e-02
8.750  18.250  2.7884e-02
8.750  18.500  4.5883e-02
8.750  18.750  7.1325e-02
8.750  19.000  8.7059e-02
8.750  19.250  9.3010e-02
8.750  19.500  9.3404e-02
8.750  19.750  8.8808e-02
8.750  20.000  8.4316e-02
8.750  20.250  8.0825e-02
8.750  20.500  7.8984e-02
8.750  20.750  7.8026e-02
8.750  21.000  7.7468e-02
8.750  21.250  7.7229e-02
8.750  21.500  7.7128e-02
8.750  21.750  7.7084e-02
8.750  22.000  7.7063e-02
8.750  22.250  7.7052e-02
8.750  22.500  7.7047e-02
8.750  22.750  7.7044e-02
8.750  23.000  7.7042e-02
8.750  23.250  7.7041e-02
8.750  23.500  7.7041e-02
8.750  23.750  7.7040e-02
8.750  24.000  7.7040e-02
9.000  17.000  7.2538e-03
9.000  17.250  7.6666e-03
9.000  17.500  8.5063e-03
9.000  17.750  1.0084e-02
9.000  18.000  1.3009e-02
9.000  18.250  1.8542e-02
9.000  18.500  2.9318e-02
9.000  18.750  4.9418e-02
9.000  19.000  7.4751e-02
9.000  19.250  8.6965e-02
9.000  19.500  9.3066e-02
9.000  19.750  9.3464e-02
9.000  20.000  8.8857e-02
9.000  20.250  8.4316e-02
9.000  20.500  8.0824e-02
9.000  20.750  7.8984e-02
9.000  21.000  7.8026e-02
9.000  21.250  7.7468e-02
9.000  21.500  7.7229e-02
9.000  21.750  7.7128e-02
9.000  22.000  7.7083e-02
9.000  22.250  7.7063e-02
9.000  22.500  7.7052e-02
9.000  22.750  7.7047e-02
9.000  23.000  7.7044e-02
9.000  23.250  7.7042e-02
9.000  23.500  7.7041e-02
9.000  23.750  7.7041e-02
9.000  24.000  7.7040e-02
9.250  17.000  6.4041e-03
9.250  17.250  6.6664e-03
9.250  17.500  7.2091e-03
9.250  17.750  8.1948e-03
9.250  18.000  1.0060e-02
9.250  18.250  1.3377e-02
9.250  18.500  1.9737e-02
9.250  18.750  3.2255e-02
9.250  19.000  5.4904e-02
9.250  19.250  7.8831e-02
9.250  19.500  8.6875e-02
9.250  19.750  9.3096e-02
9.250  20.000  9.3517e-02
9.250  20.250  8.8905e-02
9.250  20.500  8.4317e-02
9.250  20.750  8.0823e-02
9.250  21.000  7.8984e-02
9.250  21.250  7.8026e-02
9.250  21.500  7.7460e-02
9.250  21.750  7.7191e-02
9.250  22.000  7.7088e-02
9.250  22.250  7.7046e-02
9.250  22.500  7.7062e-02
9.250  22.750  7.7052e-02
9.250  23.000  7.7047e-02
9.250  23.250  7.7044e-02
9.250  23.500  7.7042e-02
9.250  23.750  7.7041e-02
9.250  24.000  7.7041e-02
9.500  17.000  5.7993e-03
9.500  17.250  5.9570e-03
9.500  17.500  6.3665e-03
9.500  17.750  7.0998e-03
9.500  18.000  8.3573e-03
9.500  18.250  1.0501e-02
9.500  18.500  1.4408e-02
9.500  18.750  2.1946e-02
9.500  19.000  3.6854e-02
9.500  19.250  6.1663e-02
9.500  19.500  8.1131e-02
9.500  19.750  8.6809e-02
9.500  20.000  9.3103e-02
9.500  20.250  9.3559e-02
9.500  20.500  8.8948e-02
9.500  20.750  8.4318e-02
9.500  21.000  8.0811e-02
9.500  21.250  7.8951e-02
9.500  21.500  7.7986e-02
9.500  21.750  7.7422e-02
9.500  22.000  7.7168e-02
9.500  22.250  7.7055e-02
9.500  22.500  7.7013e-02
9.500  22.750  7.6993e-02
9.500  23.000  7.6982e-02
9.500  23.250  7.6975e-02
9.500  23.500  7.6996e-02
9.500  23.750  7.6994e-02
9.500  24.000  7.6993e-02
9.750  17.000  5.4124e-03
9.750  17.250  5.4274e-03
9.750  17.500  5.7473e-03
9.750  17.750  6.3749e-03
9.750  18.000  7.3709e-03
9.750  18.250  8.9176e-03
9.750  18.500  1.1502e-02
9.750  18.750  1.6213e-02
9.750  19.000  2.5408e-02
9.750  19.250  4.3335e-02
9.750  19.500  6.8844e-02
9.750  19.750  8.1765e-02
9.750  20.000  8.6777e-02
9.750  20.250  9.3064e-02
9.750  20.500  9.3583e-02
9.750  20.750  8.8983e-02
9.750  21.000  8.4320e-02
9.750  21.250  8.0817e-02
9.750  21.500  7.8970e-02
9.750  21.750  7.7989e-02
9.750  22.000  7.7425e-02
9.750  22.250  7.7177e-02
9.750  22.500  7.7062e-02
9.750  22.750  7.7010e-02
9.750  23.000  7.6991e-02
9.750  23.250  7.6982e-02
9.750  23.500  7.6977e-02
9.750  23.750  7.6974e-02
9.750  24.000  7.6972e-02
10.000  17.000  5.2590e-03
10.000  17.250  5.0697e-03
10.000  17.500  5.2404e-03
10.000  17.750  5.7942e-03
10.000  18.000  6.7381e-03
10.000  18.250  8.0128e-03
10.000  18.500  9.8819e-03
10.000  18.750  1.3089e-02
10.000  19.000  1.9062e-02
10.000  19.250  3.1121e-02
10.000  19.500  5.3759e-02
10.000  19.750  7.4819e-02
10.000  20.000  8.1972e-02
10.000  20.250  8.6795e-02
10.000  20.500  9.3053e-02
10.000  20.750  9.3592e-02
10.000  21.000  8.9013e-02
10.000  21.250  8.4321e-02
10.000  21.500  8.0819e-02
10.000  21.750  7.8979e-02
10.000  22.000  7.8003e-02
10.000  22.250  7.7427e-02
10.000  22.500  7.7183e-02
10.000  22.750  7.7072e-02
10.000  23.000  7.7018e-02
10.000  23.250  7.6992e-02
10.000  23.500  7.6979e-02
10.000  23.750  7.6973e-02
10.000  24.000  7.6971e-02
10.250  17.000  5.3691e-03
10.250  17.250  4.9345e-03
10.250  17.500  4.9151e-03
10.250  17.750  5.3615e-03
10.250  18.000  6.2544e-03
10.250  18.250  7.4115e-03
10.250  18.500  8.9415e-03
10.250  18.750  1.1350e-02
10.250  19.000  1.5649e-02
10.250  19.250  2.3553e-02
10.250  19.500  3.8370e-02
10.250  19.750  6.1105e-02
10.250  20.000  7.7092e-02
10.250  20.250  8.1975e-02
10.250  20.500  8.6942e-02
10.250  20.750  9.3146e-02
10.250  21.000  9.3591e-02
10.250  21.250  8.9034e-02
10.250  21.500  8.4322e-02
10.250  21.750  8.0818e-02
10.250  22.000  7.8982e-02
10.250  22.250  7.8019e-02
10.250  22.500  7.7428e-02
10.250  22.750  7.7187e-02
10.250  23.000  7.7079e-02
10.250  23.250  7.7028e-02
10.250  23.500  7.7002e-02
10.250  23.750  7.6988e-02
10.250  24.000  7.6981e-02
10.500  17.000  5.7006e-03
10.500  17.250  5.0613e-03
10.500  17.500  4.8272e-03
10.500  17.750  5.1199e-03
10.500  18.000  5.8702e-03
10.500  18.250  6.9331e-03
10.500  18.500  8.2650e-03
10.500  18.750  1.0084e-02
10.500  19.000  1.2837e-02
10.500  19.250  1.7564e-02
10.500  19.500  2.6449e-02
10.500  19.750  3.8244e-02
10.500  20.000  5.1483e-02
10.500  20.250  6.4911e-02
10.500  20.500  7.7271e-02
10.500  20.750  8.7306e-02
10.500  21.000  9.3449e-02
10.500  21.250  9.3597e-02
10.500  21.500  8.9048e-02
10.500  21.750  8.4322e-02
10.500  22.000  8.0817e-02
10.500  22.250  7.8983e-02
10.500  22.500  7.8024e-02
10.500  22.750  7.7435e-02
10.500  23.000  7.7189e-02
10.500  23.250  7.7084e-02
10.500  23.500  7.7035e-02
10.500  23.750  7.7011e-02
10.500  24.000  7.6998e-02
10.750  17.000  6.1937e-03
10.750  17.250  5.4101e-03
10.750  17.500  5.0196e-03
10.750  17.750  5.1456e-03
10.750  18.000  5.6717e-03
10.750  18.250  6.4813e-03
10.750  18.500  7.5670e-03
10.750  18.750  8.9018e-03
10.750  19.000  1.0762e-02
10.750  19.250  1.3771e-02
10.750  19.500  1.9139e-02
10.750  19.750  2.9207e-02
10.750  20.000  4.7536e-02
10.750  20.250  6.6326e-02
10.750  20.500  7.8766e-02
10.750  20.750  8.2783e-02
10.750  21.000  8.7963e-02
10.750  21.250  9.4086e-02
10.750  21.500  9.3638e-02
10.750  21.750  8.9056e-02
10.750  22.000  8.4317e-02
10.750  22.250  8.0816e-02
10.750  22.500  7.8983e-02
10.750  22.750  7.8026e-02
10.750  23.000  7.7455e-02
10.750  23.250  7.7190e-02
10.750  23.500  7.7087e-02
10.750  23.750  7.7040e-02
10.750  24.000  7.7017e-02
11.000  17.000  6.7781e-03
11.000  17.250  5.9176e-03
11.000  17.500  5.4424e-03
11.000  17.750  5.4415e-03
11.000  18.000  5.7207e-03
11.000  18.250  6.1793e-03
11.000  18.500  6.8888e-03
11.000  18.750  7.8902e-03
11.000  19.000  9.2441e-03
11.000  19.250  1.1173e-02
11.000  19.500  1.4604e-02
11.000  19.750  2.0641e-02
11.000  20.000  3.1764e-02
11.000  20.250  5.1358e-02
11.000  20.500  6.8592e-02
11.000  20.750  7.9266e-02
11.000  21.000  8.3905e-02
11.000  21.250  8.9243e-02
11.000  21.500  9.5298e-02
11.000  21.750  9.3736e-02
11.000  22.000  8.9060e-02
11.000  22.250  8.4317e-02
11.000  22.500  8.0815e-02
11.000  22.750  7.8983e-02
11.000  23.000  7.8026e-02
11.000  23.250  7.7464e-02
11.000  23.500  7.7196e-02
11.000  23.750  7.7088e-02
11.000  24.000  7.7042e-02
11.250  17.000  7.3794e-03
11.250  17.250  6.5060e-03
11.250  17.500  6.0008e-03
11.250  17.750  5.9307e-03
11.250  18.000  6.0117e-03
11.250  18.250  6.1282e-03
11.250  18.500  6.4312e-03
11.250  18.750  5.7013e-03
11.250  19.000  4.5422e-03
11.250  19.250  4.1480e-03
11.250  19.500  5.7130e-03
11.250  19.750  1.0431e-02
11.250  20.000  1.9498e-02
11.250  20.250  3.4106e-02
11.250  20.500  5.4739e-02
11.250  20.750  7.4869e-02
11.250  21.000  8.0349e-02
11.250  21.250  8.5550e-02
11.250  21.500  9.1400e-02
11.250  21.750  9.6993e-02
11.250  22.000  9.3903e-02
11.250  22.250  8.9063e-02
11.250  22.500  8.4308e-02
11.250  22.750  8.0813e-02
11.250  23.000  7.8983e-02
11.250  23.250  7.8027e-02
11.250  23.500  7.7467e-02
11.250  23.750  7.7215e-02
11.250  24.000  7.7090e-02
11.500  17.000  7.9094e-03
11.500  17.250  7.1085e-03
11.500  17.500  6.6131e-03
11.500  17.750  6.5066e-03
11.500  18.000  6.4486e-03
11.500  18.250  6.3198e-03
11.500  18.500  4.8275e-03
11.500  18.750  2.3629e-03
11.500  19.000  -1.4153e-04
11.500  19.250  -1.7531e-03
11.500  19.500  -1.5392e-03
11.500  19.750  1.4327e-03
11.500  20.000  8.0953e-03
11.500  20.250  1.9381e-02
11.500  20.500  3.6223e-02
11.500  20.750  5.7925e-02
11.500  21.000  7.6008e-02
11.500  21.250  8.2021e-02
11.500  21.500  8.8201e-02
11.500  21.750  9.4672e-02
11.500  22.000  9.8688e-02
11.500  22.250  9.4150e-02
11.500  22.500  8.9071e-02
11.500  22.750  8.4310e-02
11.500  23.000  8.0811e-02
11.500  23.250  7.8982e-02
11.500  23.500  7.8027e-02
11.500  23.750  7.7467e-02
11.500  24.000  7.7224e-02
11.750  17.000  8.2072e-03
11.750  17.250  7.6063e-03
11.750  17.500  7.1952e-03
11.750  17.750  7.0793e-03
11.750  18.000  6.9551e-03
11.750  18.250  6.7088e-03
11.750  18.500  6.1623e-03
11.750  18.750  5.5711e-03
11.750  19.000  5.3169e-03
11.750  19.250  5.7817e-03
11.750  19.500  7.3472e-03
11.750  19.750  1.0395e-02
11.750  20.000  1.5308e-02
11.750  20.250  2.2467e-02
11.750  20.500  3.2254e-02
11.750  20.750  4.5050e-02
11.750  21.000  6.1239e-02
11.750  21.250  7.7728e-02
11.750  21.500  8.4605e-02
11.750  21.750  9.2036e-02
11.750  22.000  9.8683e-02
11.750  22.250  9.9970e-02
11.750  22.500  9.4479e-02
11.750  22.750  8.9078e-02
11.750  23.000  8.4306e-02
11.750  23.250  8.0809e-02
11.750  23.500  7.8981e-02
11.750  23.750  7.8027e-02
11.750  24.000  7.7468e-02
12.000  17.000  8.0950e-03
12.000  17.250  7.8219e-03
12.000  17.500  7.5998e-03
12.000  17.750  7.5520e-03
12.000  18.000  7.4449e-03
12.000  18.250  7.0219e-03
12.000  18.500  6.4417e-03
12.000  18.750  5.9683e-03
12.000  19.000  5.8660e-03
12.000  19.250  6.3991e-03
12.000  19.500  7.8318e-03
12.000  19.750  1.0428e-02
12.000  20.000  1.4453e-02
12.000  20.250  2.0170e-02
12.000  20.500  2.7843e-02
12.000  20.750  3.7737e-02
12.000  21.000  5.0116e-02
12.000  21.250  6.5244e-02
12.000  21.500  8.0588e-02
12.000  21.750  8.8316e-02
12.000  22.000  9.6819e-02
12.000  22.250  1.0266e-01
12.000  22.500  1.0120e-01
12.000  22.750  9.4907e-02
12.000  23.000  8.9091e-02
12.000  23.250  8.4300e-02
12.000  23.500  8.0808e-02
12.000  23.750  7.8980e-02
12.000  24.000  7.8027e-02
12.250  17.000  7.5308e-03
12.250  17.250  7.6070e-03
12.250  17.500  7.6695e-03
12.250  17.750  7.7950e-03
12.250  18.000  7.7742e-03
12.250  18.250  7.5052e-03
12.250  18.500  7.1160e-03
12.250  18.750  6.7192e-03
12.250  19.000  6.4025e-03
12.250  19.250  4.2202e-03
12.250  19.500  6.4627e-04
12.250  19.750  -3.0512e-03
12.250  20.000  -5.6042e-03
12.250  20.250  -5.7446e-03
12.250  20.500  -2.2043e-03
12.250  20.750  6.2849e-03
12.250  21.000  2.0991e-02
12.250  21.250  4.3182e-02
12.250  21.500  6.9444e-02
12.250  21.750  8.4215e-02
12.250  22.000  9.3072e-02
12.250  22.250  1.0259e-01
12.250  22.500  1.0633e-01
12.250  22.750  1.0249e-01
12.250  23.000  9.5277e-02
12.250  23.250  8.9123e-02
12.250  23.500  8.4293e-02
12.250  23.750  8.0803e-02
12.250  24.000  7.8979e-02
12.500  17.000  6.7753e-03
12.500  17.250  7.0910e-03
12.500  17.500  7.4128e-03
12.500  17.750  7.6812e-03
12.500  18.000  7.7565e-03
12.500  18.250  7.6212e-03
12.500  18.500  7.3440e-03
12.500  18.750  6.9937e-03
12.500  19.000  6.6215e-03
12.500  19.250  6.3171e-03
12.500  19.500  3.8143e-03
12.500  19.750  -3.5005e-04
12.500  20.000  -4.7178e-03
12.500  20.250  -7.8309e-03
12.500  20.500  -8.2313e-03
12.500  20.750  -4.4609e-03
12.500  21.000  4.9382e-03
12.500  21.250  2.1424e-02
12.500  21.500  4.6455e-02
12.500  21.750  7.5320e-02
12.500  22.000  8.8900e-02
12.500  22.250  9.8852e-02
12.500  22.500  1.0838e-01
12.500  22.750  1.0992e-01
12.500  23.000  1.0380e-01
12.500  23.250  9.5831e-02
12.500  23.500  8.9160e-02
12.500  23.750  8.4285e-02
12.500  24.000  8.0800e-02
12.750  17.000  6.0378e-03
12.750  17.250  6.4681e-03
12.750  17.500  6.8523e-03
12.750  17.750  7.1758e-03
12.750  18.000  7.4119e-03
12.750  18.250  7.4983e-03
12.750  18.500  7.4066e-03
12.750  18.750  7.1763e-03
12.750  19.000  6.8583e-03
12.750  19.250  6.5072e-03
12.750  19.500  6.2188e-03
12.750  19.750  3.4563e-03
12.750  20.000  -1.1778e-03
12.750  20.250  -6.0503e-03
12.750  20.500  -9.5280e-03
12.750  20.750  -9.9776e-03
12.750  21.000  -5.7657e-03
12.750  21.250  4.7408e-03
12.750  21.500  2.3175e-02
12.750  21.750  5.1171e-02
12.750  22.000  8.2509e-02
12.750  22.250  9.4417e-02
12.750  22.500  1.0595e-01
12.750  22.750  1.1389e-01
12.750  23.000  1.1331e-01
12.750  23.250  1.0529e-01
12.750  23.500  9.6308e-02
12.750  23.750  8.9203e-02
12.750  24.000  8.4276e-02
13.000  17.000  5.3315e-03
13.000  17.250  5.8449e-03
13.000  17.500  6.2219e-03
13.000  17.750  6.5747e-03
13.000  18.000  6.9212e-03
13.000  18.250  7.1821e-03
13.000  18.500  7.2779e-03
13.000  18.750  7.2040e-03
13.000  19.000  6.9994e-03
13.000  19.250  6.7039e-03
13.000  19.500  6.3666e-03
13.000  19.750  6.1049e-03
13.000  20.000  3.5076e-03
13.000  20.250  -7.9944e-04
13.000  20.500  -5.1934e-03
13.000  20.750  -8.0517e-03
13.000  21.000  -7.7518e-03
13.000  21.250  -2.6709e-03
13.000  21.500  8.8136e-03
13.000  21.750  2.8324e-02
13.000  22.000  5.7484e-02
13.000  22.250  8.9323e-02
13.000  22.500  1.0000e-01
13.000  22.750  1.1299e-01
13.000  23.000  1.1896e-01
13.000  23.250  1.1671e-01
13.000  23.500  1.0663e-01
13.000  23.750  9.6764e-02
13.000  24.000  8.9266e-02
13.250  17.000  4.8736e-03
13.250  17.250  5.3088e-03
13.250  17.500  5.6964e-03
13.250  17.750  6.0334e-03
13.250  18.000  6.4057e-03
13.250  18.250  6.7560e-03
13.250  18.500  6.9905e-03
13.250  18.750  7.0651e-03
13.250  19.000  6.9942e-03
13.250  19.250  6.8049e-03
13.250  19.500  6.5286e-03
13.250  19.750  7.8152e-03
13.250  20.000  1.0933e-02
13.250  20.250  1.5663e-02
13.250  20.500  2.1788e-02
13.250  20.750  2.9088e-02
13.250  21.000  3.7346e-02
13.250  21.250  4.6344e-02
13.250  21.500  5.5863e-02
13.250  21.750  6.5684e-02
13.250  22.000  7.5590e-02
13.250  22.250  8.5362e-02
13.250  22.500  9.4781e-02
13.250  22.750  1.0500e-01
13.250  23.000  1.1836e-01
13.250  23.250  1.2432e-01
13.250  23.500  1.1989e-01
13.250  23.750  1.0794e-01
13.250  24.000  9.7156e-02
13.500  17.000  4.4464e-03
13.500  17.250  4.8583e-03
13.500  17.500  5.2304e-03
13.500  17.750  5.5515e-03
13.500  18.000  5.9171e-03
13.500  18.250  6.3012e-03
13.500  18.500  6.6078e-03
13.500  18.750  6.7884e-03
13.500  19.000  6.8351e-03
13.500  19.250  6.7613e-03
13.500  19.500  6.5861e-03
13.500  19.750  6.3419e-03
13.500  20.000  7.5892e-03
13.500  20.250  1.0609e-02
13.500  20.500  1.5230e-02
13.500  20.750  2.1280e-02
13.500  21.000  2.8588e-02
13.500  21.250  3.6984e-02
13.500  21.500  4.6295e-02
13.500  21.750  5.6349e-02
13.500  22.000  6.6977e-02
13.500  22.250  7.8005e-02
13.500  22.500  8.9263e-02
13.500  22.750  1.0058e-01
13.500  23.000  1.1244e-01
13.500  23.250  1.2522e-01
13.500  23.500  1.3030e-01
13.500  23.750  1.2338e-01
13.500  24.000  1.0926e-01
13.750  17.000  3.9999e-03
13.750  17.250  4.4517e-03
13.750  17.500  4.8106e-03
13.750  17.750  5.1180e-03
13.750  18.000  5.4659e-03
13.750  18.250  5.8511e-03
13.750  18.500  6.1922e-03
13.750  18.750  6.4321e-03
13.750  19.000  6.5639e-03
13.750  19.250  6.5938e-03
13.750  19.500  6.5272e-03
13.750  19.750  6.3765e-03
13.750  20.000  6.1739e-03
13.750  20.250  5.9684e-03
13.750  20.500  5.8423e-03
13.750  20.750  5.2180e-03
13.750  21.000  4.6741e-03
13.750  21.250  5.1471e-03
13.750  21.500  7.5735e-03
13.750  21.750  1.2890e-02
13.750  22.000  2.2032e-02
13.750  22.250  3.5938e-02
13.750  22.500  5.5543e-02
13.750  22.750  8.1783e-02
13.750  23.000  1.0979e-01
13.750  23.250  1.2264e-01
13.750  23.500  1.3410e-01
13.750  23.750  1.3745e-01
13.750  24.000  1.2674e-01
14.000  17.000  3.5232e-03
14.000  17.250  4.0207e-03
14.000  17.500  4.4109e-03
14.000  17.750  4.7095e-03
14.000  18.000  5.0417e-03
14.000  18.250  5.4159e-03
14.000  18.500  5.7692e-03
14.000  18.750  6.0454e-03
14.000  19.000  6.2292e-03
14.000  19.250  6.3337e-03
14.000  19.500  6.3614e-03
14.000  19.750  6.3147e-03
14.000  20.000  6.2027e-03
14.000  20.250  6.0593e-03
14.000  20.500  5.9356e-03
14.000  20.750  5.9081e-03
14.000  21.000  6.0994e-03
14.000  21.250  6.6973e-03
14.000  21.500  7.8536e-03
14.000  21.750  1.0013e-02
14.000  22.000  1.3732e-02
14.000  22.250  2.0288e-02
14.000  22.500  3.2735e-02
14.000  22.750  5.6731e-02
14.000  23.000  9.6422e-02
14.000  23.250  1.2443e-01
14.000  23.500  1.3770e-01
14.000  23.750  1.4714e-01
14.000  24.000  1.4571e-01
