nFnu 960.000A  relative to Inci 1215.00A scaled to 1215A.
Hden   Phi(H)  Eq_Width (A)
7.000  17.000  8.4934e-02
7.000  17.250  1.0816e-01
7.000  17.500  1.0913e-01
7.000  17.750  1.0782e-01
7.000  18.000  9.9682e-02
7.000  18.250  9.1534e-02
7.000  18.500  8.4624e-02
7.000  18.750  8.0865e-02
7.000  19.000  7.8902e-02
7.000  19.250  7.7756e-02
7.000  19.500  7.7268e-02
7.000  19.750  7.7061e-02
7.000  20.000  7.6970e-02
7.000  20.250  7.6927e-02
7.000  20.500  7.6906e-02
7.000  20.750  7.6895e-02
7.000  21.000  7.6889e-02
7.000  21.250  7.6886e-02
7.000  21.500  7.6884e-02
7.000  21.750  7.6883e-02
7.000  22.000  7.6883e-02
7.000  22.250  7.6883e-02
7.000  22.500  7.6884e-02
7.000  22.750  7.6892e-02
7.000  23.000  7.6885e-02
7.000  23.250  7.6886e-02
7.000  23.500  7.6886e-02
7.000  23.750  7.6886e-02
7.000  24.000  7.6887e-02
7.250  17.000  5.5204e-02
7.250  17.250  8.2007e-02
7.250  17.500  1.0543e-01
7.250  17.750  1.0813e-01
7.250  18.000  1.0740e-01
7.250  18.250  9.9485e-02
7.250  18.500  9.1432e-02
7.250  18.750  8.4588e-02
7.250  19.000  8.0851e-02
7.250  19.250  7.8897e-02
7.250  19.500  7.7756e-02
7.250  19.750  7.7267e-02
7.250  20.000  7.7061e-02
7.250  20.250  7.6970e-02
7.250  20.500  7.6928e-02
7.250  20.750  7.6906e-02
7.250  21.000  7.6895e-02
7.250  21.250  7.6889e-02
7.250  21.500  7.6886e-02
7.250  21.750  7.6884e-02
7.250  22.000  7.6883e-02
7.250  22.250  7.6882e-02
7.250  22.500  7.6882e-02
7.250  22.750  7.6882e-02
7.250  23.000  7.6882e-02
7.250  23.250  7.6883e-02
7.250  23.500  7.6883e-02
7.250  23.750  7.6883e-02
7.250  24.000  7.6883e-02
7.500  17.000  3.4951e-02
7.500  17.250  5.1770e-02
7.500  17.500  7.9362e-02
7.500  17.750  1.0288e-01
7.500  18.000  1.0745e-01
7.500  18.250  1.0718e-01
7.500  18.500  9.9392e-02
7.500  18.750  9.1367e-02
7.500  19.000  8.4564e-02
7.500  19.250  8.0841e-02
7.500  19.500  7.8893e-02
7.500  19.750  7.7755e-02
7.500  20.000  7.7267e-02
7.500  20.250  7.7061e-02
7.500  20.500  7.6970e-02
7.500  20.750  7.6928e-02
7.500  21.000  7.6906e-02
7.500  21.250  7.6895e-02
7.500  21.500  7.6889e-02
7.500  21.750  7.6885e-02
7.500  22.000  7.6883e-02
7.500  22.250  7.6883e-02
7.500  22.500  7.6882e-02
7.500  22.750  7.6882e-02
7.500  23.000  7.6882e-02
7.500  23.250  7.6882e-02
7.500  23.500  7.6882e-02
7.500  23.750  7.6882e-02
7.500  24.000  7.6882e-02
7.750  17.000  2.3777e-02
7.750  17.250  3.1970e-02
7.750  17.500  4.8969e-02
7.750  17.750  7.7156e-02
7.750  18.000  1.0095e-01
7.750  18.250  1.0704e-01
7.750  18.500  1.0710e-01
7.750  18.750  9.9365e-02
7.750  19.000  9.1329e-02
7.750  19.250  8.4549e-02
7.750  19.500  8.0835e-02
7.750  19.750  7.8891e-02
7.750  20.000  7.7754e-02
7.750  20.250  7.7267e-02
7.750  20.500  7.7061e-02
7.750  20.750  7.6970e-02
7.750  21.000  7.6927e-02
7.750  21.250  7.6906e-02
7.750  21.500  7.6895e-02
7.750  21.750  7.6889e-02
7.750  22.000  7.6885e-02
7.750  22.250  7.6884e-02
7.750  22.500  7.6882e-02
7.750  22.750  7.6882e-02
7.750  23.000  7.6882e-02
7.750  23.250  7.6882e-02
7.750  23.500  7.6881e-02
7.750  23.750  7.6882e-02
7.750  24.000  7.6881e-02
8.000  17.000  1.6894e-02
8.000  17.250  2.1037e-02
8.000  17.500  2.9319e-02
8.000  17.750  4.6379e-02
8.000  18.000  7.5014e-02
8.000  18.250  9.9559e-02
8.000  18.500  1.0680e-01
8.000  18.750  1.0710e-01
8.000  19.000  9.9391e-02
8.000  19.250  9.1312e-02
8.000  19.500  8.4540e-02
8.000  19.750  8.0831e-02
8.000  20.000  7.8889e-02
8.000  20.250  7.7754e-02
8.000  20.500  7.7267e-02
8.000  20.750  7.7061e-02
8.000  21.000  7.6970e-02
8.000  21.250  7.6927e-02
8.000  21.500  7.6906e-02
8.000  21.750  7.6895e-02
8.000  22.000  7.6889e-02
8.000  22.250  7.6885e-02
8.000  22.500  7.6884e-02
8.000  22.750  7.6882e-02
8.000  23.000  7.6882e-02
8.000  23.250  7.6882e-02
8.000  23.500  7.6881e-02
8.000  23.750  7.6881e-02
8.000  24.000  7.6882e-02
8.250  17.000  1.2646e-02
8.250  17.250  1.4824e-02
8.250  17.500  1.9247e-02
8.250  17.750  2.7799e-02
8.250  18.000  4.5115e-02
8.250  18.250  7.4147e-02
8.250  18.500  9.8644e-02
8.250  18.750  1.0671e-01
8.250  19.000  1.0716e-01
8.250  19.250  9.9449e-02
8.250  19.500  9.1302e-02
8.250  19.750  8.4534e-02
8.250  20.000  8.0829e-02
8.250  20.250  7.8889e-02
8.250  20.500  7.7754e-02
8.250  20.750  7.7267e-02
8.250  21.000  7.7061e-02
8.250  21.250  7.6970e-02
8.250  21.500  7.6927e-02
8.250  21.750  7.6906e-02
8.250  22.000  7.6895e-02
8.250  22.250  7.6889e-02
8.250  22.500  7.6885e-02
8.250  22.750  7.6884e-02
8.250  23.000  7.6883e-02
8.250  23.250  7.6882e-02
8.250  23.500  7.6882e-02
8.250  23.750  7.6881e-02
8.250  24.000  7.6882e-02
8.500  17.000  9.8816e-03
8.500  17.250  1.1028e-02
8.500  17.500  1.3438e-02
8.500  17.750  1.8047e-02
8.500  18.000  2.6950e-02
8.500  18.250  4.5016e-02
8.500  18.500  7.4434e-02
8.500  18.750  9.8110e-02
8.500  19.000  1.0675e-01
8.500  19.250  1.0726e-01
8.500  19.500  9.9537e-02
8.500  19.750  9.1299e-02
8.500  20.000  8.4530e-02
8.500  20.250  8.0828e-02
8.500  20.500  7.8888e-02
8.500  20.750  7.7754e-02
8.500  21.000  7.7267e-02
8.500  21.250  7.7061e-02
8.500  21.500  7.6970e-02
8.500  21.750  7.6927e-02
8.500  22.000  7.6906e-02
8.500  22.250  7.6895e-02
8.500  22.500  7.6889e-02
8.500  22.750  7.6886e-02
8.500  23.000  7.6883e-02
8.500  23.250  7.6883e-02
8.500  23.500  7.6882e-02
8.500  23.750  7.6881e-02
8.500  24.000  7.6881e-02
8.750  17.000  8.0944e-03
8.750  17.250  8.6840e-03
8.750  17.500  1.0005e-02
8.750  17.750  1.2572e-02
8.750  18.000  1.7483e-02
8.750  18.250  2.7029e-02
8.750  18.500  4.6741e-02
8.750  18.750  7.6494e-02
8.750  19.000  9.7795e-02
8.750  19.250  1.0681e-01
8.750  19.500  1.0739e-01
8.750  19.750  9.9644e-02
8.750  20.000  9.1300e-02
8.750  20.250  8.4527e-02
8.750  20.500  8.0827e-02
8.750  20.750  7.8888e-02
8.750  21.000  7.7754e-02
8.750  21.250  7.7267e-02
8.750  21.500  7.7061e-02
8.750  21.750  7.6970e-02
8.750  22.000  7.6928e-02
8.750  22.250  7.6906e-02
8.750  22.500  7.6895e-02
8.750  22.750  7.6889e-02
8.750  23.000  7.6886e-02
8.750  23.250  7.6884e-02
8.750  23.500  7.6882e-02
8.750  23.750  7.6882e-02
8.750  24.000  7.6882e-02
9.000  17.000  6.9202e-03
9.000  17.250  7.2203e-03
9.000  17.500  7.9550e-03
9.000  17.750  9.4194e-03
9.000  18.000  1.2215e-02
9.000  18.250  1.7617e-02
9.000  18.500  2.8550e-02
9.000  18.750  5.0784e-02
9.000  19.000  8.0537e-02
9.000  19.250  9.7595e-02
9.000  19.500  1.0690e-01
9.000  19.750  1.0752e-01
9.000  20.000  9.9755e-02
9.000  20.250  9.1304e-02
9.000  20.500  8.4524e-02
9.000  20.750  8.0826e-02
9.000  21.000  7.8888e-02
9.000  21.250  7.7754e-02
9.000  21.500  7.7267e-02
9.000  21.750  7.7061e-02
9.000  22.000  7.6970e-02
9.000  22.250  7.6927e-02
9.000  22.500  7.6906e-02
9.000  22.750  7.6895e-02
9.000  23.000  7.6889e-02
9.000  23.250  7.6885e-02
9.000  23.500  7.6884e-02
9.000  23.750  7.6882e-02
9.000  24.000  7.6882e-02
9.250  17.000  6.1219e-03
9.250  17.250  6.2696e-03
9.250  17.500  6.7104e-03
9.250  17.750  7.5970e-03
9.250  18.000  9.3544e-03
9.250  18.250  1.2545e-02
9.250  18.500  1.8796e-02
9.250  18.750  3.1703e-02
9.250  19.000  5.6959e-02
9.250  19.250  8.5434e-02
9.250  19.500  9.7428e-02
9.250  19.750  1.0694e-01
9.250  20.000  1.0764e-01
9.250  20.250  9.9866e-02
9.250  20.500  9.1307e-02
9.250  20.750  8.4523e-02
9.250  21.000  8.0826e-02
9.250  21.250  7.8888e-02
9.250  21.500  7.7745e-02
9.250  21.750  7.7229e-02
9.250  22.000  7.7020e-02
9.250  22.250  7.6933e-02
9.250  22.500  7.6927e-02
9.250  22.750  7.6906e-02
9.250  23.000  7.6894e-02
9.250  23.250  7.6888e-02
9.250  23.500  7.6885e-02
9.250  23.750  7.6883e-02
9.250  24.000  7.6883e-02
9.500  17.000  5.5748e-03
9.500  17.250  5.6173e-03
9.500  17.500  5.9194e-03
9.500  17.750  6.5530e-03
9.500  18.000  7.7141e-03
9.500  18.250  9.7509e-03
9.500  18.500  1.3541e-02
9.500  18.750  2.1020e-02
9.500  19.000  3.6731e-02
9.500  19.250  6.4495e-02
9.500  19.500  8.8308e-02
9.500  19.750  9.7301e-02
9.500  20.000  1.0696e-01
9.500  20.250  1.0773e-01
9.500  20.500  9.9966e-02
9.500  20.750  9.1311e-02
9.500  21.000  8.4509e-02
9.500  21.250  8.0792e-02
9.500  21.500  7.8847e-02
9.500  21.750  7.7707e-02
9.500  22.000  7.7206e-02
9.500  22.250  7.6987e-02
9.500  22.500  7.6900e-02
9.500  22.750  7.6858e-02
9.500  23.000  7.6836e-02
9.500  23.250  7.6823e-02
9.500  23.500  7.6841e-02
9.500  23.750  7.6838e-02
9.500  24.000  7.6836e-02
9.750  17.000  5.2407e-03
9.750  17.250  5.1483e-03
9.750  17.500  5.3569e-03
9.750  17.750  5.8745e-03
9.750  18.000  6.7659e-03
9.750  18.250  8.2179e-03
9.750  18.500  1.0706e-02
9.750  18.750  1.5324e-02
9.750  19.000  2.4595e-02
9.750  19.250  4.3847e-02
9.750  19.500  7.2605e-02
9.750  19.750  8.9229e-02
9.750  20.000  9.7203e-02
9.750  20.250  1.0689e-01
9.750  20.500  1.0779e-01
9.750  20.750  1.0005e-01
9.750  21.000  9.1316e-02
9.750  21.250  8.4515e-02
9.750  21.500  8.0812e-02
9.750  21.750  7.8850e-02
9.750  22.000  7.7711e-02
9.750  22.250  7.7215e-02
9.750  22.500  7.6995e-02
9.750  22.750  7.6897e-02
9.750  23.000  7.6856e-02
9.750  23.250  7.6836e-02
9.750  23.500  7.6825e-02
9.750  23.750  7.6819e-02
9.750  24.000  7.6816e-02
10.000  17.000  5.1222e-03
10.000  17.250  4.8454e-03
10.000  17.500  4.9102e-03
10.000  17.750  5.3428e-03
10.000  18.000  6.1649e-03
10.000  18.250  7.3412e-03
10.000  18.500  9.1291e-03
10.000  18.750  1.2258e-02
10.000  19.000  1.8201e-02
10.000  19.250  3.0745e-02
10.000  19.500  5.5555e-02
10.000  19.750  7.9495e-02
10.000  20.000  8.9463e-02
10.000  20.250  9.7172e-02
10.000  20.500  1.0685e-01
10.000  20.750  1.0782e-01
10.000  21.000  1.0012e-01
10.000  21.250  9.1321e-02
10.000  21.500  8.4516e-02
10.000  21.750  8.0821e-02
10.000  22.000  7.8865e-02
10.000  22.250  7.7713e-02
10.000  22.500  7.7221e-02
10.000  22.750  7.7005e-02
10.000  23.000  7.6905e-02
10.000  23.250  7.6857e-02
10.000  23.500  7.6833e-02
10.000  23.750  7.6822e-02
10.000  24.000  7.6816e-02
10.250  17.000  5.2302e-03
10.250  17.250  4.7406e-03
10.250  17.500  4.6333e-03
10.250  17.750  4.9563e-03
10.250  18.000  5.7135e-03
10.250  18.250  6.7631e-03
10.250  18.500  8.2160e-03
10.250  18.750  1.0563e-02
10.250  19.000  1.4825e-02
10.250  19.250  2.2940e-02
10.250  19.500  3.8799e-02
10.250  19.750  6.3645e-02
10.250  20.000  8.2106e-02
10.250  20.250  8.9393e-02
10.250  20.500  9.7338e-02
10.250  20.750  1.0697e-01
10.250  21.000  1.0783e-01
10.250  21.250  1.0017e-01
10.250  21.500  9.1324e-02
10.250  21.750  8.4514e-02
10.250  22.000  8.0824e-02
10.250  22.250  7.8881e-02
10.250  22.500  7.7714e-02
10.250  22.750  7.7225e-02
10.250  23.000  7.7012e-02
10.250  23.250  7.6914e-02
10.250  23.500  7.6867e-02
10.250  23.750  7.6842e-02
10.250  24.000  7.6829e-02
10.500  17.000  5.5160e-03
10.500  17.250  4.8534e-03
10.500  17.500  4.5588e-03
10.500  17.750  4.7375e-03
10.500  18.000  5.3554e-03
10.500  18.250  6.3100e-03
10.500  18.500  7.5661e-03
10.500  18.750  9.3334e-03
10.500  19.000  1.2057e-02
10.500  19.250  1.6833e-02
10.500  19.500  2.6028e-02
10.500  19.750  4.1063e-02
10.500  20.000  5.9201e-02
10.500  20.250  7.6680e-02
10.500  20.500  8.9738e-02
10.500  20.750  9.7861e-02
10.500  21.000  1.0742e-01
10.500  21.250  1.0786e-01
10.500  21.500  1.0021e-01
10.500  21.750  9.1325e-02
10.500  22.000  8.4512e-02
10.500  22.250  8.0825e-02
10.500  22.500  7.8886e-02
10.500  22.750  7.7721e-02
10.500  23.000  7.7227e-02
10.500  23.250  7.7017e-02
10.500  23.500  7.6922e-02
10.500  23.750  7.6876e-02
10.500  24.000  7.6851e-02
10.750  17.000  5.9109e-03
10.750  17.250  5.1377e-03
10.750  17.500  4.7067e-03
10.750  17.750  4.7367e-03
10.750  18.000  5.1548e-03
10.750  18.250  5.8803e-03
10.750  18.500  6.9008e-03
10.750  18.750  8.1889e-03
10.750  19.000  1.0024e-02
10.750  19.250  1.2944e-02
10.750  19.500  1.8457e-02
10.750  19.750  2.8931e-02
10.750  20.000  4.8558e-02
10.750  20.250  7.3501e-02
10.750  20.500  8.4342e-02
10.750  20.750  9.0562e-02
10.750  21.000  9.8873e-02
10.750  21.250  1.0840e-01
10.750  21.500  1.0795e-01
10.750  21.750  1.0023e-01
10.750  22.000  9.1319e-02
10.750  22.250  8.4510e-02
10.750  22.500  8.0825e-02
10.750  22.750  7.8888e-02
10.750  23.000  7.7740e-02
10.750  23.250  7.7228e-02
10.750  23.500  7.7020e-02
10.750  23.750  7.6926e-02
10.750  24.000  7.6882e-02
11.000  17.000  6.2817e-03
11.000  17.250  5.5183e-03
11.000  17.500  5.0212e-03
11.000  17.750  4.9385e-03
11.000  18.000  5.1500e-03
11.000  18.250  5.5728e-03
11.000  18.500  6.2625e-03
11.000  18.750  5.9608e-03
11.000  19.000  5.4935e-03
11.000  19.250  6.3416e-03
11.000  19.500  9.9860e-03
11.000  19.750  1.7907e-02
11.000  20.000  3.1587e-02
11.000  20.250  5.2686e-02
11.000  20.500  7.6905e-02
11.000  20.750  8.5180e-02
11.000  21.000  9.2350e-02
11.000  21.250  1.0091e-01
11.000  21.500  1.1030e-01
11.000  21.750  1.0817e-01
11.000  22.000  1.0024e-01
11.000  22.250  9.1320e-02
11.000  22.500  8.4507e-02
11.000  22.750  8.0825e-02
11.000  23.000  7.8889e-02
11.000  23.250  7.7750e-02
11.000  23.500  7.7234e-02
11.000  23.750  7.7021e-02
11.000  24.000  7.6929e-02
11.250  17.000  6.0588e-03
11.250  17.250  5.8323e-03
11.250  17.500  5.3923e-03
11.250  17.750  5.2603e-03
11.250  18.000  3.8834e-03
11.250  18.250  1.4111e-03
11.250  18.500  -1.3898e-03
11.250  18.750  -3.7525e-03
11.250  19.000  -4.9103e-03
11.250  19.250  -4.0963e-03
11.250  19.500  -5.4387e-04
11.250  19.750  6.5139e-03
11.250  20.000  1.7844e-02
11.250  20.250  3.4213e-02
11.250  20.500  5.6387e-02
11.250  20.750  7.9424e-02
11.250  21.000  8.6935e-02
11.250  21.250  9.5034e-02
11.250  21.500  1.0434e-01
11.250  21.750  1.1306e-01
11.250  22.000  1.0854e-01
11.250  22.250  1.0026e-01
11.250  22.500  9.1307e-02
11.250  22.750  8.4505e-02
11.250  23.000  8.0825e-02
11.250  23.250  7.8889e-02
11.250  23.500  7.7753e-02
11.250  23.750  7.7253e-02
11.250  24.000  7.7023e-02
11.500  17.000  6.1900e-03
11.500  17.250  5.6625e-03
11.500  17.500  5.5595e-03
11.500  17.750  5.5562e-03
11.500  18.000  5.5393e-03
11.500  18.250  5.5070e-03
11.500  18.500  5.5855e-03
11.500  18.750  5.9376e-03
11.500  19.000  6.5928e-03
11.500  19.250  7.5849e-03
11.500  19.500  9.0574e-03
11.500  19.750  1.1427e-02
11.500  20.000  1.5436e-02
11.500  20.250  2.2633e-02
11.500  20.500  3.6194e-02
11.500  20.750  5.9994e-02
11.500  21.000  8.1502e-02
11.500  21.250  8.9705e-02
11.500  21.500  9.9371e-02
11.500  21.750  1.0953e-01
11.500  22.000  1.1609e-01
11.500  22.250  1.0908e-01
11.500  22.500  1.0028e-01
11.500  22.750  9.1307e-02
11.500  23.000  8.4502e-02
11.500  23.250  8.0824e-02
11.500  23.500  7.8890e-02
11.500  23.750  7.7753e-02
11.500  24.000  7.7263e-02
11.750  17.000  6.1240e-03
11.750  17.250  5.8012e-03
11.750  17.500  5.5255e-03
11.750  17.750  5.4593e-03
11.750  18.000  5.4381e-03
11.750  18.250  4.6050e-03
11.750  18.500  3.1398e-03
11.750  18.750  1.5431e-03
11.750  19.000  3.1558e-04
11.750  19.250  -4.2231e-05
11.750  19.500  9.7028e-04
11.750  19.750  3.8537e-03
11.750  20.000  9.1086e-03
11.750  20.250  1.7236e-02
11.750  20.500  2.8735e-02
11.750  20.750  4.4108e-02
11.750  21.000  6.3855e-02
11.750  21.250  8.4325e-02
11.750  21.500  9.3995e-02
11.750  21.750  1.0564e-01
11.750  22.000  1.1596e-01
11.750  22.250  1.1868e-01
11.750  22.500  1.0981e-01
11.750  22.750  1.0031e-01
11.750  23.000  9.1300e-02
11.750  23.250  8.4499e-02
11.750  23.500  8.0823e-02
11.750  23.750  7.8891e-02
11.750  24.000  7.7754e-02
12.000  17.000  5.7054e-03
12.000  17.250  5.6709e-03
12.000  17.500  5.5796e-03
12.000  17.750  5.6003e-03
12.000  18.000  5.6121e-03
12.000  18.250  5.5034e-03
12.000  18.500  6.0881e-03
12.000  18.750  7.5946e-03
12.000  19.000  1.0030e-02
12.000  19.250  1.3401e-02
12.000  19.500  1.7715e-02
12.000  19.750  2.2978e-02
12.000  20.000  2.9199e-02
12.000  20.250  3.6383e-02
12.000  20.500  4.4538e-02
12.000  20.750  5.3671e-02
12.000  21.000  6.3788e-02
12.000  21.250  7.4898e-02
12.000  21.500  8.7006e-02
12.000  21.750  1.0012e-01
12.000  22.000  1.1348e-01
12.000  22.250  1.2261e-01
12.000  22.500  1.2122e-01
12.000  22.750  1.1076e-01
12.000  23.000  1.0036e-01
12.000  23.250  9.1292e-02
12.000  23.500  8.4498e-02
12.000  23.750  8.0821e-02
12.000  24.000  7.8891e-02
12.250  17.000  4.9881e-03
12.250  17.250  5.2112e-03
12.250  17.500  5.3704e-03
12.250  17.750  5.5607e-03
12.250  18.000  5.6407e-03
12.250  18.250  5.5337e-03
12.250  18.500  5.3550e-03
12.250  18.750  5.1928e-03
12.250  19.000  5.1025e-03
12.250  19.250  5.0008e-03
12.250  19.500  5.2260e-03
12.250  19.750  6.2386e-03
12.250  20.000  8.4995e-03
12.250  20.250  1.2469e-02
12.250  20.500  1.8609e-02
12.250  20.750  2.7379e-02
12.250  21.000  3.9240e-02
12.250  21.250  5.4653e-02
12.250  21.500  7.4079e-02
12.250  21.750  9.4730e-02
12.250  22.000  1.0797e-01
12.250  22.250  1.2292e-01
12.250  22.500  1.2919e-01
12.250  22.750  1.2391e-01
12.250  23.000  1.1159e-01
12.250  23.250  1.0046e-01
12.250  23.500  9.1282e-02
12.250  23.750  8.4489e-02
12.250  24.000  8.0819e-02
12.500  17.000  4.2674e-03
12.500  17.250  4.6198e-03
12.500  17.500  4.9703e-03
12.500  17.750  5.2523e-03
12.500  18.000  5.3743e-03
12.500  18.250  5.3592e-03
12.500  18.500  5.2740e-03
12.500  18.750  5.1616e-03
12.500  19.000  5.0473e-03
12.500  19.250  4.9871e-03
12.500  19.500  5.0937e-03
12.500  19.750  5.5913e-03
12.500  20.000  6.5506e-03
12.500  20.250  7.8212e-03
12.500  20.500  9.7973e-03
12.500  20.750  1.3035e-02
12.500  21.000  1.8435e-02
12.500  21.250  2.7898e-02
12.500  21.500  4.6038e-02
12.500  21.750  8.2001e-02
12.500  22.000  1.0233e-01
12.500  22.250  1.1745e-01
12.500  22.500  1.3256e-01
12.500  22.750  1.3595e-01
12.500  23.000  1.2667e-01
12.500  23.250  1.1283e-01
12.500  23.500  1.0057e-01
12.500  23.750  9.1273e-02
12.500  24.000  8.4485e-02
12.750  17.000  3.7199e-03
12.750  17.250  4.0727e-03
12.750  17.500  4.3891e-03
12.750  17.750  4.6517e-03
12.750  18.000  4.8661e-03
12.750  18.250  5.0118e-03
12.750  18.500  5.0667e-03
12.750  18.750  5.0503e-03
12.750  19.000  4.9889e-03
12.750  19.250  4.9102e-03
12.750  19.500  4.8740e-03
12.750  19.750  5.0035e-03
12.750  20.000  5.4427e-03
12.750  20.250  6.4990e-03
12.750  20.500  7.9185e-03
12.750  20.750  1.0132e-02
12.750  21.000  1.3756e-02
12.750  21.250  1.9858e-02
12.750  21.500  3.0172e-02
12.750  21.750  5.0633e-02
12.750  22.000  9.2637e-02
12.750  22.250  1.1126e-01
12.750  22.500  1.2899e-01
12.750  22.750  1.4213e-01
12.750  23.000  1.4260e-01
12.750  23.250  1.2982e-01
12.750  23.500  1.1391e-01
12.750  23.750  1.0069e-01
12.750  24.000  9.1268e-02
13.000  17.000  5.5420e-03
13.000  17.250  4.0581e-03
13.000  17.500  3.8121e-03
13.000  17.750  3.9845e-03
13.000  18.000  4.2473e-03
13.000  18.250  4.5409e-03
13.000  18.500  4.8053e-03
13.000  18.750  4.9810e-03
13.000  19.000  5.0081e-03
13.000  19.250  4.8269e-03
13.000  19.500  4.7688e-03
13.000  19.750  6.3264e-03
13.000  20.000  9.7704e-03
13.000  20.250  1.4968e-02
13.000  20.500  2.1788e-02
13.000  20.750  3.0097e-02
13.000  21.000  3.9763e-02
13.000  21.250  5.0653e-02
13.000  21.500  6.2635e-02
13.000  21.750  7.5577e-02
13.000  22.000  8.9346e-02
13.000  22.250  1.0381e-01
13.000  22.500  1.2034e-01
13.000  22.750  1.4083e-01
13.000  23.000  1.5144e-01
13.000  23.250  1.4942e-01
13.000  23.500  1.3269e-01
13.000  23.750  1.1495e-01
13.000  24.000  1.0087e-01
13.250  17.000  5.2602e-03
13.250  17.250  4.9119e-03
13.250  17.500  4.9374e-03
13.250  17.750  5.4243e-03
13.250  18.000  6.3886e-03
13.250  18.250  7.8463e-03
13.250  18.500  9.8135e-03
13.250  18.750  1.2306e-02
13.250  19.000  1.5340e-02
13.250  19.250  1.8932e-02
13.250  19.500  2.3097e-02
13.250  19.750  2.7851e-02
13.250  20.000  3.3211e-02
13.250  20.250  3.9193e-02
13.250  20.500  4.5812e-02
13.250  20.750  5.3084e-02
13.250  21.000  6.1027e-02
13.250  21.250  6.9654e-02
13.250  21.500  7.8984e-02
13.250  21.750  8.9031e-02
13.250  22.000  9.9811e-02
13.250  22.250  1.1134e-01
13.250  22.500  1.2364e-01
13.250  22.750  1.3671e-01
13.250  23.000  1.5059e-01
13.250  23.250  1.6166e-01
13.250  23.500  1.5592e-01
13.250  23.750  1.3554e-01
13.250  24.000  1.1587e-01
13.500  17.000  5.1134e-03
13.500  17.250  4.8087e-03
13.500  17.500  4.9224e-03
13.500  17.750  5.5445e-03
13.500  18.000  6.6826e-03
13.500  18.250  8.3447e-03
13.500  18.500  1.0538e-02
13.500  18.750  1.3271e-02
13.500  19.000  1.6552e-02
13.500  19.250  2.0387e-02
13.500  19.500  2.4785e-02
13.500  19.750  2.9754e-02
13.500  20.000  3.5300e-02
13.500  20.250  4.1433e-02
13.500  20.500  4.8160e-02
13.500  20.750  5.5488e-02
13.500  21.000  6.3426e-02
13.500  21.250  7.1981e-02
13.500  21.500  8.1161e-02
13.500  21.750  9.0973e-02
13.500  22.000  1.0143e-01
13.500  22.250  1.1253e-01
13.500  22.500  1.2428e-01
13.500  22.750  1.3671e-01
13.500  23.000  1.4980e-01
13.500  23.250  1.6357e-01
13.500  23.500  1.7346e-01
13.500  23.750  1.6316e-01
13.500  24.000  1.3844e-01
13.750  17.000  5.0779e-03
13.750  17.250  4.6527e-03
13.750  17.500  4.1007e-03
13.750  17.750  3.4715e-03
13.750  18.000  2.8585e-03
13.750  18.250  2.3555e-03
13.750  18.500  2.0559e-03
13.750  18.750  2.0534e-03
13.750  19.000  2.4416e-03
13.750  19.250  3.3140e-03
13.750  19.500  4.7641e-03
13.750  19.750  6.8857e-03
13.750  20.000  9.7722e-03
13.750  20.250  1.3517e-02
13.750  20.500  1.8215e-02
13.750  20.750  2.3958e-02
13.750  21.000  3.0840e-02
13.750  21.250  3.8955e-02
13.750  21.500  4.8397e-02
13.750  21.750  5.9258e-02
13.750  22.000  7.1634e-02
13.750  22.250  8.5616e-02
13.750  22.500  1.0130e-01
13.750  22.750  1.1878e-01
13.750  23.000  1.3814e-01
13.750  23.250  1.5949e-01
13.750  23.500  1.8039e-01
13.750  23.750  1.8747e-01
13.750  24.000  1.7030e-01
14.000  17.000  5.0646e-03
14.000  17.250  4.8353e-03
14.000  17.500  4.3995e-03
14.000  17.750  3.8000e-03
14.000  18.000  3.1422e-03
14.000  18.250  2.5312e-03
14.000  18.500  2.0723e-03
14.000  18.750  1.8708e-03
14.000  19.000  2.0318e-03
14.000  19.250  2.6606e-03
14.000  19.500  3.8625e-03
14.000  19.750  5.7427e-03
14.000  20.000  8.4064e-03
14.000  20.250  1.1959e-02
14.000  20.500  1.6505e-02
14.000  20.750  2.2151e-02
14.000  21.000  2.9001e-02
14.000  21.250  3.7161e-02
14.000  21.500  4.6736e-02
14.000  21.750  5.7831e-02
14.000  22.000  7.0552e-02
14.000  22.250  8.5003e-02
14.000  22.500  1.0129e-01
14.000  22.750  1.1952e-01
14.000  23.000  1.3979e-01
14.000  23.250  1.6222e-01
14.000  23.500  1.8623e-01
14.000  23.750  2.0470e-01
14.000  24.000  2.0370e-01
