InwC 8329.68A  relative to Inci 1215.00A scaled to 1215A.
Hden   Phi(H)  Eq_Width (A)
7.000  17.000  1.9202e-02
7.000  17.250  2.5536e-02
7.000  17.500  3.2708e-02
7.000  17.750  3.3772e-02
7.000  18.000  3.4281e-02
7.000  18.250  3.4306e-02
7.000  18.500  3.4305e-02
7.000  18.750  3.4305e-02
7.000  19.000  3.4309e-02
7.000  19.250  3.4312e-02
7.000  19.500  3.4313e-02
7.000  19.750  3.4314e-02
7.000  20.000  3.4314e-02
7.000  20.250  3.4314e-02
7.000  20.500  3.4314e-02
7.000  20.750  3.4314e-02
7.000  21.000  3.4314e-02
7.000  21.250  3.4314e-02
7.000  21.500  3.4314e-02
7.000  21.750  3.4314e-02
7.000  22.000  3.4314e-02
7.000  22.250  3.4314e-02
7.000  22.500  3.4314e-02
7.000  22.750  3.4315e-02
7.000  23.000  3.4315e-02
7.000  23.250  3.4315e-02
7.000  23.500  3.4315e-02
7.000  23.750  3.4315e-02
7.000  24.000  3.4315e-02
7.250  17.000  1.3851e-02
7.250  17.250  1.9765e-02
7.250  17.500  2.5875e-02
7.250  17.750  3.2712e-02
7.250  18.000  3.3781e-02
7.250  18.250  3.4281e-02
7.250  18.500  3.4306e-02
7.250  18.750  3.4305e-02
7.250  19.000  3.4305e-02
7.250  19.250  3.4309e-02
7.250  19.500  3.4312e-02
7.250  19.750  3.4313e-02
7.250  20.000  3.4314e-02
7.250  20.250  3.4314e-02
7.250  20.500  3.4314e-02
7.250  20.750  3.4314e-02
7.250  21.000  3.4314e-02
7.250  21.250  3.4314e-02
7.250  21.500  3.4314e-02
7.250  21.750  3.4314e-02
7.250  22.000  3.4314e-02
7.250  22.250  3.4314e-02
7.250  22.500  3.4314e-02
7.250  22.750  3.4314e-02
7.250  23.000  3.4314e-02
7.250  23.250  3.4318e-02
7.250  23.500  3.4314e-02
7.250  23.750  3.4314e-02
7.250  24.000  3.4314e-02
7.500  17.000  9.2435e-03
7.500  17.250  1.4222e-02
7.500  17.500  2.0325e-02
7.500  17.750  2.6253e-02
7.500  18.000  3.2717e-02
7.500  18.250  3.3789e-02
7.500  18.500  3.4281e-02
7.500  18.750  3.4306e-02
7.500  19.000  3.4305e-02
7.500  19.250  3.4305e-02
7.500  19.500  3.4309e-02
7.500  19.750  3.4312e-02
7.500  20.000  3.4313e-02
7.500  20.250  3.4314e-02
7.500  20.500  3.4314e-02
7.500  20.750  3.4314e-02
7.500  21.000  3.4314e-02
7.500  21.250  3.4314e-02
7.500  21.500  3.4314e-02
7.500  21.750  3.4314e-02
7.500  22.000  3.4314e-02
7.500  22.250  3.4314e-02
7.500  22.500  3.4314e-02
7.500  22.750  3.4314e-02
7.500  23.000  3.4314e-02
7.500  23.250  3.4314e-02
7.500  23.500  3.4314e-02
7.500  23.750  3.4314e-02
7.500  24.000  3.4314e-02
7.750  17.000  6.1669e-03
7.750  17.250  9.4824e-03
7.750  17.500  1.4686e-02
7.750  17.750  2.1050e-02
7.750  18.000  2.6707e-02
7.750  18.250  3.2720e-02
7.750  18.500  3.3797e-02
7.750  18.750  3.4281e-02
7.750  19.000  3.4307e-02
7.750  19.250  3.4306e-02
7.750  19.500  3.4305e-02
7.750  19.750  3.4309e-02
7.750  20.000  3.4312e-02
7.750  20.250  3.4313e-02
7.750  20.500  3.4314e-02
7.750  20.750  3.4314e-02
7.750  21.000  3.4314e-02
7.750  21.250  3.4314e-02
7.750  21.500  3.4314e-02
7.750  21.750  3.4314e-02
7.750  22.000  3.4314e-02
7.750  22.250  3.4314e-02
7.750  22.500  3.4314e-02
7.750  22.750  3.4314e-02
7.750  23.000  3.4314e-02
7.750  23.250  3.4314e-02
7.750  23.500  3.4314e-02
7.750  23.750  3.4314e-02
7.750  24.000  3.4314e-02
8.000  17.000  4.1994e-03
8.000  17.250  6.3190e-03
8.000  17.500  9.7998e-03
8.000  17.750  1.5310e-02
8.000  18.000  2.1958e-02
8.000  18.250  2.7172e-02
8.000  18.500  3.2722e-02
8.000  18.750  3.3801e-02
8.000  19.000  3.4281e-02
8.000  19.250  3.4306e-02
8.000  19.500  3.4305e-02
8.000  19.750  3.4305e-02
8.000  20.000  3.4309e-02
8.000  20.250  3.4312e-02
8.000  20.500  3.4313e-02
8.000  20.750  3.4314e-02
8.000  21.000  3.4314e-02
8.000  21.250  3.4314e-02
8.000  21.500  3.4314e-02
8.000  21.750  3.4314e-02
8.000  22.000  3.4314e-02
8.000  22.250  3.4314e-02
8.000  22.500  3.4314e-02
8.000  22.750  3.4314e-02
8.000  23.000  3.4314e-02
8.000  23.250  3.4314e-02
8.000  23.500  3.4314e-02
8.000  23.750  3.4314e-02
8.000  24.000  3.4314e-02
8.250  17.000  2.9452e-03
8.250  17.250  4.3332e-03
8.250  17.500  6.5998e-03
8.250  17.750  1.0387e-02
8.250  18.000  1.6433e-02
8.250  18.250  2.3189e-02
8.250  18.500  2.7937e-02
8.250  18.750  3.2725e-02
8.250  19.000  3.3811e-02
8.250  19.250  3.4281e-02
8.250  19.500  3.4306e-02
8.250  19.750  3.4305e-02
8.250  20.000  3.4305e-02
8.250  20.250  3.4309e-02
8.250  20.500  3.4312e-02
8.250  20.750  3.4313e-02
8.250  21.000  3.4314e-02
8.250  21.250  3.4314e-02
8.250  21.500  3.4314e-02
8.250  21.750  3.4314e-02
8.250  22.000  3.4314e-02
8.250  22.250  3.4314e-02
8.250  22.500  3.4314e-02
8.250  22.750  3.4314e-02
8.250  23.000  3.4314e-02
8.250  23.250  3.4314e-02
8.250  23.500  3.4314e-02
8.250  23.750  3.4314e-02
8.250  24.000  3.4314e-02
8.500  17.000  2.0983e-03
8.500  17.250  3.0430e-03
8.500  17.500  4.5453e-03
8.500  17.750  7.1005e-03
8.500  18.000  1.1454e-02
8.500  18.250  1.8186e-02
8.500  18.500  2.4599e-02
8.500  18.750  2.8740e-02
8.500  19.000  3.2728e-02
8.500  19.250  3.3821e-02
8.500  19.500  3.4281e-02
8.500  19.750  3.4306e-02
8.500  20.000  3.4305e-02
8.500  20.250  3.4305e-02
8.500  20.500  3.4309e-02
8.500  20.750  3.4312e-02
8.500  21.000  3.4313e-02
8.500  21.250  3.4314e-02
8.500  21.500  3.4314e-02
8.500  21.750  3.4314e-02
8.500  22.000  3.4314e-02
8.500  22.250  3.4314e-02
8.500  22.500  3.4314e-02
8.500  22.750  3.4314e-02
8.500  23.000  3.4314e-02
8.500  23.250  3.4314e-02
8.500  23.500  3.4314e-02
8.500  23.750  3.4314e-02
8.500  24.000  3.4314e-02
8.750  17.000  1.5047e-03
8.750  17.250  2.1687e-03
8.750  17.500  3.2007e-03
8.750  17.750  4.9137e-03
8.750  18.000  7.9495e-03
8.750  18.250  1.3115e-02
8.750  18.500  2.0246e-02
8.750  18.750  2.5788e-02
8.750  19.000  2.9418e-02
8.750  19.250  3.2729e-02
8.750  19.500  3.3833e-02
8.750  19.750  3.4281e-02
8.750  20.000  3.4306e-02
8.750  20.250  3.4305e-02
8.750  20.500  3.4305e-02
8.750  20.750  3.4309e-02
8.750  21.000  3.4312e-02
8.750  21.250  3.4313e-02
8.750  21.500  3.4314e-02
8.750  21.750  3.4314e-02
8.750  22.000  3.4314e-02
8.750  22.250  3.4314e-02
8.750  22.500  3.4314e-02
8.750  22.750  3.4314e-02
8.750  23.000  3.4314e-02
8.750  23.250  3.4314e-02
8.750  23.500  3.4314e-02
8.750  23.750  3.4314e-02
8.750  24.000  3.4314e-02
9.000  17.000  1.0813e-03
9.000  17.250  1.5567e-03
9.000  17.500  2.2864e-03
9.000  17.750  3.4792e-03
9.000  18.000  5.5798e-03
9.000  18.250  9.3169e-03
9.000  18.500  1.5103e-02
9.000  18.750  2.2113e-02
9.000  19.000  2.6763e-02
9.000  19.250  3.0287e-02
9.000  19.500  3.2724e-02
9.000  19.750  3.3844e-02
9.000  20.000  3.4281e-02
9.000  20.250  3.4306e-02
9.000  20.500  3.4305e-02
9.000  20.750  3.4305e-02
9.000  21.000  3.4309e-02
9.000  21.250  3.4312e-02
9.000  21.500  3.4313e-02
9.000  21.750  3.4314e-02
9.000  22.000  3.4314e-02
9.000  22.250  3.4314e-02
9.000  22.500  3.4314e-02
9.000  22.750  3.4314e-02
9.000  23.000  3.4314e-02
9.000  23.250  3.4314e-02
9.000  23.500  3.4314e-02
9.000  23.750  3.4314e-02
9.000  24.000  3.4314e-02
9.250  17.000  7.7646e-04
9.250  17.250  1.1188e-03
9.250  17.500  1.6449e-03
9.250  17.750  2.5012e-03
9.250  18.000  4.0128e-03
9.250  18.250  6.7223e-03
9.250  18.500  1.1007e-02
9.250  18.750  1.7093e-02
9.250  19.000  2.3843e-02
9.250  19.250  2.8194e-02
9.250  19.500  3.1362e-02
9.250  19.750  3.2714e-02
9.250  20.000  3.3854e-02
9.250  20.250  3.4281e-02
9.250  20.500  3.4306e-02
9.250  20.750  3.4304e-02
9.250  21.000  3.4305e-02
9.250  21.250  3.4309e-02
9.250  21.500  3.4310e-02
9.250  21.750  3.4293e-02
9.250  22.000  3.4284e-02
9.250  22.250  3.4293e-02
9.250  22.500  3.4314e-02
9.250  22.750  3.4314e-02
9.250  23.000  3.4314e-02
9.250  23.250  3.4314e-02
9.250  23.500  3.4314e-02
9.250  23.750  3.4314e-02
9.250  24.000  3.4314e-02
9.500  17.000  5.5712e-04
9.500  17.250  8.0428e-04
9.500  17.500  1.1846e-03
9.500  17.750  1.8126e-03
9.500  18.000  2.9338e-03
9.500  18.250  4.9401e-03
9.500  18.500  8.0913e-03
9.500  18.750  1.2667e-02
9.500  19.000  1.8807e-02
9.500  19.250  2.5550e-02
9.500  19.500  2.9010e-02
9.500  19.750  3.2020e-02
9.500  20.000  3.2698e-02
9.500  20.250  3.3861e-02
9.500  20.500  3.4280e-02
9.500  20.750  3.4305e-02
9.500  21.000  3.4302e-02
9.500  21.250  3.4294e-02
9.500  21.500  3.4281e-02
9.500  21.750  3.4280e-02
9.500  22.000  3.4273e-02
9.500  22.250  3.4263e-02
9.500  22.500  3.4258e-02
9.500  22.750  3.4259e-02
9.500  23.000  3.4260e-02
9.500  23.250  3.4260e-02
9.500  23.500  3.4281e-02
9.500  23.750  3.4280e-02
9.500  24.000  3.4281e-02
9.750  17.000  3.9885e-04
9.750  17.250  5.7745e-04
9.750  17.500  8.5416e-04
9.750  17.750  1.3168e-03
9.750  18.000  2.1601e-03
9.750  18.250  3.6745e-03
9.750  18.500  6.0178e-03
9.750  18.750  9.4007e-03
9.750  19.000  1.4161e-02
9.750  19.250  2.0687e-02
9.750  19.500  2.6467e-02
9.750  19.750  2.9958e-02
9.750  20.000  3.1989e-02
9.750  20.250  3.2676e-02
9.750  20.500  3.3867e-02
9.750  20.750  3.4278e-02
9.750  21.000  3.4304e-02
9.750  21.250  3.4303e-02
9.750  21.500  3.4301e-02
9.750  21.750  3.4292e-02
9.750  22.000  3.4281e-02
9.750  22.250  3.4278e-02
9.750  22.500  3.4271e-02
9.750  22.750  3.4264e-02
9.750  23.000  3.4260e-02
9.750  23.250  3.4258e-02
9.750  23.500  3.4258e-02
9.750  23.750  3.4262e-02
9.750  24.000  3.4259e-02
10.000  17.000  2.8568e-04
10.000  17.250  4.1424e-04
10.000  17.500  6.1621e-04
10.000  17.750  9.5909e-04
10.000  18.000  1.5953e-03
10.000  18.250  2.7209e-03
10.000  18.500  4.4714e-03
10.000  18.750  6.9728e-03
10.000  19.000  1.0500e-02
10.000  19.250  1.5445e-02
10.000  19.500  2.2172e-02
10.000  19.750  2.7108e-02
10.000  20.000  3.0809e-02
10.000  20.250  3.1946e-02
10.000  20.500  3.2672e-02
10.000  20.750  3.3879e-02
10.000  21.000  3.4274e-02
10.000  21.250  3.4304e-02
10.000  21.500  3.4303e-02
10.000  21.750  3.4303e-02
10.000  22.000  3.4303e-02
10.000  22.250  3.4282e-02
10.000  22.500  3.4281e-02
10.000  22.750  3.4276e-02
10.000  23.000  3.4271e-02
10.000  23.250  3.4267e-02
10.000  23.500  3.4265e-02
10.000  23.750  3.4264e-02
10.000  24.000  3.4263e-02
10.250  17.000  2.0535e-04
10.250  17.250  2.9753e-04
10.250  17.500  4.4420e-04
10.250  17.750  6.9942e-04
10.250  18.000  1.1760e-03
10.250  18.250  2.0198e-03
10.250  18.500  3.3123e-03
10.250  18.750  5.1569e-03
10.250  19.000  7.7416e-03
10.250  19.250  1.1472e-02
10.250  19.500  1.6923e-02
10.250  19.750  2.2761e-02
10.250  20.000  2.7866e-02
10.250  20.250  3.1392e-02
10.250  20.500  3.1913e-02
10.250  20.750  3.2658e-02
10.250  21.000  3.3904e-02
10.250  21.250  3.4267e-02
10.250  21.500  3.4302e-02
10.250  21.750  3.4303e-02
10.250  22.000  3.4304e-02
10.250  22.250  3.4307e-02
10.250  22.500  3.4287e-02
10.250  22.750  3.4282e-02
10.250  23.000  3.4280e-02
10.250  23.250  3.4277e-02
10.250  23.500  3.4274e-02
10.250  23.750  3.4272e-02
10.250  24.000  3.4271e-02
10.500  17.000  1.4823e-04
10.500  17.250  2.1424e-04
10.500  17.500  3.2099e-04
10.500  17.750  5.1045e-04
10.500  18.000  8.6453e-04
10.500  18.250  1.4930e-03
10.500  18.500  2.4207e-03
10.500  18.750  3.7622e-03
10.500  19.000  5.6453e-03
10.500  19.250  8.3237e-03
10.500  19.500  1.2196e-02
10.500  19.750  1.7609e-02
10.500  20.000  2.3395e-02
10.500  20.250  2.8652e-02
10.500  20.500  3.1446e-02
10.500  20.750  3.1888e-02
10.500  21.000  3.2671e-02
10.500  21.250  3.3948e-02
10.500  21.500  3.4259e-02
10.500  21.750  3.4299e-02
10.500  22.000  3.4302e-02
10.500  22.250  3.4303e-02
10.500  22.500  3.4307e-02
10.500  22.750  3.4302e-02
10.500  23.000  3.4283e-02
10.500  23.250  3.4282e-02
10.500  23.500  3.4280e-02
10.500  23.750  3.4279e-02
10.500  24.000  3.4277e-02
10.750  17.000  1.0757e-04
10.750  17.250  1.5465e-04
10.750  17.500  2.3235e-04
10.750  17.750  3.7210e-04
10.750  18.000  6.3284e-04
10.750  18.250  1.0848e-03
10.750  18.500  1.7571e-03
10.750  18.750  2.7071e-03
10.750  19.000  4.0723e-03
10.750  19.250  6.0000e-03
10.750  19.500  8.7595e-03
10.750  19.750  1.2727e-02
10.750  20.000  1.8174e-02
10.750  20.250  2.4054e-02
10.750  20.500  2.9504e-02
10.750  20.750  3.1386e-02
10.750  21.000  3.1863e-02
10.750  21.250  3.2718e-02
10.750  21.500  3.4023e-02
10.750  21.750  3.4243e-02
10.750  22.000  3.4291e-02
10.750  22.250  3.4299e-02
10.750  22.500  3.4302e-02
10.750  22.750  3.4307e-02
10.750  23.000  3.4308e-02
10.750  23.250  3.4288e-02
10.750  23.500  3.4283e-02
10.750  23.750  3.4282e-02
10.750  24.000  3.4282e-02
11.000  17.000  7.7613e-05
11.000  17.250  1.1185e-04
11.000  17.500  1.6807e-04
11.000  17.750  2.7037e-04
11.000  18.000  4.5868e-04
11.000  18.250  7.7852e-04
11.000  18.500  1.2681e-03
11.000  18.750  1.9464e-03
11.000  19.000  2.9308e-03
11.000  19.250  4.2997e-03
11.000  19.500  6.2576e-03
11.000  19.750  9.0579e-03
11.000  20.000  1.3146e-02
11.000  20.250  1.8715e-02
11.000  20.500  2.4734e-02
11.000  20.750  3.0171e-02
11.000  21.000  3.1305e-02
11.000  21.250  3.1846e-02
11.000  21.500  3.2869e-02
11.000  21.750  3.4081e-02
11.000  22.000  3.4222e-02
11.000  22.250  3.4280e-02
11.000  22.500  3.4296e-02
11.000  22.750  3.4300e-02
11.000  23.000  3.4306e-02
11.000  23.250  3.4310e-02
11.000  23.500  3.4302e-02
11.000  23.750  3.4285e-02
11.000  24.000  3.4283e-02
11.250  17.000  5.6461e-05
11.250  17.250  8.0329e-05
11.250  17.500  1.2091e-04
11.250  17.750  1.9473e-04
11.250  18.000  3.2848e-04
11.250  18.250  5.5169e-04
11.250  18.500  8.8280e-04
11.250  18.750  1.3779e-03
11.250  19.000  2.0735e-03
11.250  19.250  3.0525e-03
11.250  19.500  4.4444e-03
11.250  19.750  6.4294e-03
11.250  20.000  9.3016e-03
11.250  20.250  1.3535e-02
11.250  20.500  1.9256e-02
11.250  20.750  2.5384e-02
11.250  21.000  3.0438e-02
11.250  21.250  3.1196e-02
11.250  21.500  3.1914e-02
11.250  21.750  3.3094e-02
11.250  22.000  3.4094e-02
11.250  22.250  3.4191e-02
11.250  22.500  3.4263e-02
11.250  22.750  3.4291e-02
11.250  23.000  3.4297e-02
11.250  23.250  3.4305e-02
11.250  23.500  3.4311e-02
11.250  23.750  3.4309e-02
11.250  24.000  3.4295e-02
11.500  17.000  4.1811e-05
11.500  17.250  5.8272e-05
11.500  17.500  8.6584e-05
11.500  17.750  1.3852e-04
11.500  18.000  2.3152e-04
11.500  18.250  3.8650e-04
11.500  18.500  6.1671e-04
11.500  18.750  9.5737e-04
11.500  19.000  1.4532e-03
11.500  19.250  2.1453e-03
11.500  19.500  3.1363e-03
11.500  19.750  4.5549e-03
11.500  20.000  6.5834e-03
11.500  20.250  9.5283e-03
11.500  20.500  1.3875e-02
11.500  20.750  1.9718e-02
11.500  21.000  2.5920e-02
11.500  21.250  3.0226e-02
11.500  21.500  3.1155e-02
11.500  21.750  3.1977e-02
11.500  22.000  3.3340e-02
11.500  22.250  3.4027e-02
11.500  22.500  3.4146e-02
11.500  22.750  3.4235e-02
11.500  23.000  3.4282e-02
11.500  23.250  3.4293e-02
11.500  23.500  3.4302e-02
11.500  23.750  3.4310e-02
11.500  24.000  3.4311e-02
11.750  17.000  3.1770e-05
11.750  17.250  4.3128e-05
11.750  17.500  6.2551e-05
11.750  17.750  9.8189e-05
11.750  18.000  1.6230e-04
11.750  18.250  2.6815e-04
11.750  18.500  4.2642e-04
11.750  18.750  6.6609e-04
11.750  19.000  1.0053e-03
11.750  19.250  1.4959e-03
11.750  19.500  2.1979e-03
11.750  19.750  3.2055e-03
11.750  20.000  4.6544e-03
11.750  20.250  6.6965e-03
11.750  20.500  9.7159e-03
11.750  20.750  1.4140e-02
11.750  21.000  2.0074e-02
11.750  21.250  2.6195e-02
11.750  21.500  2.9926e-02
11.750  21.750  3.0986e-02
11.750  22.000  3.2058e-02
11.750  22.250  3.3478e-02
11.750  22.500  3.3927e-02
11.750  22.750  3.4080e-02
11.750  23.000  3.4196e-02
11.750  23.250  3.4269e-02
11.750  23.500  3.4285e-02
11.750  23.750  3.4298e-02
11.750  24.000  3.4309e-02
12.000  17.000  2.4362e-05
12.000  17.250  3.2757e-05
12.000  17.500  4.6008e-05
12.000  17.750  6.9959e-05
12.000  18.000  1.1276e-04
12.000  18.250  1.8428e-04
12.000  18.500  2.9350e-04
12.000  18.750  4.5556e-04
12.000  19.000  6.9292e-04
12.000  19.250  1.0367e-03
12.000  19.500  1.5345e-03
12.000  19.750  2.2508e-03
12.000  20.000  3.2715e-03
12.000  20.250  4.7322e-03
12.000  20.500  6.8270e-03
12.000  20.750  9.8937e-03
12.000  21.000  1.4292e-02
12.000  21.250  2.0155e-02
12.000  21.500  2.6080e-02
12.000  21.750  2.9318e-02
12.000  22.000  3.0726e-02
12.000  22.250  3.2106e-02
12.000  22.500  3.3387e-02
12.000  22.750  3.3778e-02
12.000  23.000  3.3978e-02
12.000  23.250  3.4133e-02
12.000  23.500  3.4249e-02
12.000  23.750  3.4274e-02
12.000  24.000  3.4292e-02
12.250  17.000  1.3663e-05
12.250  17.250  2.5514e-05
12.250  17.500  3.4897e-05
12.250  17.750  5.0782e-05
12.250  18.000  7.8848e-05
12.250  18.250  1.2667e-04
12.250  18.500  2.0049e-04
12.250  18.750  3.1177e-04
12.250  19.000  4.7564e-04
12.250  19.250  7.1926e-04
12.250  19.500  1.0682e-03
12.250  19.750  1.5718e-03
12.250  20.000  2.2890e-03
12.250  20.250  3.3275e-03
12.250  20.500  4.7991e-03
12.250  20.750  6.9040e-03
12.250  21.000  9.9691e-03
12.250  21.250  1.4235e-02
12.250  21.500  1.9851e-02
12.250  21.750  2.5550e-02
12.250  22.000  2.8477e-02
12.250  22.250  3.0329e-02
12.250  22.500  3.1970e-02
12.250  22.750  3.3126e-02
12.250  23.000  3.3561e-02
12.250  23.250  3.3822e-02
12.250  23.500  3.4037e-02
12.250  23.750  3.4217e-02
12.250  24.000  3.4257e-02
12.500  17.000  6.6667e-06
12.500  17.250  1.5309e-05
12.500  17.500  2.6914e-05
12.500  17.750  3.8025e-05
12.500  18.000  5.6626e-05
12.500  18.250  8.7407e-05
12.500  18.500  1.3687e-04
12.500  18.750  2.1350e-04
12.500  19.000  3.2708e-04
12.500  19.250  4.9613e-04
12.500  19.500  7.4000e-04
12.500  19.750  1.0919e-03
12.500  20.000  1.5999e-03
12.500  20.250  2.3269e-03
12.500  20.500  3.3623e-03
12.500  20.750  4.8512e-03
12.500  21.000  6.9664e-03
12.500  21.250  9.9369e-03
12.500  21.500  1.3958e-02
12.500  21.750  1.9270e-02
12.500  22.000  2.4445e-02
12.500  22.250  2.7429e-02
12.500  22.500  2.9836e-02
12.500  22.750  3.1510e-02
12.500  23.000  3.2670e-02
12.500  23.250  3.3227e-02
12.500  23.500  3.3582e-02
12.500  23.750  3.3884e-02
12.500  24.000  3.4169e-02
12.750  17.000  3.4568e-06
12.750  17.250  7.4074e-06
12.750  17.500  1.6296e-05
12.750  17.750  2.8477e-05
12.750  18.000  4.1152e-05
12.750  18.250  6.1317e-05
12.750  18.500  9.4321e-05
12.750  18.750  1.4593e-04
12.750  19.000  2.2403e-04
12.750  19.250  3.3934e-04
12.750  19.500  5.0823e-04
12.750  19.750  7.5366e-04
12.750  20.000  1.1091e-03
12.750  20.250  1.6211e-03
12.750  20.500  2.3528e-03
12.750  20.750  3.3970e-03
12.750  21.000  4.8777e-03
12.750  21.250  6.9606e-03
12.750  21.500  9.7512e-03
12.750  21.750  1.3472e-02
12.750  22.000  1.8189e-02
12.750  22.250  2.2709e-02
12.750  22.500  2.6084e-02
12.750  22.750  2.8639e-02
12.750  23.000  3.0626e-02
12.750  23.250  3.1993e-02
12.750  23.500  3.2739e-02
12.750  23.750  3.3212e-02
12.750  24.000  3.3642e-02
13.000  17.000  9.0535e-07
13.000  17.250  2.1399e-06
13.000  17.500  6.0905e-06
13.000  17.750  1.4486e-05
13.000  18.000  2.6420e-05
13.000  18.250  4.0988e-05
13.000  18.500  6.5432e-05
13.000  18.750  9.9506e-05
13.000  19.000  1.5218e-04
13.000  19.250  2.3111e-04
13.000  19.500  3.4872e-04
13.000  19.750  5.1844e-04
13.000  20.000  7.6519e-04
13.000  20.250  1.1226e-03
13.000  20.500  1.6379e-03
13.000  20.750  2.3768e-03
13.000  21.000  3.4224e-03
13.000  21.250  4.8808e-03
13.000  21.500  6.8533e-03
13.000  21.750  9.4245e-03
13.000  22.000  1.2560e-02
13.000  22.250  1.6550e-02
13.000  22.500  2.0645e-02
13.000  22.750  2.4081e-02
13.000  23.000  2.6952e-02
13.000  23.250  2.9335e-02
13.000  23.500  3.1023e-02
13.000  23.750  3.2016e-02
13.000  24.000  3.2649e-02
13.250  17.000  1.0000e-07
13.250  17.250  1.0700e-06
13.250  17.500  2.3868e-06
13.250  17.750  5.5967e-06
13.250  18.000  1.3663e-05
13.250  18.250  2.6831e-05
13.250  18.500  4.2305e-05
13.250  18.750  6.9053e-05
13.250  19.000  1.0362e-04
13.250  19.250  1.5671e-04
13.250  19.500  2.3704e-04
13.250  19.750  3.5424e-04
13.250  20.000  5.2477e-04
13.250  20.250  7.7325e-04
13.250  20.500  1.1335e-03
13.250  20.750  1.6527e-03
13.250  21.000  2.3946e-03
13.250  21.250  3.4345e-03
13.250  21.500  4.8319e-03
13.250  21.750  6.6184e-03
13.250  22.000  8.6821e-03
13.250  22.250  1.0994e-02
13.250  22.500  1.4308e-02
13.250  22.750  1.8001e-02
13.250  23.000  2.1468e-02
13.250  23.250  2.4745e-02
13.250  23.500  2.7603e-02
13.250  23.750  2.9666e-02
13.250  24.000  3.0968e-02
13.500  17.000  1.0000e-07
13.500  17.250  1.0000e-07
13.500  17.500  1.3169e-06
13.500  17.750  2.9630e-06
13.500  18.000  6.8313e-06
13.500  18.250  1.5802e-05
13.500  18.500  2.8971e-05
13.500  18.750  4.5844e-05
13.500  19.000  7.1605e-05
13.500  19.250  1.0667e-04
13.500  19.500  1.6033e-04
13.500  19.750  2.3992e-04
13.500  20.000  3.5770e-04
13.500  20.250  5.2947e-04
13.500  20.500  7.8000e-04
13.500  20.750  1.1416e-03
13.500  21.000  1.6619e-03
13.500  21.250  2.3984e-03
13.500  21.500  3.3882e-03
13.500  21.750  4.6646e-03
13.500  22.000  5.9787e-03
13.500  22.250  7.2224e-03
13.500  22.500  8.9960e-03
13.500  22.750  1.1913e-02
13.500  23.000  1.5322e-02
13.500  23.250  1.8710e-02
13.500  23.500  2.2172e-02
13.500  23.750  2.5394e-02
13.500  24.000  2.7828e-02
13.750  17.000  1.0000e-07
13.750  17.250  1.0000e-07
13.750  17.500  1.0000e-07
13.750  17.750  1.5638e-06
13.750  18.000  3.6214e-06
13.750  18.250  8.0658e-06
13.750  18.500  1.6955e-05
13.750  18.750  3.0453e-05
13.750  19.000  4.8724e-05
13.750  19.250  7.3333e-05
13.750  19.500  1.0864e-04
13.750  19.750  1.6239e-04
13.750  20.000  2.4255e-04
13.750  20.250  3.6082e-04
13.750  20.500  5.3383e-04
13.750  20.750  7.8584e-04
13.750  21.000  1.1500e-03
13.750  21.250  1.6677e-03
13.750  21.500  2.3773e-03
13.750  21.750  3.2860e-03
13.750  22.000  4.1731e-03
13.750  22.250  4.7965e-03
13.750  22.500  5.5426e-03
13.750  22.750  7.1483e-03
13.750  23.000  9.6569e-03
13.750  23.250  1.2617e-02
13.750  23.500  1.5880e-02
13.750  23.750  1.9161e-02
13.750  24.000  2.2680e-02
14.000  17.000  1.0000e-07
14.000  17.250  1.0000e-07
14.000  17.500  1.0000e-07
14.000  17.750  9.0535e-07
14.000  18.000  1.8930e-06
14.000  18.250  4.3621e-06
14.000  18.500  9.0535e-06
14.000  18.750  1.7778e-05
14.000  19.000  3.2840e-05
14.000  19.250  5.0700e-05
14.000  19.500  7.4486e-05
14.000  19.750  1.0988e-04
14.000  20.000  1.6387e-04
14.000  20.250  2.4444e-04
14.000  20.500  3.6370e-04
14.000  20.750  5.3835e-04
14.000  21.000  7.9226e-04
14.000  21.250  1.1559e-03
14.000  21.500  1.6620e-03
14.000  21.750  2.3108e-03
14.000  22.000  2.9152e-03
14.000  22.250  3.2275e-03
14.000  22.500  3.4630e-03
14.000  22.750  4.2206e-03
14.000  23.000  5.6863e-03
14.000  23.250  7.6714e-03
14.000  23.500  1.0091e-02
14.000  23.750  1.2775e-02
14.000  24.000  1.5801e-02
