InwC 1.43649m  relative to Inci 1215.00A scaled to 1215A.
Hden   Phi(H)  Eq_Width (A)
7.000  17.000  4.4599e-03
7.000  17.250  5.9312e-03
7.000  17.500  7.5970e-03
7.000  17.750  7.8444e-03
7.000  18.000  7.9625e-03
7.000  18.250  7.9684e-03
7.000  18.500  7.9681e-03
7.000  18.750  7.9681e-03
7.000  19.000  7.9690e-03
7.000  19.250  7.9697e-03
7.000  19.500  7.9700e-03
7.000  19.750  7.9701e-03
7.000  20.000  7.9702e-03
7.000  20.250  7.9702e-03
7.000  20.500  7.9702e-03
7.000  20.750  7.9702e-03
7.000  21.000  7.9702e-03
7.000  21.250  7.9703e-03
7.000  21.500  7.9702e-03
7.000  21.750  7.9703e-03
7.000  22.000  7.9703e-03
7.000  22.250  7.9703e-03
7.000  22.500  7.9704e-03
7.000  22.750  7.9704e-03
7.000  23.000  7.9705e-03
7.000  23.250  7.9705e-03
7.000  23.500  7.9705e-03
7.000  23.750  7.9705e-03
7.000  24.000  7.9705e-03
7.250  17.000  3.2169e-03
7.250  17.250  4.5905e-03
7.250  17.500  6.0100e-03
7.250  17.750  7.5981e-03
7.250  18.000  7.8463e-03
7.250  18.250  7.9625e-03
7.250  18.500  7.9684e-03
7.250  18.750  7.9682e-03
7.250  19.000  7.9681e-03
7.250  19.250  7.9690e-03
7.250  19.500  7.9698e-03
7.250  19.750  7.9700e-03
7.250  20.000  7.9701e-03
7.250  20.250  7.9702e-03
7.250  20.500  7.9702e-03
7.250  20.750  7.9702e-03
7.250  21.000  7.9702e-03
7.250  21.250  7.9702e-03
7.250  21.500  7.9702e-03
7.250  21.750  7.9703e-03
7.250  22.000  7.9702e-03
7.250  22.250  7.9702e-03
7.250  22.500  7.9703e-03
7.250  22.750  7.9703e-03
7.250  23.000  7.9703e-03
7.250  23.250  7.9710e-03
7.250  23.500  7.9703e-03
7.250  23.750  7.9703e-03
7.250  24.000  7.9704e-03
7.500  17.000  2.1464e-03
7.500  17.250  3.3031e-03
7.500  17.500  4.7208e-03
7.500  17.750  6.0977e-03
7.500  18.000  7.5991e-03
7.500  18.250  7.8482e-03
7.500  18.500  7.9625e-03
7.500  18.750  7.9685e-03
7.500  19.000  7.9681e-03
7.500  19.250  7.9681e-03
7.500  19.500  7.9690e-03
7.500  19.750  7.9698e-03
7.500  20.000  7.9700e-03
7.500  20.250  7.9701e-03
7.500  20.500  7.9702e-03
7.500  20.750  7.9702e-03
7.500  21.000  7.9702e-03
7.500  21.250  7.9702e-03
7.500  21.500  7.9702e-03
7.500  21.750  7.9702e-03
7.500  22.000  7.9702e-03
7.500  22.250  7.9702e-03
7.500  22.500  7.9702e-03
7.500  22.750  7.9702e-03
7.500  23.000  7.9702e-03
7.500  23.250  7.9703e-03
7.500  23.500  7.9702e-03
7.500  23.750  7.9703e-03
7.500  24.000  7.9703e-03
7.750  17.000  1.4318e-03
7.750  17.250  2.2021e-03
7.750  17.500  3.4109e-03
7.750  17.750  4.8892e-03
7.750  18.000  6.2031e-03
7.750  18.250  7.5999e-03
7.750  18.500  7.8501e-03
7.750  18.750  7.9625e-03
7.750  19.000  7.9685e-03
7.750  19.250  7.9683e-03
7.750  19.500  7.9681e-03
7.750  19.750  7.9690e-03
7.750  20.000  7.9697e-03
7.750  20.250  7.9700e-03
7.750  20.500  7.9701e-03
7.750  20.750  7.9701e-03
7.750  21.000  7.9702e-03
7.750  21.250  7.9702e-03
7.750  21.500  7.9702e-03
7.750  21.750  7.9702e-03
7.750  22.000  7.9702e-03
7.750  22.250  7.9702e-03
7.750  22.500  7.9702e-03
7.750  22.750  7.9702e-03
7.750  23.000  7.9702e-03
7.750  23.250  7.9702e-03
7.750  23.500  7.9702e-03
7.750  23.750  7.9702e-03
7.750  24.000  7.9702e-03
8.000  17.000  9.7473e-04
8.000  17.250  1.4672e-03
8.000  17.500  2.2760e-03
8.000  17.750  3.5560e-03
8.000  18.000  5.0997e-03
8.000  18.250  6.3105e-03
8.000  18.500  7.6001e-03
8.000  18.750  7.8509e-03
8.000  19.000  7.9625e-03
8.000  19.250  7.9684e-03
8.000  19.500  7.9681e-03
8.000  19.750  7.9681e-03
8.000  20.000  7.9690e-03
8.000  20.250  7.9698e-03
8.000  20.500  7.9700e-03
8.000  20.750  7.9701e-03
8.000  21.000  7.9701e-03
8.000  21.250  7.9702e-03
8.000  21.500  7.9702e-03
8.000  21.750  7.9702e-03
8.000  22.000  7.9702e-03
8.000  22.250  7.9702e-03
8.000  22.500  7.9702e-03
8.000  22.750  7.9702e-03
8.000  23.000  7.9702e-03
8.000  23.250  7.9702e-03
8.000  23.500  7.9702e-03
8.000  23.750  7.9702e-03
8.000  24.000  7.9703e-03
8.250  17.000  6.8337e-04
8.250  17.250  1.0059e-03
8.250  17.500  1.5326e-03
8.250  17.750  2.4123e-03
8.250  18.000  3.8151e-03
8.250  18.250  5.3821e-03
8.250  18.500  6.4860e-03
8.250  18.750  7.6005e-03
8.250  19.000  7.8531e-03
8.250  19.250  7.9625e-03
8.250  19.500  7.9684e-03
8.250  19.750  7.9681e-03
8.250  20.000  7.9681e-03
8.250  20.250  7.9690e-03
8.250  20.500  7.9698e-03
8.250  20.750  7.9700e-03
8.250  21.000  7.9701e-03
8.250  21.250  7.9702e-03
8.250  21.500  7.9702e-03
8.250  21.750  7.9702e-03
8.250  22.000  7.9702e-03
8.250  22.250  7.9702e-03
8.250  22.500  7.9702e-03
8.250  22.750  7.9702e-03
8.250  23.000  7.9702e-03
8.250  23.250  7.9702e-03
8.250  23.500  7.9703e-03
8.250  23.750  7.9702e-03
8.250  24.000  7.9702e-03
8.500  17.000  4.8667e-04
8.500  17.250  7.0617e-04
8.500  17.500  1.0554e-03
8.500  17.750  1.6489e-03
8.500  18.000  2.6583e-03
8.500  18.250  4.2148e-03
8.500  18.500  5.6979e-03
8.500  18.750  6.6659e-03
8.500  19.000  7.6000e-03
8.500  19.250  7.8554e-03
8.500  19.500  7.9624e-03
8.500  19.750  7.9683e-03
8.500  20.000  7.9680e-03
8.500  20.250  7.9681e-03
8.500  20.500  7.9690e-03
8.500  20.750  7.9698e-03
8.500  21.000  7.9700e-03
8.500  21.250  7.9701e-03
8.500  21.500  7.9702e-03
8.500  21.750  7.9702e-03
8.500  22.000  7.9702e-03
8.500  22.250  7.9702e-03
8.500  22.500  7.9702e-03
8.500  22.750  7.9702e-03
8.500  23.000  7.9702e-03
8.500  23.250  7.9702e-03
8.500  23.500  7.9702e-03
8.500  23.750  7.9702e-03
8.500  24.000  7.9702e-03
8.750  17.000  3.4872e-04
8.750  17.250  5.0313e-04
8.750  17.500  7.4305e-04
8.750  17.750  1.1410e-03
8.750  18.000  1.8445e-03
8.750  18.250  3.0359e-03
8.750  18.500  4.6743e-03
8.750  18.750  5.9554e-03
8.750  19.000  6.8119e-03
8.750  19.250  7.5968e-03
8.750  19.500  7.8578e-03
8.750  19.750  7.9622e-03
8.750  20.000  7.9682e-03
8.750  20.250  7.9680e-03
8.750  20.500  7.9681e-03
8.750  20.750  7.9690e-03
8.750  21.000  7.9698e-03
8.750  21.250  7.9700e-03
8.750  21.500  7.9701e-03
8.750  21.750  7.9701e-03
8.750  22.000  7.9702e-03
8.750  22.250  7.9702e-03
8.750  22.500  7.9702e-03
8.750  22.750  7.9702e-03
8.750  23.000  7.9702e-03
8.750  23.250  7.9702e-03
8.750  23.500  7.9702e-03
8.750  23.750  7.9702e-03
8.750  24.000  7.9702e-03
9.000  17.000  2.5037e-04
9.000  17.250  3.6099e-04
9.000  17.500  5.3070e-04
9.000  17.750  8.0782e-04
9.000  18.000  1.2944e-03
9.000  18.250  2.1556e-03
9.000  18.500  3.4798e-03
9.000  18.750  5.0796e-03
9.000  19.000  6.1568e-03
9.000  19.250  6.9960e-03
9.000  19.500  7.5890e-03
9.000  19.750  7.8597e-03
9.000  20.000  7.9620e-03
9.000  20.250  7.9681e-03
9.000  20.500  7.9679e-03
9.000  20.750  7.9680e-03
9.000  21.000  7.9690e-03
9.000  21.250  7.9698e-03
9.000  21.500  7.9700e-03
9.000  21.750  7.9701e-03
9.000  22.000  7.9701e-03
9.000  22.250  7.9702e-03
9.000  22.500  7.9702e-03
9.000  22.750  7.9702e-03
9.000  23.000  7.9702e-03
9.000  23.250  7.9702e-03
9.000  23.500  7.9702e-03
9.000  23.750  7.9702e-03
9.000  24.000  7.9702e-03
9.250  17.000  1.7959e-04
9.250  17.250  2.5926e-04
9.250  17.500  3.8165e-04
9.250  17.750  5.8066e-04
9.250  18.000  9.3070e-04
9.250  18.250  1.5551e-03
9.250  18.500  2.5348e-03
9.250  18.750  3.9157e-03
9.250  19.000  5.4439e-03
9.250  19.250  6.4581e-03
9.250  19.500  7.2303e-03
9.250  19.750  7.5767e-03
9.250  20.000  7.8604e-03
9.250  20.250  7.9616e-03
9.250  20.500  7.9677e-03
9.250  20.750  7.9678e-03
9.250  21.000  7.9680e-03
9.250  21.250  7.9689e-03
9.250  21.500  7.9693e-03
9.250  21.750  7.9653e-03
9.250  22.000  7.9632e-03
9.250  22.250  7.9653e-03
9.250  22.500  7.9701e-03
9.250  22.750  7.9702e-03
9.250  23.000  7.9702e-03
9.250  23.250  7.9702e-03
9.250  23.500  7.9702e-03
9.250  23.750  7.9702e-03
9.250  24.000  7.9702e-03
9.500  17.000  1.2864e-04
9.500  17.250  1.8617e-04
9.500  17.500  2.7473e-04
9.500  17.750  4.2074e-04
9.500  18.000  6.8033e-04
9.500  18.250  1.1432e-03
9.500  18.500  1.8649e-03
9.500  18.750  2.9021e-03
9.500  19.000  4.2802e-03
9.500  19.250  5.7979e-03
9.500  19.500  6.6203e-03
9.500  19.750  7.3596e-03
9.500  20.000  7.5600e-03
9.500  20.250  7.8581e-03
9.500  20.500  7.9607e-03
9.500  20.750  7.9673e-03
9.500  21.000  7.9672e-03
9.500  21.250  7.9655e-03
9.500  21.500  7.9624e-03
9.500  21.750  7.9622e-03
9.500  22.000  7.9607e-03
9.500  22.250  7.9584e-03
9.500  22.500  7.9571e-03
9.500  22.750  7.9574e-03
9.500  23.000  7.9577e-03
9.500  23.250  7.9578e-03
9.500  23.500  7.9626e-03
9.500  23.750  7.9624e-03
9.500  24.000  7.9625e-03
9.750  17.000  9.1852e-05
9.750  17.250  1.3350e-04
9.750  17.500  1.9794e-04
9.750  17.750  3.0560e-04
9.750  18.000  5.0132e-04
9.750  18.250  8.5111e-04
9.750  18.500  1.3895e-03
9.750  18.750  2.1586e-03
9.750  19.000  3.2265e-03
9.750  19.250  4.6738e-03
9.750  19.500  5.9730e-03
9.750  19.750  6.8114e-03
9.750  20.000  7.3318e-03
9.750  20.250  7.5366e-03
9.750  20.500  7.8531e-03
9.750  20.750  7.9588e-03
9.750  21.000  7.9667e-03
9.750  21.250  7.9672e-03
9.750  21.500  7.9670e-03
9.750  21.750  7.9649e-03
9.750  22.000  7.9626e-03
9.750  22.250  7.9618e-03
9.750  22.500  7.9602e-03
9.750  22.750  7.9585e-03
9.750  23.000  7.9576e-03
9.750  23.250  7.9571e-03
9.750  23.500  7.9572e-03
9.750  23.750  7.9581e-03
9.750  24.000  7.9574e-03
10.000  17.000  6.5597e-05
10.000  17.250  9.5556e-05
10.000  17.500  1.4263e-04
10.000  17.750  2.2255e-04
10.000  18.000  3.7070e-04
10.000  18.250  6.3177e-04
10.000  18.500  1.0358e-03
10.000  18.750  1.6079e-03
10.000  19.000  2.4026e-03
10.000  19.250  3.4965e-03
10.000  19.500  4.9602e-03
10.000  19.750  6.0751e-03
10.000  20.000  6.9892e-03
10.000  20.250  7.2947e-03
10.000  20.500  7.5255e-03
10.000  20.750  7.8477e-03
10.000  21.000  7.9552e-03
10.000  21.250  7.9656e-03
10.000  21.500  7.9671e-03
10.000  21.750  7.9673e-03
10.000  22.000  7.9675e-03
10.000  22.250  7.9627e-03
10.000  22.500  7.9625e-03
10.000  22.750  7.9615e-03
10.000  23.000  7.9602e-03
10.000  23.250  7.9594e-03
10.000  23.500  7.9588e-03
10.000  23.750  7.9585e-03
10.000  24.000  7.9584e-03
10.250  17.000  4.6914e-05
10.250  17.250  6.8477e-05
10.250  17.500  1.0272e-04
10.250  17.750  1.6239e-04
10.250  18.000  2.7383e-04
10.250  18.250  4.7086e-04
10.250  18.500  7.7202e-04
10.250  18.750  1.1977e-03
10.250  19.000  1.7844e-03
10.250  19.250  2.6124e-03
10.250  19.500  3.7965e-03
10.250  19.750  5.0599e-03
10.250  20.000  6.2249e-03
10.250  20.250  7.0900e-03
10.250  20.500  7.2649e-03
10.250  20.750  7.4988e-03
10.250  21.000  7.8413e-03
10.250  21.250  7.9487e-03
10.250  21.500  7.9647e-03
10.250  21.750  7.9665e-03
10.250  22.000  7.9672e-03
10.250  22.250  7.9681e-03
10.250  22.500  7.9639e-03
10.250  22.750  7.9628e-03
10.250  23.000  7.9623e-03
10.250  23.250  7.9616e-03
10.250  23.500  7.9610e-03
10.250  23.750  7.9605e-03
10.250  24.000  7.9602e-03
10.500  17.000  3.3663e-05
10.500  17.250  4.9136e-05
10.500  17.500  7.4156e-05
10.500  17.750  1.1860e-04
10.500  18.000  2.0198e-04
10.500  18.250  3.5045e-04
10.500  18.500  5.6905e-04
10.500  18.750  8.8214e-04
10.500  19.000  1.3138e-03
10.500  19.250  1.9142e-03
10.500  19.500  2.7626e-03
10.500  19.750  3.9240e-03
10.500  20.000  5.1699e-03
10.500  20.250  6.3738e-03
10.500  20.500  7.0745e-03
10.500  20.750  7.2384e-03
10.500  21.000  7.4826e-03
10.500  21.250  7.8389e-03
10.500  21.500  7.9426e-03
10.500  21.750  7.9615e-03
10.500  22.000  7.9656e-03
10.500  22.250  7.9667e-03
10.500  22.500  7.9681e-03
10.500  22.750  7.9672e-03
10.500  23.000  7.9630e-03
10.500  23.250  7.9628e-03
10.500  23.500  7.9624e-03
10.500  23.750  7.9621e-03
10.500  24.000  7.9616e-03
10.750  17.000  2.4280e-05
10.750  17.250  3.5309e-05
10.750  17.500  5.3580e-05
10.750  17.750  8.6584e-05
10.750  18.000  1.4864e-04
10.750  18.250  2.5687e-04
10.750  18.500  4.1745e-04
10.750  18.750  6.4189e-04
10.750  19.000  9.5827e-04
10.750  19.250  1.3951e-03
10.750  19.500  2.0060e-03
10.750  19.750  2.8626e-03
10.750  20.000  4.0121e-03
10.750  20.250  5.2657e-03
10.750  20.500  6.5155e-03
10.750  20.750  7.0251e-03
10.750  21.000  7.2055e-03
10.750  21.250  7.4714e-03
10.750  21.500  7.8469e-03
10.750  21.750  7.9298e-03
10.750  22.000  7.9558e-03
10.750  22.250  7.9640e-03
10.750  22.500  7.9658e-03
10.750  22.750  7.9677e-03
10.750  23.000  7.9686e-03
10.750  23.250  7.9640e-03
10.750  23.500  7.9630e-03
10.750  23.750  7.9628e-03
10.750  24.000  7.9626e-03
11.000  17.000  1.7449e-05
11.000  17.250  2.5432e-05
11.000  17.500  3.8683e-05
11.000  17.750  6.3045e-05
11.000  18.000  1.0848e-04
11.000  18.250  1.8626e-04
11.000  18.500  3.0519e-04
11.000  18.750  4.6741e-04
11.000  19.000  6.9819e-04
11.000  19.250  1.0115e-03
11.000  19.500  1.4497e-03
11.000  19.750  2.0598e-03
11.000  20.000  2.9240e-03
11.000  20.250  4.0693e-03
11.000  20.500  5.3286e-03
11.000  20.750  6.5800e-03
11.000  21.000  6.9565e-03
11.000  21.250  7.1658e-03
11.000  21.500  7.5061e-03
11.000  21.750  7.8449e-03
11.000  22.000  7.9135e-03
11.000  22.250  7.9470e-03
11.000  22.500  7.9615e-03
11.000  22.750  7.9644e-03
11.000  23.000  7.9669e-03
11.000  23.250  7.9690e-03
11.000  23.500  7.9673e-03
11.000  23.750  7.9634e-03
11.000  24.000  7.9630e-03
11.250  17.000  1.2510e-05
11.250  17.250  1.8189e-05
11.250  17.500  2.7819e-05
11.250  17.750  4.5597e-05
11.250  18.000  7.8354e-05
11.250  18.250  1.3358e-04
11.250  18.500  2.1514e-04
11.250  18.750  3.3523e-04
11.250  19.000  5.0016e-04
11.250  19.250  7.2716e-04
11.250  19.500  1.0421e-03
11.250  19.750  1.4789e-03
11.250  20.000  2.0900e-03
11.250  20.250  2.9554e-03
11.250  20.500  4.0823e-03
11.250  20.750  5.3247e-03
11.250  21.000  6.5100e-03
11.250  21.250  6.8607e-03
11.250  21.500  7.1893e-03
11.250  21.750  7.5305e-03
11.250  22.000  7.8284e-03
11.250  22.250  7.8911e-03
11.250  22.500  7.9336e-03
11.250  22.750  7.9573e-03
11.250  23.000  7.9622e-03
11.250  23.250  7.9656e-03
11.250  23.500  7.9687e-03
11.250  23.750  7.9689e-03
11.250  24.000  7.9657e-03
11.500  17.000  9.0535e-06
11.500  17.250  1.3086e-05
11.500  17.500  1.9918e-05
11.500  17.750  3.2593e-05
11.500  18.000  5.5802e-05
11.500  18.250  9.4815e-05
11.500  18.500  1.5218e-04
11.500  18.750  2.3564e-04
11.500  19.000  3.5498e-04
11.500  19.250  5.1778e-04
11.500  19.500  7.4494e-04
11.500  19.750  1.0605e-03
11.500  20.000  1.4954e-03
11.500  20.250  2.0982e-03
11.500  20.500  2.9383e-03
11.500  20.750  4.0117e-03
11.500  21.000  5.2143e-03
11.500  21.250  6.2731e-03
11.500  21.500  6.8599e-03
11.500  21.750  7.1575e-03
11.500  22.000  7.5478e-03
11.500  22.250  7.7855e-03
11.500  22.500  7.8605e-03
11.500  22.750  7.9144e-03
11.500  23.000  7.9507e-03
11.500  23.250  7.9586e-03
11.500  23.500  7.9637e-03
11.500  23.750  7.9682e-03
11.500  24.000  7.9692e-03
11.750  17.000  6.5844e-06
11.750  17.250  9.4650e-06
11.750  17.500  1.4321e-05
11.750  17.750  2.3210e-05
11.750  18.000  3.9506e-05
11.750  18.250  6.6502e-05
11.750  18.500  1.0634e-04
11.750  18.750  1.6584e-04
11.750  19.000  2.4848e-04
11.750  19.250  3.6584e-04
11.750  19.500  5.2930e-04
11.750  19.750  7.5630e-04
11.750  20.000  1.0698e-03
11.750  20.250  1.4891e-03
11.750  20.500  2.0697e-03
11.750  20.750  2.8510e-03
11.750  21.000  3.8309e-03
11.750  21.250  4.9580e-03
11.750  21.500  6.1828e-03
11.750  21.750  6.7242e-03
11.750  22.000  7.1021e-03
11.750  22.250  7.5237e-03
11.750  22.500  7.7234e-03
11.750  22.750  7.8175e-03
11.750  23.000  7.8874e-03
11.750  23.250  7.9409e-03
11.750  23.500  7.9532e-03
11.750  23.750  7.9607e-03
11.750  24.000  7.9675e-03
12.000  17.000  4.7737e-06
12.000  17.250  6.9136e-06
12.000  17.500  1.0370e-05
12.000  17.750  1.6543e-05
12.000  18.000  2.7572e-05
12.000  18.250  4.6008e-05
12.000  18.500  7.3663e-05
12.000  18.750  1.1440e-04
12.000  19.000  1.7333e-04
12.000  19.250  2.5704e-04
12.000  19.500  3.7498e-04
12.000  19.750  5.3885e-04
12.000  20.000  7.6206e-04
12.000  20.250  1.0640e-03
12.000  20.500  1.4662e-03
12.000  20.750  1.9984e-03
12.000  21.000  2.6718e-03
12.000  21.250  3.5078e-03
12.000  21.500  4.8478e-03
12.000  21.750  5.8347e-03
12.000  22.000  6.5248e-03
12.000  22.250  6.9980e-03
12.000  22.500  7.4256e-03
12.000  22.750  7.6324e-03
12.000  23.000  7.7536e-03
12.000  23.250  7.8463e-03
12.000  23.500  7.9267e-03
12.000  23.750  7.9453e-03
12.000  24.000  7.9564e-03
12.250  17.000  2.6337e-06
12.250  17.250  5.1029e-06
12.250  17.500  7.5720e-06
12.250  17.750  1.1770e-05
12.250  18.000  1.9177e-05
12.250  18.250  3.1523e-05
12.250  18.500  5.0453e-05
12.250  18.750  7.8930e-05
12.250  19.000  1.2041e-04
12.250  19.250  1.8099e-04
12.250  19.500  2.6510e-04
12.250  19.750  3.8214e-04
12.250  20.000  5.4115e-04
12.250  20.250  7.5811e-04
12.250  20.500  1.0414e-03
12.250  20.750  1.4037e-03
12.250  21.000  1.8557e-03
12.250  21.250  2.3844e-03
12.250  21.500  3.3501e-03
12.250  21.750  4.3986e-03
12.250  22.000  5.4018e-03
12.250  22.250  6.2409e-03
12.250  22.500  6.7986e-03
12.250  22.750  7.2552e-03
12.250  23.000  7.5011e-03
12.250  23.250  7.6572e-03
12.250  23.500  7.7841e-03
12.250  23.750  7.9055e-03
12.250  24.000  7.9335e-03
12.500  17.000  1.2346e-06
12.500  17.250  2.9630e-06
12.500  17.500  5.4321e-06
12.500  17.750  8.3951e-06
12.500  18.000  1.3333e-05
12.500  18.250  2.1399e-05
12.500  18.500  3.4403e-05
12.500  18.750  5.4403e-05
12.500  19.000  8.3704e-05
12.500  19.250  1.2658e-04
12.500  19.500  1.8650e-04
12.500  19.750  2.6979e-04
12.500  20.000  3.8444e-04
12.500  20.250  5.3827e-04
12.500  20.500  7.3934e-04
12.500  20.750  9.9597e-04
12.500  21.000  1.3019e-03
12.500  21.250  1.6396e-03
12.500  21.500  2.2503e-03
12.500  21.750  2.8965e-03
12.500  22.000  3.8505e-03
12.500  22.250  4.9175e-03
12.500  22.500  5.8609e-03
12.500  22.750  6.4733e-03
12.500  23.000  6.9954e-03
12.500  23.250  7.3058e-03
12.500  23.500  7.5111e-03
12.500  23.750  7.6879e-03
12.500  24.000  7.8735e-03
12.750  17.000  1.0000e-07
12.750  17.250  1.3992e-06
12.750  17.500  3.1276e-06
12.750  17.750  5.8436e-06
12.750  18.000  9.1358e-06
12.750  18.250  1.4568e-05
12.750  18.500  2.3457e-05
12.750  18.750  3.7284e-05
12.750  19.000  5.7860e-05
12.750  19.250  8.7572e-05
12.750  19.500  1.2996e-04
12.750  19.750  1.8930e-04
12.750  20.000  2.7111e-04
12.750  20.250  3.8148e-04
12.750  20.500  5.2560e-04
12.750  20.750  7.0691e-04
12.750  21.000  9.1992e-04
12.750  21.250  1.1458e-03
12.750  21.500  1.5407e-03
12.750  21.750  1.8779e-03
12.750  22.000  2.4110e-03
12.750  22.250  3.2506e-03
12.750  22.500  4.3562e-03
12.750  22.750  5.2605e-03
12.750  23.000  6.0051e-03
12.750  23.250  6.6296e-03
12.750  23.500  7.0271e-03
12.750  23.750  7.2921e-03
12.750  24.000  7.5400e-03
13.000  17.000  1.0000e-07
13.000  17.250  1.0000e-07
13.000  17.500  1.1523e-06
13.000  17.750  2.8807e-06
13.000  18.000  5.5144e-06
13.000  18.250  9.3004e-06
13.000  18.500  1.5802e-05
13.000  18.750  2.5185e-05
13.000  19.000  3.9342e-05
13.000  19.250  6.0165e-05
13.000  19.500  9.0370e-05
13.000  19.750  1.3226e-04
13.000  20.000  1.9037e-04
13.000  20.250  2.6905e-04
13.000  20.500  3.7251e-04
13.000  20.750  5.0280e-04
13.000  21.000  6.5416e-04
13.000  21.250  8.0856e-04
13.000  21.500  1.0764e-03
13.000  21.750  1.2529e-03
13.000  22.000  1.4904e-03
13.000  22.250  1.9598e-03
13.000  22.500  2.7048e-03
13.000  22.750  3.6419e-03
13.000  23.000  4.5444e-03
13.000  23.250  5.4081e-03
13.000  23.500  6.1358e-03
13.000  23.750  6.6323e-03
13.000  24.000  6.9697e-03
13.250  17.000  1.0000e-07
13.250  17.250  1.0000e-07
13.250  17.500  1.0000e-07
13.250  17.750  1.1523e-06
13.250  18.000  2.7984e-06
13.250  18.250  5.7613e-06
13.250  18.500  9.7942e-06
13.250  18.750  1.6955e-05
13.250  19.000  2.6502e-05
13.250  19.250  4.0823e-05
13.250  19.500  6.1975e-05
13.250  19.750  9.1605e-05
13.250  20.000  1.3276e-04
13.250  20.250  1.8881e-04
13.250  20.500  2.6296e-04
13.250  20.750  3.5646e-04
13.250  21.000  4.6568e-04
13.250  21.250  5.7588e-04
13.250  21.500  7.6214e-04
13.250  21.750  8.5481e-04
13.250  22.000  9.4593e-04
13.250  22.250  1.1490e-03
13.250  22.500  1.5495e-03
13.250  22.750  2.1430e-03
13.250  23.000  2.9147e-03
13.250  23.250  3.8023e-03
13.250  23.500  4.6995e-03
13.250  23.750  5.4999e-03
13.250  24.000  6.0944e-03
13.500  17.000  1.0000e-07
13.500  17.250  1.0000e-07
13.500  17.500  1.0000e-07
13.500  17.750  1.0000e-07
13.500  18.000  1.3992e-06
13.500  18.250  3.2922e-06
13.500  18.500  6.3374e-06
13.500  18.750  1.0700e-05
13.500  19.000  1.7778e-05
13.500  19.250  2.7490e-05
13.500  19.500  4.1975e-05
13.500  19.750  6.2634e-05
13.500  20.000  9.1770e-05
13.500  20.250  1.3152e-04
13.500  20.500  1.8461e-04
13.500  20.750  2.5152e-04
13.500  21.000  3.3021e-04
13.500  21.250  4.0979e-04
13.500  21.500  5.4140e-04
13.500  21.750  5.9457e-04
13.500  22.000  6.0658e-04
13.500  22.250  6.8230e-04
13.500  22.500  8.9317e-04
13.500  22.750  1.2153e-03
13.500  23.000  1.6822e-03
13.500  23.250  2.2974e-03
13.500  23.500  3.0624e-03
13.500  23.750  3.9162e-03
13.500  24.000  4.7305e-03
13.750  17.000  1.0000e-07
13.750  17.250  1.0000e-07
13.750  17.500  1.0000e-07
13.750  17.750  1.0000e-07
13.750  18.000  1.0000e-07
13.750  18.250  1.6461e-06
13.750  18.500  3.5391e-06
13.750  18.750  6.6667e-06
13.750  19.000  1.1440e-05
13.750  19.250  1.8272e-05
13.750  19.500  2.8066e-05
13.750  19.750  4.2387e-05
13.750  20.000  6.2716e-05
13.750  20.250  9.0947e-05
13.750  20.500  1.2856e-04
13.750  20.750  1.7663e-04
13.750  21.000  2.3350e-04
13.750  21.250  2.9103e-04
13.750  21.500  3.8593e-04
13.750  21.750  4.1778e-04
13.750  22.000  4.0247e-04
13.750  22.250  4.1202e-04
13.750  22.500  5.1564e-04
13.750  22.750  7.0025e-04
13.750  23.000  9.5136e-04
13.750  23.250  1.3008e-03
13.750  23.500  1.7760e-03
13.750  23.750  2.3642e-03
13.750  24.000  3.1092e-03
14.000  17.000  1.0000e-07
14.000  17.250  1.0000e-07
14.000  17.500  1.0000e-07
14.000  17.750  1.0000e-07
14.000  18.000  1.0000e-07
14.000  18.250  9.0535e-07
14.000  18.500  1.8107e-06
14.000  18.750  3.7037e-06
14.000  19.000  7.1605e-06
14.000  19.250  1.1852e-05
14.000  19.500  1.8519e-05
14.000  19.750  2.8313e-05
14.000  20.000  4.2469e-05
14.000  20.250  6.2140e-05
14.000  20.500  8.8889e-05
14.000  20.750  1.2321e-04
14.000  21.000  1.6395e-04
14.000  21.250  2.0551e-04
14.000  21.500  2.7407e-04
14.000  21.750  2.9424e-04
14.000  22.000  2.7078e-04
14.000  22.250  2.5457e-04
14.000  22.500  3.0074e-04
14.000  22.750  4.0576e-04
14.000  23.000  5.4708e-04
14.000  23.250  7.3588e-04
14.000  23.500  9.8856e-04
14.000  23.750  1.3162e-03
14.000  24.000  1.7584e-03
