InwC 6500.00A  relative to Inci 1215.00A scaled to 1215A.
Hden   Phi(H)  Eq_Width (A)
7.000  17.000  2.9380e-02
7.000  17.250  3.9065e-02
7.000  17.500  5.0033e-02
7.000  17.750  5.1662e-02
7.000  18.000  5.2439e-02
7.000  18.250  5.2478e-02
7.000  18.500  5.2476e-02
7.000  18.750  5.2476e-02
7.000  19.000  5.2482e-02
7.000  19.250  5.2487e-02
7.000  19.500  5.2489e-02
7.000  19.750  5.2490e-02
7.000  20.000  5.2490e-02
7.000  20.250  5.2490e-02
7.000  20.500  5.2490e-02
7.000  20.750  5.2490e-02
7.000  21.000  5.2490e-02
7.000  21.250  5.2491e-02
7.000  21.500  5.2491e-02
7.000  21.750  5.2491e-02
7.000  22.000  5.2491e-02
7.000  22.250  5.2491e-02
7.000  22.500  5.2491e-02
7.000  22.750  5.2492e-02
7.000  23.000  5.2492e-02
7.000  23.250  5.2492e-02
7.000  23.500  5.2492e-02
7.000  23.750  5.2492e-02
7.000  24.000  5.2493e-02
7.250  17.000  2.1197e-02
7.250  17.250  3.0239e-02
7.250  17.500  3.9583e-02
7.250  17.750  5.0040e-02
7.250  18.000  5.1674e-02
7.250  18.250  5.2439e-02
7.250  18.500  5.2479e-02
7.250  18.750  5.2477e-02
7.250  19.000  5.2476e-02
7.250  19.250  5.2482e-02
7.250  19.500  5.2487e-02
7.250  19.750  5.2489e-02
7.250  20.000  5.2490e-02
7.250  20.250  5.2490e-02
7.250  20.500  5.2490e-02
7.250  20.750  5.2490e-02
7.250  21.000  5.2490e-02
7.250  21.250  5.2490e-02
7.250  21.500  5.2490e-02
7.250  21.750  5.2491e-02
7.250  22.000  5.2491e-02
7.250  22.250  5.2491e-02
7.250  22.500  5.2491e-02
7.250  22.750  5.2491e-02
7.250  23.000  5.2491e-02
7.250  23.250  5.2496e-02
7.250  23.500  5.2491e-02
7.250  23.750  5.2491e-02
7.250  24.000  5.2491e-02
7.500  17.000  1.4151e-02
7.500  17.250  2.1763e-02
7.500  17.500  3.1094e-02
7.500  17.750  4.0159e-02
7.500  18.000  5.0046e-02
7.500  18.250  5.1687e-02
7.500  18.500  5.2439e-02
7.500  18.750  5.2479e-02
7.500  19.000  5.2476e-02
7.500  19.250  5.2476e-02
7.500  19.500  5.2482e-02
7.500  19.750  5.2487e-02
7.500  20.000  5.2489e-02
7.500  20.250  5.2490e-02
7.500  20.500  5.2490e-02
7.500  20.750  5.2490e-02
7.500  21.000  5.2490e-02
7.500  21.250  5.2490e-02
7.500  21.500  5.2490e-02
7.500  21.750  5.2490e-02
7.500  22.000  5.2490e-02
7.500  22.250  5.2491e-02
7.500  22.500  5.2491e-02
7.500  22.750  5.2490e-02
7.500  23.000  5.2490e-02
7.500  23.250  5.2491e-02
7.500  23.500  5.2491e-02
7.500  23.750  5.2491e-02
7.500  24.000  5.2491e-02
7.750  17.000  9.4459e-03
7.750  17.250  1.4515e-02
7.750  17.500  2.2467e-02
7.750  17.750  3.2194e-02
7.750  18.000  4.0848e-02
7.750  18.250  5.0051e-02
7.750  18.500  5.1700e-02
7.750  18.750  5.2440e-02
7.750  19.000  5.2479e-02
7.750  19.250  5.2478e-02
7.750  19.500  5.2476e-02
7.750  19.750  5.2482e-02
7.750  20.000  5.2487e-02
7.750  20.250  5.2489e-02
7.750  20.500  5.2490e-02
7.750  20.750  5.2490e-02
7.750  21.000  5.2490e-02
7.750  21.250  5.2490e-02
7.750  21.500  5.2490e-02
7.750  21.750  5.2490e-02
7.750  22.000  5.2490e-02
7.750  22.250  5.2490e-02
7.750  22.500  5.2490e-02
7.750  22.750  5.2490e-02
7.750  23.000  5.2491e-02
7.750  23.250  5.2491e-02
7.750  23.500  5.2490e-02
7.750  23.750  5.2490e-02
7.750  24.000  5.2490e-02
8.000  17.000  6.4374e-03
8.000  17.250  9.6778e-03
8.000  17.500  1.4997e-02
8.000  17.750  2.3410e-02
8.000  18.000  3.3560e-02
8.000  18.250  4.1541e-02
8.000  18.500  5.0049e-02
8.000  18.750  5.1705e-02
8.000  19.000  5.2440e-02
8.000  19.250  5.2479e-02
8.000  19.500  5.2477e-02
8.000  19.750  5.2476e-02
8.000  20.000  5.2482e-02
8.000  20.250  5.2487e-02
8.000  20.500  5.2489e-02
8.000  20.750  5.2490e-02
8.000  21.000  5.2490e-02
8.000  21.250  5.2490e-02
8.000  21.500  5.2490e-02
8.000  21.750  5.2490e-02
8.000  22.000  5.2490e-02
8.000  22.250  5.2490e-02
8.000  22.500  5.2490e-02
8.000  22.750  5.2490e-02
8.000  23.000  5.2490e-02
8.000  23.250  5.2490e-02
8.000  23.500  5.2490e-02
8.000  23.750  5.2490e-02
8.000  24.000  5.2491e-02
8.250  17.000  4.5195e-03
8.250  17.250  6.6412e-03
8.250  17.500  1.0104e-02
8.250  17.750  1.5881e-02
8.250  18.000  2.5086e-02
8.250  18.250  3.5378e-02
8.250  18.500  4.2670e-02
8.250  18.750  5.0045e-02
8.250  19.000  5.1720e-02
8.250  19.250  5.2440e-02
8.250  19.500  5.2478e-02
8.250  19.750  5.2477e-02
8.250  20.000  5.2476e-02
8.250  20.250  5.2482e-02
8.250  20.500  5.2487e-02
8.250  20.750  5.2489e-02
8.250  21.000  5.2490e-02
8.250  21.250  5.2490e-02
8.250  21.500  5.2490e-02
8.250  21.750  5.2490e-02
8.250  22.000  5.2490e-02
8.250  22.250  5.2490e-02
8.250  22.500  5.2490e-02
8.250  22.750  5.2490e-02
8.250  23.000  5.2490e-02
8.250  23.250  5.2491e-02
8.250  23.500  5.2491e-02
8.250  23.750  5.2490e-02
8.250  24.000  5.2490e-02
8.500  17.000  3.2244e-03
8.500  17.250  4.6683e-03
8.500  17.500  6.9629e-03
8.500  17.750  1.0858e-02
8.500  18.000  1.7471e-02
8.500  18.250  2.7661e-02
8.500  18.500  3.7405e-02
8.500  18.750  4.3817e-02
8.500  19.000  5.0027e-02
8.500  19.250  5.1735e-02
8.500  19.500  5.2440e-02
8.500  19.750  5.2479e-02
8.500  20.000  5.2476e-02
8.500  20.250  5.2476e-02
8.500  20.500  5.2482e-02
8.500  20.750  5.2487e-02
8.500  21.000  5.2489e-02
8.500  21.250  5.2490e-02
8.500  21.500  5.2490e-02
8.500  21.750  5.2490e-02
8.500  22.000  5.2490e-02
8.500  22.250  5.2490e-02
8.500  22.500  5.2490e-02
8.500  22.750  5.2490e-02
8.500  23.000  5.2490e-02
8.500  23.250  5.2490e-02
8.500  23.500  5.2490e-02
8.500  23.750  5.2490e-02
8.500  24.000  5.2490e-02
8.750  17.000  2.3167e-03
8.750  17.250  3.3315e-03
8.750  17.500  4.9072e-03
8.750  17.750  7.5167e-03
8.750  18.000  1.2121e-02
8.750  18.250  1.9909e-02
8.750  18.500  3.0629e-02
8.750  18.750  3.9049e-02
8.750  19.000  4.4743e-02
8.750  19.250  4.9983e-02
8.750  19.500  5.1750e-02
8.750  19.750  5.2440e-02
8.750  20.000  5.2478e-02
8.750  20.250  5.2476e-02
8.750  20.500  5.2476e-02
8.750  20.750  5.2482e-02
8.750  21.000  5.2487e-02
8.750  21.250  5.2489e-02
8.750  21.500  5.2490e-02
8.750  21.750  5.2490e-02
8.750  22.000  5.2490e-02
8.750  22.250  5.2490e-02
8.750  22.500  5.2490e-02
8.750  22.750  5.2490e-02
8.750  23.000  5.2490e-02
8.750  23.250  5.2490e-02
8.750  23.500  5.2490e-02
8.750  23.750  5.2491e-02
8.750  24.000  5.2490e-02
9.000  17.000  1.6693e-03
9.000  17.250  2.3957e-03
9.000  17.500  3.5094e-03
9.000  17.750  5.3249e-03
9.000  18.000  8.5064e-03
9.000  18.250  1.4129e-02
9.000  18.500  2.2771e-02
9.000  18.750  3.3221e-02
9.000  19.000  4.0325e-02
9.000  19.250  4.5927e-02
9.000  19.500  4.9904e-02
9.000  19.750  5.1760e-02
9.000  20.000  5.2440e-02
9.000  20.250  5.2478e-02
9.000  20.500  5.2476e-02
9.000  20.750  5.2476e-02
9.000  21.000  5.2482e-02
9.000  21.250  5.2487e-02
9.000  21.500  5.2489e-02
9.000  21.750  5.2490e-02
9.000  22.000  5.2490e-02
9.000  22.250  5.2490e-02
9.000  22.500  5.2490e-02
9.000  22.750  5.2490e-02
9.000  23.000  5.2490e-02
9.000  23.250  5.2490e-02
9.000  23.500  5.2490e-02
9.000  23.750  5.2490e-02
9.000  24.000  5.2490e-02
9.250  17.000  1.2032e-03
9.250  17.250  1.7262e-03
9.250  17.500  2.5287e-03
9.250  17.750  3.8308e-03
9.250  18.000  6.1179e-03
9.250  18.250  1.0189e-02
9.250  18.500  1.6565e-02
9.250  18.750  2.5524e-02
9.250  19.000  3.5495e-02
9.250  19.250  4.2183e-02
9.250  19.500  4.7304e-02
9.250  19.750  4.9793e-02
9.250  20.000  5.1760e-02
9.250  20.250  5.2438e-02
9.250  20.500  5.2477e-02
9.250  20.750  5.2475e-02
9.250  21.000  5.2476e-02
9.250  21.250  5.2482e-02
9.250  21.500  5.2484e-02
9.250  21.750  5.2458e-02
9.250  22.000  5.2444e-02
9.250  22.250  5.2458e-02
9.250  22.500  5.2490e-02
9.250  22.750  5.2490e-02
9.250  23.000  5.2490e-02
9.250  23.250  5.2490e-02
9.250  23.500  5.2490e-02
9.250  23.750  5.2490e-02
9.250  24.000  5.2490e-02
9.500  17.000  8.6782e-04
9.500  17.250  1.2453e-03
9.500  17.500  1.8252e-03
9.500  17.750  2.7793e-03
9.500  18.000  4.4748e-03
9.500  18.250  7.4864e-03
9.500  18.500  1.2162e-02
9.500  18.750  1.8843e-02
9.500  19.000  2.7683e-02
9.500  19.250  3.7514e-02
9.500  19.500  4.3025e-02
9.500  19.750  4.8049e-02
9.500  20.000  4.9658e-02
9.500  20.250  5.1737e-02
9.500  20.500  5.2435e-02
9.500  20.750  5.2477e-02
9.500  21.000  5.2472e-02
9.500  21.250  5.2460e-02
9.500  21.500  5.2439e-02
9.500  21.750  5.2438e-02
9.500  22.000  5.2428e-02
9.500  22.250  5.2412e-02
9.500  22.500  5.2404e-02
9.500  22.750  5.2407e-02
9.500  23.000  5.2408e-02
9.500  23.250  5.2408e-02
9.500  23.500  5.2440e-02
9.500  23.750  5.2439e-02
9.500  24.000  5.2439e-02
9.750  17.000  6.2584e-04
9.750  17.250  8.9860e-04
9.750  17.500  1.3204e-03
9.750  17.750  2.0229e-03
9.750  18.000  3.2974e-03
9.750  18.250  5.5702e-03
9.750  18.500  9.0385e-03
9.750  18.750  1.3949e-02
9.750  19.000  2.0697e-02
9.750  19.250  2.9816e-02
9.750  19.500  3.8227e-02
9.750  19.750  4.4100e-02
9.750  20.000  4.7796e-02
9.750  20.250  4.9534e-02
9.750  20.500  5.1692e-02
9.750  20.750  5.2427e-02
9.750  21.000  5.2475e-02
9.750  21.250  5.2474e-02
9.750  21.500  5.2471e-02
9.750  21.750  5.2456e-02
9.750  22.000  5.2440e-02
9.750  22.250  5.2435e-02
9.750  22.500  5.2424e-02
9.750  22.750  5.2413e-02
9.750  23.000  5.2408e-02
9.750  23.250  5.2404e-02
9.750  23.500  5.2405e-02
9.750  23.750  5.2411e-02
9.750  24.000  5.2406e-02
10.000  17.000  4.5276e-04
10.000  17.250  6.4914e-04
10.000  17.500  9.5687e-04
10.000  17.750  1.4775e-03
10.000  18.000  2.4392e-03
10.000  18.250  4.1279e-03
10.000  18.500  6.7162e-03
10.000  18.750  1.0333e-02
10.000  19.000  1.5291e-02
10.000  19.250  2.2020e-02
10.000  19.500  3.0990e-02
10.000  19.750  3.8434e-02
10.000  20.000  4.5107e-02
10.000  20.250  4.7542e-02
10.000  20.500  4.9414e-02
10.000  20.750  5.1659e-02
10.000  21.000  5.2405e-02
10.000  21.250  5.2473e-02
10.000  21.500  5.2474e-02
10.000  21.750  5.2474e-02
10.000  22.000  5.2473e-02
10.000  22.250  5.2441e-02
10.000  22.500  5.2439e-02
10.000  22.750  5.2433e-02
10.000  23.000  5.2425e-02
10.000  23.250  5.2419e-02
10.000  23.500  5.2415e-02
10.000  23.750  5.2413e-02
10.000  24.000  5.2412e-02
10.250  17.000  3.2988e-04
10.250  17.250  4.7070e-04
10.250  17.500  6.9416e-04
10.250  17.750  1.0819e-03
10.250  18.000  1.8026e-03
10.250  18.250  3.0694e-03
10.250  18.500  4.9804e-03
10.250  18.750  7.6467e-03
10.250  19.000  1.1268e-02
10.250  19.250  1.6316e-02
10.250  19.500  2.3474e-02
10.250  19.750  3.1354e-02
10.250  20.000  3.9274e-02
10.250  20.250  4.5608e-02
10.250  20.500  4.7303e-02
10.250  20.750  4.9183e-02
10.250  21.000  5.1611e-02
10.250  21.250  5.2372e-02
10.250  21.500  5.2469e-02
10.250  21.750  5.2473e-02
10.250  22.000  5.2474e-02
10.250  22.250  5.2479e-02
10.250  22.500  5.2449e-02
10.250  22.750  5.2442e-02
10.250  23.000  5.2438e-02
10.250  23.250  5.2433e-02
10.250  23.500  5.2429e-02
10.250  23.750  5.2426e-02
10.250  24.000  5.2425e-02
10.500  17.000  2.4239e-04
10.500  17.250  3.4329e-04
10.500  17.500  5.0617e-04
10.500  17.750  7.9407e-04
10.500  18.000  1.3304e-03
10.500  18.250  2.2756e-03
10.500  18.500  3.6511e-03
10.500  18.750  5.5998e-03
10.500  19.000  8.2643e-03
10.500  19.250  1.1946e-02
10.500  19.500  1.7103e-02
10.500  19.750  2.4140e-02
10.500  20.000  3.2005e-02
10.500  20.250  4.0227e-02
10.500  20.500  4.5436e-02
10.500  20.750  4.6993e-02
10.500  21.000  4.9067e-02
10.500  21.250  5.1638e-02
10.500  21.500  5.2328e-02
10.500  21.750  5.2456e-02
10.500  22.000  5.2471e-02
10.500  22.250  5.2473e-02
10.500  22.500  5.2480e-02
10.500  22.750  5.2472e-02
10.500  23.000  5.2443e-02
10.500  23.250  5.2442e-02
10.500  23.500  5.2439e-02
10.500  23.750  5.2436e-02
10.500  24.000  5.2434e-02
10.750  17.000  1.8016e-04
10.750  17.250  2.5218e-04
10.750  17.500  3.7062e-04
10.750  17.750  5.8346e-04
10.750  18.000  9.7926e-04
10.750  18.250  1.6614e-03
10.750  18.500  2.6641e-03
10.750  18.750  4.0558e-03
10.750  19.000  6.0127e-03
10.750  19.250  8.7054e-03
10.750  19.500  1.2451e-02
10.750  19.750  1.7664e-02
10.750  20.000  2.4685e-02
10.750  20.250  3.2701e-02
10.750  20.500  4.1251e-02
10.750  20.750  4.5193e-02
10.750  21.000  4.6904e-02
10.750  21.250  4.9064e-02
10.750  21.500  5.1638e-02
10.750  21.750  5.2266e-02
10.750  22.000  5.2434e-02
10.750  22.250  5.2467e-02
10.750  22.500  5.2472e-02
10.750  22.750  5.2479e-02
10.750  23.000  5.2482e-02
10.750  23.250  5.2450e-02
10.750  23.500  5.2443e-02
10.750  23.750  5.2442e-02
10.750  24.000  5.2441e-02
11.000  17.000  1.3399e-04
11.000  17.250  1.8650e-04
11.000  17.500  2.7243e-04
11.000  17.750  4.2840e-04
11.000  18.000  7.1506e-04
11.000  18.250  1.1999e-03
11.000  18.500  1.9354e-03
11.000  18.750  2.9387e-03
11.000  19.000  4.3676e-03
11.000  19.250  6.3101e-03
11.000  19.500  9.0180e-03
11.000  19.750  1.2775e-02
11.000  20.000  1.8085e-02
11.000  20.250  2.5196e-02
11.000  20.500  3.3410e-02
11.000  20.750  4.2020e-02
11.000  21.000  4.5013e-02
11.000  21.250  4.6858e-02
11.000  21.500  4.9239e-02
11.000  21.750  5.1676e-02
11.000  22.000  5.2207e-02
11.000  22.250  5.2404e-02
11.000  22.500  5.2461e-02
11.000  22.750  5.2469e-02
11.000  23.000  5.2478e-02
11.000  23.250  5.2485e-02
11.000  23.500  5.2472e-02
11.000  23.750  5.2446e-02
11.000  24.000  5.2443e-02
11.250  17.000  1.0140e-04
11.250  17.250  1.3811e-04
11.250  17.500  2.0016e-04
11.250  17.750  3.1309e-04
11.250  18.000  5.1728e-04
11.250  18.250  8.5704e-04
11.250  18.500  1.3575e-03
11.250  18.750  2.0972e-03
11.250  19.000  3.1193e-03
11.250  19.250  4.5306e-03
11.250  19.500  6.4914e-03
11.250  19.750  9.2126e-03
11.250  20.000  1.3027e-02
11.250  20.250  1.8459e-02
11.250  20.500  2.5700e-02
11.250  20.750  3.4078e-02
11.250  21.000  4.2264e-02
11.250  21.250  4.4902e-02
11.250  21.500  4.6973e-02
11.250  21.750  4.9581e-02
11.250  22.000  5.1678e-02
11.250  22.250  5.2120e-02
11.250  22.500  5.2362e-02
11.250  22.750  5.2450e-02
11.250  23.000  5.2463e-02
11.250  23.250  5.2475e-02
11.250  23.500  5.2485e-02
11.250  23.750  5.2483e-02
11.250  24.000  5.2461e-02
11.500  17.000  7.8848e-05
11.500  17.250  1.0403e-04
11.500  17.500  1.4749e-04
11.500  17.750  2.2691e-04
11.500  18.000  3.6947e-04
11.500  18.250  6.0634e-04
11.500  18.500  9.5638e-04
11.500  18.750  1.4692e-03
11.500  19.000  2.2064e-03
11.500  19.250  3.2188e-03
11.500  19.500  4.6395e-03
11.500  19.750  6.6244e-03
11.500  20.000  9.3828e-03
11.500  20.250  1.3252e-02
11.500  20.500  1.8765e-02
11.500  20.750  2.6103e-02
11.500  21.000  3.4638e-02
11.500  21.250  4.1893e-02
11.500  21.500  4.4899e-02
11.500  21.750  4.7194e-02
11.500  22.000  5.0002e-02
11.500  22.250  5.1576e-02
11.500  22.500  5.2035e-02
11.500  22.750  5.2310e-02
11.500  23.000  5.2433e-02
11.500  23.250  5.2455e-02
11.500  23.500  5.2471e-02
11.500  23.750  5.2484e-02
11.500  24.000  5.2486e-02
11.750  17.000  6.3457e-05
11.750  17.250  8.0658e-05
11.750  17.500  1.1029e-04
11.750  17.750  1.6494e-04
11.750  18.000  2.6329e-04
11.750  18.250  4.2584e-04
11.750  18.500  6.6765e-04
11.750  18.750  1.0312e-03
11.750  19.000  1.5403e-03
11.750  19.250  2.2672e-03
11.750  19.500  3.2899e-03
11.750  19.750  4.7267e-03
11.750  20.000  6.7412e-03
11.750  20.250  9.4923e-03
11.750  20.500  1.3420e-02
11.750  20.750  1.8968e-02
11.750  21.000  2.6376e-02
11.750  21.250  3.4962e-02
11.750  21.500  4.1524e-02
11.750  21.750  4.4884e-02
11.750  22.000  4.7506e-02
11.750  22.250  5.0313e-02
11.750  22.500  5.1456e-02
11.750  22.750  5.1940e-02
11.750  23.000  5.2247e-02
11.750  23.250  5.2410e-02
11.750  23.500  5.2444e-02
11.750  23.750  5.2466e-02
11.750  24.000  5.2483e-02
12.000  17.000  5.1934e-05
12.000  17.250  6.4774e-05
12.000  17.500  8.4774e-05
12.000  17.750  1.2132e-04
12.000  18.000  1.8716e-04
12.000  18.250  2.9712e-04
12.000  18.500  4.6469e-04
12.000  18.750  7.1193e-04
12.000  19.000  1.0715e-03
12.000  19.250  1.5867e-03
12.000  19.500  2.3221e-03
12.000  19.750  3.3612e-03
12.000  20.000  4.8082e-03
12.000  20.250  6.8224e-03
12.000  20.500  9.6158e-03
12.000  20.750  1.3553e-02
12.000  21.000  1.9009e-02
12.000  21.250  2.6342e-02
12.000  21.500  3.4725e-02
12.000  21.750  4.1000e-02
12.000  22.000  4.4844e-02
12.000  22.250  4.7841e-02
12.000  22.500  5.0344e-02
12.000  22.750  5.1306e-02
12.000  23.000  5.1823e-02
12.000  23.250  5.2164e-02
12.000  23.500  5.2380e-02
12.000  23.750  5.2428e-02
12.000  24.000  5.2458e-02
12.250  17.000  2.9465e-05
12.250  17.250  5.3745e-05
12.250  17.500  6.7654e-05
12.250  17.750  9.1687e-05
12.250  18.000  1.3481e-04
12.250  18.250  2.0848e-04
12.250  18.500  3.2214e-04
12.250  18.750  4.9284e-04
12.250  19.000  7.4288e-04
12.250  19.250  1.1114e-03
12.250  19.500  1.6331e-03
12.250  19.750  2.3743e-03
12.250  20.000  3.4090e-03
12.250  20.250  4.8707e-03
12.250  20.500  6.8798e-03
12.250  20.750  9.6509e-03
12.250  21.000  1.3526e-02
12.250  21.250  1.8771e-02
12.250  21.500  2.5756e-02
12.250  21.750  3.4238e-02
12.250  22.000  4.0332e-02
12.250  22.250  4.4730e-02
12.250  22.500  4.7976e-02
12.250  22.750  5.0178e-02
12.250  23.000  5.1113e-02
12.250  23.250  5.1663e-02
12.250  23.500  5.2055e-02
12.250  23.750  5.2340e-02
12.250  24.000  5.2408e-02
12.500  17.000  1.3992e-05
12.500  17.250  3.3004e-05
12.500  17.500  5.5885e-05
12.500  17.750  7.2428e-05
12.500  18.000  1.0066e-04
12.500  18.250  1.4798e-04
12.500  18.500  2.2420e-04
12.500  18.750  3.4222e-04
12.500  19.000  5.1646e-04
12.500  19.250  7.7424e-04
12.500  19.500  1.1425e-03
12.500  19.750  1.6668e-03
12.500  20.000  2.4113e-03
12.500  20.250  3.4531e-03
12.500  20.500  4.8963e-03
12.500  20.750  6.9028e-03
12.500  21.000  9.6395e-03
12.500  21.250  1.3326e-02
12.500  21.500  1.8184e-02
12.500  21.750  2.4972e-02
12.500  22.000  3.3189e-02
12.500  22.250  3.9553e-02
12.500  22.500  4.4658e-02
12.500  22.750  4.7739e-02
12.500  23.000  4.9801e-02
12.500  23.250  5.0808e-02
12.500  23.500  5.1429e-02
12.500  23.750  5.1898e-02
12.500  24.000  5.2287e-02
12.750  17.000  7.4074e-06
12.750  17.250  1.5967e-05
12.750  17.500  3.5309e-05
12.750  17.750  5.8272e-05
12.750  18.000  7.7284e-05
12.750  18.250  1.0782e-04
12.750  18.500  1.5844e-04
12.750  18.750  2.3811e-04
12.750  19.000  3.5852e-04
12.750  19.250  5.3539e-04
12.750  19.500  7.9259e-04
12.750  19.750  1.1622e-03
12.750  20.000  1.6900e-03
12.750  20.250  2.4354e-03
12.750  20.500  3.4743e-03
12.750  20.750  4.9105e-03
12.750  21.000  6.8691e-03
12.750  21.250  9.5001e-03
12.750  21.500  1.2867e-02
12.750  21.750  1.7365e-02
12.750  22.000  2.3725e-02
12.750  22.250  3.1454e-02
12.750  22.500  3.8564e-02
12.750  22.750  4.3567e-02
12.750  23.000  4.6986e-02
12.750  23.250  4.9192e-02
12.750  23.500  5.0360e-02
12.750  23.750  5.1077e-02
12.750  24.000  5.1662e-02
13.000  17.000  1.8107e-06
13.000  17.250  4.1152e-06
13.000  17.500  1.2593e-05
13.000  17.750  3.0206e-05
13.000  18.000  5.1934e-05
13.000  18.250  7.4979e-05
13.000  18.500  1.1399e-04
13.000  18.750  1.6634e-04
13.000  19.000  2.4765e-04
13.000  19.250  3.6947e-04
13.000  19.500  5.4979e-04
13.000  19.750  8.0765e-04
13.000  20.000  1.1780e-03
13.000  20.250  1.7054e-03
13.000  20.500  2.4491e-03
13.000  20.750  3.4845e-03
13.000  21.000  4.8951e-03
13.000  21.250  6.7719e-03
13.000  21.500  9.1730e-03
13.000  21.750  1.2191e-02
13.000  22.000  1.6086e-02
13.000  22.250  2.2053e-02
13.000  22.500  2.9629e-02
13.000  22.750  3.6626e-02
13.000  23.000  4.1883e-02
13.000  23.250  4.5749e-02
13.000  23.500  4.8268e-02
13.000  23.750  4.9674e-02
13.000  24.000  5.0536e-02
13.250  17.000  1.0700e-06
13.250  17.250  1.9753e-06
13.250  17.500  4.6091e-06
13.250  17.750  1.1029e-05
13.250  18.000  2.7078e-05
13.250  18.250  5.1276e-05
13.250  18.500  7.6049e-05
13.250  18.750  1.1942e-04
13.250  19.000  1.7251e-04
13.250  19.250  2.5465e-04
13.250  19.500  3.7852e-04
13.250  19.750  5.5786e-04
13.250  20.000  8.1621e-04
13.250  20.250  1.1872e-03
13.250  20.500  1.7145e-03
13.250  20.750  2.4539e-03
13.250  21.000  3.4730e-03
13.250  21.250  4.8351e-03
13.250  21.500  6.5575e-03
13.250  21.750  8.6116e-03
13.250  22.000  1.1003e-02
13.250  22.250  1.4211e-02
13.250  22.500  1.9781e-02
13.250  22.750  2.6824e-02
13.250  23.000  3.3663e-02
13.250  23.250  3.9461e-02
13.250  23.500  4.3978e-02
13.250  23.750  4.6912e-02
13.250  24.000  4.8645e-02
13.500  17.000  1.0000e-07
13.500  17.250  1.1523e-06
13.500  17.500  2.5514e-06
13.500  17.750  5.7613e-06
13.500  18.000  1.3416e-05
13.500  18.250  3.1193e-05
13.500  18.500  5.4897e-05
13.500  18.750  8.2222e-05
13.500  19.000  1.2321e-04
13.500  19.250  1.7720e-04
13.500  19.500  2.6025e-04
13.500  19.750  3.8272e-04
13.500  20.000  5.6247e-04
13.500  20.250  8.2140e-04
13.500  20.500  1.1925e-03
13.500  20.750  1.7149e-03
13.500  21.000  2.4412e-03
13.500  21.250  3.4215e-03
13.500  21.500  4.6577e-03
13.500  21.750  6.1120e-03
13.500  22.000  7.5020e-03
13.500  22.250  9.1088e-03
13.500  22.500  1.2099e-02
13.500  22.750  1.7397e-02
13.500  23.000  2.3978e-02
13.500  23.250  3.0489e-02
13.500  23.500  3.6565e-02
13.500  23.750  4.1605e-02
13.500  24.000  4.4995e-02
13.750  17.000  1.0000e-07
13.750  17.250  1.0000e-07
13.750  17.500  1.4815e-06
13.750  17.750  3.0453e-06
13.750  18.000  7.2428e-06
13.750  18.250  1.5885e-05
13.750  18.500  3.3004e-05
13.750  18.750  5.7449e-05
13.750  19.000  8.7325e-05
13.750  19.250  1.2576e-04
13.750  19.500  1.8016e-04
13.750  19.750  2.6313e-04
13.750  20.000  3.8617e-04
13.750  20.250  5.6593e-04
13.750  20.500  8.2461e-04
13.750  20.750  1.1932e-03
13.750  21.000  1.7088e-03
13.750  21.250  2.4080e-03
13.750  21.500  3.3058e-03
13.750  21.750  4.3370e-03
13.750  22.000  5.2096e-03
13.750  22.250  5.9116e-03
13.750  22.500  7.2908e-03
13.750  22.750  1.0298e-02
13.750  23.000  1.5027e-02
13.750  23.250  2.0878e-02
13.750  23.500  2.7127e-02
13.750  23.750  3.2995e-02
13.750  24.000  3.8538e-02
14.000  17.000  1.0000e-07
14.000  17.250  1.0000e-07
14.000  17.500  9.0535e-07
14.000  17.750  1.8107e-06
14.000  18.000  3.7860e-06
14.000  18.250  8.5597e-06
14.000  18.500  1.7778e-05
14.000  18.750  3.4486e-05
14.000  19.000  6.2305e-05
14.000  19.250  9.1276e-05
14.000  19.500  1.2733e-04
14.000  19.750  1.8181e-04
14.000  20.000  2.6502e-04
14.000  20.250  3.8815e-04
14.000  20.500  5.6807e-04
14.000  20.750  8.2584e-04
14.000  21.000  1.1898e-03
14.000  21.250  1.6872e-03
14.000  21.500  2.3355e-03
14.000  21.750  3.0714e-03
14.000  22.000  3.6293e-03
14.000  22.250  3.9017e-03
14.000  22.500  4.4542e-03
14.000  22.750  6.0505e-03
14.000  23.000  8.8736e-03
14.000  23.250  1.2809e-02
14.000  23.500  1.7778e-02
14.000  23.750  2.3150e-02
14.000  24.000  2.8692e-02
