InwC 4400.00A  relative to Inci 1215.00A scaled to 1215A.
Hden   Phi(H)  Eq_Width (A)
7.000  17.000  4.6277e-02
7.000  17.250  6.1485e-02
7.000  17.500  7.8708e-02
7.000  17.750  8.1270e-02
7.000  18.000  8.2493e-02
7.000  18.250  8.2555e-02
7.000  18.500  8.2552e-02
7.000  18.750  8.2552e-02
7.000  19.000  8.2561e-02
7.000  19.250  8.2569e-02
7.000  19.500  8.2572e-02
7.000  19.750  8.2573e-02
7.000  20.000  8.2573e-02
7.000  20.250  8.2573e-02
7.000  20.500  8.2574e-02
7.000  20.750  8.2574e-02
7.000  21.000  8.2574e-02
7.000  21.250  8.2574e-02
7.000  21.500  8.2574e-02
7.000  21.750  8.2574e-02
7.000  22.000  8.2575e-02
7.000  22.250  8.2575e-02
7.000  22.500  8.2575e-02
7.000  22.750  8.2576e-02
7.000  23.000  8.2576e-02
7.000  23.250  8.2576e-02
7.000  23.500  8.2576e-02
7.000  23.750  8.2576e-02
7.000  24.000  8.2577e-02
7.250  17.000  3.3432e-02
7.250  17.250  4.7626e-02
7.250  17.500  6.2298e-02
7.250  17.750  7.8719e-02
7.250  18.000  8.1290e-02
7.250  18.250  8.2493e-02
7.250  18.500  8.2555e-02
7.250  18.750  8.2553e-02
7.250  19.000  8.2552e-02
7.250  19.250  8.2561e-02
7.250  19.500  8.2569e-02
7.250  19.750  8.2571e-02
7.250  20.000  8.2573e-02
7.250  20.250  8.2573e-02
7.250  20.500  8.2574e-02
7.250  20.750  8.2574e-02
7.250  21.000  8.2574e-02
7.250  21.250  8.2574e-02
7.250  21.500  8.2574e-02
7.250  21.750  8.2574e-02
7.250  22.000  8.2574e-02
7.250  22.250  8.2574e-02
7.250  22.500  8.2574e-02
7.250  22.750  8.2574e-02
7.250  23.000  8.2575e-02
7.250  23.250  8.2582e-02
7.250  23.500  8.2574e-02
7.250  23.750  8.2574e-02
7.250  24.000  8.2575e-02
7.500  17.000  2.2372e-02
7.500  17.250  3.4321e-02
7.500  17.500  4.8971e-02
7.500  17.750  6.3204e-02
7.500  18.000  7.8729e-02
7.500  18.250  8.1310e-02
7.500  18.500  8.2494e-02
7.500  18.750  8.2556e-02
7.500  19.000  8.2552e-02
7.500  19.250  8.2552e-02
7.500  19.500  8.2561e-02
7.500  19.750  8.2569e-02
7.500  20.000  8.2572e-02
7.500  20.250  8.2573e-02
7.500  20.500  8.2573e-02
7.500  20.750  8.2574e-02
7.500  21.000  8.2574e-02
7.500  21.250  8.2573e-02
7.500  21.500  8.2574e-02
7.500  21.750  8.2574e-02
7.500  22.000  8.2574e-02
7.500  22.250  8.2574e-02
7.500  22.500  8.2574e-02
7.500  22.750  8.2574e-02
7.500  23.000  8.2574e-02
7.500  23.250  8.2574e-02
7.500  23.500  8.2574e-02
7.500  23.750  8.2574e-02
7.500  24.000  8.2574e-02
7.750  17.000  1.4988e-02
7.750  17.250  2.2945e-02
7.750  17.500  3.5432e-02
7.750  17.750  5.0707e-02
7.750  18.000  6.4292e-02
7.750  18.250  7.8738e-02
7.750  18.500  8.1330e-02
7.750  18.750  8.2494e-02
7.750  19.000  8.2556e-02
7.750  19.250  8.2554e-02
7.750  19.500  8.2552e-02
7.750  19.750  8.2561e-02
7.750  20.000  8.2569e-02
7.750  20.250  8.2572e-02
7.750  20.500  8.2573e-02
7.750  20.750  8.2573e-02
7.750  21.000  8.2573e-02
7.750  21.250  8.2574e-02
7.750  21.500  8.2574e-02
7.750  21.750  8.2574e-02
7.750  22.000  8.2574e-02
7.750  22.250  8.2574e-02
7.750  22.500  8.2574e-02
7.750  22.750  8.2574e-02
7.750  23.000  8.2574e-02
7.750  23.250  8.2574e-02
7.750  23.500  8.2574e-02
7.750  23.750  8.2574e-02
7.750  24.000  8.2574e-02
8.000  17.000  1.0266e-02
8.000  17.250  1.5353e-02
8.000  17.500  2.3706e-02
8.000  17.750  3.6926e-02
8.000  18.000  5.2876e-02
8.000  18.250  6.5398e-02
8.000  18.500  7.8739e-02
8.000  18.750  8.1339e-02
8.000  19.000  8.2494e-02
8.000  19.250  8.2556e-02
8.000  19.500  8.2553e-02
8.000  19.750  8.2552e-02
8.000  20.000  8.2561e-02
8.000  20.250  8.2569e-02
8.000  20.500  8.2572e-02
8.000  20.750  8.2573e-02
8.000  21.000  8.2573e-02
8.000  21.250  8.2573e-02
8.000  21.500  8.2574e-02
8.000  21.750  8.2574e-02
8.000  22.000  8.2574e-02
8.000  22.250  8.2574e-02
8.000  22.500  8.2574e-02
8.000  22.750  8.2574e-02
8.000  23.000  8.2574e-02
8.000  23.250  8.2574e-02
8.000  23.500  8.2574e-02
8.000  23.750  8.2574e-02
8.000  24.000  8.2574e-02
8.250  17.000  7.2560e-03
8.250  17.250  1.0587e-02
8.250  17.500  1.6026e-02
8.250  17.750  2.5110e-02
8.250  18.000  3.9602e-02
8.250  18.250  5.5802e-02
8.250  18.500  6.7217e-02
8.250  18.750  7.8743e-02
8.250  19.000  8.1363e-02
8.250  19.250  8.2495e-02
8.250  19.500  8.2555e-02
8.250  19.750  8.2552e-02
8.250  20.000  8.2552e-02
8.250  20.250  8.2561e-02
8.250  20.500  8.2569e-02
8.250  20.750  8.2571e-02
8.250  21.000  8.2573e-02
8.250  21.250  8.2573e-02
8.250  21.500  8.2574e-02
8.250  21.750  8.2573e-02
8.250  22.000  8.2574e-02
8.250  22.250  8.2574e-02
8.250  22.500  8.2574e-02
8.250  22.750  8.2574e-02
8.250  23.000  8.2574e-02
8.250  23.250  8.2574e-02
8.250  23.500  8.2574e-02
8.250  23.750  8.2574e-02
8.250  24.000  8.2574e-02
8.500  17.000  5.2235e-03
8.500  17.250  7.4909e-03
8.500  17.500  1.1096e-02
8.500  17.750  1.7224e-02
8.500  18.000  2.7652e-02
8.500  18.250  4.3766e-02
8.500  18.500  5.9135e-02
8.500  18.750  6.9111e-02
8.500  19.000  7.8740e-02
8.500  19.250  8.1388e-02
8.500  19.500  8.2495e-02
8.500  19.750  8.2555e-02
8.500  20.000  8.2551e-02
8.500  20.250  8.2552e-02
8.500  20.500  8.2561e-02
8.500  20.750  8.2569e-02
8.500  21.000  8.2572e-02
8.500  21.250  8.2573e-02
8.500  21.500  8.2573e-02
8.500  21.750  8.2574e-02
8.500  22.000  8.2573e-02
8.500  22.250  8.2574e-02
8.500  22.500  8.2574e-02
8.500  22.750  8.2574e-02
8.500  23.000  8.2574e-02
8.500  23.250  8.2574e-02
8.500  23.500  8.2574e-02
8.500  23.750  8.2574e-02
8.500  24.000  8.2574e-02
8.750  17.000  3.7989e-03
8.750  17.250  5.3928e-03
8.750  17.500  7.8692e-03
8.750  17.750  1.1977e-02
8.750  18.000  1.9247e-02
8.750  18.250  3.1601e-02
8.750  18.500  4.8644e-02
8.750  18.750  6.1927e-02
8.750  19.000  7.0697e-02
8.750  19.250  7.8722e-02
8.750  19.500  8.1415e-02
8.750  19.750  8.2495e-02
8.750  20.000  8.2555e-02
8.750  20.250  8.2551e-02
8.750  20.500  8.2552e-02
8.750  20.750  8.2561e-02
8.750  21.000  8.2569e-02
8.750  21.250  8.2571e-02
8.750  21.500  8.2573e-02
8.750  21.750  8.2573e-02
8.750  22.000  8.2574e-02
8.750  22.250  8.2574e-02
8.750  22.500  8.2574e-02
8.750  22.750  8.2574e-02
8.750  23.000  8.2574e-02
8.750  23.250  8.2574e-02
8.750  23.500  8.2574e-02
8.750  23.750  8.2574e-02
8.750  24.000  8.2574e-02
9.000  17.000  2.7827e-03
9.000  17.250  3.9240e-03
9.000  17.500  5.6752e-03
9.000  17.750  8.5351e-03
9.000  18.000  1.3565e-02
9.000  18.250  2.2500e-02
9.000  18.500  3.6308e-02
9.000  18.750  5.3031e-02
9.000  19.000  6.4192e-02
9.000  19.250  7.2737e-02
9.000  19.500  7.8684e-02
9.000  19.750  8.1440e-02
9.000  20.000  8.2495e-02
9.000  20.250  8.2555e-02
9.000  20.500  8.2551e-02
9.000  20.750  8.2551e-02
9.000  21.000  8.2561e-02
9.000  21.250  8.2569e-02
9.000  21.500  8.2572e-02
9.000  21.750  8.2573e-02
9.000  22.000  8.2573e-02
9.000  22.250  8.2573e-02
9.000  22.500  8.2573e-02
9.000  22.750  8.2573e-02
9.000  23.000  8.2574e-02
9.000  23.250  8.2574e-02
9.000  23.500  8.2574e-02
9.000  23.750  8.2574e-02
9.000  24.000  8.2573e-02
9.250  17.000  2.0511e-03
9.250  17.250  2.8729e-03
9.250  17.500  4.1357e-03
9.250  17.750  6.1889e-03
9.250  18.000  9.8088e-03
9.250  18.250  1.6287e-02
9.250  18.500  2.6505e-02
9.250  18.750  4.0973e-02
9.250  19.000  5.7043e-02
9.250  19.250  6.7494e-02
9.250  19.500  7.5189e-02
9.250  19.750  7.8624e-02
9.250  20.000  8.1458e-02
9.250  20.250  8.2495e-02
9.250  20.500  8.2555e-02
9.250  20.750  8.2551e-02
9.250  21.000  8.2552e-02
9.250  21.250  8.2561e-02
9.250  21.500  8.2564e-02
9.250  21.750  8.2522e-02
9.250  22.000  8.2501e-02
9.250  22.250  8.2524e-02
9.250  22.500  8.2573e-02
9.250  22.750  8.2573e-02
9.250  23.000  8.2573e-02
9.250  23.250  8.2573e-02
9.250  23.500  8.2574e-02
9.250  23.750  8.2574e-02
9.250  24.000  8.2574e-02
9.500  17.000  1.5244e-03
9.500  17.250  2.1180e-03
9.500  17.500  3.0309e-03
9.500  17.750  4.5370e-03
9.500  18.000  7.2230e-03
9.500  18.250  1.2021e-02
9.500  18.500  1.9534e-02
9.500  18.750  3.0388e-02
9.500  19.000  4.4887e-02
9.500  19.250  6.0870e-02
9.500  19.500  6.9259e-02
9.500  19.750  7.6662e-02
9.500  20.000  7.8549e-02
9.500  20.250  8.1464e-02
9.500  20.500  8.2494e-02
9.500  20.750  8.2554e-02
9.500  21.000  8.2545e-02
9.500  21.250  8.2527e-02
9.500  21.500  8.2494e-02
9.500  21.750  8.2491e-02
9.500  22.000  8.2475e-02
9.500  22.250  8.2451e-02
9.500  22.500  8.2438e-02
9.500  22.750  8.2442e-02
9.500  23.000  8.2444e-02
9.500  23.250  8.2445e-02
9.500  23.500  8.2494e-02
9.500  23.750  8.2493e-02
9.500  24.000  8.2493e-02
9.750  17.000  1.1444e-03
9.750  17.250  1.5735e-03
9.750  17.500  2.2379e-03
9.750  17.750  3.3476e-03
9.750  18.000  5.3687e-03
9.750  18.250  8.9944e-03
9.750  18.500  1.4582e-02
9.750  18.750  2.2600e-02
9.750  19.000  3.3786e-02
9.750  19.250  4.9047e-02
9.750  19.500  6.2715e-02
9.750  19.750  7.1364e-02
9.750  20.000  7.6507e-02
9.750  20.250  7.8483e-02
9.750  20.500  8.1461e-02
9.750  20.750  8.2489e-02
9.750  21.000  8.2554e-02
9.750  21.250  8.2549e-02
9.750  21.500  8.2544e-02
9.750  21.750  8.2520e-02
9.750  22.000  8.2495e-02
9.750  22.250  8.2487e-02
9.750  22.500  8.2469e-02
9.750  22.750  8.2453e-02
9.750  23.000  8.2444e-02
9.750  23.250  8.2438e-02
9.750  23.500  8.2439e-02
9.750  23.750  8.2448e-02
9.750  24.000  8.2441e-02
10.000  17.000  8.7243e-04
10.000  17.250  1.1815e-03
10.000  17.500  1.6666e-03
10.000  17.750  2.4897e-03
10.000  18.000  4.0162e-03
10.000  18.250  6.7144e-03
10.000  18.500  1.0895e-02
10.000  18.750  1.6825e-02
10.000  19.000  2.5103e-02
10.000  19.250  3.6568e-02
10.000  19.500  5.2050e-02
10.000  19.750  6.3848e-02
10.000  20.000  7.3269e-02
10.000  20.250  7.6350e-02
10.000  20.500  7.8427e-02
10.000  20.750  8.1479e-02
10.000  21.000  8.2477e-02
10.000  21.250  8.2553e-02
10.000  21.500  8.2549e-02
10.000  21.750  8.2549e-02
10.000  22.000  8.2548e-02
10.000  22.250  8.2497e-02
10.000  22.500  8.2494e-02
10.000  22.750  8.2483e-02
10.000  23.000  8.2471e-02
10.000  23.250  8.2462e-02
10.000  23.500  8.2455e-02
10.000  23.750  8.2453e-02
10.000  24.000  8.2451e-02
10.250  17.000  6.7885e-04
10.250  17.250  9.0082e-04
10.250  17.500  1.2534e-03
10.250  17.750  1.8668e-03
10.250  18.000  3.0124e-03
10.250  18.250  5.0403e-03
10.250  18.500  8.1360e-03
10.250  18.750  1.2522e-02
10.250  19.000  1.8596e-02
10.250  19.250  2.7240e-02
10.250  19.500  3.9720e-02
10.250  19.750  5.3175e-02
10.250  20.000  6.5509e-02
10.250  20.250  7.4503e-02
10.250  20.500  7.6205e-02
10.250  20.750  7.8321e-02
10.250  21.000  8.1516e-02
10.250  21.250  8.2459e-02
10.250  21.500  8.2551e-02
10.250  21.750  8.2549e-02
10.250  22.000  8.2550e-02
10.250  22.250  8.2556e-02
10.250  22.500  8.2510e-02
10.250  22.750  8.2497e-02
10.250  23.000  8.2492e-02
10.250  23.250  8.2484e-02
10.250  23.500  8.2478e-02
10.250  23.750  8.2473e-02
10.250  24.000  8.2471e-02
10.500  17.000  5.4074e-04
10.500  17.250  7.0016e-04
10.500  17.500  9.5728e-04
10.500  17.750  1.4133e-03
10.500  18.000  2.2669e-03
10.500  18.250  3.7838e-03
10.500  18.500  6.0168e-03
10.500  18.750  9.2239e-03
10.500  19.000  1.3674e-02
10.500  19.250  1.9919e-02
10.500  19.500  2.8831e-02
10.500  19.750  4.1177e-02
10.500  20.000  5.4551e-02
10.500  20.250  6.7308e-02
10.500  20.500  7.4538e-02
10.500  20.750  7.6025e-02
10.500  21.000  7.8313e-02
10.500  21.250  8.1629e-02
10.500  21.500  8.2433e-02
10.500  21.750  8.2544e-02
10.500  22.000  8.2548e-02
10.500  22.250  8.2550e-02
10.500  22.500  8.2559e-02
10.500  22.750  8.2545e-02
10.500  23.000  8.2499e-02
10.500  23.250  8.2497e-02
10.500  23.500  8.2493e-02
10.500  23.750  8.2489e-02
10.500  24.000  8.2485e-02
10.750  17.000  4.4156e-04
10.750  17.250  5.5588e-04
10.750  17.500  7.4346e-04
10.750  17.750  1.0809e-03
10.750  18.000  1.7119e-03
10.750  18.250  2.8090e-03
10.750  18.500  4.4386e-03
10.750  18.750  6.7244e-03
10.750  19.000  9.9729e-03
10.750  19.250  1.4501e-02
10.750  19.500  2.0902e-02
10.750  19.750  2.9994e-02
10.750  20.000  4.2401e-02
10.750  20.250  5.6043e-02
10.750  20.500  6.9307e-02
10.750  20.750  7.4385e-02
10.750  21.000  7.6001e-02
10.750  21.250  7.8430e-02
10.750  21.500  8.1765e-02
10.750  21.750  8.2397e-02
10.750  22.000  8.2530e-02
10.750  22.250  8.2545e-02
10.750  22.500  8.2549e-02
10.750  22.750  8.2559e-02
10.750  23.000  8.2561e-02
10.750  23.250  8.2511e-02
10.750  23.500  8.2500e-02
10.750  23.750  8.2498e-02
10.750  24.000  8.2496e-02
11.000  17.000  3.6708e-04
11.000  17.250  4.5119e-04
11.000  17.500  5.8765e-04
11.000  17.750  8.3547e-04
11.000  18.000  1.2933e-03
11.000  18.250  2.0747e-03
11.000  18.500  3.2714e-03
11.000  18.750  4.9154e-03
11.000  19.000  7.2757e-03
11.000  19.250  1.0516e-02
11.000  19.500  1.5097e-02
11.000  19.750  2.1571e-02
11.000  20.000  3.0927e-02
11.000  20.250  4.3628e-02
11.000  20.500  5.7669e-02
11.000  20.750  7.0974e-02
11.000  21.000  7.4283e-02
11.000  21.250  7.6034e-02
11.000  21.500  7.8762e-02
11.000  21.750  8.1911e-02
11.000  22.000  8.2360e-02
11.000  22.250  8.2512e-02
11.000  22.500  8.2542e-02
11.000  22.750  8.2547e-02
11.000  23.000  8.2558e-02
11.000  23.250  8.2566e-02
11.000  23.500  8.2546e-02
11.000  23.750  8.2504e-02
11.000  24.000  8.2500e-02
11.250  17.000  3.1374e-04
11.250  17.250  3.7276e-04
11.250  17.500  4.7193e-04
11.250  17.750  6.5169e-04
11.250  18.000  9.7844e-04
11.250  18.250  1.5273e-03
11.250  18.500  2.3421e-03
11.250  18.750  3.5525e-03
11.250  19.000  5.2334e-03
11.250  19.250  7.5723e-03
11.250  19.500  1.0859e-02
11.250  19.750  1.5494e-02
11.250  20.000  2.2131e-02
11.250  20.250  3.1836e-02
11.250  20.500  4.4964e-02
11.250  20.750  5.9392e-02
11.250  21.000  7.1859e-02
11.250  21.250  7.4242e-02
11.250  21.500  7.6214e-02
11.250  21.750  7.9356e-02
11.250  22.000  8.1981e-02
11.250  22.250  8.2304e-02
11.250  22.500  8.2487e-02
11.250  22.750  8.2536e-02
11.250  23.000  8.2544e-02
11.250  23.250  8.2557e-02
11.250  23.500  8.2567e-02
11.250  23.750  8.2563e-02
11.250  24.000  8.2528e-02
11.500  17.000  2.7720e-04
11.500  17.250  3.1679e-04
11.500  17.500  3.8609e-04
11.500  17.750  5.1284e-04
11.500  18.000  7.4123e-04
11.500  18.250  1.1248e-03
11.500  18.500  1.6951e-03
11.500  18.750  2.5334e-03
11.500  19.000  3.7432e-03
11.500  19.250  5.4129e-03
11.500  19.500  7.7772e-03
11.500  19.750  1.1124e-02
11.500  20.000  1.5863e-02
11.500  20.250  2.2687e-02
11.500  20.500  3.2724e-02
11.500  20.750  4.6310e-02
11.500  21.000  6.1145e-02
11.500  21.250  7.1838e-02
11.500  21.500  7.4264e-02
11.500  21.750  7.6560e-02
11.500  22.000  8.0072e-02
11.500  22.250  8.1896e-02
11.500  22.500  8.2243e-02
11.500  22.750  8.2452e-02
11.500  23.000  8.2525e-02
11.500  23.250  8.2539e-02
11.500  23.500  8.2554e-02
11.500  23.750  8.2567e-02
11.500  24.000  8.2568e-02
11.750  17.000  2.5300e-04
11.750  17.250  2.7844e-04
11.750  17.500  3.2461e-04
11.750  17.750  4.1128e-04
11.750  18.000  5.6897e-04
11.750  18.250  8.3251e-04
11.750  18.500  1.2273e-03
11.750  18.750  1.8222e-03
11.750  19.000  2.6566e-03
11.750  19.250  3.8530e-03
11.750  19.500  5.5463e-03
11.750  19.750  7.9502e-03
11.750  20.000  1.1373e-02
11.750  20.250  1.6160e-02
11.750  20.500  2.3218e-02
11.750  20.750  3.3597e-02
11.750  21.000  4.7722e-02
11.750  21.250  6.2736e-02
11.750  21.500  7.1556e-02
11.750  21.750  7.4326e-02
11.750  22.000  7.7077e-02
11.750  22.250  8.0634e-02
11.750  22.500  8.1787e-02
11.750  22.750  8.2168e-02
11.750  23.000  8.2409e-02
11.750  23.250  8.2510e-02
11.750  23.500  8.2531e-02
11.750  23.750  8.2550e-02
11.750  24.000  8.2566e-02
12.000  17.000  2.3251e-04
12.000  17.250  2.5333e-04
12.000  17.500  2.8247e-04
12.000  17.750  3.3893e-04
12.000  18.000  4.4395e-04
12.000  18.250  6.2272e-04
12.000  18.500  8.9695e-04
12.000  18.750  1.3022e-03
12.000  19.000  1.8923e-03
12.000  19.250  2.7398e-03
12.000  19.500  3.9546e-03
12.000  19.750  5.6835e-03
12.000  20.000  8.1217e-03
12.000  20.250  1.1586e-02
12.000  20.500  1.6543e-02
12.000  20.750  2.3833e-02
12.000  21.000  3.4441e-02
12.000  21.250  4.8957e-02
12.000  21.500  6.3298e-02
12.000  21.750  7.1183e-02
12.000  22.000  7.4405e-02
12.000  22.250  7.7720e-02
12.000  22.500  8.0782e-02
12.000  22.750  8.1656e-02
12.000  23.000  8.2070e-02
12.000  23.250  8.2345e-02
12.000  23.500  8.2490e-02
12.000  23.750  8.2521e-02
12.000  24.000  8.2545e-02
12.250  17.000  1.3399e-04
12.250  17.250  2.3728e-04
12.250  17.500  2.5588e-04
12.250  17.750  2.9078e-04
12.250  18.000  3.5811e-04
12.250  18.250  4.7761e-04
12.250  18.500  6.6370e-04
12.250  18.750  9.4395e-04
12.250  19.000  1.3554e-03
12.250  19.250  1.9633e-03
12.250  19.500  2.8244e-03
12.250  19.750  4.0540e-03
12.250  20.000  5.7871e-03
12.250  20.250  8.2795e-03
12.250  20.500  1.1802e-02
12.250  20.750  1.6870e-02
12.250  21.000  2.4373e-02
12.250  21.250  3.5143e-02
12.250  21.500  4.9166e-02
12.250  21.750  6.3880e-02
12.250  22.000  7.0656e-02
12.250  22.250  7.4484e-02
12.250  22.500  7.8219e-02
12.250  22.750  8.0694e-02
12.250  23.000  8.1493e-02
12.250  23.250  8.1937e-02
12.250  23.500  8.2260e-02
12.250  23.750  8.2461e-02
12.250  24.000  8.2506e-02
12.500  17.000  6.1893e-05
12.500  17.250  1.5177e-04
12.500  17.500  2.4000e-04
12.500  17.750  2.6263e-04
12.500  18.000  3.0469e-04
12.500  18.250  3.7942e-04
12.500  18.500  5.0280e-04
12.500  18.750  6.9663e-04
12.500  19.000  9.8428e-04
12.500  19.250  1.4107e-03
12.500  19.500  2.0199e-03
12.500  19.750  2.8891e-03
12.500  20.000  4.1320e-03
12.500  20.250  5.8969e-03
12.500  20.500  8.4043e-03
12.500  20.750  1.2031e-02
12.500  21.000  1.7277e-02
12.500  21.250  2.4909e-02
12.500  21.500  3.5210e-02
12.500  21.750  4.9784e-02
12.500  22.000  6.3650e-02
12.500  22.250  7.0000e-02
12.500  22.500  7.4831e-02
12.500  22.750  7.8302e-02
12.500  23.000  8.0390e-02
12.500  23.250  8.1237e-02
12.500  23.500  8.1746e-02
12.500  23.750  8.2136e-02
12.500  24.000  8.2421e-02
12.750  17.000  3.3169e-05
12.750  17.250  7.3169e-05
12.750  17.500  1.6206e-04
12.750  17.750  2.4461e-04
12.750  18.000  2.7095e-04
12.750  18.250  3.1547e-04
12.750  18.500  3.9473e-04
12.750  18.750  5.2444e-04
12.750  19.000  7.2362e-04
12.750  19.250  1.0172e-03
12.750  19.500  1.4443e-03
12.750  19.750  2.0584e-03
12.750  20.000  2.9388e-03
12.750  20.250  4.1967e-03
12.750  20.500  5.9891e-03
12.750  20.750  8.5607e-03
12.750  21.000  1.2275e-02
12.750  21.250  1.7700e-02
12.750  21.500  2.4987e-02
12.750  21.750  3.5667e-02
12.750  22.000  4.9890e-02
12.750  22.250  6.2338e-02
12.750  22.500  6.9138e-02
12.750  22.750  7.4085e-02
12.750  23.000  7.7784e-02
12.750  23.250  7.9891e-02
12.750  23.500  8.0875e-02
12.750  23.750  8.1467e-02
12.750  24.000  8.1951e-02
13.000  17.000  6.3374e-06
13.000  17.250  1.4979e-05
13.000  17.500  5.3909e-05
13.000  17.750  1.3004e-04
13.000  18.000  2.0189e-04
13.000  18.250  2.4576e-04
13.000  18.500  3.2346e-04
13.000  18.750  4.0601e-04
13.000  19.000  5.3959e-04
13.000  19.250  7.4214e-04
13.000  19.500  1.0432e-03
13.000  19.750  1.4732e-03
13.000  20.000  2.0923e-03
13.000  20.250  2.9812e-03
13.000  20.500  4.2580e-03
13.000  20.750  6.0977e-03
13.000  21.000  8.7474e-03
13.000  21.250  1.2589e-02
13.000  21.500  1.7814e-02
13.000  21.750  2.5447e-02
13.000  22.000  3.5766e-02
13.000  22.250  4.9175e-02
13.000  22.500  6.0456e-02
13.000  22.750  6.7393e-02
13.000  23.000  7.2778e-02
13.000  23.250  7.6769e-02
13.000  23.500  7.9130e-02
13.000  23.750  8.0324e-02
13.000  24.000  8.1039e-02
13.250  17.000  3.7037e-06
13.250  17.250  7.1605e-06
13.250  17.500  1.7366e-05
13.250  17.750  4.2305e-05
13.250  18.000  1.0584e-04
13.250  18.250  1.8700e-04
13.250  18.500  2.3770e-04
13.250  18.750  3.3070e-04
13.250  19.000  4.1506e-04
13.250  19.250  5.5070e-04
13.250  19.500  7.5819e-04
13.250  19.750  1.0588e-03
13.250  20.000  1.4923e-03
13.250  20.250  2.1186e-03
13.250  20.500  3.0221e-03
13.250  20.750  4.3284e-03
13.250  21.000  6.2267e-03
13.250  21.250  8.9910e-03
13.250  21.500  1.2733e-02
13.250  21.750  1.8162e-02
13.250  22.000  2.5462e-02
13.250  22.250  3.4655e-02
13.250  22.500  4.6938e-02
13.250  22.750  5.7258e-02
13.250  23.000  6.4419e-02
13.250  23.250  7.0411e-02
13.250  23.500  7.5235e-02
13.250  23.750  7.8000e-02
13.250  24.000  7.9491e-02
13.500  17.000  2.2222e-06
13.500  17.250  4.3621e-06
13.500  17.500  9.5473e-06
13.500  17.750  2.1811e-05
13.500  18.000  5.1687e-05
13.500  18.250  1.2123e-04
13.500  18.500  1.9621e-04
13.500  18.750  2.5630e-04
13.500  19.000  3.3588e-04
13.500  19.250  4.2214e-04
13.500  19.500  5.6025e-04
13.500  19.750  7.6626e-04
13.500  20.000  1.0695e-03
13.500  20.250  1.5081e-03
13.500  20.500  2.1447e-03
13.500  20.750  3.0647e-03
13.500  21.000  4.4085e-03
13.500  21.250  6.3816e-03
13.500  21.500  9.0521e-03
13.500  21.750  1.2983e-02
13.500  22.000  1.7918e-02
13.500  22.250  2.3774e-02
13.500  22.500  3.1967e-02
13.500  22.750  4.3660e-02
13.500  23.000  5.3651e-02
13.500  23.250  6.0987e-02
13.500  23.500  6.7600e-02
13.500  23.750  7.3107e-02
13.500  24.000  7.6363e-02
13.750  17.000  1.3169e-06
13.750  17.250  2.6337e-06
13.750  17.500  5.6790e-06
13.750  17.750  1.1440e-05
13.750  18.000  2.7984e-05
13.750  18.250  6.1564e-05
13.750  18.500  1.2593e-04
13.750  18.750  2.0337e-04
13.750  19.000  2.7185e-04
13.750  19.250  3.3942e-04
13.750  19.500  4.2667e-04
13.750  19.750  5.6543e-04
13.750  20.000  7.7383e-04
13.750  20.250  1.0799e-03
13.750  20.500  1.5252e-03
13.750  20.750  2.1742e-03
13.750  21.000  3.1244e-03
13.750  21.250  4.5218e-03
13.750  21.500  6.4513e-03
13.750  21.750  9.2751e-03
13.750  22.000  1.2739e-02
13.750  22.250  1.6344e-02
13.750  22.500  2.0796e-02
13.750  22.750  2.8486e-02
13.750  23.000  3.9688e-02
13.750  23.250  4.9315e-02
13.750  23.500  5.7057e-02
13.750  23.750  6.3986e-02
13.750  24.000  7.0269e-02
14.000  17.000  1.0000e-07
14.000  17.250  1.5638e-06
14.000  17.500  3.4568e-06
14.000  17.750  6.9136e-06
14.000  18.000  1.4321e-05
14.000  18.250  3.3251e-05
14.000  18.500  6.8724e-05
14.000  18.750  1.2996e-04
14.000  19.000  2.2469e-04
14.000  19.250  2.8798e-04
14.000  19.500  3.4156e-04
14.000  19.750  4.2938e-04
14.000  20.000  5.6947e-04
14.000  20.250  7.8000e-04
14.000  20.500  1.0909e-03
14.000  20.750  1.5463e-03
14.000  21.000  2.2164e-03
14.000  21.250  3.2067e-03
14.000  21.500  4.5945e-03
14.000  21.750  6.6264e-03
14.000  22.000  9.0541e-03
14.000  22.250  1.1315e-02
14.000  22.500  1.3621e-02
14.000  22.750  1.7648e-02
14.000  23.000  2.5072e-02
14.000  23.250  3.5420e-02
14.000  23.500  4.4474e-02
14.000  23.750  5.1982e-02
14.000  24.000  5.9247e-02
