InwC 1.64313m  relative to Inci 1215.00A scaled to 1215A.
Hden   Phi(H)  Eq_Width (A)
7.000  17.000  2.6788e-03
7.000  17.250  3.5626e-03
7.000  17.500  4.5632e-03
7.000  17.750  4.7118e-03
7.000  18.000  4.7826e-03
7.000  18.250  4.7863e-03
7.000  18.500  4.7861e-03
7.000  18.750  4.7860e-03
7.000  19.000  4.7866e-03
7.000  19.250  4.7871e-03
7.000  19.500  4.7872e-03
7.000  19.750  4.7872e-03
7.000  20.000  4.7873e-03
7.000  20.250  4.7873e-03
7.000  20.500  4.7873e-03
7.000  20.750  4.7873e-03
7.000  21.000  4.7873e-03
7.000  21.250  4.7873e-03
7.000  21.500  4.7873e-03
7.000  21.750  4.7873e-03
7.000  22.000  4.7874e-03
7.000  22.250  4.7874e-03
7.000  22.500  4.7874e-03
7.000  22.750  4.7874e-03
7.000  23.000  4.7875e-03
7.000  23.250  4.7875e-03
7.000  23.500  4.7875e-03
7.000  23.750  4.7875e-03
7.000  24.000  4.7875e-03
7.250  17.000  1.9323e-03
7.250  17.250  2.7574e-03
7.250  17.500  3.6100e-03
7.250  17.750  4.5638e-03
7.250  18.000  4.7129e-03
7.250  18.250  4.7826e-03
7.250  18.500  4.7863e-03
7.250  18.750  4.7861e-03
7.250  19.000  4.7860e-03
7.250  19.250  4.7866e-03
7.250  19.500  4.7871e-03
7.250  19.750  4.7872e-03
7.250  20.000  4.7872e-03
7.250  20.250  4.7873e-03
7.250  20.500  4.7873e-03
7.250  20.750  4.7873e-03
7.250  21.000  4.7873e-03
7.250  21.250  4.7873e-03
7.250  21.500  4.7873e-03
7.250  21.750  4.7873e-03
7.250  22.000  4.7873e-03
7.250  22.250  4.7873e-03
7.250  22.500  4.7873e-03
7.250  22.750  4.7873e-03
7.250  23.000  4.7874e-03
7.250  23.250  4.7878e-03
7.250  23.500  4.7874e-03
7.250  23.750  4.7874e-03
7.250  24.000  4.7874e-03
7.500  17.000  1.2893e-03
7.500  17.250  1.9841e-03
7.500  17.500  2.8357e-03
7.500  17.750  3.6626e-03
7.500  18.000  4.5644e-03
7.500  18.250  4.7140e-03
7.500  18.500  4.7826e-03
7.500  18.750  4.7863e-03
7.500  19.000  4.7861e-03
7.500  19.250  4.7860e-03
7.500  19.500  4.7866e-03
7.500  19.750  4.7871e-03
7.500  20.000  4.7872e-03
7.500  20.250  4.7872e-03
7.500  20.500  4.7873e-03
7.500  20.750  4.7873e-03
7.500  21.000  4.7873e-03
7.500  21.250  4.7873e-03
7.500  21.500  4.7873e-03
7.500  21.750  4.7873e-03
7.500  22.000  4.7873e-03
7.500  22.250  4.7873e-03
7.500  22.500  4.7873e-03
7.500  22.750  4.7873e-03
7.500  23.000  4.7873e-03
7.500  23.250  4.7873e-03
7.500  23.500  4.7873e-03
7.500  23.750  4.7873e-03
7.500  24.000  4.7873e-03
7.750  17.000  8.6000e-04
7.750  17.250  1.3228e-03
7.750  17.500  2.0489e-03
7.750  17.750  2.9370e-03
7.750  18.000  3.7261e-03
7.750  18.250  4.5649e-03
7.750  18.500  4.7151e-03
7.750  18.750  4.7826e-03
7.750  19.000  4.7863e-03
7.750  19.250  4.7862e-03
7.750  19.500  4.7860e-03
7.750  19.750  4.7866e-03
7.750  20.000  4.7871e-03
7.750  20.250  4.7872e-03
7.750  20.500  4.7872e-03
7.750  20.750  4.7873e-03
7.750  21.000  4.7873e-03
7.750  21.250  4.7873e-03
7.750  21.500  4.7873e-03
7.750  21.750  4.7873e-03
7.750  22.000  4.7873e-03
7.750  22.250  4.7873e-03
7.750  22.500  4.7873e-03
7.750  22.750  4.7873e-03
7.750  23.000  4.7873e-03
7.750  23.250  4.7873e-03
7.750  23.500  4.7873e-03
7.750  23.750  4.7873e-03
7.750  24.000  4.7873e-03
8.000  17.000  5.8551e-04
8.000  17.250  8.8140e-04
8.000  17.500  1.3672e-03
8.000  17.750  2.1363e-03
8.000  18.000  3.0640e-03
8.000  18.250  3.7909e-03
8.000  18.500  4.5650e-03
8.000  18.750  4.7156e-03
8.000  19.000  4.7826e-03
8.000  19.250  4.7863e-03
8.000  19.500  4.7861e-03
8.000  19.750  4.7860e-03
8.000  20.000  4.7866e-03
8.000  20.250  4.7871e-03
8.000  20.500  4.7872e-03
8.000  20.750  4.7872e-03
8.000  21.000  4.7873e-03
8.000  21.250  4.7873e-03
8.000  21.500  4.7873e-03
8.000  21.750  4.7873e-03
8.000  22.000  4.7873e-03
8.000  22.250  4.7873e-03
8.000  22.500  4.7873e-03
8.000  22.750  4.7873e-03
8.000  23.000  4.7873e-03
8.000  23.250  4.7873e-03
8.000  23.500  4.7873e-03
8.000  23.750  4.7873e-03
8.000  24.000  4.7873e-03
8.250  17.000  4.1053e-04
8.250  17.250  6.0428e-04
8.250  17.500  9.2074e-04
8.250  17.750  1.4495e-03
8.250  18.000  2.2933e-03
8.250  18.250  3.2360e-03
8.250  18.500  3.8979e-03
8.250  18.750  4.5654e-03
8.250  19.000  4.7170e-03
8.250  19.250  4.7826e-03
8.250  19.500  4.7862e-03
8.250  19.750  4.7861e-03
8.250  20.000  4.7860e-03
8.250  20.250  4.7866e-03
8.250  20.500  4.7871e-03
8.250  20.750  4.7872e-03
8.250  21.000  4.7872e-03
8.250  21.250  4.7873e-03
8.250  21.500  4.7873e-03
8.250  21.750  4.7873e-03
8.250  22.000  4.7873e-03
8.250  22.250  4.7873e-03
8.250  22.500  4.7873e-03
8.250  22.750  4.7873e-03
8.250  23.000  4.7873e-03
8.250  23.250  4.7873e-03
8.250  23.500  4.7873e-03
8.250  23.750  4.7873e-03
8.250  24.000  4.7873e-03
8.500  17.000  2.9235e-04
8.500  17.250  4.2428e-04
8.500  17.500  6.3416e-04
8.500  17.750  9.9095e-04
8.500  18.000  1.5988e-03
8.500  18.250  2.5388e-03
8.500  18.500  3.4334e-03
8.500  18.750  4.0101e-03
8.500  19.000  4.5658e-03
8.500  19.250  4.7184e-03
8.500  19.500  4.7826e-03
8.500  19.750  4.7862e-03
8.500  20.000  4.7860e-03
8.500  20.250  4.7860e-03
8.500  20.500  4.7866e-03
8.500  20.750  4.7871e-03
8.500  21.000  4.7872e-03
8.500  21.250  4.7872e-03
8.500  21.500  4.7873e-03
8.500  21.750  4.7873e-03
8.500  22.000  4.7873e-03
8.500  22.250  4.7873e-03
8.500  22.500  4.7873e-03
8.500  22.750  4.7873e-03
8.500  23.000  4.7873e-03
8.500  23.250  4.7873e-03
8.500  23.500  4.7873e-03
8.500  23.750  4.7873e-03
8.500  24.000  4.7873e-03
8.750  17.000  2.0955e-04
8.750  17.250  3.0230e-04
8.750  17.500  4.4650e-04
8.750  17.750  6.8593e-04
8.750  18.000  1.1101e-03
8.750  18.250  1.8319e-03
8.750  18.500  2.8276e-03
8.750  18.750  3.6000e-03
8.750  19.000  4.1049e-03
8.750  19.250  4.5658e-03
8.750  19.500  4.7198e-03
8.750  19.750  4.7826e-03
8.750  20.000  4.7861e-03
8.750  20.250  4.7860e-03
8.750  20.500  4.7860e-03
8.750  20.750  4.7866e-03
8.750  21.000  4.7871e-03
8.750  21.250  4.7872e-03
8.750  21.500  4.7872e-03
8.750  21.750  4.7873e-03
8.750  22.000  4.7873e-03
8.750  22.250  4.7873e-03
8.750  22.500  4.7873e-03
8.750  22.750  4.7873e-03
8.750  23.000  4.7873e-03
8.750  23.250  4.7873e-03
8.750  23.500  4.7873e-03
8.750  23.750  4.7873e-03
8.750  24.000  4.7873e-03
9.000  17.000  1.5045e-04
9.000  17.250  2.1695e-04
9.000  17.500  3.1901e-04
9.000  17.750  4.8576e-04
9.000  18.000  7.7951e-04
9.000  18.250  1.3023e-03
9.000  18.500  2.1112e-03
9.000  18.750  3.0901e-03
9.000  19.000  3.7375e-03
9.000  19.250  4.2268e-03
9.000  19.500  4.5651e-03
9.000  19.750  4.7212e-03
9.000  20.000  4.7824e-03
9.000  20.250  4.7860e-03
9.000  20.500  4.7859e-03
9.000  20.750  4.7860e-03
9.000  21.000  4.7866e-03
9.000  21.250  4.7871e-03
9.000  21.500  4.7872e-03
9.000  21.750  4.7872e-03
9.000  22.000  4.7873e-03
9.000  22.250  4.7873e-03
9.000  22.500  4.7873e-03
9.000  22.750  4.7873e-03
9.000  23.000  4.7873e-03
9.000  23.250  4.7873e-03
9.000  23.500  4.7873e-03
9.000  23.750  4.7873e-03
9.000  24.000  4.7873e-03
9.250  17.000  1.0790e-04
9.250  17.250  1.5580e-04
9.250  17.500  2.2947e-04
9.250  17.750  3.4930e-04
9.250  18.000  5.6099e-04
9.250  18.250  9.4066e-04
9.250  18.500  1.5407e-03
9.250  18.750  2.3921e-03
9.250  19.000  3.3349e-03
9.250  19.250  3.9388e-03
9.250  19.500  4.3763e-03
9.250  19.750  4.5630e-03
9.250  20.000  4.7221e-03
9.250  20.250  4.7821e-03
9.250  20.500  4.7858e-03
9.250  20.750  4.7858e-03
9.250  21.000  4.7860e-03
9.250  21.250  4.7865e-03
9.250  21.500  4.7867e-03
9.250  21.750  4.7844e-03
9.250  22.000  4.7831e-03
9.250  22.250  4.7844e-03
9.250  22.500  4.7873e-03
9.250  22.750  4.7873e-03
9.250  23.000  4.7873e-03
9.250  23.250  4.7873e-03
9.250  23.500  4.7873e-03
9.250  23.750  4.7873e-03
9.250  24.000  4.7873e-03
9.500  17.000  7.7284e-05
9.500  17.250  1.1193e-04
9.500  17.500  1.6527e-04
9.500  17.750  2.5325e-04
9.500  18.000  4.1053e-04
9.500  18.250  6.9226e-04
9.500  18.500  1.1349e-03
9.500  18.750  1.7765e-03
9.500  19.000  2.6356e-03
9.500  19.250  3.5763e-03
9.500  19.500  4.0531e-03
9.500  19.750  4.4676e-03
9.500  20.000  4.5604e-03
9.500  20.250  4.7226e-03
9.500  20.500  4.7816e-03
9.500  20.750  4.7856e-03
9.500  21.000  4.7855e-03
9.500  21.250  4.7845e-03
9.500  21.500  4.7826e-03
9.500  21.750  4.7826e-03
9.500  22.000  4.7816e-03
9.500  22.250  4.7802e-03
9.500  22.500  4.7795e-03
9.500  22.750  4.7797e-03
9.500  23.000  4.7798e-03
9.500  23.250  4.7798e-03
9.500  23.500  4.7827e-03
9.500  23.750  4.7826e-03
9.500  24.000  4.7826e-03
9.750  17.000  5.5226e-05
9.750  17.250  8.0247e-05
9.750  17.500  1.1909e-04
9.750  17.750  1.8412e-04
9.750  18.000  3.0263e-04
9.750  18.250  5.1605e-04
9.750  18.500  8.4650e-04
9.750  18.750  1.3231e-03
9.750  19.000  1.9911e-03
9.750  19.250  2.9035e-03
9.750  19.500  3.7052e-03
9.750  19.750  4.1843e-03
9.750  20.000  4.4624e-03
9.750  20.250  4.5569e-03
9.750  20.500  4.7226e-03
9.750  20.750  4.7807e-03
9.750  21.000  4.7852e-03
9.750  21.250  4.7856e-03
9.750  21.500  4.7854e-03
9.750  21.750  4.7841e-03
9.750  22.000  4.7827e-03
9.750  22.250  4.7823e-03
9.750  22.500  4.7812e-03
9.750  22.750  4.7803e-03
9.750  23.000  4.7798e-03
9.750  23.250  4.7795e-03
9.750  23.500  4.7795e-03
9.750  23.750  4.7801e-03
9.750  24.000  4.7797e-03
10.000  17.000  3.9424e-05
10.000  17.250  5.7531e-05
10.000  17.500  8.5926e-05
10.000  17.750  1.3416e-04
10.000  18.000  2.2403e-04
10.000  18.250  3.8346e-04
10.000  18.500  6.3193e-04
10.000  18.750  9.8658e-04
10.000  19.000  1.4844e-03
10.000  19.250  2.1778e-03
10.000  19.500  3.1147e-03
10.000  19.750  3.7914e-03
10.000  20.000  4.2982e-03
10.000  20.250  4.4546e-03
10.000  20.500  4.5533e-03
10.000  20.750  4.7226e-03
10.000  21.000  4.7791e-03
10.000  21.250  4.7845e-03
10.000  21.500  4.7854e-03
10.000  21.750  4.7856e-03
10.000  22.000  4.7857e-03
10.000  22.250  4.7828e-03
10.000  22.500  4.7826e-03
10.000  22.750  4.7821e-03
10.000  23.000  4.7814e-03
10.000  23.250  4.7808e-03
10.000  23.500  4.7804e-03
10.000  23.750  4.7803e-03
10.000  24.000  4.7802e-03
10.250  17.000  2.8230e-05
10.250  17.250  4.1235e-05
10.250  17.500  6.1893e-05
10.250  17.750  9.8025e-05
10.250  18.000  1.6568e-04
10.250  18.250  2.8634e-04
10.250  18.500  4.7177e-04
10.250  18.750  7.3613e-04
10.250  19.000  1.1039e-03
10.250  19.250  1.6283e-03
10.250  19.500  2.3865e-03
10.250  19.750  3.1880e-03
10.250  20.000  3.8857e-03
10.250  20.250  4.3723e-03
10.250  20.500  4.4446e-03
10.250  20.750  4.5480e-03
10.250  21.000  4.7232e-03
10.250  21.250  4.7764e-03
10.250  21.500  4.7840e-03
10.250  21.750  4.7851e-03
10.250  22.000  4.7855e-03
10.250  22.250  4.7861e-03
10.250  22.500  4.7835e-03
10.250  22.750  4.7829e-03
10.250  23.000  4.7826e-03
10.250  23.250  4.7821e-03
10.250  23.500  4.7818e-03
10.250  23.750  4.7815e-03
10.250  24.000  4.7814e-03
10.500  17.000  2.0329e-05
10.500  17.250  2.9630e-05
10.500  17.500  4.4774e-05
10.500  17.750  7.1687e-05
10.500  18.000  1.2247e-04
10.500  18.250  2.1366e-04
10.500  18.500  3.4872e-04
10.500  18.750  5.4346e-04
10.500  19.000  8.1317e-04
10.500  19.250  1.1906e-03
10.500  19.500  1.7288e-03
10.500  19.750  2.4728e-03
10.500  20.000  3.2589e-03
10.500  20.250  3.9765e-03
10.500  20.500  4.3656e-03
10.500  20.750  4.4298e-03
10.500  21.000  4.5421e-03
10.500  21.250  4.7249e-03
10.500  21.500  4.7748e-03
10.500  21.750  4.7825e-03
10.500  22.000  4.7847e-03
10.500  22.250  4.7853e-03
10.500  22.500  4.7861e-03
10.500  22.750  4.7855e-03
10.500  23.000  4.7830e-03
10.500  23.250  4.7829e-03
10.500  23.500  4.7826e-03
10.500  23.750  4.7824e-03
10.500  24.000  4.7822e-03
10.750  17.000  1.4733e-05
10.750  17.250  2.1317e-05
10.750  17.500  3.2428e-05
10.750  17.750  5.2510e-05
10.750  18.000  9.0453e-05
10.750  18.250  1.5720e-04
10.750  18.500  2.5687e-04
10.750  18.750  3.9654e-04
10.750  19.000  5.9366e-04
10.750  19.250  8.6667e-04
10.750  19.500  1.2510e-03
10.750  19.750  1.7954e-03
10.750  20.000  2.5328e-03
10.750  20.250  3.3208e-03
10.750  20.500  4.0633e-03
10.750  20.750  4.3342e-03
10.750  21.000  4.4087e-03
10.750  21.250  4.5359e-03
10.750  21.500  4.7351e-03
10.750  21.750  4.7698e-03
10.750  22.000  4.7798e-03
10.750  22.250  4.7838e-03
10.750  22.500  4.7848e-03
10.750  22.750  4.7858e-03
10.750  23.000  4.7864e-03
10.750  23.250  4.7836e-03
10.750  23.500  4.7830e-03
10.750  23.750  4.7829e-03
10.750  24.000  4.7828e-03
11.000  17.000  1.0617e-05
11.000  17.250  1.5391e-05
11.000  17.500  2.3457e-05
11.000  17.750  3.8354e-05
11.000  18.000  6.6255e-05
11.000  18.250  1.1457e-04
11.000  18.500  1.8881e-04
11.000  18.750  2.8988e-04
11.000  19.000  4.3358e-04
11.000  19.250  6.2848e-04
11.000  19.500  9.0239e-04
11.000  19.750  1.2867e-03
11.000  20.000  1.8377e-03
11.000  20.250  2.5742e-03
11.000  20.500  3.3639e-03
11.000  20.750  4.1040e-03
11.000  21.000  4.2867e-03
11.000  21.250  4.3790e-03
11.000  21.500  4.5551e-03
11.000  21.750  4.7347e-03
11.000  22.000  4.7620e-03
11.000  22.250  4.7756e-03
11.000  22.500  4.7825e-03
11.000  22.750  4.7840e-03
11.000  23.000  4.7854e-03
11.000  23.250  4.7866e-03
11.000  23.500  4.7856e-03
11.000  23.750  4.7832e-03
11.000  24.000  4.7830e-03
11.250  17.000  7.6543e-06
11.250  17.250  1.1111e-05
11.250  17.500  1.6955e-05
11.250  17.750  2.7901e-05
11.250  18.000  4.8230e-05
11.250  18.250  8.2798e-05
11.250  18.500  1.3383e-04
11.250  18.750  2.0897e-04
11.250  19.000  3.1160e-04
11.250  19.250  4.5259e-04
11.250  19.500  6.4856e-04
11.250  19.750  9.2181e-04
11.250  20.000  1.3078e-03
11.250  20.250  1.8625e-03
11.250  20.500  2.5909e-03
11.250  20.750  3.3676e-03
11.250  21.000  4.0565e-03
11.250  21.250  4.2170e-03
11.250  21.500  4.3848e-03
11.250  21.750  4.5637e-03
11.250  22.000  4.7230e-03
11.250  22.250  4.7495e-03
11.250  22.500  4.7689e-03
11.250  22.750  4.7803e-03
11.250  23.000  4.7829e-03
11.250  23.250  4.7848e-03
11.250  23.500  4.7865e-03
11.250  23.750  4.7865e-03
11.250  24.000  4.7846e-03
11.500  17.000  5.5144e-06
11.500  17.250  7.9835e-06
11.500  17.500  1.2181e-05
11.500  17.750  2.0082e-05
11.500  18.000  3.4568e-05
11.500  18.250  5.9177e-05
11.500  18.500  9.5309e-05
11.500  18.750  1.4757e-04
11.500  19.000  2.2206e-04
11.500  19.250  3.2321e-04
11.500  19.500  4.6428e-04
11.500  19.750  6.6074e-04
11.500  20.000  9.3358e-04
11.500  20.250  1.3165e-03
11.500  20.500  1.8598e-03
11.500  20.750  2.5592e-03
11.500  21.000  3.3063e-03
11.500  21.250  3.9063e-03
11.500  21.500  4.2007e-03
11.500  21.750  4.3496e-03
11.500  22.000  4.5632e-03
11.500  22.250  4.6920e-03
11.500  22.500  4.7298e-03
11.500  22.750  4.7579e-03
11.500  23.000  4.7768e-03
11.500  23.250  4.7809e-03
11.500  23.500  4.7836e-03
11.500  23.750  4.7862e-03
11.500  24.000  4.7867e-03
11.750  17.000  4.0329e-06
11.750  17.250  5.8436e-06
11.750  17.500  8.8066e-06
11.750  17.750  1.4403e-05
11.750  18.000  2.4691e-05
11.750  18.250  4.1893e-05
11.750  18.500  6.6996e-05
11.750  18.750  1.0444e-04
11.750  19.000  1.5613e-04
11.750  19.250  2.2930e-04
11.750  19.500  3.3095e-04
11.750  19.750  4.7193e-04
11.750  20.000  6.6765e-04
11.750  20.250  9.3202e-04
11.750  20.500  1.3047e-03
11.750  20.750  1.8174e-03
11.750  21.000  2.4620e-03
11.750  21.250  3.1511e-03
11.750  21.500  3.8298e-03
11.750  21.750  4.0942e-03
11.750  22.000  4.2942e-03
11.750  22.250  4.5326e-03
11.750  22.500  4.6452e-03
11.750  22.750  4.6989e-03
11.750  23.000  4.7401e-03
11.750  23.250  4.7711e-03
11.750  23.500  4.7778e-03
11.750  23.750  4.7819e-03
11.750  24.000  4.7858e-03
12.000  17.000  2.8807e-06
12.000  17.250  4.2798e-06
12.000  17.500  6.4198e-06
12.000  17.750  1.0370e-05
12.000  18.000  1.7366e-05
12.000  18.250  2.9136e-05
12.000  18.500  4.6667e-05
12.000  18.750  7.2428e-05
12.000  19.000  1.0955e-04
12.000  19.250  1.6206e-04
12.000  19.500  2.3556e-04
12.000  19.750  3.3745e-04
12.000  20.000  4.7630e-04
12.000  20.250  6.6584e-04
12.000  20.500  9.2230e-04
12.000  20.750  1.2700e-03
12.000  21.000  1.7206e-03
12.000  21.250  2.2721e-03
12.000  21.500  3.0645e-03
12.000  21.750  3.5892e-03
12.000  22.000  3.9413e-03
12.000  22.250  4.2015e-03
12.000  22.500  4.4509e-03
12.000  22.750  4.5756e-03
12.000  23.000  4.6509e-03
12.000  23.250  4.7107e-03
12.000  23.500  4.7621e-03
12.000  23.750  4.7728e-03
12.000  24.000  4.7790e-03
12.250  17.000  1.5638e-06
12.250  17.250  3.1276e-06
12.250  17.500  4.6914e-06
12.250  17.750  7.4074e-06
12.250  18.000  1.2099e-05
12.250  18.250  2.0000e-05
12.250  18.500  3.2099e-05
12.250  18.750  5.0288e-05
12.250  19.000  7.6626e-05
12.250  19.250  1.1490e-04
12.250  19.500  1.6757e-04
12.250  19.750  2.4049e-04
12.250  20.000  3.3942e-04
12.250  20.250  4.7523e-04
12.250  20.500  6.5490e-04
12.250  20.750  8.9021e-04
12.250  21.000  1.1933e-03
12.250  21.250  1.5539e-03
12.250  21.500  2.1607e-03
12.250  21.750  2.7626e-03
12.250  22.000  3.2871e-03
12.250  22.250  3.7274e-03
12.250  22.500  4.0430e-03
12.250  22.750  4.3187e-03
12.250  23.000  4.4750e-03
12.250  23.250  4.5778e-03
12.250  23.500  4.6642e-03
12.250  23.750  4.7472e-03
12.250  24.000  4.7647e-03
12.500  17.000  1.0000e-07
12.500  17.250  1.7284e-06
12.500  17.500  3.3745e-06
12.500  17.750  5.1852e-06
12.500  18.000  8.3951e-06
12.500  18.250  1.3580e-05
12.500  18.500  2.1975e-05
12.500  18.750  3.4897e-05
12.500  19.000  5.3663e-05
12.500  19.250  8.0988e-05
12.500  19.500  1.1877e-04
12.500  19.750  1.7086e-04
12.500  20.000  2.4230e-04
12.500  20.250  3.3852e-04
12.500  20.500  4.6560e-04
12.500  20.750  6.3144e-04
12.500  21.000  8.3588e-04
12.500  21.250  1.0699e-03
12.500  21.500  1.4616e-03
12.500  21.750  1.8597e-03
12.500  22.000  2.3851e-03
12.500  22.250  2.9416e-03
12.500  22.500  3.4426e-03
12.500  22.750  3.8003e-03
12.500  23.000  4.1241e-03
12.500  23.250  4.3276e-03
12.500  23.500  4.4668e-03
12.500  23.750  4.5909e-03
12.500  24.000  4.7234e-03
12.750  17.000  1.0000e-07
12.750  17.250  8.2305e-07
12.750  17.500  1.8930e-06
12.750  17.750  3.5391e-06
12.750  18.000  5.6790e-06
12.750  18.250  9.1358e-06
12.750  18.500  1.4979e-05
12.750  18.750  2.4033e-05
12.750  19.000  3.7366e-05
12.750  19.250  5.6461e-05
12.750  19.500  8.3457e-05
12.750  19.750  1.2082e-04
12.750  20.000  1.7202e-04
12.750  20.250  2.4099e-04
12.750  20.500  3.3193e-04
12.750  20.750  4.4856e-04
12.750  21.000  5.9021e-04
12.750  21.250  7.4757e-04
12.750  21.500  1.0028e-03
12.750  21.750  1.2190e-03
12.750  22.000  1.5212e-03
12.750  22.250  1.9694e-03
12.750  22.500  2.5416e-03
12.750  22.750  3.0285e-03
12.750  23.000  3.4663e-03
12.750  23.250  3.8569e-03
12.750  23.500  4.1202e-03
12.750  23.750  4.3021e-03
12.750  24.000  4.4786e-03
13.000  17.000  1.0000e-07
13.000  17.250  1.0000e-07
13.000  17.500  1.0000e-07
13.000  17.750  1.7284e-06
13.000  18.000  3.3745e-06
13.000  18.250  5.7613e-06
13.000  18.500  1.0041e-05
13.000  18.750  1.6214e-05
13.000  19.000  2.5514e-05
13.000  19.250  3.9012e-05
13.000  19.500  5.8519e-05
13.000  19.750  8.5103e-05
13.000  20.000  1.2165e-04
13.000  20.250  1.7095e-04
13.000  20.500  2.3621e-04
13.000  20.750  3.1967e-04
13.000  21.000  4.1984e-04
13.000  21.250  5.2741e-04
13.000  21.500  7.0091e-04
13.000  21.750  8.1860e-04
13.000  22.000  9.5029e-04
13.000  22.250  1.1965e-03
13.000  22.500  1.5843e-03
13.000  22.750  2.0637e-03
13.000  23.000  2.5516e-03
13.000  23.250  3.0547e-03
13.000  23.500  3.5057e-03
13.000  23.750  3.8324e-03
13.000  24.000  4.0634e-03
13.250  17.000  1.0000e-07
13.250  17.250  1.0000e-07
13.250  17.500  1.0000e-07
13.250  17.750  1.0000e-07
13.250  18.000  1.7284e-06
13.250  18.250  3.5391e-06
13.250  18.500  6.0905e-06
13.250  18.750  1.0864e-05
13.250  19.000  1.7202e-05
13.250  19.250  2.6584e-05
13.250  19.500  4.0412e-05
13.250  19.750  5.9424e-05
13.250  20.000  8.5514e-05
13.250  20.250  1.2082e-04
13.250  20.500  1.6765e-04
13.250  20.750  2.2741e-04
13.250  21.000  2.9934e-04
13.250  21.250  3.7580e-04
13.250  21.500  4.9638e-04
13.250  21.750  5.6173e-04
13.250  22.000  6.0815e-04
13.250  22.250  7.0477e-04
13.250  22.500  9.1095e-04
13.250  22.750  1.2152e-03
13.250  23.000  1.6057e-03
13.250  23.250  2.0765e-03
13.250  23.500  2.5839e-03
13.250  23.750  3.0681e-03
13.250  24.000  3.4507e-03
13.500  17.000  1.0000e-07
13.500  17.250  1.0000e-07
13.500  17.500  1.0000e-07
13.500  17.750  1.0000e-07
13.500  18.000  8.2305e-07
13.500  18.250  1.9753e-06
13.500  18.500  3.8683e-06
13.500  18.750  6.6667e-06
13.500  19.000  1.1358e-05
13.500  19.250  1.7860e-05
13.500  19.500  2.7407e-05
13.500  19.750  4.0823e-05
13.500  20.000  5.9588e-05
13.500  20.250  8.4856e-05
13.500  20.500  1.1844e-04
13.500  20.750  1.6123e-04
13.500  21.000  2.1284e-04
13.500  21.250  2.6782e-04
13.500  21.500  3.5300e-04
13.500  21.750  3.9267e-04
13.500  22.000  3.9506e-04
13.500  22.250  4.2058e-04
13.500  22.500  5.2453e-04
13.500  22.750  6.8840e-04
13.500  23.000  9.2288e-04
13.500  23.250  1.2300e-03
13.500  23.500  1.6232e-03
13.500  23.750  2.0869e-03
13.500  24.000  2.5602e-03
13.750  17.000  1.0000e-07
13.750  17.250  1.0000e-07
13.750  17.500  1.0000e-07
13.750  17.750  1.0000e-07
13.750  18.000  1.0000e-07
13.750  18.250  9.8765e-07
13.750  18.500  2.1399e-06
13.750  18.750  4.1152e-06
13.750  19.000  7.1605e-06
13.750  19.250  1.1770e-05
13.750  19.500  1.8272e-05
13.750  19.750  2.7737e-05
13.750  20.000  4.0988e-05
13.750  20.250  5.9095e-05
13.750  20.500  8.3045e-05
13.750  20.750  1.1391e-04
13.750  21.000  1.5103e-04
13.750  21.250  1.9062e-04
13.750  21.500  2.5210e-04
13.750  21.750  2.7720e-04
13.750  22.000  2.6486e-04
13.750  22.250  2.5572e-04
13.750  22.500  3.0239e-04
13.750  22.750  3.9597e-04
13.750  23.000  5.2165e-04
13.750  23.250  6.9292e-04
13.750  23.500  9.2486e-04
13.750  23.750  1.2186e-03
13.750  24.000  1.6029e-03
14.000  17.000  1.0000e-07
14.000  17.250  1.0000e-07
14.000  17.500  1.0000e-07
14.000  17.750  1.0000e-07
14.000  18.000  1.0000e-07
14.000  18.250  1.0000e-07
14.000  18.500  1.0700e-06
14.000  18.750  2.3045e-06
14.000  19.000  4.4444e-06
14.000  19.250  7.4897e-06
14.000  19.500  1.1934e-05
14.000  19.750  1.8519e-05
14.000  20.000  2.7819e-05
14.000  20.250  4.0576e-05
14.000  20.500  5.7778e-05
14.000  20.750  7.9918e-05
14.000  21.000  1.0658e-04
14.000  21.250  1.3498e-04
14.000  21.500  1.7942e-04
14.000  21.750  1.9613e-04
14.000  22.000  1.8000e-04
14.000  22.250  1.5918e-04
14.000  22.500  1.7605e-04
14.000  22.750  2.2831e-04
14.000  23.000  2.9852e-04
14.000  23.250  3.9086e-04
14.000  23.500  5.1193e-04
14.000  23.750  6.6938e-04
14.000  24.000  8.8502e-04
