InwC 10000.0A  relative to Inci 1215.00A scaled to 1215A.
Hden   Phi(H)  Eq_Width (A)
 7.000	17.000	1.6512e-02
 7.000	17.250	2.3428e-02
 7.000	17.500	3.0369e-02
 7.000	17.750	3.7470e-02
 7.000	18.000	3.8614e-02
 7.000	18.250	3.9104e-02
 7.000	18.500	3.9125e-02
 7.000	18.750	3.9079e-02
 7.000	19.000	3.9084e-02
 7.000	19.250	3.9088e-02
 7.000	19.500	3.9089e-02
 7.000	19.750	3.9090e-02
 7.000	20.000	3.9090e-02
 7.000	20.250	3.9090e-02
 7.000	20.500	3.9090e-02
 7.000	20.750	3.9090e-02
 7.000	21.000	3.9090e-02
 7.000	21.250	3.9090e-02
 7.000	21.500	3.9090e-02
 7.000	21.750	3.9090e-02
 7.000	22.000	3.9091e-02
 7.000	22.250	3.9091e-02
 7.000	22.500	3.9090e-02
 7.000	22.750	3.9091e-02
 7.000	23.000	3.9091e-02
 7.000	23.250	3.9091e-02
 7.000	23.500	3.9091e-02
 7.000	23.750	3.9091e-02
 7.000	24.000	3.9091e-02
 7.250	17.000	1.1209e-02
 7.250	17.250	1.6892e-02
 7.250	17.500	2.4100e-02
 7.250	17.750	3.0837e-02
 7.250	18.000	3.7475e-02
 7.250	18.250	3.8623e-02
 7.250	18.500	3.9103e-02
 7.250	18.750	3.9125e-02
 7.250	19.000	3.9080e-02
 7.250	19.250	3.9084e-02
 7.250	19.500	3.9088e-02
 7.250	19.750	3.9089e-02
 7.250	20.000	3.9090e-02
 7.250	20.250	3.9090e-02
 7.250	20.500	3.9090e-02
 7.250	20.750	3.9090e-02
 7.250	21.000	3.9090e-02
 7.250	21.250	3.9090e-02
 7.250	21.500	3.9090e-02
 7.250	21.750	3.9090e-02
 7.250	22.000	3.9090e-02
 7.250	22.250	3.9090e-02
 7.250	22.500	3.9090e-02
 7.250	22.750	3.9090e-02
 7.250	23.000	3.9090e-02
 7.250	23.250	3.9090e-02
 7.250	23.500	3.9090e-02
 7.250	23.750	3.9090e-02
 7.250	24.000	3.9091e-02
 7.500	17.000	7.5402e-03
 7.500	17.250	1.1511e-02
 7.500	17.500	1.7426e-02
 7.500	17.750	2.4984e-02
 7.500	18.000	3.1325e-02
 7.500	18.250	3.7480e-02
 7.500	18.500	3.8632e-02
 7.500	18.750	3.9103e-02
 7.500	19.000	3.9126e-02
 7.500	19.250	3.9080e-02
 7.500	19.500	3.9084e-02
 7.500	19.750	3.9088e-02
 7.500	20.000	3.9089e-02
 7.500	20.250	3.9090e-02
 7.500	20.500	3.9090e-02
 7.500	20.750	3.9090e-02
 7.500	21.000	3.9090e-02
 7.500	21.250	3.9090e-02
 7.500	21.500	3.9090e-02
 7.500	21.750	3.9090e-02
 7.500	22.000	3.9090e-02
 7.500	22.250	3.9090e-02
 7.500	22.500	3.9090e-02
 7.500	22.750	3.9090e-02
 7.500	23.000	3.9090e-02
 7.500	23.250	3.9090e-02
 7.500	23.500	3.9090e-02
 7.500	23.750	3.9090e-02
 7.500	24.000	3.9090e-02
 7.750	17.000	5.1329e-03
 7.750	17.250	7.7816e-03
 7.750	17.500	1.1990e-02
 7.750	17.750	1.8274e-02
 7.750	18.000	2.6072e-02
 7.750	18.250	3.1895e-02
 7.750	18.500	3.7484e-02
 7.750	18.750	3.8642e-02
 7.750	19.000	3.9104e-02
 7.750	19.250	3.9127e-02
 7.750	19.500	3.9080e-02
 7.750	19.750	3.9084e-02
 7.750	20.000	3.9088e-02
 7.750	20.250	3.9089e-02
 7.750	20.500	3.9090e-02
 7.750	20.750	3.9090e-02
 7.750	21.000	3.9090e-02
 7.750	21.250	3.9090e-02
 7.750	21.500	3.9090e-02
 7.750	21.750	3.9092e-02
 7.750	22.000	3.9090e-02
 7.750	22.250	3.9090e-02
 7.750	22.500	3.9090e-02
 7.750	22.750	3.9090e-02
 7.750	23.000	3.9090e-02
 7.750	23.250	3.9090e-02
 7.750	23.500	3.9090e-02
 7.750	23.750	3.9090e-02
 7.750	24.000	3.9090e-02
 8.000	17.000	3.5621e-03
 8.000	17.250	5.2942e-03
 8.000	17.500	8.1402e-03
 8.000	17.750	1.2741e-02
 8.000	18.000	1.9546e-02
 8.000	18.250	2.7408e-02
 8.000	18.500	3.2531e-02
 8.000	18.750	3.7486e-02
 8.000	19.000	3.8647e-02
 8.000	19.250	3.9103e-02
 8.000	19.500	3.9125e-02
 8.000	19.750	3.9080e-02
 8.000	20.000	3.9084e-02
 8.000	20.250	3.9088e-02
 8.000	20.500	3.9089e-02
 8.000	20.750	3.9090e-02
 8.000	21.000	3.9090e-02
 8.000	21.250	3.9090e-02
 8.000	21.500	3.9090e-02
 8.000	21.750	3.9090e-02
 8.000	22.000	3.9090e-02
 8.000	22.250	3.9090e-02
 8.000	22.500	3.9090e-02
 8.000	22.750	3.9090e-02
 8.000	23.000	3.9090e-02
 8.000	23.250	3.9090e-02
 8.000	23.500	3.9090e-02
 8.000	23.750	3.9090e-02
 8.000	24.000	3.9090e-02
 8.250	17.000	2.5310e-03
 8.250	17.250	3.6937e-03
 8.250	17.500	5.5909e-03
 8.250	17.750	8.8080e-03
 8.250	18.000	1.4070e-02
 8.250	18.250	2.1652e-02
 8.250	18.500	2.8860e-02
 8.250	18.750	3.3471e-02
 8.250	19.000	3.7491e-02
 8.250	19.250	3.8659e-02
 8.250	19.500	3.9103e-02
 8.250	19.750	3.9125e-02
 8.250	20.000	3.9080e-02
 8.250	20.250	3.9084e-02
 8.250	20.500	3.9088e-02
 8.250	20.750	3.9089e-02
 8.250	21.000	3.9090e-02
 8.250	21.250	3.9090e-02
 8.250	21.500	3.9090e-02
 8.250	21.750	3.9090e-02
 8.250	22.000	3.9090e-02
 8.250	22.250	3.9090e-02
 8.250	22.500	3.9090e-02
 8.250	22.750	3.9090e-02
 8.250	23.000	3.9090e-02
 8.250	23.250	3.9090e-02
 8.250	23.500	3.9090e-02
 8.250	23.750	3.9090e-02
 8.250	24.000	3.9090e-02
 8.500	17.000	1.8202e-03
 8.500	17.250	2.6285e-03
 8.500	17.500	3.9123e-03
 8.500	17.750	6.1206e-03
 8.500	18.000	9.9747e-03
 8.500	18.250	1.6200e-02
 8.500	18.500	2.4159e-02
 8.500	18.750	3.0476e-02
 8.500	19.000	3.4185e-02
 8.500	19.250	3.7492e-02
 8.500	19.500	3.8673e-02
 8.500	19.750	3.9103e-02
 8.500	20.000	3.9125e-02
 8.500	20.250	3.9080e-02
 8.500	20.500	3.9084e-02
 8.500	20.750	3.9088e-02
 8.500	21.000	3.9089e-02
 8.500	21.250	3.9090e-02
 8.500	21.500	3.9090e-02
 8.500	21.750	3.9090e-02
 8.500	22.000	3.9090e-02
 8.500	22.250	3.9090e-02
 8.500	22.500	3.9090e-02
 8.500	22.750	3.9090e-02
 8.500	23.000	3.9090e-02
 8.500	23.250	3.9090e-02
 8.500	23.500	3.9090e-02
 8.500	23.750	3.9090e-02
 8.500	24.000	3.9090e-02
 8.750	17.000	1.3142e-03
 8.750	17.250	1.8918e-03
 8.750	17.500	2.7886e-03
 8.750	17.750	4.3011e-03
 8.750	18.000	7.0505e-03
 8.750	18.250	1.1820e-02
 8.750	18.500	1.8578e-02
 8.750	18.750	2.6444e-02
 8.750	19.000	3.1342e-02
 8.750	19.250	3.4979e-02
 8.750	19.500	3.7487e-02
 8.750	19.750	3.8689e-02
 8.750	20.000	3.9103e-02
 8.750	20.250	3.9125e-02
 8.750	20.500	3.9080e-02
 8.750	20.750	3.9084e-02
 8.750	21.000	3.9088e-02
 8.750	21.250	3.9089e-02
 8.750	21.500	3.9090e-02
 8.750	21.750	3.9090e-02
 8.750	22.000	3.9090e-02
 8.750	22.250	3.9090e-02
 8.750	22.500	3.9090e-02
 8.750	22.750	3.9090e-02
 8.750	23.000	3.9090e-02
 8.750	23.250	3.9090e-02
 8.750	23.500	3.9090e-02
 8.750	23.750	3.9090e-02
 8.750	24.000	3.9090e-02
 9.000	17.000	9.4889e-04
 9.000	17.250	1.3663e-03
 9.000	17.500	2.0095e-03
 9.000	17.750	3.0801e-03
 9.000	18.000	5.0217e-03
 9.000	18.250	8.5425e-03
 9.000	18.500	1.3981e-02
 9.000	18.750	2.1015e-02
 9.000	19.000	2.8299e-02
 9.000	19.250	3.2485e-02
 9.000	19.500	3.5669e-02
 9.000	19.750	3.7468e-02
 9.000	20.000	3.8705e-02
 9.000	20.250	3.9103e-02
 9.000	20.500	3.9124e-02
 9.000	20.750	3.9079e-02
 9.000	21.000	3.9084e-02
 9.000	21.250	3.9088e-02
 9.000	21.500	3.9089e-02
 9.000	21.750	3.9090e-02
 9.000	22.000	3.9090e-02
 9.000	22.250	3.9090e-02
 9.000	22.500	3.9090e-02
 9.000	22.750	3.9090e-02
 9.000	23.000	3.9090e-02
 9.000	23.250	3.9090e-02
 9.000	23.500	3.9090e-02
 9.000	23.750	3.9090e-02
 9.000	24.000	3.9090e-02
 9.250	17.000	6.8305e-04
 9.250	17.250	9.8683e-04
 9.250	17.500	1.4547e-03
 9.250	17.750	2.2284e-03
 9.250	18.000	3.6407e-03
 9.250	18.250	6.2257e-03
 9.250	18.500	1.0283e-02
 9.250	18.750	1.6076e-02
 9.250	19.000	2.2818e-02
 9.250	19.250	3.0016e-02
 9.250	19.500	3.3358e-02
 9.250	19.750	3.6375e-02
 9.250	20.000	3.7443e-02
 9.250	20.250	3.8721e-02
 9.250	20.500	3.9102e-02
 9.250	20.750	3.9125e-02
 9.250	21.000	3.9079e-02
 9.250	21.250	3.9083e-02
 9.250	21.500	3.9087e-02
 9.250	21.750	3.9076e-02
 9.250	22.000	3.9041e-02
 9.250	22.250	3.9077e-02
 9.250	22.500	3.9090e-02
 9.250	22.750	3.9090e-02
 9.250	23.000	3.9090e-02
 9.250	23.250	3.9090e-02
 9.250	23.500	3.9090e-02
 9.250	23.750	3.9090e-02
 9.250	24.000	3.9090e-02
 9.500	17.000	4.9012e-04
 9.500	17.250	7.1078e-04
 9.500	17.500	1.0530e-03
 9.500	17.750	1.6241e-03
 9.500	18.000	2.6758e-03
 9.500	18.250	4.6136e-03
 9.500	18.500	7.6621e-03
 9.500	18.750	1.1951e-02
 9.500	19.000	1.7712e-02
 9.500	19.250	2.4613e-02
 9.500	19.500	3.0839e-02
 9.500	19.750	3.4068e-02
 9.500	20.000	3.6536e-02
 9.500	20.250	3.7411e-02
 9.500	20.500	3.8736e-02
 9.500	20.750	3.9100e-02
 9.500	21.000	3.9121e-02
 9.500	21.250	3.9073e-02
 9.500	21.500	3.9051e-02
 9.500	21.750	3.9029e-02
 9.500	22.000	3.9022e-02
 9.500	22.250	3.9008e-02
 9.500	22.500	3.8995e-02
 9.500	22.750	3.8987e-02
 9.500	23.000	3.8983e-02
 9.500	23.250	3.8983e-02
 9.500	23.500	3.9031e-02
 9.500	23.750	3.9031e-02
 9.500	24.000	3.9030e-02
 9.750	17.000	3.5119e-04
 9.750	17.250	5.1119e-04
 9.750	17.500	7.6091e-04
 9.750	17.750	1.1854e-03
 9.750	18.000	1.9779e-03
 9.750	18.250	3.4527e-03
 9.750	18.500	5.7541e-03
 9.750	18.750	8.9467e-03
 9.750	19.000	1.3263e-02
 9.750	19.250	1.9090e-02
 9.750	19.500	2.6578e-02
 9.750	19.750	3.1491e-02
 9.750	20.000	3.4804e-02
 9.750	20.250	3.6468e-02
 9.750	20.500	3.7376e-02
 9.750	20.750	3.8750e-02
 9.750	21.000	3.9096e-02
 9.750	21.250	3.9122e-02
 9.750	21.500	3.9077e-02
 9.750	21.750	3.9073e-02
 9.750	22.000	3.9030e-02
 9.750	22.250	3.9027e-02
 9.750	22.500	3.9019e-02
 9.750	22.750	3.9009e-02
 9.750	23.000	3.9002e-02
 9.750	23.250	3.8996e-02
 9.750	23.500	3.8994e-02
 9.750	23.750	3.8993e-02
 9.750	24.000	3.8992e-02
10.000	17.000	2.5185e-04
10.000	17.250	3.6716e-04
10.000	17.500	5.4938e-04
10.000	17.750	8.6535e-04
10.000	18.000	1.4661e-03
10.000	18.250	2.5645e-03
10.000	18.500	4.2916e-03
10.000	18.750	6.6572e-03
10.000	19.000	9.8770e-03
10.000	19.250	1.4241e-02
10.000	19.500	2.0483e-02
10.000	19.750	2.7483e-02
10.000	20.000	3.2181e-02
10.000	20.250	3.5392e-02
10.000	20.500	3.6401e-02
10.000	20.750	3.7359e-02
10.000	21.000	3.8766e-02
10.000	21.250	3.9088e-02
10.000	21.500	3.9121e-02
10.000	21.750	3.9077e-02
10.000	22.000	3.9080e-02
10.000	22.250	3.9041e-02
10.000	22.500	3.9030e-02
10.000	22.750	3.9026e-02
10.000	23.000	3.9020e-02
10.000	23.250	3.9014e-02
10.000	23.500	3.9010e-02
10.000	23.750	3.9009e-02
10.000	24.000	3.9007e-02
10.250	17.000	1.8082e-04
10.250	17.250	2.6354e-04
10.250	17.500	3.9580e-04
10.250	17.750	6.3070e-04
10.250	18.000	1.0832e-03
10.250	18.250	1.9039e-03
10.250	18.500	3.1839e-03
10.250	18.750	4.9063e-03
10.250	19.000	7.2603e-03
10.250	19.250	1.0563e-02
10.250	19.500	1.5243e-02
10.250	19.750	2.1859e-02
10.250	20.000	2.7936e-02
10.250	20.250	3.2805e-02
10.250	20.500	3.5548e-02
10.250	20.750	3.6320e-02
10.250	21.000	3.7343e-02
10.250	21.250	3.8786e-02
10.250	21.500	3.9079e-02
10.250	21.750	3.9118e-02
10.250	22.000	3.9077e-02
10.250	22.250	3.9081e-02
10.250	22.500	3.9068e-02
10.250	22.750	3.9032e-02
10.250	23.000	3.9030e-02
10.250	23.250	3.9026e-02
10.250	23.500	3.9023e-02
10.250	23.750	3.9020e-02
10.250	24.000	3.9020e-02
10.500	17.000	1.2963e-04
10.500	17.250	1.8905e-04
10.500	17.500	2.8543e-04
10.500	17.750	4.5893e-04
10.500	18.000	7.9654e-04
10.500	18.250	1.3980e-03
10.500	18.500	2.3204e-03
10.500	18.750	3.5584e-03
10.500	19.000	5.2872e-03
10.500	19.250	7.6839e-03
10.500	19.500	1.1065e-02
10.500	19.750	1.5931e-02
10.500	20.000	2.2445e-02
10.500	20.250	2.8454e-02
10.500	20.500	3.3489e-02
10.500	20.750	3.5553e-02
10.500	21.000	3.6266e-02
10.500	21.250	3.7370e-02
10.500	21.500	3.8823e-02
10.500	21.750	3.9060e-02
10.500	22.000	3.9113e-02
10.500	22.250	3.9075e-02
10.500	22.500	3.9081e-02
10.500	22.750	3.9081e-02
10.500	23.000	3.9041e-02
10.500	23.250	3.9032e-02
10.500	23.500	3.9030e-02
10.500	23.750	3.9028e-02
10.500	24.000	3.9026e-02
10.750	17.000	9.3251e-05
10.750	17.250	1.3547e-04
10.750	17.500	2.0510e-04
10.750	17.750	3.3259e-04
10.750	18.000	5.7802e-04
10.750	18.250	1.0182e-03
10.750	18.500	1.6688e-03
10.750	18.750	2.5676e-03
10.750	19.000	3.8013e-03
10.750	19.250	5.5774e-03
10.750	19.500	8.0134e-03
10.750	19.750	1.1466e-02
10.750	20.000	1.6416e-02
10.750	20.250	2.2929e-02
10.750	20.500	2.8993e-02
10.750	20.750	3.4020e-02
10.750	21.000	3.5422e-02
10.750	21.250	3.6207e-02
10.750	21.500	3.7510e-02
10.750	21.750	3.8828e-02
10.750	22.000	3.9028e-02
10.750	22.250	3.9106e-02
10.750	22.500	3.9072e-02
10.750	22.750	3.9079e-02
10.750	23.000	3.9085e-02
10.750	23.250	3.9068e-02
10.750	23.500	3.9035e-02
10.750	23.750	3.9032e-02
10.750	24.000	3.9031e-02
11.000	17.000	6.6996e-05
11.000	17.250	9.7119e-05
11.000	17.500	1.4700e-04
11.000	17.750	2.3852e-04
11.000	18.000	4.1424e-04
11.000	18.250	7.2444e-04
11.000	18.500	1.1732e-03
11.000	18.750	1.8131e-03
11.000	19.000	2.7074e-03
11.000	19.250	3.9824e-03
11.000	19.500	5.7568e-03
11.000	19.750	8.2354e-03
11.000	20.000	1.1748e-02
11.000	20.250	1.6786e-02
11.000	20.500	2.3330e-02
11.000	20.750	2.9466e-02
11.000	21.000	3.4249e-02
11.000	21.250	3.5239e-02
11.000	21.500	3.6265e-02
11.000	21.750	3.7696e-02
11.000	22.000	3.8796e-02
11.000	22.250	3.8983e-02
11.000	22.500	3.9093e-02
11.000	22.750	3.9067e-02
11.000	23.000	3.9076e-02
11.000	23.250	3.9085e-02
11.000	23.500	3.9082e-02
11.000	23.750	3.9054e-02
11.000	24.000	3.9037e-02
11.250	17.000	4.8560e-05
11.250	17.250	6.9465e-05
11.250	17.500	1.0510e-04
11.250	17.750	1.7012e-04
11.250	18.000	2.9350e-04
11.250	18.250	5.0700e-04
11.250	18.500	8.1547e-04
11.250	18.750	1.2715e-03
11.250	19.000	1.9180e-03
11.250	19.250	2.8219e-03
11.250	19.500	4.0928e-03
11.250	19.750	5.8831e-03
11.250	20.000	8.4062e-03
11.250	20.250	1.1967e-02
11.250	20.500	1.7040e-02
11.250	20.750	2.3574e-02
11.250	21.000	2.9700e-02
11.250	21.250	3.3890e-02
11.250	21.500	3.5204e-02
11.250	21.750	3.6265e-02
11.250	22.000	3.7882e-02
11.250	22.250	3.8696e-02
11.250	22.500	3.8921e-02
11.250	22.750	3.9072e-02
11.250	23.000	3.9058e-02
11.250	23.250	3.9071e-02
11.250	23.500	3.9084e-02
11.250	23.750	3.9086e-02
11.250	24.000	3.9078e-02
11.500	17.000	3.5885e-05
11.500	17.250	5.0123e-05
11.500	17.500	7.4733e-05
11.500	17.750	1.2025e-04
11.500	18.000	2.0560e-04
11.500	18.250	3.5029e-04
11.500	18.500	5.6222e-04
11.500	18.750	8.7737e-04
11.500	19.000	1.3301e-03
11.500	19.250	1.9721e-03
11.500	19.500	2.8828e-03
11.500	19.750	4.1692e-03
11.500	20.000	5.9802e-03
11.500	20.250	8.5290e-03
11.500	20.500	1.2106e-02
11.500	20.750	1.7104e-02
11.500	21.000	2.3513e-02
11.500	21.250	2.9538e-02
11.500	21.500	3.3578e-02
11.500	21.750	3.4931e-02
11.500	22.000	3.6234e-02
11.500	22.250	3.7934e-02
11.500	22.500	3.8544e-02
11.500	22.750	3.8833e-02
11.500	23.000	3.9042e-02
11.500	23.250	3.9044e-02
11.500	23.500	3.9063e-02
11.500	23.750	3.9082e-02
11.500	24.000	3.9086e-02
11.750	17.000	2.7160e-05
11.750	17.250	3.7037e-05
11.750	17.500	5.3663e-05
11.750	17.750	8.4527e-05
11.750	18.000	1.4239e-04
11.750	18.250	2.3901e-04
11.750	18.500	3.8346e-04
11.750	18.750	6.0230e-04
11.750	19.000	9.1852e-04
11.750	19.250	1.3720e-03
11.750	19.500	2.0151e-03
11.750	19.750	2.9367e-03
11.750	20.000	4.2379e-03
11.750	20.250	6.0539e-03
11.750	20.500	8.5886e-03
11.750	20.750	1.2113e-02
11.750	21.000	1.6853e-02
11.750	21.250	2.2964e-02
11.750	21.500	2.9153e-02
11.750	21.750	3.2746e-02
11.750	22.000	3.4522e-02
11.750	22.250	3.6104e-02
11.750	22.500	3.7726e-02
11.750	22.750	3.8328e-02
11.750	23.000	3.8699e-02
11.750	23.250	3.8996e-02
11.750	23.500	3.9024e-02
11.750	23.750	3.9051e-02
11.750	24.000	3.9079e-02
12.000	17.000	1.7037e-05
12.000	17.250	2.8066e-05
12.000	17.500	3.9424e-05
12.000	17.750	5.9835e-05
12.000	18.000	9.7860e-05
12.000	18.250	1.6173e-04
12.000	18.500	2.6099e-04
12.000	18.750	4.0979e-04
12.000	19.000	6.2856e-04
12.000	19.250	9.4519e-04
12.000	19.500	1.3984e-03
12.000	19.750	2.0544e-03
12.000	20.000	2.9848e-03
12.000	20.250	4.2863e-03
12.000	20.500	6.0860e-03
12.000	20.750	8.5719e-03
12.000	21.000	1.1893e-02
12.000	21.250	1.6214e-02
12.000	21.500	2.2132e-02
12.000	21.750	2.7981e-02
12.000	22.000	3.1580e-02
12.000	22.250	3.3862e-02
12.000	22.500	3.5742e-02
12.000	22.750	3.7318e-02
12.000	23.000	3.8006e-02
12.000	23.250	3.8495e-02
12.000	23.500	3.8927e-02
12.000	23.750	3.8993e-02
12.000	24.000	3.9033e-02
12.250	17.000	8.1481e-06
12.250	17.250	1.8683e-05
12.250	17.500	2.9794e-05
12.250	17.750	4.3457e-05
12.250	18.000	6.7984e-05
12.250	18.250	1.1062e-04
12.250	18.500	1.7679e-04
12.250	18.750	2.7646e-04
12.250	19.000	4.2609e-04
12.250	19.250	6.4568e-04
12.250	19.500	9.6428e-04
12.250	19.750	1.4262e-03
12.250	20.000	2.0844e-03
12.250	20.250	3.0131e-03
12.250	20.500	4.3026e-03
12.250	20.750	6.0685e-03
12.250	21.000	8.4081e-03
12.250	21.250	1.1391e-02
12.250	21.500	1.5404e-02
12.250	21.750	2.0615e-02
12.250	22.000	2.6111e-02
12.250	22.250	3.0070e-02
12.250	22.500	3.2863e-02
12.250	22.750	3.5053e-02
12.250	23.000	3.6674e-02
12.250	23.250	3.7536e-02
12.250	23.500	3.8185e-02
12.250	23.750	3.8822e-02
12.250	24.000	3.8946e-02
12.500	17.000	4.0329e-06
12.500	17.250	9.0535e-06
12.500	17.500	2.0165e-05
12.500	17.750	3.2593e-05
12.500	18.000	4.8971e-05
12.500	18.250	7.6296e-05
12.500	18.500	1.1951e-04
12.500	18.750	1.8691e-04
12.500	19.000	2.8881e-04
12.500	19.250	4.3860e-04
12.500	19.500	6.5901e-04
12.500	19.750	9.8041e-04
12.500	20.000	1.4437e-03
12.500	20.250	2.1004e-03
12.500	20.500	3.0197e-03
12.500	20.750	4.2834e-03
12.500	21.000	5.9529e-03
12.500	21.250	8.0481e-03
12.500	21.500	1.0769e-02
12.500	21.750	1.4017e-02
12.500	22.000	1.8545e-02
12.500	22.250	2.3781e-02
12.500	22.500	2.8267e-02
12.500	22.750	3.1277e-02
12.500	23.000	3.3830e-02
12.500	23.250	3.5720e-02
12.500	23.500	3.6837e-02
12.500	23.750	3.7711e-02
12.500	24.000	3.8658e-02
12.750	17.000	2.0576e-06
12.750	17.250	4.4444e-06
12.750	17.500	9.6296e-06
12.750	17.750	2.1152e-05
12.750	18.000	3.5309e-05
12.750	18.250	5.3169e-05
12.750	18.500	8.1564e-05
12.750	18.750	1.2568e-04
12.750	19.000	1.9366e-04
12.750	19.250	2.9588e-04
12.750	19.500	4.4741e-04
12.750	19.750	6.6881e-04
12.750	20.000	9.9045e-04
12.750	20.250	1.4536e-03
12.750	20.500	2.1048e-03
12.750	20.750	3.0046e-03
12.750	21.000	4.2062e-03
12.750	21.250	5.7104e-03
12.750	21.500	7.6176e-03
12.750	21.750	9.6556e-03
12.750	22.000	1.2172e-02
12.750	22.250	1.6137e-02
12.750	22.500	2.1197e-02
12.750	22.750	2.5496e-02
12.750	23.000	2.8948e-02
12.750	23.250	3.2063e-02
12.750	23.500	3.4352e-02
12.750	23.750	3.5817e-02
12.750	24.000	3.6992e-02
13.000	17.000	1.0000e-07
13.000	17.250	1.3169e-06
13.000	17.500	3.5391e-06
13.000	17.750	8.8889e-06
13.000	18.000	1.8930e-05
13.000	18.250	3.2593e-05
13.000	18.500	5.3416e-05
13.000	18.750	8.4856e-05
13.000	19.000	1.2938e-04
13.000	19.250	1.9860e-04
13.000	19.500	3.0198e-04
13.000	19.750	4.5374e-04
13.000	20.000	6.7506e-04
13.000	20.250	9.9712e-04
13.000	20.500	1.4561e-03
13.000	20.750	2.0956e-03
13.000	21.000	2.9564e-03
13.000	21.250	4.0430e-03
13.000	21.500	5.4230e-03
13.000	21.750	6.7636e-03
13.000	22.000	8.0946e-03
13.000	22.250	1.0031e-02
13.000	22.500	1.3523e-02
13.000	22.750	1.7984e-02
13.000	23.000	2.2030e-02
13.000	23.250	2.6016e-02
13.000	23.500	2.9726e-02
13.000	23.750	3.2467e-02
13.000	24.000	3.4346e-02
13.250	17.000	1.0000e-07
13.250	17.250	1.0000e-07
13.250	17.500	1.4815e-06
13.250	17.750	3.5391e-06
13.250	18.000	8.7243e-06
13.250	18.250	1.9012e-05
13.250	18.500	3.4156e-05
13.250	18.750	5.4733e-05
13.250	19.000	8.7572e-05
13.250	19.250	1.3144e-04
13.250	19.500	2.0214e-04
13.250	19.750	3.0519e-04
13.250	20.000	4.5671e-04
13.250	20.250	6.7860e-04
13.250	20.500	9.9811e-04
13.250	20.750	1.4500e-03
13.250	21.000	2.0636e-03
13.250	21.250	2.8483e-03
13.250	21.500	3.8455e-03
13.250	21.750	4.7776e-03
13.250	22.000	5.4648e-03
13.250	22.250	6.2777e-03
13.250	22.500	7.9450e-03
13.250	22.750	1.0915e-02
13.250	23.000	1.4529e-02
13.250	23.250	1.8432e-02
13.250	23.500	2.2688e-02
13.250	23.750	2.6773e-02
13.250	24.000	2.9957e-02
13.500	17.000	1.0000e-07
13.500	17.250	1.0000e-07
13.500	17.500	8.2305e-07
13.500	17.750	1.8107e-06
13.500	18.000	4.2798e-06
13.500	18.250	9.7119e-06
13.500	18.500	2.0247e-05
13.500	18.750	3.6132e-05
13.500	19.000	5.7695e-05
13.500	19.250	8.9218e-05
13.500	19.500	1.3481e-04
13.500	19.750	2.0370e-04
13.500	20.000	3.0609e-04
13.500	20.250	4.5844e-04
13.500	20.500	6.7844e-04
13.500	20.750	9.9333e-04
13.500	21.000	1.4257e-03
13.500	21.250	1.9919e-03
13.500	21.500	2.7138e-03
13.500	21.750	3.3748e-03
13.500	22.000	3.7387e-03
13.500	22.250	3.9618e-03
13.500	22.500	4.7033e-03
13.500	22.750	6.2473e-03
13.500	23.000	8.5743e-03
13.500	23.250	1.1643e-02
13.500	23.500	1.5047e-02
13.500	23.750	1.9027e-02
13.500	24.000	2.3273e-02
13.750	17.000	1.0000e-07
13.750	17.250	1.0000e-07
13.750	17.500	1.0000e-07
13.750	17.750	9.8765e-07
13.750	18.000	2.2222e-06
13.750	18.250	5.0206e-06
13.750	18.500	1.0535e-05
13.750	18.750	2.0823e-05
13.750	19.000	3.8601e-05
13.750	19.250	6.0494e-05
13.750	19.500	8.8560e-05
13.750	19.750	1.3556e-04
13.750	20.000	2.0461e-04
13.750	20.250	3.0724e-04
13.750	20.500	4.5794e-04
13.750	20.750	6.7531e-04
13.750	21.000	9.7959e-04
13.750	21.250	1.3800e-03
13.750	21.500	1.9024e-03
13.750	21.750	2.3798e-03
13.750	22.000	2.5839e-03
13.750	22.250	2.5552e-03
13.750	22.500	2.7970e-03
13.750	22.750	3.6210e-03
13.750	23.000	4.9218e-03
13.750	23.250	6.6939e-03
13.750	23.500	9.0640e-03
13.750	23.750	1.1766e-02
13.750	24.000	1.5292e-02
14.000	17.000	1.0000e-07
14.000	17.250	1.0000e-07
14.000	17.500	1.0000e-07
14.000	17.750	1.0000e-07
14.000	18.000	1.2346e-06
14.000	18.250	2.7160e-06
14.000	18.500	5.5967e-06
14.000	18.750	1.1193e-05
14.000	19.000	2.1646e-05
14.000	19.250	4.0165e-05
14.000	19.500	6.1317e-05
14.000	19.750	9.0947e-05
14.000	20.000	1.3630e-04
14.000	20.250	2.0486e-04
14.000	20.500	3.0708e-04
14.000	20.750	4.5588e-04
14.000	21.000	6.6724e-04
14.000	21.250	9.5021e-04
14.000	21.500	1.3237e-03
14.000	21.750	1.6673e-03
14.000	22.000	1.7935e-03
14.000	22.250	1.6813e-03
14.000	22.500	1.6900e-03
14.000	22.750	2.1066e-03
14.000	23.000	2.8562e-03
14.000	23.250	3.8426e-03
14.000	23.500	5.1728e-03
14.000	23.750	6.8133e-03
14.000	24.000	8.8389e-03
