FeKa 1.78000A  relative to Inci 1215.00A scaled to 1215A.
Hden   Phi(H)  Eq_Width (A)
 7.000	17.000	4.7731e-03
 7.000	17.250	5.0505e-03
 7.000	17.500	5.3652e-03
 7.000	17.750	5.7642e-03
 7.000	18.000	6.0337e-03
 7.000	18.250	6.4133e-03
 7.000	18.500	7.0797e-03
 7.000	18.750	7.4552e-03
 7.000	19.000	6.2312e-03
 7.000	19.250	1.7322e-03
 7.000	19.500	2.1473e-04
 7.000	19.750	1.9918e-05
 7.000	20.000	2.1399e-06
 7.000	20.250	1.0000e-07
 7.000	20.500	1.0000e-07
 7.000	20.750	1.0000e-07
 7.000	21.000	1.0000e-07
 7.000	21.250	1.0000e-07
 7.000	21.500	1.0000e-07
 7.000	21.750	1.0000e-07
 7.000	22.000	1.0000e-07
 7.000	22.250	1.0000e-07
 7.000	22.500	1.0000e-07
 7.000	22.750	1.0000e-07
 7.000	23.000	1.0000e-07
 7.000	23.250	1.0000e-07
 7.000	23.500	1.0000e-07
 7.000	23.750	1.0000e-07
 7.000	24.000	1.0000e-07
 7.250	17.000	4.5774e-03
 7.250	17.250	4.7842e-03
 7.250	17.500	5.0677e-03
 7.250	17.750	5.3798e-03
 7.250	18.000	5.7658e-03
 7.250	18.250	6.0355e-03
 7.250	18.500	6.4140e-03
 7.250	18.750	7.0800e-03
 7.250	19.000	7.4551e-03
 7.250	19.250	6.2315e-03
 7.250	19.500	1.7323e-03
 7.250	19.750	2.1481e-04
 7.250	20.000	1.9918e-05
 7.250	20.250	2.1399e-06
 7.250	20.500	1.0000e-07
 7.250	20.750	1.0000e-07
 7.250	21.000	1.0000e-07
 7.250	21.250	1.0000e-07
 7.250	21.500	1.0000e-07
 7.250	21.750	1.0000e-07
 7.250	22.000	1.0000e-07
 7.250	22.250	1.0000e-07
 7.250	22.500	1.0000e-07
 7.250	22.750	1.0000e-07
 7.250	23.000	1.0000e-07
 7.250	23.250	1.0000e-07
 7.250	23.500	1.0000e-07
 7.250	23.750	1.0000e-07
 7.250	24.000	1.0000e-07
 7.500	17.000	4.4364e-03
 7.500	17.250	4.5882e-03
 7.500	17.500	4.7993e-03
 7.500	17.750	5.0887e-03
 7.500	18.000	5.3961e-03
 7.500	18.250	5.7674e-03
 7.500	18.500	6.0377e-03
 7.500	18.750	6.4147e-03
 7.500	19.000	7.0799e-03
 7.500	19.250	7.4552e-03
 7.500	19.500	6.2322e-03
 7.500	19.750	1.7325e-03
 7.500	20.000	2.1481e-04
 7.500	20.250	1.9918e-05
 7.500	20.500	2.1399e-06
 7.500	20.750	1.0000e-07
 7.500	21.000	1.0000e-07
 7.500	21.250	1.0000e-07
 7.500	21.500	1.0000e-07
 7.500	21.750	1.0000e-07
 7.500	22.000	1.0000e-07
 7.500	22.250	1.0000e-07
 7.500	22.500	1.0000e-07
 7.500	22.750	1.0000e-07
 7.500	23.000	1.0000e-07
 7.500	23.250	1.0000e-07
 7.500	23.500	1.0000e-07
 7.500	23.750	1.0000e-07
 7.500	24.000	1.0000e-07
 7.750	17.000	4.3372e-03
 7.750	17.250	4.4448e-03
 7.750	17.500	4.6033e-03
 7.750	17.750	4.8225e-03
 7.750	18.000	5.1175e-03
 7.750	18.250	5.4058e-03
 7.750	18.500	5.7691e-03
 7.750	18.750	6.0401e-03
 7.750	19.000	6.4160e-03
 7.750	19.250	7.0806e-03
 7.750	19.500	7.4551e-03
 7.750	19.750	6.2326e-03
 7.750	20.000	1.7328e-03
 7.750	20.250	2.1481e-04
 7.750	20.500	1.9918e-05
 7.750	20.750	2.1399e-06
 7.750	21.000	1.0000e-07
 7.750	21.250	1.0000e-07
 7.750	21.500	1.0000e-07
 7.750	21.750	1.0000e-07
 7.750	22.000	1.0000e-07
 7.750	22.250	1.0000e-07
 7.750	22.500	1.0000e-07
 7.750	22.750	1.0000e-07
 7.750	23.000	1.0000e-07
 7.750	23.250	1.0000e-07
 7.750	23.500	1.0000e-07
 7.750	23.750	1.0000e-07
 7.750	24.000	1.0000e-07
 8.000	17.000	4.2706e-03
 8.000	17.250	4.3419e-03
 8.000	17.500	4.4549e-03
 8.000	17.750	4.6241e-03
 8.000	18.000	4.8554e-03
 8.000	18.250	5.1519e-03
 8.000	18.500	5.4240e-03
 8.000	18.750	5.7705e-03
 8.000	19.000	6.0423e-03
 8.000	19.250	6.4176e-03
 8.000	19.500	7.0821e-03
 8.000	19.750	7.4553e-03
 8.000	20.000	6.2330e-03
 8.000	20.250	1.7331e-03
 8.000	20.500	2.1481e-04
 8.000	20.750	1.9918e-05
 8.000	21.000	2.1399e-06
 8.000	21.250	1.0000e-07
 8.000	21.500	1.0000e-07
 8.000	21.750	1.0000e-07
 8.000	22.000	1.0000e-07
 8.000	22.250	1.0000e-07
 8.000	22.500	1.0000e-07
 8.000	22.750	1.0000e-07
 8.000	23.000	1.0000e-07
 8.000	23.250	1.0000e-07
 8.000	23.500	1.0000e-07
 8.000	23.750	1.0000e-07
 8.000	24.000	1.0000e-07
 8.250	17.000	4.2280e-03
 8.250	17.250	4.2750e-03
 8.250	17.500	4.3506e-03
 8.250	17.750	4.4744e-03
 8.250	18.000	4.6622e-03
 8.250	18.250	4.9031e-03
 8.250	18.500	5.1883e-03
 8.250	18.750	5.4484e-03
 8.250	19.000	5.7724e-03
 8.250	19.250	6.0455e-03
 8.250	19.500	6.4193e-03
 8.250	19.750	7.0824e-03
 8.250	20.000	7.4554e-03
 8.250	20.250	6.2340e-03
 8.250	20.500	1.7334e-03
 8.250	20.750	2.1481e-04
 8.250	21.000	1.9918e-05
 8.250	21.250	2.1399e-06
 8.250	21.500	1.0000e-07
 8.250	21.750	1.0000e-07
 8.250	22.000	1.0000e-07
 8.250	22.250	1.0000e-07
 8.250	22.500	1.0000e-07
 8.250	22.750	1.0000e-07
 8.250	23.000	1.0000e-07
 8.250	23.250	1.0000e-07
 8.250	23.500	1.0000e-07
 8.250	23.750	1.0000e-07
 8.250	24.000	1.0000e-07
 8.500	17.000	4.1998e-03
 8.500	17.250	4.2313e-03
 8.500	17.500	4.2818e-03
 8.500	17.750	4.3658e-03
 8.500	18.000	4.5081e-03
 8.500	18.250	4.7167e-03
 8.500	18.500	4.9619e-03
 8.500	18.750	5.2430e-03
 8.500	19.000	5.4801e-03
 8.500	19.250	5.7747e-03
 8.500	19.500	6.0494e-03
 8.500	19.750	6.4220e-03
 8.500	20.000	7.0838e-03
 8.500	20.250	7.4556e-03
 8.500	20.500	6.2349e-03
 8.500	20.750	1.7337e-03
 8.500	21.000	2.1481e-04
 8.500	21.250	1.9918e-05
 8.500	21.500	2.1399e-06
 8.500	21.750	1.0000e-07
 8.500	22.000	1.0000e-07
 8.500	22.250	1.0000e-07
 8.500	22.500	1.0000e-07
 8.500	22.750	1.0000e-07
 8.500	23.000	1.0000e-07
 8.500	23.250	1.0000e-07
 8.500	23.500	1.0000e-07
 8.500	23.750	1.0000e-07
 8.500	24.000	1.0000e-07
 8.750	17.000	4.1801e-03
 8.750	17.250	4.2021e-03
 8.750	17.500	4.2366e-03
 8.750	17.750	4.2932e-03
 8.750	18.000	4.3942e-03
 8.750	18.250	4.5602e-03
 8.750	18.500	4.7816e-03
 8.750	18.750	5.0313e-03
 8.750	19.000	5.2872e-03
 8.750	19.250	5.5106e-03
 8.750	19.500	5.7771e-03
 8.750	19.750	6.0536e-03
 8.750	20.000	6.4246e-03
 8.750	20.250	7.0849e-03
 8.750	20.500	7.4557e-03
 8.750	20.750	6.2357e-03
 8.750	21.000	1.7342e-03
 8.750	21.250	2.1490e-04
 8.750	21.500	1.9918e-05
 8.750	21.750	2.1399e-06
 8.750	22.000	1.0000e-07
 8.750	22.250	1.0000e-07
 8.750	22.500	1.0000e-07
 8.750	22.750	1.0000e-07
 8.750	23.000	1.0000e-07
 8.750	23.250	1.0000e-07
 8.750	23.500	1.0000e-07
 8.750	23.750	1.0000e-07
 8.750	24.000	1.0000e-07
 9.000	17.000	4.1663e-03
 9.000	17.250	4.1816e-03
 9.000	17.500	4.2060e-03
 9.000	17.750	4.2461e-03
 9.000	18.000	4.3159e-03
 9.000	18.250	4.4379e-03
 9.000	18.500	4.6208e-03
 9.000	18.750	4.8421e-03
 9.000	19.000	5.0990e-03
 9.000	19.250	5.3185e-03
 9.000	19.500	5.5426e-03
 9.000	19.750	5.7794e-03
 9.000	20.000	6.0584e-03
 9.000	20.250	6.4278e-03
 9.000	20.500	7.0865e-03
 9.000	20.750	7.4560e-03
 9.000	21.000	6.2366e-03
 9.000	21.250	1.7347e-03
 9.000	21.500	2.1490e-04
 9.000	21.750	1.9918e-05
 9.000	22.000	2.1399e-06
 9.000	22.250	1.0000e-07
 9.000	22.500	1.0000e-07
 9.000	22.750	1.0000e-07
 9.000	23.000	1.0000e-07
 9.000	23.250	1.0000e-07
 9.000	23.500	1.0000e-07
 9.000	23.750	1.0000e-07
 9.000	24.000	1.0000e-07
 9.250	17.000	4.1569e-03
 9.250	17.250	4.1677e-03
 9.250	17.500	4.1848e-03
 9.250	17.750	4.2139e-03
 9.250	18.000	4.2644e-03
 9.250	18.250	4.3528e-03
 9.250	18.500	4.4898e-03
 9.250	18.750	4.6763e-03
 9.250	19.000	4.8996e-03
 9.250	19.250	5.1663e-03
 9.250	19.500	5.3592e-03
 9.250	19.750	5.5869e-03
 9.250	20.000	5.7816e-03
 9.250	20.250	6.0631e-03
 9.250	20.500	6.4313e-03
 9.250	20.750	7.0877e-03
 9.250	21.000	7.4561e-03
 9.250	21.250	6.2383e-03
 9.250	21.500	1.7350e-03
 9.250	21.750	2.1465e-04
 9.250	22.000	1.9835e-05
 9.250	22.250	2.1399e-06
 9.250	22.500	1.0000e-07
 9.250	22.750	1.0000e-07
 9.250	23.000	1.0000e-07
 9.250	23.250	1.0000e-07
 9.250	23.500	1.0000e-07
 9.250	23.750	1.0000e-07
 9.250	24.000	1.0000e-07
 9.500	17.000	4.1502e-03
 9.500	17.250	4.1577e-03
 9.500	17.500	4.1698e-03
 9.500	17.750	4.1909e-03
 9.500	18.000	4.2295e-03
 9.500	18.250	4.2952e-03
 9.500	18.500	4.3966e-03
 9.500	18.750	4.5362e-03
 9.500	19.000	4.7277e-03
 9.500	19.250	4.9547e-03
 9.500	19.500	5.2118e-03
 9.500	19.750	5.3944e-03
 9.500	20.000	5.6058e-03
 9.500	20.250	5.7836e-03
 9.500	20.500	6.0683e-03
 9.500	20.750	6.4343e-03
 9.500	21.000	7.0893e-03
 9.500	21.250	7.4560e-03
 9.500	21.500	6.2346e-03
 9.500	21.750	1.7280e-03
 9.500	22.000	2.1366e-04
 9.500	22.250	1.9753e-05
 9.500	22.500	2.0576e-06
 9.500	22.750	1.0000e-07
 9.500	23.000	1.0000e-07
 9.500	23.250	1.0000e-07
 9.500	23.500	1.0000e-07
 9.500	23.750	1.0000e-07
 9.500	24.000	1.0000e-07
 9.750	17.000	4.1458e-03
 9.750	17.250	4.1509e-03
 9.750	17.500	4.1595e-03
 9.750	17.750	4.1752e-03
 9.750	18.000	4.2051e-03
 9.750	18.250	4.2547e-03
 9.750	18.500	4.3296e-03
 9.750	18.750	4.4309e-03
 9.750	19.000	4.5770e-03
 9.750	19.250	4.7737e-03
 9.750	19.500	5.0160e-03
 9.750	19.750	5.2455e-03
 9.750	20.000	5.4320e-03
 9.750	20.250	5.6059e-03
 9.750	20.500	5.7858e-03
 9.750	20.750	6.0738e-03
 9.750	21.000	6.4384e-03
 9.750	21.250	7.0917e-03
 9.750	21.500	7.4561e-03
 9.750	21.750	6.2356e-03
 9.750	22.000	1.7289e-03
 9.750	22.250	2.1374e-04
 9.750	22.500	1.9835e-05
 9.750	22.750	2.0576e-06
 9.750	23.000	1.0000e-07
 9.750	23.250	1.0000e-07
 9.750	23.500	1.0000e-07
 9.750	23.750	1.0000e-07
 9.750	24.000	1.0000e-07
10.000	17.000	4.1426e-03
10.000	17.250	4.1461e-03
10.000	17.500	4.1523e-03
10.000	17.750	4.1637e-03
10.000	18.000	4.1860e-03
10.000	18.250	4.2230e-03
10.000	18.500	4.2807e-03
10.000	18.750	4.3545e-03
10.000	19.000	4.4604e-03
10.000	19.250	4.6151e-03
10.000	19.500	4.8204e-03
10.000	19.750	5.0617e-03
10.000	20.000	5.2729e-03
10.000	20.250	5.4713e-03
10.000	20.500	5.6063e-03
10.000	20.750	5.7891e-03
10.000	21.000	6.0805e-03
10.000	21.250	6.4425e-03
10.000	21.500	7.0942e-03
10.000	21.750	7.4560e-03
10.000	22.000	6.2348e-03
10.000	22.250	1.7306e-03
10.000	22.500	2.1391e-04
10.000	22.750	1.9835e-05
10.000	23.000	2.0576e-06
10.000	23.250	1.0000e-07
10.000	23.500	1.0000e-07
10.000	23.750	1.0000e-07
10.000	24.000	1.0000e-07
10.250	17.000	4.1393e-03
10.250	17.250	4.1429e-03
10.250	17.500	4.1472e-03
10.250	17.750	4.1557e-03
10.250	18.000	4.1721e-03
10.250	18.250	4.1992e-03
10.250	18.500	4.2382e-03
10.250	18.750	4.2985e-03
10.250	19.000	4.3755e-03
10.250	19.250	4.4889e-03
10.250	19.500	4.6472e-03
10.250	19.750	4.8673e-03
10.250	20.000	5.0960e-03
10.250	20.250	5.3063e-03
10.250	20.500	5.4905e-03
10.250	20.750	5.6073e-03
10.250	21.000	5.7937e-03
10.250	21.250	6.0887e-03
10.250	21.500	6.4460e-03
10.250	21.750	7.0960e-03
10.250	22.000	7.4556e-03
10.250	22.250	6.2310e-03
10.250	22.500	1.7345e-03
10.250	22.750	2.1391e-04
10.250	23.000	1.9835e-05
10.250	23.250	2.0576e-06
10.250	23.500	1.0000e-07
10.250	23.750	1.0000e-07
10.250	24.000	1.0000e-07
10.500	17.000	4.1372e-03
10.500	17.250	4.1393e-03
10.500	17.500	4.1436e-03
10.500	17.750	4.1500e-03
10.500	18.000	4.1617e-03
10.500	18.250	4.1810e-03
10.500	18.500	4.2077e-03
10.500	18.750	4.2505e-03
10.500	19.000	4.3101e-03
10.500	19.250	4.3923e-03
10.500	19.500	4.5105e-03
10.500	19.750	4.6765e-03
10.500	20.000	4.9000e-03
10.500	20.250	5.1291e-03
10.500	20.500	5.3410e-03
10.500	20.750	5.4998e-03
10.500	21.000	5.6101e-03
10.500	21.250	5.8016e-03
10.500	21.500	6.0983e-03
10.500	21.750	6.4494e-03
10.500	22.000	7.0984e-03
10.500	22.250	7.4547e-03
10.500	22.500	6.2237e-03
10.500	22.750	1.7365e-03
10.500	23.000	2.1424e-04
10.500	23.250	1.9835e-05
10.500	23.500	2.0576e-06
10.500	23.750	1.0000e-07
10.500	24.000	1.0000e-07
10.750	17.000	4.1387e-03
10.750	17.250	4.1378e-03
10.750	17.500	4.1395e-03
10.750	17.750	4.1449e-03
10.750	18.000	4.1545e-03
10.750	18.250	4.1668e-03
10.750	18.500	4.1851e-03
10.750	18.750	4.2142e-03
10.750	19.000	4.2590e-03
10.750	19.250	4.3221e-03
10.750	19.500	4.4069e-03
10.750	19.750	4.5289e-03
10.750	20.000	4.7013e-03
10.750	20.250	4.9315e-03
10.750	20.500	5.1638e-03
10.750	20.750	5.3776e-03
10.750	21.000	5.5016e-03
10.750	21.250	5.6162e-03
10.750	21.500	5.8151e-03
10.750	21.750	6.1102e-03
10.750	22.000	6.4518e-03
10.750	22.250	7.1007e-03
10.750	22.500	7.4535e-03
10.750	22.750	6.2143e-03
10.750	23.000	1.7373e-03
10.750	23.250	2.1481e-04
10.750	23.500	1.9835e-05
10.750	23.750	2.0576e-06
10.750	24.000	1.0000e-07
11.000	17.000	4.1393e-03
11.000	17.250	4.1393e-03
11.000	17.500	4.1395e-03
11.000	17.750	4.1421e-03
11.000	18.000	4.1480e-03
11.000	18.250	4.1570e-03
11.000	18.500	4.1687e-03
11.000	18.750	4.1877e-03
11.000	19.000	4.2193e-03
11.000	19.250	4.2672e-03
11.000	19.500	4.3309e-03
11.000	19.750	4.4185e-03
11.000	20.000	4.5461e-03
11.000	20.250	4.7250e-03
11.000	20.500	4.9640e-03
11.000	20.750	5.1998e-03
11.000	21.000	5.4162e-03
11.000	21.250	5.5070e-03
11.000	21.500	5.6290e-03
11.000	21.750	5.8379e-03
11.000	22.000	6.1227e-03
11.000	22.250	6.4544e-03
11.000	22.500	7.1027e-03
11.000	22.750	7.4519e-03
11.000	23.000	6.2014e-03
11.000	23.250	1.7377e-03
11.000	23.500	2.1523e-04
11.000	23.750	1.9918e-05
11.000	24.000	2.0576e-06
11.250	17.000	4.1382e-03
11.250	17.250	4.1396e-03
11.250	17.500	4.1407e-03
11.250	17.750	4.1426e-03
11.250	18.000	4.1468e-03
11.250	18.250	4.1523e-03
11.250	18.500	4.1613e-03
11.250	18.750	4.1731e-03
11.250	19.000	4.1933e-03
11.250	19.250	4.2240e-03
11.250	19.500	4.2736e-03
11.250	19.750	4.3383e-03
11.250	20.000	4.4291e-03
11.250	20.250	4.5626e-03
11.250	20.500	4.7499e-03
11.250	20.750	4.9986e-03
11.250	21.000	5.2384e-03
11.250	21.250	5.4339e-03
11.250	21.500	5.5183e-03
11.250	21.750	5.6500e-03
11.250	22.000	5.8690e-03
11.250	22.250	6.1295e-03
11.250	22.500	6.4568e-03
11.250	22.750	7.1046e-03
11.250	23.000	7.4500e-03
11.250	23.250	6.1863e-03
11.250	23.500	1.7379e-03
11.250	23.750	2.1539e-04
11.250	24.000	1.9918e-05
11.500	17.000	4.1361e-03
11.500	17.250	4.1379e-03
11.500	17.500	4.1398e-03
11.500	17.750	4.1420e-03
11.500	18.000	4.1447e-03
11.500	18.250	4.1481e-03
11.500	18.500	4.1545e-03
11.500	18.750	4.1643e-03
11.500	19.000	4.1774e-03
11.500	19.250	4.1974e-03
11.500	19.500	4.2277e-03
11.500	19.750	4.2770e-03
11.500	20.000	4.3449e-03
11.500	20.250	4.4396e-03
11.500	20.500	4.5793e-03
11.500	20.750	4.7765e-03
11.500	21.000	5.0358e-03
11.500	21.250	5.2785e-03
11.500	21.500	5.4449e-03
11.500	21.750	5.5359e-03
11.500	22.000	5.6774e-03
11.500	22.250	5.8980e-03
11.500	22.500	6.1359e-03
11.500	22.750	6.4584e-03
11.500	23.000	7.1057e-03
11.500	23.250	7.4477e-03
11.500	23.500	6.1679e-03
11.500	23.750	1.7381e-03
11.500	24.000	2.1556e-04
11.750	17.000	4.1344e-03
11.750	17.250	4.1358e-03
11.750	17.500	4.1374e-03
11.750	17.750	4.1399e-03
11.750	18.000	4.1419e-03
11.750	18.250	4.1440e-03
11.750	18.500	4.1489e-03
11.750	18.750	4.1560e-03
11.750	19.000	4.1666e-03
11.750	19.250	4.1803e-03
11.750	19.500	4.2008e-03
11.750	19.750	4.2311e-03
11.750	20.000	4.2812e-03
11.750	20.250	4.3511e-03
11.750	20.500	4.4506e-03
11.750	20.750	4.5981e-03
11.750	21.000	4.8053e-03
11.750	21.250	5.0758e-03
11.750	21.500	5.3116e-03
11.750	21.750	5.4592e-03
11.750	22.000	5.5579e-03
11.750	22.250	5.7098e-03
11.750	22.500	5.9212e-03
11.750	22.750	6.1427e-03
11.750	23.000	6.4594e-03
11.750	23.250	7.1067e-03
11.750	23.500	7.4449e-03
11.750	23.750	6.1469e-03
11.750	24.000	1.7385e-03
12.000	17.000	3.5714e-03
12.000	17.250	4.1341e-03
12.000	17.500	4.1356e-03
12.000	17.750	4.1376e-03
12.000	18.000	4.1396e-03
12.000	18.250	4.1405e-03
12.000	18.500	4.1439e-03
12.000	18.750	4.1499e-03
12.000	19.000	4.1574e-03
12.000	19.250	4.1680e-03
12.000	19.500	4.1824e-03
12.000	19.750	4.2039e-03
12.000	20.000	4.2353e-03
12.000	20.250	4.2848e-03
12.000	20.500	4.3568e-03
12.000	20.750	4.4629e-03
12.000	21.000	4.6194e-03
12.000	21.250	4.8379e-03
12.000	21.500	5.1047e-03
12.000	21.750	5.3529e-03
12.000	22.000	5.4770e-03
12.000	22.250	5.5853e-03
12.000	22.500	5.7442e-03
12.000	22.750	5.9434e-03
12.000	23.000	6.1481e-03
12.000	23.250	6.4602e-03
12.000	23.500	7.1074e-03
12.000	23.750	7.4419e-03
12.000	24.000	6.1227e-03
12.250	17.000	2.2630e-03
12.250	17.250	3.8053e-03
12.250	17.500	4.1342e-03
12.250	17.750	4.1360e-03
12.250	18.000	4.1383e-03
12.250	18.250	4.1386e-03
12.250	18.500	4.1397e-03
12.250	18.750	4.1442e-03
12.250	19.000	4.1495e-03
12.250	19.250	4.1578e-03
12.250	19.500	4.1691e-03
12.250	19.750	4.1847e-03
12.250	20.000	4.2069e-03
12.250	20.250	4.2391e-03
12.250	20.500	4.2890e-03
12.250	20.750	4.3642e-03
12.250	21.000	4.4775e-03
12.250	21.250	4.6451e-03
12.250	21.500	4.8619e-03
12.250	21.750	5.1493e-03
12.250	22.000	5.3989e-03
12.250	22.250	5.4970e-03
12.250	22.500	5.6151e-03
12.250	22.750	5.7774e-03
12.250	23.000	5.9585e-03
12.250	23.250	6.1532e-03
12.250	23.500	6.4624e-03
12.250	23.750	7.1089e-03
12.250	24.000	7.4381e-03
12.500	17.000	1.2580e-03
12.500	17.250	2.4664e-03
12.500	17.500	3.7759e-03
12.500	17.750	4.1353e-03
12.500	18.000	4.1358e-03
12.500	18.250	4.1373e-03
12.500	18.500	4.1370e-03
12.500	18.750	4.1394e-03
12.500	19.000	4.1438e-03
12.500	19.250	4.1497e-03
12.500	19.500	4.1581e-03
12.500	19.750	4.1700e-03
12.500	20.000	4.1862e-03
12.500	20.250	4.2092e-03
12.500	20.500	4.2424e-03
12.500	20.750	4.2947e-03
12.500	21.000	4.3736e-03
12.500	21.250	4.4959e-03
12.500	21.500	4.6655e-03
12.500	21.750	4.9039e-03
12.500	22.000	5.1993e-03
12.500	22.250	5.4243e-03
12.500	22.500	5.5282e-03
12.500	22.750	5.6545e-03
12.500	23.000	5.8038e-03
12.500	23.250	5.9623e-03
12.500	23.500	6.1581e-03
12.500	23.750	6.4658e-03
12.500	24.000	7.1107e-03
12.750	17.000	7.2041e-04
12.750	17.250	1.4440e-03
12.750	17.500	2.5495e-03
12.750	17.750	3.8922e-03
12.750	18.000	4.1348e-03
12.750	18.250	4.1349e-03
12.750	18.500	4.1349e-03
12.750	18.750	4.1364e-03
12.750	19.000	4.1392e-03
12.750	19.250	4.1437e-03
12.750	19.500	4.1500e-03
12.750	19.750	4.1585e-03
12.750	20.000	4.1705e-03
12.750	20.250	4.1874e-03
12.750	20.500	4.2110e-03
12.750	20.750	4.2465e-03
12.750	21.000	4.3017e-03
12.750	21.250	4.3876e-03
12.750	21.500	4.5113e-03
12.750	21.750	4.7029e-03
12.750	22.000	4.9532e-03
12.750	22.250	5.2526e-03
12.750	22.500	5.4471e-03
12.750	22.750	5.5556e-03
12.750	23.000	5.6746e-03
12.750	23.250	5.8238e-03
12.750	23.500	5.9671e-03
12.750	23.750	6.1640e-03
12.750	24.000	6.4712e-03
13.000	17.000	1.2584e-04
13.000	17.250	3.0198e-04
13.000	17.500	1.0068e-03
13.000	17.750	2.1612e-03
13.000	18.000	3.2173e-03
13.000	18.250	3.6623e-03
13.000	18.500	3.9026e-03
13.000	18.750	4.1347e-03
13.000	19.000	4.1362e-03
13.000	19.250	4.1393e-03
13.000	19.500	4.1440e-03
13.000	19.750	4.1504e-03
13.000	20.000	4.1589e-03
13.000	20.250	4.1712e-03
13.000	20.500	4.1882e-03
13.000	20.750	4.2136e-03
13.000	21.000	4.2518e-03
13.000	21.250	4.3120e-03
13.000	21.500	4.4012e-03
13.000	21.750	4.5416e-03
13.000	22.000	4.7487e-03
13.000	22.250	5.0076e-03
13.000	22.500	5.3026e-03
13.000	22.750	5.4597e-03
13.000	23.000	5.5702e-03
13.000	23.250	5.6894e-03
13.000	23.500	5.8385e-03
13.000	23.750	5.9743e-03
13.000	24.000	6.1707e-03
13.250	17.000	7.6955e-05
13.250	17.250	1.4634e-04
13.250	17.500	3.5259e-04
13.250	17.750	8.4757e-04
13.250	18.000	1.8435e-03
13.250	18.250	3.0347e-03
13.250	18.500	3.6719e-03
13.250	18.750	3.8960e-03
13.250	19.000	4.1340e-03
13.250	19.250	4.3544e-03
13.250	19.500	4.1394e-03
13.250	19.750	4.1443e-03
13.250	20.000	4.1507e-03
13.250	20.250	4.1594e-03
13.250	20.500	4.1716e-03
13.250	20.750	4.1895e-03
13.250	21.000	4.2162e-03
13.250	21.250	4.2587e-03
13.250	21.500	4.3202e-03
13.250	21.750	4.4250e-03
13.250	22.000	4.5802e-03
13.250	22.250	4.7938e-03
13.250	22.500	5.0570e-03
13.250	22.750	5.3361e-03
13.250	23.000	5.4664e-03
13.250	23.250	5.5627e-03
13.250	23.500	5.6971e-03
13.250	23.750	5.8494e-03
13.250	24.000	5.9820e-03
13.500	17.000	4.7243e-05
13.500	17.250	9.3580e-05
13.500	17.500	2.0461e-04
13.500	17.750	4.3070e-04
13.500	18.000	1.0126e-03
13.500	18.250	1.9494e-03
13.500	18.500	3.0748e-03
13.500	18.750	3.7601e-03
13.500	19.000	4.0069e-03
13.500	19.250	4.1340e-03
13.500	19.500	4.1351e-03
13.500	19.750	4.1394e-03
13.500	20.000	4.1443e-03
13.500	20.250	4.1508e-03
13.500	20.500	4.1594e-03
13.500	20.750	4.1721e-03
13.500	21.000	4.1908e-03
13.500	21.250	4.2201e-03
13.500	21.500	4.2638e-03
13.500	21.750	4.3368e-03
13.500	22.000	4.4538e-03
13.500	22.250	4.6168e-03
13.500	22.500	4.8305e-03
13.500	22.750	5.1022e-03
13.500	23.000	5.3529e-03
13.500	23.250	5.4618e-03
13.500	23.500	5.5678e-03
13.500	23.750	5.7035e-03
13.500	24.000	5.8576e-03
13.750	17.000	2.8477e-05
13.750	17.250	5.6708e-05
13.750	17.500	1.2140e-04
13.750	17.750	2.4058e-04
13.750	18.000	5.5358e-04
13.750	18.250	1.1705e-03
13.750	18.500	2.0281e-03
13.750	18.750	3.0718e-03
13.750	19.000	4.0434e-03
13.750	19.250	4.0993e-03
13.750	19.500	4.0566e-03
13.750	19.750	4.1051e-03
13.750	20.000	4.1392e-03
13.750	20.250	4.1437e-03
13.750	20.500	4.1508e-03
13.750	20.750	4.1597e-03
13.750	21.000	4.1728e-03
13.750	21.250	4.1928e-03
13.750	21.500	4.2235e-03
13.750	21.750	4.2756e-03
13.750	22.000	4.3577e-03
13.750	22.250	4.4821e-03
13.750	22.500	4.6474e-03
13.750	22.750	4.8680e-03
13.750	23.000	5.1313e-03
13.750	23.250	5.3690e-03
13.750	23.500	5.4594e-03
13.750	23.750	5.5732e-03
13.750	24.000	5.7169e-03
14.000	17.000	1.7202e-05
14.000	17.250	3.4486e-05
14.000	17.500	7.6708e-05
14.000	17.750	1.5004e-04
14.000	18.000	2.9819e-04
14.000	18.250	6.6305e-04
14.000	18.500	1.2741e-03
14.000	18.750	2.1173e-03
14.000	19.000	3.1365e-03
14.000	19.250	4.1848e-03
14.000	19.500	4.1919e-03
14.000	19.750	4.1356e-03
14.000	20.000	4.1365e-03
14.000	20.250	4.1388e-03
14.000	20.500	4.1440e-03
14.000	20.750	4.1506e-03
14.000	21.000	4.1600e-03
14.000	21.250	4.1740e-03
14.000	21.500	4.1954e-03
14.000	21.750	4.2309e-03
14.000	22.000	4.2913e-03
14.000	22.250	4.3785e-03
14.000	22.500	4.5050e-03
14.000	22.750	4.6746e-03
14.000	23.000	4.8960e-03
14.000	23.250	5.1632e-03
14.000	23.500	5.3856e-03
14.000	23.750	5.4724e-03
14.000	24.000	5.6030e-03
