InwC 1.43649m  relative to Inci 1215.00A scaled to 1215A.
Hden   Phi(H)  Eq_Width (A)
 7.000	17.000	5.6665e-03
 7.000	17.250	8.0403e-03
 7.000	17.500	1.0422e-02
 7.000	17.750	1.2860e-02
 7.000	18.000	1.3252e-02
 7.000	18.250	1.3420e-02
 7.000	18.500	1.3428e-02
 7.000	18.750	1.3412e-02
 7.000	19.000	1.3413e-02
 7.000	19.250	1.3415e-02
 7.000	19.500	1.3415e-02
 7.000	19.750	1.3415e-02
 7.000	20.000	1.3415e-02
 7.000	20.250	1.3415e-02
 7.000	20.500	1.3416e-02
 7.000	20.750	1.3415e-02
 7.000	21.000	1.3416e-02
 7.000	21.250	1.3416e-02
 7.000	21.500	1.3415e-02
 7.000	21.750	1.3416e-02
 7.000	22.000	1.3416e-02
 7.000	22.250	1.3416e-02
 7.000	22.500	1.3416e-02
 7.000	22.750	1.3416e-02
 7.000	23.000	1.3416e-02
 7.000	23.250	1.3416e-02
 7.000	23.500	1.3416e-02
 7.000	23.750	1.3416e-02
 7.000	24.000	1.3416e-02
 7.250	17.000	3.8467e-03
 7.250	17.250	5.7973e-03
 7.250	17.500	8.2712e-03
 7.250	17.750	1.0583e-02
 7.250	18.000	1.2861e-02
 7.250	18.250	1.3255e-02
 7.250	18.500	1.3420e-02
 7.250	18.750	1.3428e-02
 7.250	19.000	1.3412e-02
 7.250	19.250	1.3413e-02
 7.250	19.500	1.3415e-02
 7.250	19.750	1.3415e-02
 7.250	20.000	1.3415e-02
 7.250	20.250	1.3415e-02
 7.250	20.500	1.3415e-02
 7.250	20.750	1.3415e-02
 7.250	21.000	1.3416e-02
 7.250	21.250	1.3415e-02
 7.250	21.500	1.3416e-02
 7.250	21.750	1.3416e-02
 7.250	22.000	1.3416e-02
 7.250	22.250	1.3416e-02
 7.250	22.500	1.3416e-02
 7.250	22.750	1.3416e-02
 7.250	23.000	1.3416e-02
 7.250	23.250	1.3416e-02
 7.250	23.500	1.3416e-02
 7.250	23.750	1.3416e-02
 7.250	24.000	1.3416e-02
 7.500	17.000	2.5875e-03
 7.500	17.250	3.9506e-03
 7.500	17.500	5.9805e-03
 7.500	17.750	8.5745e-03
 7.500	18.000	1.0750e-02
 7.500	18.250	1.2863e-02
 7.500	18.500	1.3258e-02
 7.500	18.750	1.3420e-02
 7.500	19.000	1.3428e-02
 7.500	19.250	1.3412e-02
 7.500	19.500	1.3413e-02
 7.500	19.750	1.3415e-02
 7.500	20.000	1.3415e-02
 7.500	20.250	1.3415e-02
 7.500	20.500	1.3415e-02
 7.500	20.750	1.3415e-02
 7.500	21.000	1.3415e-02
 7.500	21.250	1.3415e-02
 7.500	21.500	1.3415e-02
 7.500	21.750	1.3415e-02
 7.500	22.000	1.3415e-02
 7.500	22.250	1.3416e-02
 7.500	22.500	1.3416e-02
 7.500	22.750	1.3415e-02
 7.500	23.000	1.3416e-02
 7.500	23.250	1.3416e-02
 7.500	23.500	1.3416e-02
 7.500	23.750	1.3416e-02
 7.500	24.000	1.3416e-02
 7.750	17.000	1.7613e-03
 7.750	17.250	2.6705e-03
 7.750	17.500	4.1151e-03
 7.750	17.750	6.2715e-03
 7.750	18.000	8.9475e-03
 7.750	18.250	1.0946e-02
 7.750	18.500	1.2864e-02
 7.750	18.750	1.3261e-02
 7.750	19.000	1.3420e-02
 7.750	19.250	1.3428e-02
 7.750	19.500	1.3412e-02
 7.750	19.750	1.3413e-02
 7.750	20.000	1.3415e-02
 7.750	20.250	1.3415e-02
 7.750	20.500	1.3415e-02
 7.750	20.750	1.3415e-02
 7.750	21.000	1.3415e-02
 7.750	21.250	1.3416e-02
 7.750	21.500	1.3415e-02
 7.750	21.750	1.3416e-02
 7.750	22.000	1.3416e-02
 7.750	22.250	1.3415e-02
 7.750	22.500	1.3415e-02
 7.750	22.750	1.3416e-02
 7.750	23.000	1.3416e-02
 7.750	23.250	1.3416e-02
 7.750	23.500	1.3415e-02
 7.750	23.750	1.3415e-02
 7.750	24.000	1.3415e-02
 8.000	17.000	1.2222e-03
 8.000	17.250	1.8170e-03
 8.000	17.500	2.7939e-03
 8.000	17.750	4.3727e-03
 8.000	18.000	6.7065e-03
 8.000	18.250	9.4023e-03
 8.000	18.500	1.1162e-02
 8.000	18.750	1.2864e-02
 8.000	19.000	1.3263e-02
 8.000	19.250	1.3420e-02
 8.000	19.500	1.3427e-02
 8.000	19.750	1.3412e-02
 8.000	20.000	1.3413e-02
 8.000	20.250	1.3415e-02
 8.000	20.500	1.3415e-02
 8.000	20.750	1.3415e-02
 8.000	21.000	1.3415e-02
 8.000	21.250	1.3415e-02
 8.000	21.500	1.3416e-02
 8.000	21.750	1.3415e-02
 8.000	22.000	1.3416e-02
 8.000	22.250	1.3416e-02
 8.000	22.500	1.3416e-02
 8.000	22.750	1.3416e-02
 8.000	23.000	1.3415e-02
 8.000	23.250	1.3416e-02
 8.000	23.500	1.3416e-02
 8.000	23.750	1.3416e-02
 8.000	24.000	1.3416e-02
 8.250	17.000	8.6840e-04
 8.250	17.250	1.2677e-03
 8.250	17.500	1.9190e-03
 8.250	17.750	3.0230e-03
 8.250	18.000	4.8263e-03
 8.250	18.250	7.4199e-03
 8.250	18.500	9.8879e-03
 8.250	18.750	1.1477e-02
 8.250	19.000	1.2865e-02
 8.250	19.250	1.3267e-02
 8.250	19.500	1.3420e-02
 8.250	19.750	1.3427e-02
 8.250	20.000	1.3412e-02
 8.250	20.250	1.3413e-02
 8.250	20.500	1.3415e-02
 8.250	20.750	1.3415e-02
 8.250	21.000	1.3415e-02
 8.250	21.250	1.3415e-02
 8.250	21.500	1.3415e-02
 8.250	21.750	1.3415e-02
 8.250	22.000	1.3416e-02
 8.250	22.250	1.3415e-02
 8.250	22.500	1.3415e-02
 8.250	22.750	1.3416e-02
 8.250	23.000	1.3416e-02
 8.250	23.250	1.3416e-02
 8.250	23.500	1.3416e-02
 8.250	23.750	1.3415e-02
 8.250	24.000	1.3415e-02
 8.500	17.000	6.2444e-04
 8.500	17.250	9.0206e-04
 8.500	17.500	1.3430e-03
 8.500	17.750	2.1009e-03
 8.500	18.000	3.4207e-03
 8.500	18.250	5.5439e-03
 8.500	18.500	8.2525e-03
 8.500	18.750	1.0414e-02
 8.500	19.000	1.1707e-02
 8.500	19.250	1.2862e-02
 8.500	19.500	1.3272e-02
 8.500	19.750	1.3420e-02
 8.500	20.000	1.3427e-02
 8.500	20.250	1.3412e-02
 8.500	20.500	1.3413e-02
 8.500	20.750	1.3415e-02
 8.500	21.000	1.3415e-02
 8.500	21.250	1.3415e-02
 8.500	21.500	1.3415e-02
 8.500	21.750	1.3416e-02
 8.500	22.000	1.3415e-02
 8.500	22.250	1.3415e-02
 8.500	22.500	1.3415e-02
 8.500	22.750	1.3415e-02
 8.500	23.000	1.3415e-02
 8.500	23.250	1.3415e-02
 8.500	23.500	1.3415e-02
 8.500	23.750	1.3415e-02
 8.500	24.000	1.3416e-02
 8.750	17.000	4.5078e-04
 8.750	17.250	6.4922e-04
 8.750	17.500	9.5737e-04
 8.750	17.750	1.4765e-03
 8.750	18.000	2.4178e-03
 8.750	18.250	4.0410e-03
 8.750	18.500	6.3284e-03
 8.750	18.750	8.9860e-03
 8.750	19.000	1.0671e-02
 8.750	19.250	1.1954e-02
 8.750	19.500	1.2854e-02
 8.750	19.750	1.3276e-02
 8.750	20.000	1.3419e-02
 8.750	20.250	1.3427e-02
 8.750	20.500	1.3412e-02
 8.750	20.750	1.3413e-02
 8.750	21.000	1.3415e-02
 8.750	21.250	1.3415e-02
 8.750	21.500	1.3415e-02
 8.750	21.750	1.3415e-02
 8.750	22.000	1.3415e-02
 8.750	22.250	1.3415e-02
 8.750	22.500	1.3415e-02
 8.750	22.750	1.3416e-02
 8.750	23.000	1.3416e-02
 8.750	23.250	1.3416e-02
 8.750	23.500	1.3416e-02
 8.750	23.750	1.3416e-02
 8.750	24.000	1.3416e-02
 9.000	17.000	3.2543e-04
 9.000	17.250	4.6889e-04
 9.000	17.500	6.9004e-04
 9.000	17.750	1.0576e-03
 9.000	18.000	1.7221e-03
 9.000	18.250	2.9200e-03
 9.000	18.500	4.7550e-03
 9.000	18.750	7.1128e-03
 9.000	19.000	9.5573e-03
 9.000	19.250	1.1012e-02
 9.000	19.500	1.2169e-02
 9.000	19.750	1.2833e-02
 9.000	20.000	1.3281e-02
 9.000	20.250	1.3419e-02
 9.000	20.500	1.3427e-02
 9.000	20.750	1.3412e-02
 9.000	21.000	1.3413e-02
 9.000	21.250	1.3415e-02
 9.000	21.500	1.3415e-02
 9.000	21.750	1.3415e-02
 9.000	22.000	1.3415e-02
 9.000	22.250	1.3415e-02
 9.000	22.500	1.3415e-02
 9.000	22.750	1.3415e-02
 9.000	23.000	1.3415e-02
 9.000	23.250	1.3416e-02
 9.000	23.500	1.3416e-02
 9.000	23.750	1.3415e-02
 9.000	24.000	1.3415e-02
 9.250	17.000	2.3416e-04
 9.250	17.250	3.3868e-04
 9.250	17.500	4.9959e-04
 9.250	17.750	7.6535e-04
 9.250	18.000	1.2486e-03
 9.250	18.250	2.1289e-03
 9.250	18.500	3.4979e-03
 9.250	18.750	5.4313e-03
 9.250	19.000	7.6641e-03
 9.250	19.250	1.0066e-02
 9.250	19.500	1.1258e-02
 9.250	19.750	1.2372e-02
 9.250	20.000	1.2807e-02
 9.250	20.250	1.3283e-02
 9.250	20.500	1.3418e-02
 9.250	20.750	1.3427e-02
 9.250	21.000	1.3412e-02
 9.250	21.250	1.3413e-02
 9.250	21.500	1.3414e-02
 9.250	21.750	1.3411e-02
 9.250	22.000	1.3399e-02
 9.250	22.250	1.3411e-02
 9.250	22.500	1.3415e-02
 9.250	22.750	1.3415e-02
 9.250	23.000	1.3415e-02
 9.250	23.250	1.3415e-02
 9.250	23.500	1.3415e-02
 9.250	23.750	1.3416e-02
 9.250	24.000	1.3415e-02
 9.500	17.000	1.6798e-04
 9.500	17.250	2.4395e-04
 9.500	17.500	3.6173e-04
 9.500	17.750	5.5802e-04
 9.500	18.000	9.1827e-04
 9.500	18.250	1.5788e-03
 9.500	18.500	2.6098e-03
 9.500	18.750	4.0423e-03
 9.500	19.000	5.9396e-03
 9.500	19.250	8.2020e-03
 9.500	19.500	1.0278e-02
 9.500	19.750	1.1453e-02
 9.500	20.000	1.2385e-02
 9.500	20.250	1.2773e-02
 9.500	20.500	1.3282e-02
 9.500	20.750	1.3416e-02
 9.500	21.000	1.3425e-02
 9.500	21.250	1.3409e-02
 9.500	21.500	1.3402e-02
 9.500	21.750	1.3394e-02
 9.500	22.000	1.3392e-02
 9.500	22.250	1.3387e-02
 9.500	22.500	1.3383e-02
 9.500	22.750	1.3380e-02
 9.500	23.000	1.3379e-02
 9.500	23.250	1.3379e-02
 9.500	23.500	1.3395e-02
 9.500	23.750	1.3395e-02
 9.500	24.000	1.3395e-02
 9.750	17.000	1.2033e-04
 9.750	17.250	1.7539e-04
 9.750	17.500	2.6148e-04
 9.750	17.750	4.0757e-04
 9.750	18.000	6.7967e-04
 9.750	18.250	1.1839e-03
 9.750	18.500	1.9646e-03
 9.750	18.750	3.0364e-03
 9.750	19.000	4.4609e-03
 9.750	19.250	6.3529e-03
 9.750	19.500	8.7723e-03
 9.750	19.750	1.0439e-02
 9.750	20.000	1.1660e-02
 9.750	20.250	1.2327e-02
 9.750	20.500	1.2735e-02
 9.750	20.750	1.3276e-02
 9.750	21.000	1.3413e-02
 9.750	21.250	1.3425e-02
 9.750	21.500	1.3410e-02
 9.750	21.750	1.3409e-02
 9.750	22.000	1.3395e-02
 9.750	22.250	1.3394e-02
 9.750	22.500	1.3391e-02
 9.750	22.750	1.3388e-02
 9.750	23.000	1.3385e-02
 9.750	23.250	1.3383e-02
 9.750	23.500	1.3383e-02
 9.750	23.750	1.3382e-02
 9.750	24.000	1.3382e-02
10.000	17.000	8.6255e-05
10.000	17.250	1.2601e-04
10.000	17.500	1.8889e-04
10.000	17.750	2.9786e-04
10.000	18.000	5.0477e-04
10.000	18.250	8.8214e-04
10.000	18.500	1.4723e-03
10.000	18.750	2.2721e-03
10.000	19.000	3.3424e-03
10.000	19.250	4.7600e-03
10.000	19.500	6.7364e-03
10.000	19.750	8.9481e-03
10.000	20.000	1.0591e-02
10.000	20.250	1.1817e-02
10.000	20.500	1.2270e-02
10.000	20.750	1.2705e-02
10.000	21.000	1.3266e-02
10.000	21.250	1.3406e-02
10.000	21.500	1.3424e-02
10.000	21.750	1.3410e-02
10.000	22.000	1.3411e-02
10.000	22.250	1.3398e-02
10.000	22.500	1.3395e-02
10.000	22.750	1.3393e-02
10.000	23.000	1.3391e-02
10.000	23.250	1.3390e-02
10.000	23.500	1.3388e-02
10.000	23.750	1.3388e-02
10.000	24.000	1.3387e-02
10.250	17.000	6.1893e-05
10.250	17.250	9.0453e-05
10.250	17.500	1.3621e-04
10.250	17.750	2.1745e-04
10.250	18.000	3.7424e-04
10.250	18.250	6.5852e-04
10.250	18.500	1.1007e-03
10.250	18.750	1.6899e-03
10.250	19.000	2.4802e-03
10.250	19.250	3.5611e-03
10.250	19.500	5.0488e-03
10.250	19.750	7.1067e-03
10.250	20.000	9.0443e-03
10.250	20.250	1.0764e-02
10.250	20.500	1.1829e-02
10.250	20.750	1.2199e-02
10.250	21.000	1.2664e-02
10.250	21.250	1.3252e-02
10.250	21.500	1.3399e-02
10.250	21.750	1.3422e-02
10.250	22.000	1.3409e-02
10.250	22.250	1.3412e-02
10.250	22.500	1.3408e-02
10.250	22.750	1.3395e-02
10.250	23.000	1.3395e-02
10.250	23.250	1.3393e-02
10.250	23.500	1.3393e-02
10.250	23.750	1.3392e-02
10.250	24.000	1.3391e-02
10.500	17.000	4.4444e-05
10.500	17.250	6.4938e-05
10.500	17.500	9.8354e-05
10.500	17.750	1.5868e-04
10.500	18.000	2.7654e-04
10.500	18.250	4.8765e-04
10.500	18.500	8.1119e-04
10.500	18.750	1.2411e-03
10.500	19.000	1.8291e-03
10.500	19.250	2.6228e-03
10.500	19.500	3.7116e-03
10.500	19.750	5.2353e-03
10.500	20.000	7.2354e-03
10.500	20.250	9.1542e-03
10.500	20.500	1.0943e-02
10.500	20.750	1.1782e-02
10.500	21.000	1.2145e-02
10.500	21.250	1.2641e-02
10.500	21.500	1.3251e-02
10.500	21.750	1.3383e-02
10.500	22.000	1.3419e-02
10.500	22.250	1.3408e-02
10.500	22.500	1.3411e-02
10.500	22.750	1.3412e-02
10.500	23.000	1.3398e-02
10.500	23.250	1.3395e-02
10.500	23.500	1.3395e-02
10.500	23.750	1.3394e-02
10.500	24.000	1.3394e-02
10.750	17.000	3.2016e-05
10.750	17.250	4.6584e-05
10.750	17.500	7.0864e-05
10.750	17.750	1.1547e-04
10.750	18.000	2.0222e-04
10.750	18.250	3.5942e-04
10.750	18.500	5.9193e-04
10.750	18.750	9.0922e-04
10.750	19.000	1.3343e-03
10.750	19.250	1.9307e-03
10.750	19.500	2.7252e-03
10.750	19.750	3.8193e-03
10.750	20.000	5.3397e-03
10.750	20.250	7.3011e-03
10.750	20.500	9.2297e-03
10.750	20.750	1.1032e-02
10.750	21.000	1.1680e-02
10.750	21.250	1.2080e-02
10.750	21.500	1.2683e-02
10.750	21.750	1.3231e-02
10.750	22.000	1.3358e-02
10.750	22.250	1.3413e-02
10.750	22.500	1.3406e-02
10.750	22.750	1.3409e-02
10.750	23.000	1.3413e-02
10.750	23.250	1.3408e-02
10.750	23.500	1.3396e-02
10.750	23.750	1.3395e-02
10.750	24.000	1.3395e-02
11.000	17.000	2.3045e-05
11.000	17.250	3.3498e-05
11.000	17.500	5.1029e-05
11.000	17.750	8.3374e-05
11.000	18.000	1.4642e-04
11.000	18.250	2.5951e-04
11.000	18.500	4.2296e-04
11.000	18.750	6.5292e-04
11.000	19.000	9.6593e-04
11.000	19.250	1.3998e-03
11.000	19.500	1.9869e-03
11.000	19.750	2.7821e-03
11.000	20.000	3.8704e-03
11.000	20.250	5.3727e-03
11.000	20.500	7.2822e-03
11.000	20.750	9.2156e-03
11.000	21.000	1.0981e-02
11.000	21.250	1.1537e-02
11.000	21.500	1.2110e-02
11.000	21.750	1.2714e-02
11.000	22.000	1.3194e-02
11.000	22.250	1.3324e-02
11.000	22.500	1.3403e-02
11.000	22.750	1.3402e-02
11.000	23.000	1.3407e-02
11.000	23.250	1.3413e-02
11.000	23.500	1.3412e-02
11.000	23.750	1.3403e-02
11.000	24.000	1.3397e-02
11.250	17.000	1.6708e-05
11.250	17.250	2.4115e-05
11.250	17.500	3.6708e-05
11.250	17.750	6.0000e-05
11.250	18.000	1.0519e-04
11.250	18.250	1.8494e-04
11.250	18.500	2.9967e-04
11.250	18.750	4.6626e-04
11.250	19.000	6.9597e-04
11.250	19.250	1.0082e-03
11.250	19.500	1.4349e-03
11.250	19.750	2.0174e-03
11.250	20.000	2.8079e-03
11.250	20.250	3.8727e-03
11.250	20.500	5.3141e-03
11.250	20.750	7.1251e-03
11.250	21.000	9.0332e-03
11.250	21.250	1.0660e-02
11.250	21.500	1.1550e-02
11.250	21.750	1.2059e-02
11.250	22.000	1.2732e-02
11.250	22.250	1.3126e-02
11.250	22.500	1.3279e-02
11.250	22.750	1.3387e-02
11.250	23.000	1.3395e-02
11.250	23.250	1.3403e-02
11.250	23.500	1.3412e-02
11.250	23.750	1.3413e-02
11.250	24.000	1.3411e-02
11.500	17.000	1.2181e-05
11.500	17.250	1.7449e-05
11.500	17.500	2.6337e-05
11.500	17.750	4.2963e-05
11.500	18.000	7.4979e-05
11.500	18.250	1.3045e-04
11.500	18.500	2.1078e-04
11.500	18.750	3.2741e-04
11.500	19.000	4.9053e-04
11.500	19.250	7.1646e-04
11.500	19.500	1.0278e-03
11.500	19.750	1.4526e-03
11.500	20.000	2.0269e-03
11.500	20.250	2.7950e-03
11.500	20.500	3.8044e-03
11.500	20.750	5.1170e-03
11.500	21.000	6.7659e-03
11.500	21.250	8.6295e-03
11.500	21.500	1.0571e-02
11.500	21.750	1.1357e-02
11.500	22.000	1.1966e-02
11.500	22.250	1.2686e-02
11.500	22.500	1.3028e-02
11.500	22.750	1.3218e-02
11.500	23.000	1.3364e-02
11.500	23.250	1.3385e-02
11.500	23.500	1.3397e-02
11.500	23.750	1.3410e-02
11.500	24.000	1.3413e-02
11.750	17.000	8.9712e-06
11.750	17.250	1.2757e-05
11.750	17.500	1.9095e-05
11.750	17.750	3.0700e-05
11.750	18.000	5.3004e-05
11.750	18.250	9.0864e-05
11.750	18.500	1.4634e-04
11.750	18.750	2.2848e-04
11.750	19.000	3.4486e-04
11.750	19.250	5.0765e-04
11.750	19.500	7.3160e-04
11.750	19.750	1.0414e-03
11.750	20.000	1.4595e-03
11.750	20.250	2.0114e-03
11.750	20.500	2.7276e-03
11.750	20.750	3.6319e-03
11.750	21.000	4.7363e-03
11.750	21.250	6.1683e-03
11.750	21.500	8.4632e-03
11.750	21.750	1.0076e-02
11.750	22.000	1.1073e-02
11.750	22.250	1.1796e-02
11.750	22.500	1.2529e-02
11.750	22.750	1.2889e-02
11.750	23.000	1.3129e-02
11.750	23.250	1.3331e-02
11.750	23.500	1.3370e-02
11.750	23.750	1.3389e-02
11.750	24.000	1.3408e-02
12.000	17.000	5.5144e-06
12.000	17.250	9.4650e-06
12.000	17.500	1.3909e-05
12.000	17.750	2.1975e-05
12.000	18.000	3.6955e-05
12.000	18.250	6.2387e-05
12.000	18.500	1.0082e-04
12.000	18.750	1.5778e-04
12.000	19.000	2.4033e-04
12.000	19.250	3.5695e-04
12.000	19.500	5.1802e-04
12.000	19.750	7.4272e-04
12.000	20.000	1.0465e-03
12.000	20.250	1.4465e-03
12.000	20.500	1.9574e-03
12.000	20.750	2.5896e-03
12.000	21.000	3.3198e-03
12.000	21.250	4.1702e-03
12.000	21.500	5.8610e-03
12.000	21.750	7.7396e-03
12.000	22.000	9.4207e-03
12.000	22.250	1.0633e-02
12.000	22.500	1.1488e-02
12.000	22.750	1.2265e-02
12.000	23.000	1.2685e-02
12.000	23.250	1.2995e-02
12.000	23.500	1.3284e-02
12.000	23.750	1.3348e-02
12.000	24.000	1.3376e-02
12.250	17.000	2.6337e-06
12.250	17.250	6.0905e-06
12.250	17.500	1.0288e-05
12.250	17.750	1.5802e-05
12.250	18.000	2.5761e-05
12.250	18.250	4.2881e-05
12.250	18.500	6.8807e-05
12.250	18.750	1.0798e-04
12.250	19.000	1.6601e-04
12.250	19.250	2.4897e-04
12.250	19.500	3.6519e-04
12.250	19.750	5.2675e-04
12.250	20.000	7.4560e-04
12.250	20.250	1.0353e-03
12.250	20.500	1.4049e-03
12.250	20.750	1.8542e-03
12.250	21.000	2.3528e-03
12.250	21.250	2.8657e-03
12.250	21.500	3.8777e-03
12.250	21.750	5.0600e-03
12.250	22.000	6.7953e-03
12.250	22.250	8.6243e-03
12.250	22.500	9.9889e-03
12.250	22.750	1.1007e-02
12.250	23.000	1.1869e-02
12.250	23.250	1.2389e-02
12.250	23.500	1.2795e-02
12.250	23.750	1.3212e-02
12.250	24.000	1.3315e-02
12.500	17.000	1.3169e-06
12.500	17.250	2.8807e-06
12.500	17.500	6.6667e-06
12.500	17.750	1.1358e-05
12.500	18.000	1.8025e-05
12.500	18.250	2.9136e-05
12.500	18.500	4.6749e-05
12.500	18.750	7.3992e-05
12.500	19.000	1.1465e-04
12.500	19.250	1.7267e-04
12.500	19.500	2.5523e-04
12.500	19.750	3.7053e-04
12.500	20.000	5.2807e-04
12.500	20.250	7.3671e-04
12.500	20.500	1.0040e-03
12.500	20.750	1.3283e-03
12.500	21.000	1.6812e-03
12.500	21.250	2.0102e-03
12.500	21.500	2.6328e-03
12.500	21.750	3.1886e-03
12.500	22.000	4.2153e-03
12.500	22.250	5.8509e-03
12.500	22.500	7.7246e-03
12.500	22.750	9.0794e-03
12.500	23.000	1.0290e-02
12.500	23.250	1.1301e-02
12.500	23.500	1.1957e-02
12.500	23.750	1.2492e-02
12.500	24.000	1.3103e-02
12.750	17.000	1.0000e-07
12.750	17.250	1.3992e-06
12.750	17.500	3.0453e-06
12.750	17.750	6.9959e-06
12.750	18.000	1.2346e-05
12.750	18.250	1.9753e-05
12.750	18.500	3.1770e-05
12.750	18.750	5.0123e-05
12.750	19.000	7.7942e-05
12.750	19.250	1.1868e-04
12.750	19.500	1.7712e-04
12.750	19.750	2.5877e-04
12.750	20.000	3.7095e-04
12.750	20.250	5.2181e-04
12.750	20.500	7.1490e-04
12.750	20.750	9.4922e-04
12.750	21.000	1.2048e-03
12.750	21.250	1.4317e-03
12.750	21.500	1.8384e-03
12.750	21.750	2.0795e-03
12.750	22.000	2.5244e-03
12.750	22.250	3.4577e-03
12.750	22.500	4.9336e-03
12.750	22.750	6.4976e-03
12.750	23.000	7.9250e-03
12.750	23.250	9.3480e-03
12.750	23.500	1.0521e-02
12.750	23.750	1.1343e-02
12.750	24.000	1.2043e-02
13.000	17.000	1.0000e-07
13.000	17.250	1.0000e-07
13.000	17.500	1.1523e-06
13.000	17.750	2.8807e-06
13.000	18.000	6.3374e-06
13.000	18.250	1.1523e-05
13.000	18.500	2.0082e-05
13.000	18.750	3.3580e-05
13.000	19.000	5.2346e-05
13.000	19.250	8.0823e-05
13.000	19.500	1.2198e-04
13.000	19.750	1.7967e-04
13.000	20.000	2.5918e-04
13.000	20.250	3.6708e-04
13.000	20.500	5.0675e-04
13.000	20.750	6.7687e-04
13.000	21.000	8.6296e-04
13.000	21.250	1.0258e-03
13.000	21.500	1.3086e-03
13.000	21.750	1.4031e-03
13.000	22.000	1.5573e-03
13.000	22.250	1.9830e-03
13.000	22.500	2.7770e-03
13.000	22.750	3.9251e-03
13.000	23.000	5.2047e-03
13.000	23.250	6.6653e-03
13.000	23.500	8.2037e-03
13.000	23.750	9.5064e-03
13.000	24.000	1.0496e-02
13.250	17.000	1.0000e-07
13.250	17.250	1.0000e-07
13.250	17.500	1.0000e-07
13.250	17.750	1.1523e-06
13.250	18.000	2.8807e-06
13.250	18.250	6.5021e-06
13.250	18.500	1.2263e-05
13.250	18.750	2.0741e-05
13.250	19.000	3.5062e-05
13.250	19.250	5.3663e-05
13.250	19.500	8.2881e-05
13.250	19.750	1.2337e-04
13.250	20.000	1.7959e-04
13.250	20.250	2.5646e-04
13.250	20.500	3.5679e-04
13.250	20.750	4.8066e-04
13.250	21.000	6.1663e-04
13.250	21.250	7.3588e-04
13.250	21.500	9.3720e-04
13.250	21.750	9.7037e-04
13.250	22.000	9.8346e-04
13.250	22.250	1.1636e-03
13.250	22.500	1.5545e-03
13.250	22.750	2.1753e-03
13.250	23.000	3.0061e-03
13.250	23.250	4.0796e-03
13.250	23.500	5.4195e-03
13.250	23.750	6.9022e-03
13.250	24.000	8.2586e-03
13.500	17.000	1.0000e-07
13.500	17.250	1.0000e-07
13.500	17.500	1.0000e-07
13.500	17.750	1.0000e-07
13.500	18.000	1.3992e-06
13.500	18.250	3.2099e-06
13.500	18.500	6.9136e-06
13.500	18.750	1.3086e-05
13.500	19.000	2.2140e-05
13.500	19.250	3.6049e-05
13.500	19.500	5.5473e-05
13.500	19.750	8.3539e-05
13.500	20.000	1.2296e-04
13.500	20.250	1.7761e-04
13.500	20.500	2.4930e-04
13.500	20.750	3.3877e-04
13.500	21.000	4.3827e-04
13.500	21.250	5.2724e-04
13.500	21.500	6.7276e-04
13.500	21.750	6.8099e-04
13.500	22.000	6.3704e-04
13.500	22.250	6.8700e-04
13.500	22.500	8.9588e-04
13.500	22.750	1.2180e-03
13.500	23.000	1.6863e-03
13.500	23.250	2.3381e-03
13.500	23.500	3.1615e-03
13.500	23.750	4.2407e-03
13.500	24.000	5.5440e-03
13.750	17.000	1.0000e-07
13.750	17.250	1.0000e-07
13.750	17.500	1.0000e-07
13.750	17.750	1.0000e-07
13.750	18.000	1.0000e-07
13.750	18.250	1.6461e-06
13.750	18.500	3.5391e-06
13.750	18.750	7.1605e-06
13.750	19.000	1.3992e-05
13.750	19.250	2.3374e-05
13.750	19.500	3.5720e-05
13.750	19.750	5.5720e-05
13.750	20.000	8.3374e-05
13.750	20.250	1.2165e-04
13.750	20.500	1.7259e-04
13.750	20.750	2.3687e-04
13.750	21.000	3.0996e-04
13.750	21.250	3.7597e-04
13.750	21.500	4.8214e-04
13.750	21.750	4.8230e-04
13.750	22.000	4.2337e-04
13.750	22.250	4.1465e-04
13.750	22.500	5.1728e-04
13.750	22.750	7.0041e-04
13.750	23.000	9.5383e-04
13.750	23.250	1.3013e-03
13.750	23.500	1.7784e-03
13.750	23.750	2.3857e-03
13.750	24.000	3.2146e-03
14.000	17.000	1.0000e-07
14.000	17.250	1.0000e-07
14.000	17.500	1.0000e-07
14.000	17.750	1.0000e-07
14.000	18.000	1.0000e-07
14.000	18.250	9.0535e-07
14.000	18.500	1.8107e-06
14.000	18.750	3.7037e-06
14.000	19.000	7.4897e-06
14.000	19.250	1.4568e-05
14.000	19.500	2.3704e-05
14.000	19.750	3.6790e-05
14.000	20.000	5.5720e-05
14.000	20.250	8.2305e-05
14.000	20.500	1.1827e-04
14.000	20.750	1.6412e-04
14.000	21.000	2.1704e-04
14.000	21.250	2.6609e-04
14.000	21.500	3.4346e-04
14.000	21.750	3.4082e-04
14.000	22.000	2.8601e-04
14.000	22.250	2.5630e-04
14.000	22.500	3.0091e-04
14.000	22.750	4.0551e-04
14.000	23.000	5.4700e-04
14.000	23.250	7.3531e-04
14.000	23.500	9.9070e-04
14.000	23.750	1.3174e-03
14.000	24.000	1.7602e-03
