InwC 2.32440m  relative to Inci 1215.00A scaled to 1215A.
Hden   Phi(H)  Eq_Width (A)
 7.000	17.000	6.6156e-04
 7.000	17.250	9.3868e-04
 7.000	17.500	1.2168e-03
 7.000	17.750	1.5013e-03
 7.000	18.000	1.5472e-03
 7.000	18.250	1.5667e-03
 7.000	18.500	1.5677e-03
 7.000	18.750	1.5658e-03
 7.000	19.000	1.5660e-03
 7.000	19.250	1.5662e-03
 7.000	19.500	1.5662e-03
 7.000	19.750	1.5663e-03
 7.000	20.000	1.5663e-03
 7.000	20.250	1.5663e-03
 7.000	20.500	1.5663e-03
 7.000	20.750	1.5663e-03
 7.000	21.000	1.5663e-03
 7.000	21.250	1.5663e-03
 7.000	21.500	1.5663e-03
 7.000	21.750	1.5663e-03
 7.000	22.000	1.5663e-03
 7.000	22.250	1.5663e-03
 7.000	22.500	1.5663e-03
 7.000	22.750	1.5663e-03
 7.000	23.000	1.5663e-03
 7.000	23.250	1.5663e-03
 7.000	23.500	1.5663e-03
 7.000	23.750	1.5663e-03
 7.000	24.000	1.5663e-03
 7.250	17.000	4.4905e-04
 7.250	17.250	6.7687e-04
 7.250	17.500	9.6568e-04
 7.250	17.750	1.2356e-03
 7.250	18.000	1.5015e-03
 7.250	18.250	1.5475e-03
 7.250	18.500	1.5667e-03
 7.250	18.750	1.5677e-03
 7.250	19.000	1.5658e-03
 7.250	19.250	1.5660e-03
 7.250	19.500	1.5662e-03
 7.250	19.750	1.5662e-03
 7.250	20.000	1.5663e-03
 7.250	20.250	1.5663e-03
 7.250	20.500	1.5663e-03
 7.250	20.750	1.5663e-03
 7.250	21.000	1.5663e-03
 7.250	21.250	1.5663e-03
 7.250	21.500	1.5663e-03
 7.250	21.750	1.5663e-03
 7.250	22.000	1.5663e-03
 7.250	22.250	1.5663e-03
 7.250	22.500	1.5663e-03
 7.250	22.750	1.5663e-03
 7.250	23.000	1.5663e-03
 7.250	23.250	1.5663e-03
 7.250	23.500	1.5663e-03
 7.250	23.750	1.5663e-03
 7.250	24.000	1.5663e-03
 7.500	17.000	3.0206e-04
 7.500	17.250	4.6123e-04
 7.500	17.500	6.9827e-04
 7.500	17.750	1.0011e-03
 7.500	18.000	1.2551e-03
 7.500	18.250	1.5017e-03
 7.500	18.500	1.5479e-03
 7.500	18.750	1.5667e-03
 7.500	19.000	1.5677e-03
 7.500	19.250	1.5658e-03
 7.500	19.500	1.5660e-03
 7.500	19.750	1.5662e-03
 7.500	20.000	1.5662e-03
 7.500	20.250	1.5663e-03
 7.500	20.500	1.5663e-03
 7.500	20.750	1.5663e-03
 7.500	21.000	1.5663e-03
 7.500	21.250	1.5663e-03
 7.500	21.500	1.5663e-03
 7.500	21.750	1.5663e-03
 7.500	22.000	1.5663e-03
 7.500	22.250	1.5663e-03
 7.500	22.500	1.5663e-03
 7.500	22.750	1.5663e-03
 7.500	23.000	1.5663e-03
 7.500	23.250	1.5663e-03
 7.500	23.500	1.5663e-03
 7.500	23.750	1.5663e-03
 7.500	24.000	1.5663e-03
 7.750	17.000	2.0560e-04
 7.750	17.250	3.1177e-04
 7.750	17.500	4.8049e-04
 7.750	17.750	7.3226e-04
 7.750	18.000	1.0448e-03
 7.750	18.250	1.2779e-03
 7.750	18.500	1.5018e-03
 7.750	18.750	1.5482e-03
 7.750	19.000	1.5667e-03
 7.750	19.250	1.5677e-03
 7.750	19.500	1.5658e-03
 7.750	19.750	1.5660e-03
 7.750	20.000	1.5662e-03
 7.750	20.250	1.5662e-03
 7.750	20.500	1.5663e-03
 7.750	20.750	1.5663e-03
 7.750	21.000	1.5663e-03
 7.750	21.250	1.5663e-03
 7.750	21.500	1.5663e-03
 7.750	21.750	1.5663e-03
 7.750	22.000	1.5663e-03
 7.750	22.250	1.5663e-03
 7.750	22.500	1.5663e-03
 7.750	22.750	1.5663e-03
 7.750	23.000	1.5663e-03
 7.750	23.250	1.5663e-03
 7.750	23.500	1.5663e-03
 7.750	23.750	1.5663e-03
 7.750	24.000	1.5663e-03
 8.000	17.000	1.4272e-04
 8.000	17.250	2.1218e-04
 8.000	17.500	3.2626e-04
 8.000	17.750	5.1062e-04
 8.000	18.000	7.8346e-04
 8.000	18.250	1.0985e-03
 8.000	18.500	1.3035e-03
 8.000	18.750	1.5018e-03
 8.000	19.000	1.5484e-03
 8.000	19.250	1.5667e-03
 8.000	19.500	1.5677e-03
 8.000	19.750	1.5658e-03
 8.000	20.000	1.5660e-03
 8.000	20.250	1.5662e-03
 8.000	20.500	1.5662e-03
 8.000	20.750	1.5663e-03
 8.000	21.000	1.5663e-03
 8.000	21.250	1.5663e-03
 8.000	21.500	1.5663e-03
 8.000	21.750	1.5663e-03
 8.000	22.000	1.5663e-03
 8.000	22.250	1.5663e-03
 8.000	22.500	1.5663e-03
 8.000	22.750	1.5663e-03
 8.000	23.000	1.5663e-03
 8.000	23.250	1.5663e-03
 8.000	23.500	1.5663e-03
 8.000	23.750	1.5663e-03
 8.000	24.000	1.5663e-03
 8.250	17.000	1.0140e-04
 8.250	17.250	1.4798e-04
 8.250	17.500	2.2412e-04
 8.250	17.750	3.5309e-04
 8.250	18.000	5.6420e-04
 8.250	18.250	8.6840e-04
 8.250	18.500	1.1573e-03
 8.250	18.750	1.3414e-03
 8.250	19.000	1.5020e-03
 8.250	19.250	1.5488e-03
 8.250	19.500	1.5667e-03
 8.250	19.750	1.5677e-03
 8.250	20.000	1.5658e-03
 8.250	20.250	1.5660e-03
 8.250	20.500	1.5662e-03
 8.250	20.750	1.5662e-03
 8.250	21.000	1.5663e-03
 8.250	21.250	1.5663e-03
 8.250	21.500	1.5663e-03
 8.250	21.750	1.5663e-03
 8.250	22.000	1.5663e-03
 8.250	22.250	1.5663e-03
 8.250	22.500	1.5663e-03
 8.250	22.750	1.5663e-03
 8.250	23.000	1.5663e-03
 8.250	23.250	1.5663e-03
 8.250	23.500	1.5663e-03
 8.250	23.750	1.5663e-03
 8.250	24.000	1.5663e-03
 8.500	17.000	7.2922e-05
 8.500	17.250	1.0535e-04
 8.500	17.500	1.5687e-04
 8.500	17.750	2.4543e-04
 8.500	18.000	4.0016e-04
 8.500	18.250	6.5037e-04
 8.500	18.500	9.7029e-04
 8.500	18.750	1.2234e-03
 8.500	19.000	1.3706e-03
 8.500	19.250	1.5020e-03
 8.500	19.500	1.5493e-03
 8.500	19.750	1.5667e-03
 8.500	20.000	1.5676e-03
 8.500	20.250	1.5658e-03
 8.500	20.500	1.5660e-03
 8.500	20.750	1.5662e-03
 8.500	21.000	1.5662e-03
 8.500	21.250	1.5663e-03
 8.500	21.500	1.5663e-03
 8.500	21.750	1.5663e-03
 8.500	22.000	1.5663e-03
 8.500	22.250	1.5663e-03
 8.500	22.500	1.5663e-03
 8.500	22.750	1.5663e-03
 8.500	23.000	1.5663e-03
 8.500	23.250	1.5663e-03
 8.500	23.500	1.5663e-03
 8.500	23.750	1.5663e-03
 8.500	24.000	1.5663e-03
 8.750	17.000	5.2675e-05
 8.750	17.250	7.5802e-05
 8.750	17.500	1.1185e-04
 8.750	17.750	1.7259e-04
 8.750	18.000	2.8313e-04
 8.750	18.250	4.7514e-04
 8.750	18.500	7.4741e-04
 8.750	18.750	1.0644e-03
 8.750	19.000	1.2598e-03
 8.750	19.250	1.4035e-03
 8.750	19.500	1.5019e-03
 8.750	19.750	1.5498e-03
 8.750	20.000	1.5666e-03
 8.750	20.250	1.5676e-03
 8.750	20.500	1.5658e-03
 8.750	20.750	1.5660e-03
 8.750	21.000	1.5662e-03
 8.750	21.250	1.5662e-03
 8.750	21.500	1.5663e-03
 8.750	21.750	1.5663e-03
 8.750	22.000	1.5663e-03
 8.750	22.250	1.5663e-03
 8.750	22.500	1.5663e-03
 8.750	22.750	1.5663e-03
 8.750	23.000	1.5663e-03
 8.750	23.250	1.5663e-03
 8.750	23.500	1.5663e-03
 8.750	23.750	1.5663e-03
 8.750	24.000	1.5663e-03
 9.000	17.000	3.8025e-05
 9.000	17.250	5.4815e-05
 9.000	17.500	8.0658e-05
 9.000	17.750	1.2362e-04
 9.000	18.000	2.0181e-04
 9.000	18.250	3.4387e-04
 9.000	18.500	5.6370e-04
 9.000	18.750	8.4798e-04
 9.000	19.000	1.1421e-03
 9.000	19.250	1.3079e-03
 9.000	19.500	1.4316e-03
 9.000	19.750	1.5014e-03
 9.000	20.000	1.5503e-03
 9.000	20.250	1.5664e-03
 9.000	20.500	1.5675e-03
 9.000	20.750	1.5658e-03
 9.000	21.000	1.5659e-03
 9.000	21.250	1.5662e-03
 9.000	21.500	1.5662e-03
 9.000	21.750	1.5663e-03
 9.000	22.000	1.5663e-03
 9.000	22.250	1.5663e-03
 9.000	22.500	1.5663e-03
 9.000	22.750	1.5663e-03
 9.000	23.000	1.5663e-03
 9.000	23.250	1.5663e-03
 9.000	23.500	1.5663e-03
 9.000	23.750	1.5663e-03
 9.000	24.000	1.5663e-03
 9.250	17.000	2.7325e-05
 9.250	17.250	3.9588e-05
 9.250	17.500	5.8354e-05
 9.250	17.750	8.9547e-05
 9.250	18.000	1.4650e-04
 9.250	18.250	2.5103e-04
 9.250	18.500	4.1547e-04
 9.250	18.750	6.5053e-04
 9.250	19.000	9.2403e-04
 9.250	19.250	1.2147e-03
 9.250	19.500	1.3449e-03
 9.250	19.750	1.4608e-03
 9.250	20.000	1.5005e-03
 9.250	20.250	1.5506e-03
 9.250	20.500	1.5663e-03
 9.250	20.750	1.5675e-03
 9.250	21.000	1.5658e-03
 9.250	21.250	1.5659e-03
 9.250	21.500	1.5661e-03
 9.250	21.750	1.5657e-03
 9.250	22.000	1.5643e-03
 9.250	22.250	1.5657e-03
 9.250	22.500	1.5663e-03
 9.250	22.750	1.5663e-03
 9.250	23.000	1.5663e-03
 9.250	23.250	1.5663e-03
 9.250	23.500	1.5663e-03
 9.250	23.750	1.5663e-03
 9.250	24.000	1.5663e-03
 9.500	17.000	1.9588e-05
 9.500	17.250	2.8477e-05
 9.500	17.500	4.2305e-05
 9.500	17.750	6.5350e-05
 9.500	18.000	1.0782e-04
 9.500	18.250	1.8642e-04
 9.500	18.500	3.1037e-04
 9.500	18.750	4.8502e-04
 9.500	19.000	7.1967e-04
 9.500	19.250	9.9967e-04
 9.500	19.500	1.2500e-03
 9.500	19.750	1.3742e-03
 9.500	20.000	1.4680e-03
 9.500	20.250	1.4991e-03
 9.500	20.500	1.5507e-03
 9.500	20.750	1.5658e-03
 9.500	21.000	1.5672e-03
 9.500	21.250	1.5654e-03
 9.500	21.500	1.5646e-03
 9.500	21.750	1.5638e-03
 9.500	22.000	1.5635e-03
 9.500	22.250	1.5630e-03
 9.500	22.500	1.5624e-03
 9.500	22.750	1.5621e-03
 9.500	23.000	1.5620e-03
 9.500	23.250	1.5620e-03
 9.500	23.500	1.5639e-03
 9.500	23.750	1.5639e-03
 9.500	24.000	1.5639e-03
 9.750	17.000	1.4074e-05
 9.750	17.250	2.0494e-05
 9.750	17.500	3.0617e-05
 9.750	17.750	4.7737e-05
 9.750	18.000	7.9835e-05
 9.750	18.250	1.3992e-04
 9.750	18.500	2.3407e-04
 9.750	18.750	3.6469e-04
 9.750	19.000	5.4107e-04
 9.750	19.250	7.7844e-04
 9.750	19.500	1.0821e-03
 9.750	19.750	1.2760e-03
 9.750	20.000	1.4026e-03
 9.750	20.250	1.4644e-03
 9.750	20.500	1.4971e-03
 9.750	20.750	1.5506e-03
 9.750	21.000	1.5652e-03
 9.750	21.250	1.5672e-03
 9.750	21.500	1.5656e-03
 9.750	21.750	1.5655e-03
 9.750	22.000	1.5639e-03
 9.750	22.250	1.5637e-03
 9.750	22.500	1.5634e-03
 9.750	22.750	1.5630e-03
 9.750	23.000	1.5627e-03
 9.750	23.250	1.5625e-03
 9.750	23.500	1.5624e-03
 9.750	23.750	1.5623e-03
 9.750	24.000	1.5623e-03
10.000	17.000	1.0041e-05
10.000	17.250	1.4733e-05
10.000	17.500	2.2140e-05
10.000	17.750	3.4897e-05
10.000	18.000	5.9424e-05
10.000	18.250	1.0444e-04
10.000	18.500	1.7556e-04
10.000	18.750	2.7317e-04
10.000	19.000	4.0560e-04
10.000	19.250	5.8387e-04
10.000	19.500	8.3794e-04
10.000	19.750	1.1194e-03
10.000	20.000	1.3003e-03
10.000	20.250	1.4227e-03
10.000	20.500	1.4589e-03
10.000	20.750	1.4943e-03
10.000	21.000	1.5500e-03
10.000	21.250	1.5641e-03
10.000	21.500	1.5670e-03
10.000	21.750	1.5655e-03
10.000	22.000	1.5657e-03
10.000	22.250	1.5642e-03
10.000	22.500	1.5639e-03
10.000	22.750	1.5636e-03
10.000	23.000	1.5634e-03
10.000	23.250	1.5632e-03
10.000	23.500	1.5630e-03
10.000	23.750	1.5630e-03
10.000	24.000	1.5629e-03
10.250	17.000	7.2428e-06
10.250	17.250	1.0617e-05
10.250	17.500	1.5967e-05
10.250	17.750	2.5514e-05
10.250	18.000	4.4115e-05
10.250	18.250	7.8107e-05
10.250	18.500	1.3152e-04
10.250	18.750	2.0346e-04
10.250	19.000	3.0115e-04
10.250	19.250	4.3654e-04
10.250	19.500	6.2543e-04
10.250	19.750	8.9021e-04
10.250	20.000	1.1276e-03
10.250	20.250	1.3151e-03
10.250	20.500	1.4213e-03
10.250	20.750	1.4507e-03
10.250	21.000	1.4903e-03
10.250	21.250	1.5488e-03
10.250	21.500	1.5635e-03
10.250	21.750	1.5666e-03
10.250	22.000	1.5653e-03
10.250	22.250	1.5657e-03
10.250	22.500	1.5653e-03
10.250	22.750	1.5639e-03
10.250	23.000	1.5638e-03
10.250	23.250	1.5637e-03
10.250	23.500	1.5635e-03
10.250	23.750	1.5635e-03
10.250	24.000	1.5634e-03
10.500	17.000	5.1852e-06
10.500	17.250	7.6543e-06
10.500	17.500	1.1523e-05
10.500	17.750	1.8683e-05
10.500	18.000	3.2675e-05
10.500	18.250	5.8025e-05
10.500	18.500	9.7284e-05
10.500	18.750	1.4988e-04
10.500	19.000	2.2222e-04
10.500	19.250	3.2041e-04
10.500	19.500	4.5621e-04
10.500	19.750	6.4848e-04
10.500	20.000	9.0198e-04
10.500	20.250	1.1308e-03
10.500	20.500	1.3256e-03
10.500	20.750	1.4089e-03
10.500	21.000	1.4386e-03
10.500	21.250	1.4845e-03
10.500	21.500	1.5500e-03
10.500	21.750	1.5614e-03
10.500	22.000	1.5659e-03
10.500	22.250	1.5651e-03
10.500	22.500	1.5655e-03
10.500	22.750	1.5658e-03
10.500	23.000	1.5642e-03
10.500	23.250	1.5639e-03
10.500	23.500	1.5638e-03
10.500	23.750	1.5638e-03
10.500	24.000	1.5637e-03
10.750	17.000	3.7860e-06
10.750	17.250	5.5144e-06
10.750	17.500	8.3128e-06
10.750	17.750	1.3663e-05
10.750	18.000	2.4033e-05
10.750	18.250	4.2963e-05
10.750	18.500	7.1358e-05
10.750	18.750	1.1029e-04
10.750	19.000	1.6230e-04
10.750	19.250	2.3547e-04
10.750	19.500	3.3309e-04
10.750	19.750	4.6823e-04
10.750	20.000	6.5753e-04
10.750	20.250	9.0033e-04
10.750	20.500	1.1237e-03
10.750	20.750	1.3205e-03
10.750	21.000	1.3837e-03
10.750	21.250	1.4207e-03
10.750	21.500	1.4888e-03
10.750	21.750	1.5458e-03
10.750	22.000	1.5579e-03
10.750	22.250	1.5649e-03
10.750	22.500	1.5647e-03
10.750	22.750	1.5653e-03
10.750	23.000	1.5658e-03
10.750	23.250	1.5653e-03
10.750	23.500	1.5640e-03
10.750	23.750	1.5639e-03
10.750	24.000	1.5639e-03
11.000	17.000	2.7160e-06
11.000	17.250	3.9506e-06
11.000	17.500	6.0082e-06
11.000	17.750	9.8765e-06
11.000	18.000	1.7449e-05
11.000	18.250	3.1276e-05
11.000	18.500	5.1358e-05
11.000	18.750	7.9588e-05
11.000	19.000	1.1786e-04
11.000	19.250	1.7070e-04
11.000	19.500	2.4198e-04
11.000	19.750	3.3868e-04
11.000	20.000	4.7103e-04
11.000	20.250	6.5366e-04
11.000	20.500	8.8140e-04
11.000	20.750	1.0970e-03
11.000	21.000	1.2877e-03
11.000	21.250	1.3467e-03
11.000	21.500	1.4199e-03
11.000	21.750	1.4833e-03
11.000	22.000	1.5370e-03
11.000	22.250	1.5523e-03
11.000	22.500	1.5633e-03
11.000	22.750	1.5640e-03
11.000	23.000	1.5649e-03
11.000	23.250	1.5658e-03
11.000	23.500	1.5658e-03
11.000	23.750	1.5648e-03
11.000	24.000	1.5640e-03
11.250	17.000	1.9753e-06
11.250	17.250	2.8807e-06
11.250	17.500	4.3621e-06
11.250	17.750	7.1605e-06
11.250	18.000	1.2675e-05
11.250	18.250	2.2469e-05
11.250	18.500	3.6708e-05
11.250	18.750	5.7202e-05
11.250	19.000	8.5267e-05
11.250	19.250	1.2313e-04
11.250	19.500	1.7457e-04
11.250	19.750	2.4453e-04
11.250	20.000	3.3893e-04
11.250	20.250	4.6494e-04
11.250	20.500	6.3309e-04
11.250	20.750	8.3671e-04
11.250	21.000	1.0388e-03
11.250	21.250	1.2148e-03
11.250	21.500	1.3392e-03
11.250	21.750	1.3942e-03
11.250	22.000	1.4709e-03
11.250	22.250	1.5209e-03
11.250	22.500	1.5433e-03
11.250	22.750	1.5605e-03
11.250	23.000	1.5628e-03
11.250	23.250	1.5642e-03
11.250	23.500	1.5657e-03
11.250	23.750	1.5659e-03
11.250	24.000	1.5657e-03
11.500	17.000	1.4815e-06
11.500	17.250	2.0576e-06
11.500	17.500	3.1276e-06
11.500	17.750	5.1852e-06
11.500	18.000	9.1358e-06
11.500	18.250	1.6049e-05
11.500	18.500	2.6091e-05
11.500	18.750	4.0494e-05
11.500	19.000	6.0412e-05
11.500	19.250	8.7819e-05
11.500	19.500	1.2519e-04
11.500	19.750	1.7572e-04
11.500	20.000	2.4337e-04
11.500	20.250	3.3235e-04
11.500	20.500	4.4650e-04
11.500	20.750	5.8922e-04
11.500	21.000	7.5852e-04
11.500	21.250	9.4412e-04
11.500	21.500	1.1884e-03
11.500	21.750	1.2830e-03
11.500	22.000	1.3548e-03
11.500	22.250	1.4444e-03
11.500	22.500	1.4962e-03
11.500	22.750	1.5290e-03
11.500	23.000	1.5560e-03
11.500	23.250	1.5608e-03
11.500	23.500	1.5630e-03
11.500	23.750	1.5653e-03
11.500	24.000	1.5658e-03
11.750	17.000	1.0700e-06
11.750	17.250	1.5638e-06
11.750	17.500	2.3045e-06
11.750	17.750	3.7037e-06
11.750	18.000	6.5021e-06
11.750	18.250	1.1358e-05
11.750	18.500	1.8272e-05
11.750	18.750	2.8477e-05
11.750	19.000	4.2798e-05
11.750	19.250	6.2551e-05
11.750	19.500	8.9465e-05
11.750	19.750	1.2609e-04
11.750	20.000	1.7481e-04
11.750	20.250	2.3770e-04
11.750	20.500	3.1671e-04
11.750	20.750	4.1119e-04
11.750	21.000	5.1761e-04
11.750	21.250	6.4716e-04
11.750	21.500	9.0691e-04
11.750	21.750	1.0811e-03
11.750	22.000	1.2050e-03
11.750	22.250	1.2953e-03
11.750	22.500	1.3972e-03
11.750	22.750	1.4598e-03
11.750	23.000	1.5064e-03
11.750	23.250	1.5487e-03
11.750	23.500	1.5577e-03
11.750	23.750	1.5612e-03
11.750	24.000	1.5648e-03
12.000	17.000	1.0000e-07
12.000	17.250	1.1523e-06
12.000	17.500	1.6461e-06
12.000	17.750	2.7160e-06
12.000	18.000	4.6091e-06
12.000	18.250	7.9012e-06
12.000	18.500	1.2675e-05
12.000	18.750	1.9835e-05
12.000	19.000	3.0123e-05
12.000	19.250	4.4362e-05
12.000	19.500	6.3786e-05
12.000	19.750	9.0288e-05
12.000	20.000	1.2543e-04
12.000	20.250	1.7045e-04
12.000	20.500	2.2568e-04
12.000	20.750	2.8963e-04
12.000	21.000	3.5556e-04
12.000	21.250	4.2288e-04
12.000	21.500	6.0115e-04
12.000	21.750	7.7169e-04
12.000	22.000	9.4979e-04
12.000	22.250	1.0971e-03
12.000	22.500	1.2086e-03
12.000	22.750	1.3280e-03
12.000	23.000	1.4069e-03
12.000	23.250	1.4717e-03
12.000	23.500	1.5370e-03
12.000	23.750	1.5525e-03
12.000	24.000	1.5582e-03
12.250	17.000	1.0000e-07
12.250	17.250	1.0000e-07
12.250	17.500	1.2346e-06
12.250	17.750	1.9753e-06
12.250	18.000	3.2099e-06
12.250	18.250	5.4321e-06
12.250	18.500	8.7243e-06
12.250	18.750	1.3663e-05
12.250	19.000	2.0988e-05
12.250	19.250	3.1276e-05
12.250	19.500	4.5350e-05
12.250	19.750	6.4444e-05
12.250	20.000	8.9712e-05
12.250	20.250	1.2198e-04
12.250	20.500	1.6140e-04
12.250	20.750	2.0568e-04
12.250	21.000	2.4823e-04
12.250	21.250	2.8272e-04
12.250	21.500	3.8420e-04
12.250	21.750	4.7572e-04
12.250	22.000	6.2198e-04
12.250	22.250	8.0272e-04
12.250	22.500	9.5679e-04
12.250	22.750	1.0935e-03
12.250	23.000	1.2325e-03
12.250	23.250	1.3323e-03
12.250	23.500	1.4195e-03
12.250	23.750	1.5183e-03
12.250	24.000	1.5442e-03
12.500	17.000	1.0000e-07
12.500	17.250	1.0000e-07
12.500	17.500	1.0000e-07
12.500	17.750	1.3992e-06
12.500	18.000	2.2222e-06
12.500	18.250	3.6214e-06
12.500	18.500	5.9259e-06
12.500	18.750	9.4650e-06
12.500	19.000	1.4650e-05
12.500	19.250	2.1893e-05
12.500	19.500	3.2016e-05
12.500	19.750	4.5761e-05
12.500	20.000	6.3951e-05
12.500	20.250	8.7078e-05
12.500	20.500	1.1531e-04
12.500	20.750	1.4667e-04
12.500	21.000	1.7556e-04
12.500	21.250	1.9424e-04
12.500	21.500	2.5333e-04
12.500	21.750	2.8716e-04
12.500	22.000	3.6255e-04
12.500	22.250	4.9004e-04
12.500	22.500	6.4848e-04
12.500	22.750	7.9259e-04
12.500	23.000	9.5045e-04
12.500	23.250	1.1081e-03
12.500	23.500	1.2300e-03
12.500	23.750	1.3435e-03
12.500	24.000	1.4891e-03
12.750	17.000	1.0000e-07
12.750	17.250	1.0000e-07
12.750	17.500	1.0000e-07
12.750	17.750	1.0000e-07
12.750	18.000	1.4815e-06
12.750	18.250	2.4691e-06
12.750	18.500	4.0329e-06
12.750	18.750	6.4198e-06
12.750	19.000	1.0041e-05
12.750	19.250	1.5226e-05
12.750	19.500	2.2469e-05
12.750	19.750	3.2346e-05
12.750	20.000	4.5350e-05
12.750	20.250	6.2058e-05
12.750	20.500	8.2305e-05
12.750	20.750	1.0469e-04
12.750	21.000	1.2502e-04
12.750	21.250	1.3621e-04
12.750	21.500	1.7259e-04
12.750	21.750	1.7984e-04
12.750	22.000	2.0872e-04
12.750	22.250	2.7498e-04
12.750	22.500	3.7539e-04
12.750	22.750	4.9012e-04
12.750	23.000	6.2568e-04
12.750	23.250	7.9004e-04
12.750	23.500	9.5523e-04
12.750	23.750	1.0959e-03
12.750	24.000	1.2370e-03
13.000	17.000	1.0000e-07
13.000	17.250	1.0000e-07
13.000	17.500	1.0000e-07
13.000	17.750	1.0000e-07
13.000	18.000	1.0000e-07
13.000	18.250	1.3992e-06
13.000	18.500	2.4691e-06
13.000	18.750	4.2798e-06
13.000	19.000	6.8313e-06
13.000	19.250	1.0453e-05
13.000	19.500	1.5720e-05
13.000	19.750	2.2716e-05
13.000	20.000	3.2016e-05
13.000	20.250	4.4033e-05
13.000	20.500	5.8683e-05
13.000	20.750	7.4733e-05
13.000	21.000	8.9300e-05
13.000	21.250	9.6626e-05
13.000	21.500	1.2058e-04
13.000	21.750	1.1679e-04
13.000	22.000	1.2370e-04
13.000	22.250	1.5424e-04
13.000	22.500	2.0568e-04
13.000	22.750	2.7473e-04
13.000	23.000	3.6148e-04
13.000	23.250	4.7868e-04
13.000	23.500	6.2650e-04
13.000	23.750	7.8313e-04
13.000	24.000	9.3070e-04
13.250	17.000	1.0000e-07
13.250	17.250	1.0000e-07
13.250	17.500	1.0000e-07
13.250	17.750	1.0000e-07
13.250	18.000	1.0000e-07
13.250	18.250	1.0000e-07
13.250	18.500	1.4815e-06
13.250	18.750	2.6337e-06
13.250	19.000	4.5267e-06
13.250	19.250	6.9959e-06
13.250	19.500	1.0782e-05
13.250	19.750	1.5802e-05
13.250	20.000	2.2469e-05
13.250	20.250	3.1111e-05
13.250	20.500	4.1646e-05
13.250	20.750	5.3333e-05
13.250	21.000	6.3786e-05
13.250	21.250	6.8889e-05
13.250	21.500	8.5267e-05
13.250	21.750	7.8107e-05
13.250	22.000	7.4650e-05
13.250	22.250	8.8395e-05
13.250	22.500	1.1407e-04
13.250	22.750	1.5152e-04
13.250	23.000	2.0025e-04
13.250	23.250	2.6741e-04
13.250	23.500	3.5827e-04
13.250	23.750	4.7449e-04
13.250	24.000	6.0683e-04
13.500	17.000	1.0000e-07
13.500	17.250	1.0000e-07
13.500	17.500	1.0000e-07
13.500	17.750	1.0000e-07
13.500	18.000	1.0000e-07
13.500	18.250	1.0000e-07
13.500	18.500	1.0000e-07
13.500	18.750	1.5638e-06
13.500	19.000	2.7984e-06
13.500	19.250	4.6914e-06
13.500	19.500	7.2428e-06
13.500	19.750	1.0782e-05
13.500	20.000	1.5556e-05
13.500	20.250	2.1811e-05
13.500	20.500	2.9383e-05
13.500	20.750	3.7860e-05
13.500	21.000	4.5597e-05
13.500	21.250	4.9300e-05
13.500	21.500	6.0741e-05
13.500	21.750	5.3416e-05
13.500	22.000	4.6173e-05
13.500	22.250	5.0782e-05
13.500	22.500	6.5103e-05
13.500	22.750	8.4444e-05
13.500	23.000	1.1202e-04
13.500	23.250	1.4864e-04
13.500	23.500	1.9663e-04
13.500	23.750	2.6181e-04
13.500	24.000	3.4543e-04
13.750	17.000	1.0000e-07
13.750	17.250	1.0000e-07
13.750	17.500	1.0000e-07
13.750	17.750	1.0000e-07
13.750	18.000	1.0000e-07
13.750	18.250	1.0000e-07
13.750	18.500	1.0000e-07
13.750	18.750	8.2305e-07
13.750	19.000	1.7284e-06
13.750	19.250	2.9630e-06
13.750	19.500	4.6091e-06
13.750	19.750	7.2428e-06
13.750	20.000	1.0617e-05
13.750	20.250	1.5062e-05
13.750	20.500	2.0576e-05
13.750	20.750	2.6667e-05
13.750	21.000	3.2428e-05
13.750	21.250	3.5226e-05
13.750	21.500	4.3374e-05
13.750	21.750	3.7119e-05
13.750	22.000	2.9383e-05
13.750	22.250	2.9547e-05
13.750	22.500	3.7037e-05
13.750	22.750	4.7984e-05
13.750	23.000	6.2634e-05
13.750	23.250	8.1564e-05
13.750	23.500	1.0700e-04
13.750	23.750	1.4091e-04
13.750	24.000	1.8642e-04
14.000	17.000	1.0000e-07
14.000	17.250	1.0000e-07
14.000	17.500	1.0000e-07
14.000	17.750	1.0000e-07
14.000	18.000	1.0000e-07
14.000	18.250	1.0000e-07
14.000	18.500	1.0000e-07
14.000	18.750	1.0000e-07
14.000	19.000	9.0535e-07
14.000	19.250	1.8107e-06
14.000	19.500	2.9630e-06
14.000	19.750	4.6914e-06
14.000	20.000	7.1605e-06
14.000	20.250	1.0288e-05
14.000	20.500	1.4239e-05
14.000	20.750	1.8601e-05
14.000	21.000	2.2798e-05
14.000	21.250	2.4938e-05
14.000	21.500	3.0782e-05
14.000	21.750	2.5761e-05
14.000	22.000	1.9012e-05
14.000	22.250	1.7531e-05
14.000	22.500	2.0988e-05
14.000	22.750	2.7243e-05
14.000	23.000	3.5144e-05
14.000	23.250	4.5185e-05
14.000	23.500	5.8025e-05
14.000	23.750	7.4650e-05
14.000	24.000	9.7778e-05
