Inwd 1215.23A  relative to Inci 1215.00A scaled to 1215A.
Hden   Phi(H)  Eq_Width (A)
 7.000	17.000	1.0784e-02
 7.000	17.250	1.0762e-02
 7.000	17.500	1.0610e-02
 7.000	17.750	7.4077e-03
 7.000	18.000	4.2971e-03
 7.000	18.250	4.4872e-04
 7.000	18.500	1.7942e-04
 7.000	18.750	7.7449e-05
 7.000	19.000	2.6255e-05
 7.000	19.250	3.7037e-06
 7.000	19.500	1.0000e-07
 7.000	19.750	1.0000e-07
 7.000	20.000	1.0000e-07
 7.000	20.250	1.0000e-07
 7.000	20.500	1.0000e-07
 7.000	20.750	1.0000e-07
 7.000	21.000	1.0000e-07
 7.000	21.250	1.0000e-07
 7.000	21.500	1.0000e-07
 7.000	21.750	1.0000e-07
 7.000	22.000	1.0000e-07
 7.000	22.250	1.0000e-07
 7.000	22.500	1.0000e-07
 7.000	22.750	1.0000e-07
 7.000	23.000	1.0000e-07
 7.000	23.250	1.0000e-07
 7.000	23.500	1.0000e-07
 7.000	23.750	1.0000e-07
 7.000	24.000	1.0000e-07
 7.250	17.000	1.0612e-02
 7.250	17.250	1.0678e-02
 7.250	17.500	1.0659e-02
 7.250	17.750	1.0500e-02
 7.250	18.000	7.7730e-03
 7.250	18.250	5.2184e-03
 7.250	18.500	4.4823e-04
 7.250	18.750	1.8000e-04
 7.250	19.000	7.7695e-05
 7.250	19.250	2.6420e-05
 7.250	19.500	3.7860e-06
 7.250	19.750	1.0000e-07
 7.250	20.000	1.0000e-07
 7.250	20.250	1.0000e-07
 7.250	20.500	1.0000e-07
 7.250	20.750	1.0000e-07
 7.250	21.000	1.0000e-07
 7.250	21.250	1.0000e-07
 7.250	21.500	1.0000e-07
 7.250	21.750	1.0000e-07
 7.250	22.000	1.0000e-07
 7.250	22.250	1.0000e-07
 7.250	22.500	1.0000e-07
 7.250	22.750	1.0000e-07
 7.250	23.000	1.0000e-07
 7.250	23.250	1.0000e-07
 7.250	23.500	1.0000e-07
 7.250	23.750	1.0000e-07
 7.250	24.000	1.0000e-07
 7.500	17.000	1.0367e-02
 7.500	17.250	1.0464e-02
 7.500	17.500	1.0536e-02
 7.500	17.750	1.0520e-02
 7.500	18.000	1.0348e-02
 7.500	18.250	8.2451e-03
 7.500	18.500	6.3091e-03
 7.500	18.750	4.4979e-04
 7.500	19.000	1.8033e-04
 7.500	19.250	7.8025e-05
 7.500	19.500	2.6502e-05
 7.500	19.750	3.7860e-06
 7.500	20.000	1.0000e-07
 7.500	20.250	1.0000e-07
 7.500	20.500	1.0000e-07
 7.500	20.750	1.0000e-07
 7.500	21.000	1.0000e-07
 7.500	21.250	1.0000e-07
 7.500	21.500	1.0000e-07
 7.500	21.750	1.0000e-07
 7.500	22.000	1.0000e-07
 7.500	22.250	1.0000e-07
 7.500	22.500	1.0000e-07
 7.500	22.750	1.0000e-07
 7.500	23.000	1.0000e-07
 7.500	23.250	1.0000e-07
 7.500	23.500	1.0000e-07
 7.500	23.750	1.0000e-07
 7.500	24.000	1.0000e-07
 7.750	17.000	1.0056e-02
 7.750	17.250	1.0182e-02
 7.750	17.500	1.0280e-02
 7.750	17.750	1.0357e-02
 7.750	18.000	1.0337e-02
 7.750	18.250	1.0147e-02
 7.750	18.500	8.6072e-03
 7.750	18.750	7.1879e-03
 7.750	19.000	4.4807e-04
 7.750	19.250	1.8115e-04
 7.750	19.500	7.8272e-05
 7.750	19.750	2.6667e-05
 7.750	20.000	3.7860e-06
 7.750	20.250	1.0000e-07
 7.750	20.500	1.0000e-07
 7.750	20.750	1.0000e-07
 7.750	21.000	1.0000e-07
 7.750	21.250	1.0000e-07
 7.750	21.500	1.0000e-07
 7.750	21.750	1.0000e-07
 7.750	22.000	1.0000e-07
 7.750	22.250	1.0000e-07
 7.750	22.500	1.0000e-07
 7.750	22.750	1.0000e-07
 7.750	23.000	1.0000e-07
 7.750	23.250	1.0000e-07
 7.750	23.500	1.0000e-07
 7.750	23.750	1.0000e-07
 7.750	24.000	1.0000e-07
 8.000	17.000	9.5455e-03
 8.000	17.250	9.7083e-03
 8.000	17.500	9.8490e-03
 8.000	17.750	9.9722e-03
 8.000	18.000	1.0071e-02
 8.000	18.250	1.0055e-02
 8.000	18.500	9.8416e-03
 8.000	18.750	8.6769e-03
 8.000	19.000	7.5482e-03
 8.000	19.250	5.2148e-04
 8.000	19.500	1.8239e-04
 8.000	19.750	7.8601e-05
 8.000	20.000	2.6749e-05
 8.000	20.250	3.8683e-06
 8.000	20.500	1.0000e-07
 8.000	20.750	1.0000e-07
 8.000	21.000	1.0000e-07
 8.000	21.250	1.0000e-07
 8.000	21.500	1.0000e-07
 8.000	21.750	1.0000e-07
 8.000	22.000	1.0000e-07
 8.000	22.250	1.0000e-07
 8.000	22.500	1.0000e-07
 8.000	22.750	1.0000e-07
 8.000	23.000	1.0000e-07
 8.000	23.250	1.0000e-07
 8.000	23.500	1.0000e-07
 8.000	23.750	1.0000e-07
 8.000	24.000	1.0000e-07
 8.250	17.000	9.1557e-03
 8.250	17.250	9.3253e-03
 8.250	17.500	9.4776e-03
 8.250	17.750	9.6043e-03
 8.250	18.000	9.7123e-03
 8.250	18.250	9.7943e-03
 8.250	18.500	9.7547e-03
 8.250	18.750	9.5059e-03
 8.250	19.000	8.5117e-03
 8.250	19.250	7.4952e-03
 8.250	19.500	5.2288e-04
 8.250	19.750	1.8247e-04
 8.250	20.000	7.8848e-05
 8.250	20.250	2.6914e-05
 8.250	20.500	3.8683e-06
 8.250	20.750	1.0000e-07
 8.250	21.000	1.0000e-07
 8.250	21.250	1.0000e-07
 8.250	21.500	1.0000e-07
 8.250	21.750	1.0000e-07
 8.250	22.000	1.0000e-07
 8.250	22.250	1.0000e-07
 8.250	22.500	1.0000e-07
 8.250	22.750	1.0000e-07
 8.250	23.000	1.0000e-07
 8.250	23.250	1.0000e-07
 8.250	23.500	1.0000e-07
 8.250	23.750	1.0000e-07
 8.250	24.000	1.0000e-07
 8.500	17.000	8.7660e-03
 8.500	17.250	8.9375e-03
 8.500	17.500	9.0963e-03
 8.500	17.750	9.2289e-03
 8.500	18.000	9.3294e-03
 8.500	18.250	9.4058e-03
 8.500	18.500	9.4539e-03
 8.500	18.750	9.3764e-03
 8.500	19.000	9.0865e-03
 8.500	19.250	8.1584e-03
 8.500	19.500	7.1700e-03
 8.500	19.750	4.6626e-04
 8.500	20.000	1.8288e-04
 8.500	20.250	7.9095e-05
 8.500	20.500	2.6996e-05
 8.500	20.750	3.8683e-06
 8.500	21.000	1.0000e-07
 8.500	21.250	1.0000e-07
 8.500	21.500	1.0000e-07
 8.500	21.750	1.0000e-07
 8.500	22.000	1.0000e-07
 8.500	22.250	1.0000e-07
 8.500	22.500	1.0000e-07
 8.500	22.750	1.0000e-07
 8.500	23.000	1.0000e-07
 8.500	23.250	1.0000e-07
 8.500	23.500	1.0000e-07
 8.500	23.750	1.0000e-07
 8.500	24.000	1.0000e-07
 8.750	17.000	8.3736e-03
 8.750	17.250	8.5588e-03
 8.750	17.500	8.7258e-03
 8.750	17.750	8.8605e-03
 8.750	18.000	8.9637e-03
 8.750	18.250	9.0211e-03
 8.750	18.500	9.0454e-03
 8.750	18.750	9.0390e-03
 8.750	19.000	8.9103e-03
 8.750	19.250	8.5700e-03
 8.750	19.500	7.6340e-03
 8.750	19.750	6.6541e-03
 8.750	20.000	4.6667e-04
 8.750	20.250	1.8296e-04
 8.750	20.500	7.9259e-05
 8.750	20.750	2.6996e-05
 8.750	21.000	3.9506e-06
 8.750	21.250	1.0000e-07
 8.750	21.500	1.0000e-07
 8.750	21.750	1.0000e-07
 8.750	22.000	1.0000e-07
 8.750	22.250	1.0000e-07
 8.750	22.500	1.0000e-07
 8.750	22.750	1.0000e-07
 8.750	23.000	1.0000e-07
 8.750	23.250	1.0000e-07
 8.750	23.500	1.0000e-07
 8.750	23.750	1.0000e-07
 8.750	24.000	1.0000e-07
 9.000	17.000	7.9804e-03
 9.000	17.250	8.1844e-03
 9.000	17.500	8.3670e-03
 9.000	17.750	8.5162e-03
 9.000	18.000	8.6196e-03
 9.000	18.250	8.6735e-03
 9.000	18.500	8.6681e-03
 9.000	18.750	8.6157e-03
 9.000	19.000	8.5347e-03
 9.000	19.250	8.3405e-03
 9.000	19.500	7.9393e-03
 9.000	19.750	6.9863e-03
 9.000	20.000	6.0306e-03
 9.000	20.250	4.6568e-04
 9.000	20.500	1.8263e-04
 9.000	20.750	7.9259e-05
 9.000	21.000	2.7078e-05
 9.000	21.250	3.9506e-06
 9.000	21.500	1.0000e-07
 9.000	21.750	1.0000e-07
 9.000	22.000	1.0000e-07
 9.000	22.250	1.0000e-07
 9.000	22.500	1.0000e-07
 9.000	22.750	1.0000e-07
 9.000	23.000	1.0000e-07
 9.000	23.250	1.0000e-07
 9.000	23.500	1.0000e-07
 9.000	23.750	1.0000e-07
 9.000	24.000	1.0000e-07
 9.250	17.000	7.5564e-03
 9.250	17.250	7.8022e-03
 9.250	17.500	8.0169e-03
 9.250	17.750	8.1865e-03
 9.250	18.000	8.3042e-03
 9.250	18.250	8.3606e-03
 9.250	18.500	8.3374e-03
 9.250	18.750	8.2407e-03
 9.250	19.000	8.0935e-03
 9.250	19.250	7.9239e-03
 9.250	19.500	7.6594e-03
 9.250	19.750	7.2179e-03
 9.250	20.000	6.3079e-03
 9.250	20.250	5.4110e-03
 9.250	20.500	4.6963e-04
 9.250	20.750	1.8214e-04
 9.250	21.000	7.9177e-05
 9.250	21.250	2.7078e-05
 9.250	21.500	3.9506e-06
 9.250	21.750	1.0000e-07
 9.250	22.000	1.0000e-07
 9.250	22.250	1.0000e-07
 9.250	22.500	1.0000e-07
 9.250	22.750	1.0000e-07
 9.250	23.000	1.0000e-07
 9.250	23.250	1.0000e-07
 9.250	23.500	1.0000e-07
 9.250	23.750	1.0000e-07
 9.250	24.000	1.0000e-07
 9.500	17.000	7.0461e-03
 9.500	17.250	7.3857e-03
 9.500	17.500	7.6486e-03
 9.500	17.750	7.8580e-03
 9.500	18.000	7.9998e-03
 9.500	18.250	8.0634e-03
 9.500	18.500	8.0421e-03
 9.500	18.750	7.9181e-03
 9.500	19.000	7.7024e-03
 9.500	19.250	7.4603e-03
 9.500	19.500	7.2089e-03
 9.500	19.750	6.9176e-03
 9.500	20.000	6.5186e-03
 9.500	20.250	5.7305e-03
 9.500	20.500	4.9257e-03
 9.500	20.750	4.7811e-04
 9.500	21.000	1.8181e-04
 9.500	21.250	7.9012e-05
 9.500	21.500	2.7078e-05
 9.500	21.750	3.9506e-06
 9.500	22.000	1.0000e-07
 9.500	22.250	1.0000e-07
 9.500	22.500	1.0000e-07
 9.500	22.750	1.0000e-07
 9.500	23.000	1.0000e-07
 9.500	23.250	1.0000e-07
 9.500	23.500	1.0000e-07
 9.500	23.750	1.0000e-07
 9.500	24.000	1.0000e-07
 9.750	17.000	6.3505e-03
 9.750	17.250	6.8919e-03
 9.750	17.500	7.2574e-03
 9.750	17.750	7.5132e-03
 9.750	18.000	7.6996e-03
 9.750	18.250	7.7922e-03
 9.750	18.500	7.7723e-03
 9.750	18.750	7.6330e-03
 9.750	19.000	7.3758e-03
 9.750	19.250	7.0609e-03
 9.750	19.500	6.7557e-03
 9.750	19.750	6.4862e-03
 9.750	20.000	6.2853e-03
 9.750	20.250	6.0356e-03
 9.750	20.500	5.3829e-03
 9.750	20.750	4.7596e-03
 9.750	21.000	4.9037e-04
 9.750	21.250	1.8189e-04
 9.750	21.500	7.9177e-05
 9.750	21.750	2.7160e-05
 9.750	22.000	3.9506e-06
 9.750	22.250	1.0000e-07
 9.750	22.500	1.0000e-07
 9.750	22.750	1.0000e-07
 9.750	23.000	1.0000e-07
 9.750	23.250	1.0000e-07
 9.750	23.500	1.0000e-07
 9.750	23.750	1.0000e-07
 9.750	24.000	1.0000e-07
10.000	17.000	5.4447e-03
10.000	17.250	6.2225e-03
10.000	17.500	6.7939e-03
10.000	17.750	7.1630e-03
10.000	18.000	7.4026e-03
10.000	18.250	7.5412e-03
10.000	18.500	7.5438e-03
10.000	18.750	7.3954e-03
10.000	19.000	7.1044e-03
10.000	19.250	6.7417e-03
10.000	19.500	6.3886e-03
10.000	19.750	6.1124e-03
10.000	20.000	5.9763e-03
10.000	20.250	5.9398e-03
10.000	20.500	5.8704e-03
10.000	20.750	5.5479e-03
10.000	21.000	5.1444e-03
10.000	21.250	5.5391e-04
10.000	21.500	1.8107e-04
10.000	21.750	7.9424e-05
10.000	22.000	2.7407e-05
10.000	22.250	4.0329e-06
10.000	22.500	1.0000e-07
10.000	22.750	1.0000e-07
10.000	23.000	1.0000e-07
10.000	23.250	1.0000e-07
10.000	23.500	1.0000e-07
10.000	23.750	1.0000e-07
10.000	24.000	1.0000e-07
10.250	17.000	4.3372e-03
10.250	17.250	5.3320e-03
10.250	17.500	6.1841e-03
10.250	17.750	6.7694e-03
10.250	18.000	7.1275e-03
10.250	18.250	7.3262e-03
10.250	18.500	7.3592e-03
10.250	18.750	7.2197e-03
10.250	19.000	6.9003e-03
10.250	19.250	6.4996e-03
10.250	19.500	6.1226e-03
10.250	19.750	5.8521e-03
10.250	20.000	5.7750e-03
10.250	20.250	5.8152e-03
10.250	20.500	5.9849e-03
10.250	20.750	6.3324e-03
10.250	21.000	6.4032e-03
10.250	21.250	6.0560e-03
10.250	21.500	6.0420e-04
10.250	21.750	1.7992e-04
10.250	22.000	7.9918e-05
10.250	22.250	2.7819e-05
10.250	22.500	4.0329e-06
10.250	22.750	1.0000e-07
10.250	23.000	1.0000e-07
10.250	23.250	1.0000e-07
10.250	23.500	1.0000e-07
10.250	23.750	1.0000e-07
10.250	24.000	1.0000e-07
10.500	17.000	3.2856e-03
10.500	17.250	4.2937e-03
10.500	17.500	5.3747e-03
10.500	17.750	6.2818e-03
10.500	18.000	6.8500e-03
10.500	18.250	7.1474e-03
10.500	18.500	7.2333e-03
10.500	18.750	7.1119e-03
10.500	19.000	6.7861e-03
10.500	19.250	6.3374e-03
10.500	19.500	5.9405e-03
10.500	19.750	5.6968e-03
10.500	20.000	5.6831e-03
10.500	20.250	5.7797e-03
10.500	20.500	6.0475e-03
10.500	20.750	6.6784e-03
10.500	21.000	7.4421e-03
10.500	21.250	7.7831e-03
10.500	21.500	7.0675e-03
10.500	21.750	6.6247e-04
10.500	22.000	1.7811e-04
10.500	22.250	8.0658e-05
10.500	22.500	2.8477e-05
10.500	22.750	4.1975e-06
10.500	23.000	1.0000e-07
10.500	23.250	1.0000e-07
10.500	23.500	1.0000e-07
10.500	23.750	1.0000e-07
10.500	24.000	1.0000e-07
10.750	17.000	2.4028e-03
10.750	17.250	3.2424e-03
10.750	17.500	4.4097e-03
10.750	17.750	5.6034e-03
10.750	18.000	6.4752e-03
10.750	18.250	6.9870e-03
10.750	18.500	7.1536e-03
10.750	18.750	7.0690e-03
10.750	19.000	6.7436e-03
10.750	19.250	6.2666e-03
10.750	19.500	5.8239e-03
10.750	19.750	5.6172e-03
10.750	20.000	5.6473e-03
10.750	20.250	5.7866e-03
10.750	20.500	6.0889e-03
10.750	20.750	6.8769e-03
10.750	21.000	7.9297e-03
10.750	21.250	8.7798e-03
10.750	21.500	9.0710e-03
10.750	21.750	8.0658e-03
10.750	22.000	8.1860e-04
10.750	22.250	1.7556e-04
10.750	22.500	8.1564e-05
10.750	22.750	2.9383e-05
10.750	23.000	4.3621e-06
10.750	23.250	8.2305e-07
10.750	23.500	1.0000e-07
10.750	23.750	1.0000e-07
10.750	24.000	1.0000e-07
11.000	17.000	1.7249e-03
11.000	17.250	2.3259e-03
11.000	17.500	3.3243e-03
11.000	17.750	4.7149e-03
11.000	18.000	5.9372e-03
11.000	18.250	6.7304e-03
11.000	18.500	7.0853e-03
11.000	18.750	7.0818e-03
11.000	19.000	6.7646e-03
11.000	19.250	6.2673e-03
11.000	19.500	5.7782e-03
11.000	19.750	5.5396e-03
11.000	20.000	5.6077e-03
11.000	20.250	5.8105e-03
11.000	20.500	6.1346e-03
11.000	20.750	6.8999e-03
11.000	21.000	8.1160e-03
11.000	21.250	9.0868e-03
11.000	21.500	9.7021e-03
11.000	21.750	9.6808e-03
11.000	22.000	6.3853e-03
11.000	22.250	1.0807e-03
11.000	22.500	1.7416e-04
11.000	22.750	8.3128e-05
11.000	23.000	3.0453e-05
11.000	23.250	4.5267e-06
11.000	23.500	9.0535e-07
11.000	23.750	1.0000e-07
11.000	24.000	1.0000e-07
11.250	17.000	1.2206e-03
11.250	17.250	1.6147e-03
11.250	17.500	2.3238e-03
11.250	17.750	3.5784e-03
11.250	18.000	5.0803e-03
11.250	18.250	6.2751e-03
11.250	18.500	6.9378e-03
11.250	18.750	7.1105e-03
11.250	19.000	6.8507e-03
11.250	19.250	6.3392e-03
11.250	19.500	5.7881e-03
11.250	19.750	5.4910e-03
11.250	20.000	5.6004e-03
11.250	20.250	5.8170e-03
11.250	20.500	6.2365e-03
11.250	20.750	6.9612e-03
11.250	21.000	8.5444e-03
11.250	21.250	9.0131e-03
11.250	21.500	9.5256e-03
11.250	21.750	9.6926e-03
11.250	22.000	9.3177e-03
11.250	22.250	5.5170e-03
11.250	22.500	1.3186e-03
11.250	22.750	1.7086e-04
11.250	23.000	8.4198e-05
11.250	23.250	3.1440e-05
11.250	23.500	4.7737e-06
11.250	23.750	9.0535e-07
11.250	24.000	1.0000e-07
11.500	17.000	8.5095e-04
11.500	17.250	1.0993e-03
11.500	17.500	1.5400e-03
11.500	17.750	2.4221e-03
11.500	18.000	3.8847e-03
11.500	18.250	5.4830e-03
11.500	18.500	6.6095e-03
11.500	18.750	7.0804e-03
11.500	19.000	6.9667e-03
11.500	19.250	6.4738e-03
11.500	19.500	5.8686e-03
11.500	19.750	5.4816e-03
11.500	20.000	5.5453e-03
11.500	20.250	5.8579e-03
11.500	20.500	6.1808e-03
11.500	20.750	7.0410e-03
11.500	21.000	8.3459e-03
11.500	21.250	9.1724e-03
11.500	21.500	8.9648e-03
11.500	21.750	8.9900e-03
11.500	22.000	8.8453e-03
11.500	22.250	8.0928e-03
11.500	22.500	4.3733e-03
11.500	22.750	1.3940e-03
11.500	23.000	1.7317e-04
11.500	23.250	8.4609e-05
11.500	23.500	3.2016e-05
11.500	23.750	4.9383e-06
11.500	24.000	9.0535e-07
11.750	17.000	5.8658e-04
11.750	17.250	7.3951e-04
11.750	17.500	9.9753e-04
11.750	17.750	1.5294e-03
11.750	18.000	2.6113e-03
11.750	18.250	4.2880e-03
11.750	18.500	5.9652e-03
11.750	18.750	6.9078e-03
11.750	19.000	7.0769e-03
11.750	19.250	6.6629e-03
11.750	19.500	5.9762e-03
11.750	19.750	5.5326e-03
11.750	20.000	5.5069e-03
11.750	20.250	5.8507e-03
11.750	20.500	6.2947e-03
11.750	20.750	7.6365e-03
11.750	21.000	8.0196e-03
11.750	21.250	8.6493e-03
11.750	21.500	8.4776e-03
11.750	21.750	7.9547e-03
11.750	22.000	7.6607e-03
11.750	22.250	7.3389e-03
11.750	22.500	6.2992e-03
11.750	22.750	3.3887e-03
11.750	23.000	1.2812e-03
11.750	23.250	1.9128e-04
11.750	23.500	8.4033e-05
11.750	23.750	3.1193e-05
11.750	24.000	4.8560e-06
12.000	17.000	4.0502e-04
12.000	17.250	4.9835e-04
12.000	17.500	6.4502e-04
12.000	17.750	9.4313e-04
12.000	18.000	1.6054e-03
12.000	18.250	2.9487e-03
12.000	18.500	4.8621e-03
12.000	18.750	6.4966e-03
12.000	19.000	7.1151e-03
12.000	19.250	6.9395e-03
12.000	19.500	6.2624e-03
12.000	19.750	5.5476e-03
12.000	20.000	5.5246e-03
12.000	20.250	5.8633e-03
12.000	20.500	6.3883e-03
12.000	20.750	7.7067e-03
12.000	21.000	8.0979e-03
12.000	21.250	8.5421e-03
12.000	21.500	7.8359e-03
12.000	21.750	7.0657e-03
12.000	22.000	6.4398e-03
12.000	22.250	6.0995e-03
12.000	22.500	5.5877e-03
12.000	22.750	4.4614e-03
12.000	23.000	2.5188e-03
12.000	23.250	1.1074e-03
12.000	23.500	2.1646e-04
12.000	23.750	8.2798e-05
12.000	24.000	2.9959e-05
12.250	17.000	2.8008e-04
12.250	17.250	3.3967e-04
12.250	17.500	4.2494e-04
12.250	17.750	5.8848e-04
12.250	18.000	9.5613e-04
12.250	18.250	1.8262e-03
12.250	18.500	3.5207e-03
12.250	18.750	5.5771e-03
12.250	19.000	6.8981e-03
12.250	19.250	7.1906e-03
12.250	19.500	6.7085e-03
12.250	19.750	5.9114e-03
12.250	20.000	5.3891e-03
12.250	20.250	5.9182e-03
12.250	20.500	6.5214e-03
12.250	20.750	7.7267e-03
12.250	21.000	8.0570e-03
12.250	21.250	7.8959e-03
12.250	21.500	7.3132e-03
12.250	21.750	6.3941e-03
12.250	22.000	5.4380e-03
12.250	22.250	4.9347e-03
12.250	22.500	4.6355e-03
12.250	22.750	3.9637e-03
12.250	23.000	3.0164e-03
12.250	23.250	1.7816e-03
12.250	23.500	8.7078e-04
12.250	23.750	2.2897e-04
12.250	24.000	8.0576e-05
12.500	17.000	1.9514e-04
12.500	17.250	2.3440e-04
12.500	17.500	2.8724e-04
12.500	17.750	3.7835e-04
12.500	18.000	5.7646e-04
12.500	18.250	1.0714e-03
12.500	18.500	2.2598e-03
12.500	18.750	4.3027e-03
12.500	19.000	6.2379e-03
12.500	19.250	7.2128e-03
12.500	19.500	7.0896e-03
12.500	19.750	6.4658e-03
12.500	20.000	5.8179e-03
12.500	20.250	5.6536e-03
12.500	20.500	6.6795e-03
12.500	20.750	7.7840e-03
12.500	21.000	8.5177e-03
12.500	21.250	7.3705e-03
12.500	21.500	6.8321e-03
12.500	21.750	5.7992e-03
12.500	22.000	4.8725e-03
12.500	22.250	4.0891e-03
12.500	22.500	3.9256e-03
12.500	22.750	3.3424e-03
12.500	23.000	2.6560e-03
12.500	23.250	1.8928e-03
12.500	23.500	1.2185e-03
12.500	23.750	6.3770e-04
12.500	24.000	2.2988e-04
12.750	17.000	1.3679e-04
12.750	17.250	1.6444e-04
12.750	17.500	1.9827e-04
12.750	17.750	2.5276e-04
12.750	18.000	3.6074e-04
12.750	18.250	6.2280e-04
12.750	18.500	1.3145e-03
12.750	18.750	2.8135e-03
12.750	19.000	4.9160e-03
12.750	19.250	6.6628e-03
12.750	19.500	7.3875e-03
12.750	19.750	7.0323e-03
12.750	20.000	6.4542e-03
12.750	20.250	6.1356e-03
12.750	20.500	6.3279e-03
12.750	20.750	6.8533e-03
12.750	21.000	8.6075e-03
12.750	21.250	7.5858e-03
12.750	21.500	6.5378e-03
12.750	21.750	5.4504e-03
12.750	22.000	4.5036e-03
12.750	22.250	3.6392e-03
12.750	22.500	3.1715e-03
12.750	22.750	2.9537e-03
12.750	23.000	2.2850e-03
12.750	23.250	1.7342e-03
12.750	23.500	1.2174e-03
12.750	23.750	8.0700e-04
12.750	24.000	4.4840e-04
13.000	17.000	9.6214e-05
13.000	17.250	1.1638e-04
13.000	17.500	1.3926e-04
13.000	17.750	1.7333e-04
13.000	18.000	2.3572e-04
13.000	18.250	3.7490e-04
13.000	18.500	7.4016e-04
13.000	18.750	1.6384e-03
13.000	19.000	3.3345e-03
13.000	19.250	5.4321e-03
13.000	19.500	6.9346e-03
13.000	19.750	7.5307e-03
13.000	20.000	7.2054e-03
13.000	20.250	6.9286e-03
13.000	20.500	7.3207e-03
13.000	20.750	7.4988e-03
13.000	21.000	7.8137e-03
13.000	21.250	7.6202e-03
13.000	21.500	6.6990e-03
13.000	21.750	5.4182e-03
13.000	22.000	4.2352e-03
13.000	22.250	3.4500e-03
13.000	22.500	2.8577e-03
13.000	22.750	2.4095e-03
13.000	23.000	2.0947e-03
13.000	23.250	1.5407e-03
13.000	23.500	1.1385e-03
13.000	23.750	7.9737e-04
13.000	24.000	5.3136e-04
13.250	17.000	6.7490e-05
13.250	17.250	8.2881e-05
13.250	17.500	9.9506e-05
13.250	17.750	1.2181e-04
13.250	18.000	1.6016e-04
13.250	18.250	2.3811e-04
13.250	18.500	4.2346e-04
13.250	18.750	8.7523e-04
13.250	19.000	1.8372e-03
13.250	19.250	3.4097e-03
13.250	19.500	5.2514e-03
13.250	19.750	6.9965e-03
13.250	20.000	7.3463e-03
13.250	20.250	7.6256e-03
13.250	20.500	7.6377e-03
13.250	20.750	8.4988e-03
13.250	21.000	8.4171e-03
13.250	21.250	8.1640e-03
13.250	21.500	6.9136e-03
13.250	21.750	5.5369e-03
13.250	22.000	4.5336e-03
13.250	22.250	3.5244e-03
13.250	22.500	2.7235e-03
13.250	22.750	2.2002e-03
13.250	23.000	1.6949e-03
13.250	23.250	1.4453e-03
13.250	23.500	1.0575e-03
13.250	23.750	7.6519e-04
13.250	24.000	5.2914e-04
13.500	17.000	4.7160e-05
13.500	17.250	5.9012e-05
13.500	17.500	7.1605e-05
13.500	17.750	8.7325e-05
13.500	18.000	1.1210e-04
13.500	18.250	1.5885e-04
13.500	18.500	2.5457e-04
13.500	18.750	4.6502e-04
13.500	19.000	9.1029e-04
13.500	19.250	1.7055e-03
13.500	19.500	2.9572e-03
13.500	19.750	4.5004e-03
13.500	20.000	5.6524e-03
13.500	20.250	7.1272e-03
13.500	20.500	7.1908e-03
13.500	20.750	7.8564e-03
13.500	21.000	7.7038e-03
13.500	21.250	8.4022e-03
13.500	21.500	7.4179e-03
13.500	21.750	5.6034e-03
13.500	22.000	4.4052e-03
13.500	22.250	3.4101e-03
13.500	22.500	2.6397e-03
13.500	22.750	2.0714e-03
13.500	23.000	1.5062e-03
13.500	23.250	1.2366e-03
13.500	23.500	1.0150e-03
13.500	23.750	7.7284e-04
13.500	24.000	5.3753e-04
13.750	17.000	3.2675e-05
13.750	17.250	4.1893e-05
13.750	17.500	5.1605e-05
13.750	17.750	6.3128e-05
13.750	18.000	8.0000e-05
13.750	18.250	1.0864e-04
13.750	18.500	1.6123e-04
13.750	18.750	2.5745e-04
13.750	19.000	4.3679e-04
13.750	19.250	7.5062e-04
13.750	19.500	1.2502e-03
13.750	19.750	1.9959e-03
13.750	20.000	2.9664e-03
13.750	20.250	3.8708e-03
13.750	20.500	4.6828e-03
13.750	20.750	5.3423e-03
13.750	21.000	5.9955e-03
13.750	21.250	5.8339e-03
13.750	21.500	6.1063e-03
13.750	21.750	5.4001e-03
13.750	22.000	4.4765e-03
13.750	22.250	3.6082e-03
13.750	22.500	2.8763e-03
13.750	22.750	2.1616e-03
13.750	23.000	1.4449e-03
13.750	23.250	1.1284e-03
13.750	23.500	8.7580e-04
13.750	23.750	8.1745e-04
13.750	24.000	6.0206e-04
14.000	17.000	2.2387e-05
14.000	17.250	2.9465e-05
14.000	17.500	3.7037e-05
14.000	17.750	4.5761e-05
14.000	18.000	5.7531e-05
14.000	18.250	7.5391e-05
14.000	18.500	1.0379e-04
14.000	18.750	1.4856e-04
14.000	19.000	2.1835e-04
14.000	19.250	3.2453e-04
14.000	19.500	4.8617e-04
14.000	19.750	7.2848e-04
14.000	20.000	1.0668e-03
14.000	20.250	1.4985e-03
14.000	20.500	1.9389e-03
14.000	20.750	2.3312e-03
14.000	21.000	2.8426e-03
14.000	21.250	3.3486e-03
14.000	21.500	3.3176e-03
14.000	21.750	3.5473e-03
14.000	22.000	3.9275e-03
14.000	22.250	3.7583e-03
14.000	22.500	3.2895e-03
14.000	22.750	2.5396e-03
14.000	23.000	1.8747e-03
14.000	23.250	1.3393e-03
14.000	23.500	8.8905e-04
14.000	23.750	7.6263e-04
14.000	24.000	7.2535e-04
