nInu 913.000A  relative to Inci 1215.00A scaled to 1215A.
Hden   Phi(H)  Eq_Width (A)
 7.000	17.000	6.6708e-02
 7.000	17.250	1.9403e-01
 7.000	17.500	6.0183e-01
 7.000	17.750	9.8808e-01
 7.000	18.000	9.9233e-01
 7.000	18.250	9.9337e-01
 7.000	18.500	9.9337e-01
 7.000	18.750	9.9337e-01
 7.000	19.000	9.9338e-01
 7.000	19.250	9.9338e-01
 7.000	19.500	9.9338e-01
 7.000	19.750	9.9338e-01
 7.000	20.000	9.9338e-01
 7.000	20.250	9.9338e-01
 7.000	20.500	9.9338e-01
 7.000	20.750	9.9338e-01
 7.000	21.000	9.9338e-01
 7.000	21.250	9.9338e-01
 7.000	21.500	9.9338e-01
 7.000	21.750	9.9338e-01
 7.000	22.000	9.9338e-01
 7.000	22.250	9.9338e-01
 7.000	22.500	9.9338e-01
 7.000	22.750	9.9338e-01
 7.000	23.000	9.9338e-01
 7.000	23.250	9.9338e-01
 7.000	23.500	9.9338e-01
 7.000	23.750	9.9338e-01
 7.000	24.000	9.9338e-01
 7.250	17.000	3.7061e-02
 7.250	17.250	6.2025e-02
 7.250	17.500	1.6932e-01
 7.250	17.750	5.9700e-01
 7.250	18.000	9.8822e-01
 7.250	18.250	9.9237e-01
 7.250	18.500	9.9337e-01
 7.250	18.750	9.9337e-01
 7.250	19.000	9.9338e-01
 7.250	19.250	9.9338e-01
 7.250	19.500	9.9338e-01
 7.250	19.750	9.9338e-01
 7.250	20.000	9.9338e-01
 7.250	20.250	9.9338e-01
 7.250	20.500	9.9338e-01
 7.250	20.750	9.9338e-01
 7.250	21.000	9.9338e-01
 7.250	21.250	9.9338e-01
 7.250	21.500	9.9338e-01
 7.250	21.750	9.9338e-01
 7.250	22.000	9.9338e-01
 7.250	22.250	9.9338e-01
 7.250	22.500	9.9338e-01
 7.250	22.750	9.9338e-01
 7.250	23.000	9.9338e-01
 7.250	23.250	9.9338e-01
 7.250	23.500	9.9338e-01
 7.250	23.750	9.9338e-01
 7.250	24.000	9.9338e-01
 7.500	17.000	2.2078e-02
 7.500	17.250	3.6187e-02
 7.500	17.500	6.0630e-02
 7.500	17.750	1.4967e-01
 7.500	18.000	6.0222e-01
 7.500	18.250	9.8833e-01
 7.500	18.500	9.9240e-01
 7.500	18.750	9.9337e-01
 7.500	19.000	9.9337e-01
 7.500	19.250	9.9338e-01
 7.500	19.500	9.9338e-01
 7.500	19.750	9.9338e-01
 7.500	20.000	9.9338e-01
 7.500	20.250	9.9338e-01
 7.500	20.500	9.9338e-01
 7.500	20.750	9.9338e-01
 7.500	21.000	9.9338e-01
 7.500	21.250	9.9338e-01
 7.500	21.500	9.9338e-01
 7.500	21.750	9.9338e-01
 7.500	22.000	9.9338e-01
 7.500	22.250	9.9338e-01
 7.500	22.500	9.9338e-01
 7.500	22.750	9.9338e-01
 7.500	23.000	9.9338e-01
 7.500	23.250	9.9338e-01
 7.500	23.500	9.9338e-01
 7.500	23.750	9.9338e-01
 7.500	24.000	9.9338e-01
 7.750	17.000	1.3740e-02
 7.750	17.250	2.1522e-02
 7.750	17.500	3.5507e-02
 7.750	17.750	5.9967e-02
 7.750	18.000	1.4342e-01
 7.750	18.250	6.0943e-01
 7.750	18.500	9.8842e-01
 7.750	18.750	9.9243e-01
 7.750	19.000	9.9337e-01
 7.750	19.250	9.9337e-01
 7.750	19.500	9.9338e-01
 7.750	19.750	9.9338e-01
 7.750	20.000	9.9338e-01
 7.750	20.250	9.9338e-01
 7.750	20.500	9.9338e-01
 7.750	20.750	9.9338e-01
 7.750	21.000	9.9338e-01
 7.750	21.250	9.9338e-01
 7.750	21.500	9.9338e-01
 7.750	21.750	9.9338e-01
 7.750	22.000	9.9338e-01
 7.750	22.250	9.9338e-01
 7.750	22.500	9.9338e-01
 7.750	22.750	9.9338e-01
 7.750	23.000	9.9338e-01
 7.750	23.250	9.9338e-01
 7.750	23.500	9.9338e-01
 7.750	23.750	9.9338e-01
 7.750	24.000	9.9338e-01
 8.000	17.000	9.1424e-03
 8.000	17.250	1.3268e-02
 8.000	17.500	2.0862e-02
 8.000	17.750	3.4713e-02
 8.000	18.000	5.9456e-02
 8.000	18.250	1.5438e-01
 8.000	18.500	6.3026e-01
 8.000	18.750	9.8850e-01
 8.000	19.000	9.9246e-01
 8.000	19.250	9.9337e-01
 8.000	19.500	9.9337e-01
 8.000	19.750	9.9337e-01
 8.000	20.000	9.9338e-01
 8.000	20.250	9.9338e-01
 8.000	20.500	9.9338e-01
 8.000	20.750	9.9338e-01
 8.000	21.000	9.9338e-01
 8.000	21.250	9.9338e-01
 8.000	21.500	9.9338e-01
 8.000	21.750	9.9338e-01
 8.000	22.000	9.9338e-01
 8.000	22.250	9.9338e-01
 8.000	22.500	9.9338e-01
 8.000	22.750	9.9338e-01
 8.000	23.000	9.9338e-01
 8.000	23.250	9.9338e-01
 8.000	23.500	9.9338e-01
 8.000	23.750	9.9338e-01
 8.000	24.000	9.9338e-01
 8.250	17.000	6.7477e-03
 8.250	17.250	8.9058e-03
 8.250	17.500	1.2968e-02
 8.250	17.750	2.0574e-02
 8.250	18.000	3.4702e-02
 8.250	18.250	6.0615e-02
 8.250	18.500	1.9668e-01
 8.250	18.750	6.7994e-01
 8.250	19.000	9.8859e-01
 8.250	19.250	9.9250e-01
 8.250	19.500	9.9337e-01
 8.250	19.750	9.9337e-01
 8.250	20.000	9.9337e-01
 8.250	20.250	9.9337e-01
 8.250	20.500	9.9338e-01
 8.250	20.750	9.9338e-01
 8.250	21.000	9.9338e-01
 8.250	21.250	9.9338e-01
 8.250	21.500	9.9338e-01
 8.250	21.750	9.9338e-01
 8.250	22.000	9.9338e-01
 8.250	22.250	9.9338e-01
 8.250	22.500	9.9338e-01
 8.250	22.750	9.9338e-01
 8.250	23.000	9.9338e-01
 8.250	23.250	9.9338e-01
 8.250	23.500	9.9338e-01
 8.250	23.750	9.9338e-01
 8.250	24.000	9.9338e-01
 8.500	17.000	5.4494e-03
 8.500	17.250	6.5663e-03
 8.500	17.500	8.7081e-03
 8.500	17.750	1.2760e-02
 8.500	18.000	2.0549e-02
 8.500	18.250	3.5575e-02
 8.500	18.500	6.4016e-02
 8.500	18.750	2.9015e-01
 8.500	19.000	7.5412e-01
 8.500	19.250	9.8863e-01
 8.500	19.500	9.9254e-01
 8.500	19.750	9.9337e-01
 8.500	20.000	9.9337e-01
 8.500	20.250	9.9337e-01
 8.500	20.500	9.9338e-01
 8.500	20.750	9.9338e-01
 8.500	21.000	9.9338e-01
 8.500	21.250	9.9338e-01
 8.500	21.500	9.9338e-01
 8.500	21.750	9.9338e-01
 8.500	22.000	9.9338e-01
 8.500	22.250	9.9338e-01
 8.500	22.500	9.9338e-01
 8.500	22.750	9.9338e-01
 8.500	23.000	9.9338e-01
 8.500	23.250	9.9338e-01
 8.500	23.500	9.9338e-01
 8.500	23.750	9.9338e-01
 8.500	24.000	9.9338e-01
 8.750	17.000	4.7186e-03
 8.750	17.250	5.2960e-03
 8.750	17.500	6.4207e-03
 8.750	17.750	8.5678e-03
 8.750	18.000	1.2790e-02
 8.750	18.250	2.1167e-02
 8.750	18.500	3.8046e-02
 8.750	18.750	7.3087e-02
 8.750	19.000	4.0663e-01
 8.750	19.250	8.3093e-01
 8.750	19.500	9.8870e-01
 8.750	19.750	9.9258e-01
 8.750	20.000	9.9337e-01
 8.750	20.250	9.9337e-01
 8.750	20.500	9.9338e-01
 8.750	20.750	9.9338e-01
 8.750	21.000	9.9338e-01
 8.750	21.250	9.9338e-01
 8.750	21.500	9.9338e-01
 8.750	21.750	9.9338e-01
 8.750	22.000	9.9338e-01
 8.750	22.250	9.9338e-01
 8.750	22.500	9.9338e-01
 8.750	22.750	9.9338e-01
 8.750	23.000	9.9338e-01
 8.750	23.250	9.9338e-01
 8.750	23.500	9.9338e-01
 8.750	23.750	9.9338e-01
 8.750	24.000	9.9338e-01
 9.000	17.000	4.2838e-03
 9.000	17.250	4.5835e-03
 9.000	17.500	5.1772e-03
 9.000	17.750	6.3377e-03
 9.000	18.000	8.6394e-03
 9.000	18.250	1.3289e-02
 9.000	18.500	2.2920e-02
 9.000	18.750	4.2689e-02
 9.000	19.000	1.0968e-01
 9.000	19.250	5.4789e-01
 9.000	19.500	9.0240e-01
 9.000	19.750	9.8882e-01
 9.000	20.000	9.9261e-01
 9.000	20.250	9.9336e-01
 9.000	20.500	9.9338e-01
 9.000	20.750	9.9338e-01
 9.000	21.000	9.9338e-01
 9.000	21.250	9.9338e-01
 9.000	21.500	9.9338e-01
 9.000	21.750	9.9338e-01
 9.000	22.000	9.9338e-01
 9.000	22.250	9.9338e-01
 9.000	22.500	9.9338e-01
 9.000	22.750	9.9338e-01
 9.000	23.000	9.9338e-01
 9.000	23.250	9.9338e-01
 9.000	23.500	9.9338e-01
 9.000	23.750	9.9338e-01
 9.000	24.000	9.9338e-01
 9.250	17.000	3.9962e-03
 9.250	17.250	4.1554e-03
 9.250	17.500	4.4830e-03
 9.250	17.750	5.1491e-03
 9.250	18.000	6.5502e-03
 9.250	18.250	9.1868e-03
 9.250	18.500	1.4609e-02
 9.250	18.750	2.6006e-02
 9.250	19.000	4.9608e-02
 9.250	19.250	2.1134e-01
 9.250	19.500	6.8814e-01
 9.250	19.750	9.6915e-01
 9.250	20.000	9.8903e-01
 9.250	20.250	9.9265e-01
 9.250	20.500	9.9336e-01
 9.250	20.750	9.9337e-01
 9.250	21.000	9.9338e-01
 9.250	21.250	9.9338e-01
 9.250	21.500	9.9338e-01
 9.250	21.750	9.9338e-01
 9.250	22.000	9.9338e-01
 9.250	22.250	9.9338e-01
 9.250	22.500	9.9338e-01
 9.250	22.750	9.9338e-01
 9.250	23.000	9.9338e-01
 9.250	23.250	9.9338e-01
 9.250	23.500	9.9338e-01
 9.250	23.750	9.9338e-01
 9.250	24.000	9.9338e-01
 9.500	17.000	3.8030e-03
 9.500	17.250	3.8754e-03
 9.500	17.500	4.0756e-03
 9.500	17.750	4.5305e-03
 9.500	18.000	5.4277e-03
 9.500	18.250	7.0541e-03
 9.500	18.500	1.0249e-02
 9.500	18.750	1.6831e-02
 9.500	19.000	3.0642e-02
 9.500	19.250	5.9310e-02
 9.500	19.500	3.4688e-01
 9.500	19.750	8.0860e-01
 9.500	20.000	9.8312e-01
 9.500	20.250	9.8927e-01
 9.500	20.500	9.9267e-01
 9.500	20.750	9.9335e-01
 9.500	21.000	9.9337e-01
 9.500	21.250	9.9338e-01
 9.500	21.500	9.9338e-01
 9.500	21.750	9.9338e-01
 9.500	22.000	9.9338e-01
 9.500	22.250	9.9338e-01
 9.500	22.500	9.9338e-01
 9.500	22.750	9.9338e-01
 9.500	23.000	9.9338e-01
 9.500	23.250	9.9338e-01
 9.500	23.500	9.9338e-01
 9.500	23.750	9.9338e-01
 9.500	24.000	9.9338e-01
 9.750	17.000	3.6933e-03
 9.750	17.250	3.6767e-03
 9.750	17.500	3.8044e-03
 9.750	17.750	4.1478e-03
 9.750	18.000	4.8023e-03
 9.750	18.250	5.9348e-03
 9.750	18.500	8.0007e-03
 9.750	18.750	1.1999e-02
 9.750	19.000	2.0231e-02
 9.750	19.250	3.7273e-02
 9.750	19.500	8.3494e-02
 9.750	19.750	5.1170e-01
 9.750	20.000	9.0590e-01
 9.750	20.250	9.8434e-01
 9.750	20.500	9.8963e-01
 9.750	20.750	9.9270e-01
 9.750	21.000	9.9333e-01
 9.750	21.250	9.9337e-01
 9.750	21.500	9.9338e-01
 9.750	21.750	9.9338e-01
 9.750	22.000	9.9338e-01
 9.750	22.250	9.9338e-01
 9.750	22.500	9.9338e-01
 9.750	22.750	9.9338e-01
 9.750	23.000	9.9338e-01
 9.750	23.250	9.9338e-01
 9.750	23.500	9.9338e-01
 9.750	23.750	9.9338e-01
 9.750	24.000	9.9338e-01
10.000	17.000	3.6703e-03
10.000	17.250	3.5466e-03
10.000	17.500	3.5860e-03
10.000	17.750	3.8659e-03
10.000	18.000	4.4376e-03
10.000	18.250	5.3198e-03
10.000	18.500	6.7990e-03
10.000	18.750	9.5074e-03
10.000	19.000	1.4766e-02
10.000	19.250	2.5868e-02
10.000	19.500	5.1045e-02
10.000	19.750	3.5793e-01
10.000	20.000	7.7320e-01
10.000	20.250	9.5613e-01
10.000	20.500	9.8521e-01
10.000	20.750	9.8979e-01
10.000	21.000	9.9270e-01
10.000	21.250	9.9331e-01
10.000	21.500	9.9337e-01
10.000	21.750	9.9338e-01
10.000	22.000	9.9338e-01
10.000	22.250	9.9338e-01
10.000	22.500	9.9338e-01
10.000	22.750	9.9338e-01
10.000	23.000	9.9338e-01
10.000	23.250	9.9338e-01
10.000	23.500	9.9338e-01
10.000	23.750	9.9338e-01
10.000	24.000	9.9338e-01
10.250	17.000	3.7365e-03
10.250	17.250	3.5038e-03
10.250	17.500	3.4515e-03
10.250	17.750	3.6630e-03
10.250	18.000	4.1842e-03
10.250	18.250	4.9541e-03
10.250	18.500	6.1313e-03
10.250	18.750	8.1734e-03
10.250	19.000	1.1981e-02
10.250	19.250	1.9165e-02
10.250	19.500	3.3621e-02
10.250	19.750	9.0426e-02
10.250	20.000	4.6942e-01
10.250	20.250	8.4484e-01
10.250	20.500	9.7223e-01
10.250	20.750	9.8554e-01
10.250	21.000	9.8991e-01
10.250	21.250	9.9268e-01
10.250	21.500	9.9328e-01
10.250	21.750	9.9337e-01
10.250	22.000	9.9337e-01
10.250	22.250	9.9338e-01
10.250	22.500	9.9338e-01
10.250	22.750	9.9338e-01
10.250	23.000	9.9338e-01
10.250	23.250	9.9338e-01
10.250	23.500	9.9338e-01
10.250	23.750	9.9338e-01
10.250	24.000	9.9338e-01
10.500	17.000	3.8588e-03
10.500	17.250	3.5395e-03
10.500	17.500	3.4030e-03
10.500	17.750	3.5483e-03
10.500	18.000	3.9829e-03
10.500	18.250	4.6927e-03
10.500	18.500	5.6843e-03
10.500	18.750	7.1779e-03
10.500	19.000	9.5602e-03
10.500	19.250	1.3780e-02
10.500	19.500	2.1968e-02
10.500	19.750	3.8841e-02
10.500	20.000	1.3067e-01
10.500	20.250	5.4286e-01
10.500	20.500	8.9856e-01
10.500	20.750	9.7966e-01
10.500	21.000	9.8628e-01
10.500	21.250	9.9013e-01
10.500	21.500	9.9258e-01
10.500	21.750	9.9324e-01
10.500	22.000	9.9336e-01
10.500	22.250	9.9337e-01
10.500	22.500	9.9338e-01
10.500	22.750	9.9338e-01
10.500	23.000	9.9338e-01
10.500	23.250	9.9338e-01
10.500	23.500	9.9338e-01
10.500	23.750	9.9338e-01
10.500	24.000	9.9338e-01
10.750	17.000	4.0007e-03
10.750	17.250	3.6284e-03
10.750	17.500	3.4303e-03
10.750	17.750	3.5168e-03
10.750	18.000	3.8476e-03
10.750	18.250	4.4049e-03
10.750	18.500	5.1998e-03
10.750	18.750	6.2283e-03
10.750	19.000	7.7686e-03
10.750	19.250	1.0394e-02
10.750	19.500	1.5197e-02
10.750	19.750	2.4529e-02
10.750	20.000	4.3703e-02
10.750	20.250	1.6455e-01
10.750	20.500	5.9785e-01
10.750	20.750	9.3688e-01
10.750	21.000	9.8043e-01
10.750	21.250	9.8642e-01
10.750	21.500	9.8998e-01
10.750	21.750	9.9244e-01
10.750	22.000	9.9319e-01
10.750	22.250	9.9336e-01
10.750	22.500	9.9337e-01
10.750	22.750	9.9337e-01
10.750	23.000	9.9338e-01
10.750	23.250	9.9338e-01
10.750	23.500	9.9338e-01
10.750	23.750	9.9338e-01
10.750	24.000	9.9338e-01
11.000	17.000	4.1128e-03
11.000	17.250	3.7341e-03
11.000	17.500	3.5014e-03
11.000	17.750	3.5383e-03
11.000	18.000	3.7704e-03
11.000	18.250	4.1443e-03
11.000	18.500	4.6743e-03
11.000	18.750	5.4224e-03
11.000	19.000	6.4942e-03
11.000	19.250	8.1941e-03
11.000	19.500	1.1115e-02
11.000	19.750	1.6457e-02
11.000	20.000	2.6793e-02
11.000	20.250	4.7873e-02
11.000	20.500	1.8179e-01
11.000	20.750	6.3901e-01
11.000	21.000	9.5627e-01
11.000	21.250	9.8089e-01
11.000	21.500	9.8630e-01
11.000	21.750	9.8968e-01
11.000	22.000	9.9225e-01
11.000	22.250	9.9313e-01
11.000	22.500	9.9335e-01
11.000	22.750	9.9337e-01
11.000	23.000	9.9337e-01
11.000	23.250	9.9338e-01
11.000	23.500	9.9338e-01
11.000	23.750	9.9338e-01
11.000	24.000	9.9338e-01
11.250	17.000	4.1324e-03
11.250	17.250	3.8009e-03
11.250	17.500	3.5647e-03
11.250	17.750	3.5674e-03
11.250	18.000	3.7243e-03
11.250	18.250	3.9381e-03
11.250	18.500	4.2463e-03
11.250	18.750	4.7588e-03
11.250	19.000	5.5409e-03
11.250	19.250	6.6916e-03
11.250	19.500	8.5343e-03
11.250	19.750	1.1712e-02
11.250	20.000	1.7520e-02
11.250	20.250	2.8704e-02
11.250	20.500	5.1127e-02
11.250	20.750	1.8892e-01
11.250	21.000	6.7561e-01
11.250	21.250	9.6045e-01
11.250	21.500	9.8043e-01
11.250	21.750	9.8587e-01
11.250	22.000	9.8928e-01
11.250	22.250	9.9212e-01
11.250	22.500	9.9306e-01
11.250	22.750	9.9334e-01
11.250	23.000	9.9337e-01
11.250	23.250	9.9337e-01
11.250	23.500	9.9338e-01
11.250	23.750	9.9338e-01
11.250	24.000	9.9338e-01
11.500	17.000	3.9956e-03
11.500	17.250	3.7782e-03
11.500	17.500	3.5714e-03
11.500	17.750	3.5593e-03
11.500	18.000	3.6565e-03
11.500	18.250	3.7692e-03
11.500	18.500	3.9459e-03
11.500	18.750	4.2601e-03
11.500	19.000	4.7892e-03
11.500	19.250	5.6074e-03
11.500	19.500	6.8220e-03
11.500	19.750	8.7861e-03
11.500	20.000	1.2170e-02
11.500	20.250	1.8357e-02
11.500	20.500	3.0215e-02
11.500	20.750	5.3521e-02
11.500	21.000	1.8437e-01
11.500	21.250	7.2273e-01
11.500	21.500	9.6101e-01
11.500	21.750	9.7990e-01
11.500	22.000	9.8547e-01
11.500	22.250	9.8883e-01
11.500	22.500	9.9188e-01
11.500	22.750	9.9298e-01
11.500	23.000	9.9333e-01
11.500	23.250	9.9337e-01
11.500	23.500	9.9337e-01
11.500	23.750	9.9338e-01
11.500	24.000	9.9338e-01
11.750	17.000	3.6142e-03
11.750	17.250	3.5856e-03
11.750	17.500	3.4700e-03
11.750	17.750	3.4805e-03
11.750	18.000	3.5673e-03
11.750	18.250	3.6420e-03
11.750	18.500	3.7262e-03
11.750	18.750	3.8915e-03
11.750	19.000	4.2153e-03
11.750	19.250	4.7752e-03
11.750	19.500	5.6211e-03
11.750	19.750	6.8876e-03
11.750	20.000	8.9363e-03
11.750	20.250	1.2491e-02
11.750	20.500	1.8978e-02
11.750	20.750	3.1349e-02
11.750	21.000	5.5494e-02
11.750	21.250	1.7589e-01
11.750	21.500	7.6451e-01
11.750	21.750	9.6331e-01
11.750	22.000	9.7986e-01
11.750	22.250	9.8485e-01
11.750	22.500	9.8852e-01
11.750	22.750	9.9164e-01
11.750	23.000	9.9283e-01
11.750	23.250	9.9332e-01
11.750	23.500	9.9336e-01
11.750	23.750	9.9337e-01
11.750	24.000	9.9338e-01
12.000	17.000	2.9475e-03
12.000	17.250	3.1500e-03
12.000	17.500	3.2001e-03
12.000	17.750	3.3111e-03
12.000	18.000	3.4453e-03
12.000	18.250	3.4872e-03
12.000	18.500	3.4949e-03
12.000	18.750	3.5813e-03
12.000	19.000	3.7781e-03
12.000	19.250	4.1357e-03
12.000	19.500	4.7193e-03
12.000	19.750	5.5886e-03
12.000	20.000	6.8903e-03
12.000	20.250	9.0037e-03
12.000	20.500	1.2665e-02
12.000	20.750	1.9361e-02
12.000	21.000	3.2199e-02
12.000	21.250	5.7558e-02
12.000	21.500	1.6428e-01
12.000	21.750	8.3172e-01
12.000	22.000	9.6489e-01
12.000	22.250	9.7933e-01
12.000	22.500	9.8389e-01
12.000	22.750	9.8835e-01
12.000	23.000	9.9139e-01
12.000	23.250	9.9270e-01
12.000	23.500	9.9329e-01
12.000	23.750	9.9336e-01
12.000	24.000	9.9337e-01
12.250	17.000	2.1255e-03
12.250	17.250	2.4913e-03
12.250	17.500	2.7552e-03
12.250	17.750	3.0277e-03
12.250	18.000	3.1840e-03
12.250	18.250	3.1830e-03
12.250	18.500	3.1899e-03
12.250	18.750	3.2645e-03
12.250	19.000	3.4097e-03
12.250	19.250	3.6542e-03
12.250	19.500	4.0391e-03
12.250	19.750	4.6416e-03
12.250	20.000	5.5198e-03
12.250	20.250	6.8325e-03
12.250	20.500	8.9762e-03
12.250	20.750	1.2693e-02
12.250	21.000	1.9617e-02
12.250	21.250	3.3088e-02
12.250	21.500	5.9132e-02
12.250	21.750	1.7020e-01
12.250	22.000	9.2938e-01
12.250	22.250	9.6619e-01
12.250	22.500	9.7769e-01
12.250	22.750	9.8281e-01
12.250	23.000	9.8810e-01
12.250	23.250	9.9111e-01
12.250	23.500	9.9257e-01
12.250	23.750	9.9327e-01
12.250	24.000	9.9335e-01
12.500	17.000	1.4513e-03
12.500	17.250	1.8695e-03
12.500	17.500	2.2514e-03
12.500	17.750	2.5261e-03
12.500	18.000	2.6489e-03
12.500	18.250	2.7109e-03
12.500	18.500	2.7875e-03
12.500	18.750	2.8997e-03
12.500	19.000	3.0491e-03
12.500	19.250	3.2486e-03
12.500	19.500	3.5240e-03
12.500	19.750	3.9264e-03
12.500	20.000	4.5308e-03
12.500	20.250	5.4075e-03
12.500	20.500	6.7188e-03
12.500	20.750	8.8677e-03
12.500	21.000	1.2666e-02
12.500	21.250	1.9861e-02
12.500	21.500	3.3725e-02
12.500	21.750	6.2312e-02
12.500	22.000	1.9701e-01
12.500	22.250	9.3868e-01
12.500	22.500	9.6703e-01
12.500	22.750	9.7641e-01
12.500	23.000	9.8209e-01
12.500	23.250	9.8821e-01
12.500	23.500	9.9088e-01
12.500	23.750	9.9244e-01
12.500	24.000	9.9324e-01
12.750	17.000	1.0199e-03
12.750	17.250	1.3659e-03
12.750	17.500	1.6304e-03
12.750	17.750	1.8043e-03
12.750	18.000	1.9714e-03
12.750	18.250	2.1361e-03
12.750	18.500	2.2942e-03
12.750	18.750	2.4637e-03
12.750	19.000	2.6527e-03
12.750	19.250	2.8593e-03
12.750	19.500	3.0937e-03
12.750	19.750	3.3894e-03
12.750	20.000	3.7992e-03
12.750	20.250	4.4016e-03
12.750	20.500	5.2593e-03
12.750	20.750	6.5500e-03
12.750	21.000	8.7244e-03
12.750	21.250	1.2624e-02
12.750	21.500	1.9989e-02
12.750	21.750	3.5130e-02
12.750	22.000	6.6992e-02
12.750	22.250	2.7623e-01
12.750	22.500	9.4446e-01
12.750	22.750	9.6633e-01
12.750	23.000	9.7504e-01
12.750	23.250	9.8229e-01
12.750	23.500	9.8806e-01
12.750	23.750	9.9066e-01
12.750	24.000	9.9232e-01
13.000	17.000	2.4815e-01
13.000	17.250	1.2680e-02
13.000	17.500	1.0630e-03
13.000	17.750	1.1931e-03
13.000	18.000	1.3553e-03
13.000	18.250	1.5493e-03
13.000	18.500	1.7545e-03
13.000	18.750	1.9723e-03
13.000	19.000	2.2045e-03
13.000	19.250	2.4427e-03
13.000	19.500	2.6821e-03
13.000	19.750	2.9358e-03
13.000	20.000	3.2381e-03
13.000	20.250	3.6482e-03
13.000	20.500	4.2377e-03
13.000	20.750	5.0754e-03
13.000	21.000	6.3628e-03
13.000	21.250	8.5545e-03
13.000	21.500	1.2549e-02
13.000	21.750	2.0450e-02
13.000	22.000	3.7333e-02
13.000	22.250	7.3273e-02
13.000	22.500	4.3270e-01
13.000	22.750	9.4823e-01
13.000	23.000	9.6537e-01
13.000	23.250	9.7479e-01
13.000	23.500	9.8232e-01
13.000	23.750	9.8778e-01
13.000	24.000	9.9057e-01
13.250	17.000	2.6200e-01
13.250	17.250	1.3543e-01
13.250	17.500	6.9712e-04
13.250	17.750	7.7745e-04
13.250	18.000	8.8848e-04
13.250	18.250	1.0492e-03
13.250	18.500	1.2455e-03
13.250	18.750	1.4719e-03
13.250	19.000	1.7233e-03
13.250	19.250	1.9906e-03
13.250	19.500	2.2550e-03
13.250	19.750	2.5152e-03
13.250	20.000	2.7797e-03
13.250	20.250	3.0848e-03
13.250	20.500	3.4807e-03
13.250	20.750	4.0454e-03
13.250	21.000	4.8591e-03
13.250	21.250	6.1407e-03
13.250	21.500	8.3264e-03
13.250	21.750	1.2445e-02
13.250	22.000	2.1138e-02
13.250	22.250	4.0325e-02
13.250	22.500	8.0818e-02
13.250	22.750	6.1125e-01
13.250	23.000	9.4983e-01
13.250	23.250	9.6588e-01
13.250	23.500	9.7518e-01
13.250	23.750	9.8226e-01
13.250	24.000	9.8757e-01
13.500	17.000	2.8844e-01
13.500	17.250	1.3437e-01
13.500	17.500	6.4872e-04
13.500	17.750	5.0741e-04
13.500	18.000	5.7646e-04
13.500	18.250	6.8609e-04
13.500	18.500	8.3613e-04
13.500	18.750	1.0269e-03
13.500	19.000	1.2584e-03
13.500	19.250	1.5205e-03
13.500	19.500	1.7971e-03
13.500	19.750	2.0695e-03
13.500	20.000	2.3311e-03
13.500	20.250	2.5967e-03
13.500	20.500	2.8929e-03
13.500	20.750	3.2784e-03
13.500	21.000	3.8136e-03
13.500	21.250	4.6050e-03
13.500	21.500	5.8469e-03
13.500	21.750	8.0193e-03
13.500	22.000	1.2393e-02
13.500	22.250	2.1973e-02
13.500	22.500	4.3956e-02
13.500	22.750	8.9779e-02
13.500	23.000	7.2165e-01
13.500	23.250	9.5106e-01
13.500	23.500	9.6663e-01
13.500	23.750	9.7433e-01
13.500	24.000	9.8186e-01
13.750	17.000	3.4223e-01
13.750	17.250	1.7608e-01
13.750	17.500	7.3085e-03
13.750	17.750	3.4107e-04
13.750	18.000	3.8280e-04
13.750	18.250	4.4996e-04
13.750	18.500	5.4988e-04
13.750	18.750	6.8650e-04
13.750	19.000	8.6584e-04
13.750	19.250	1.0903e-03
13.750	19.500	1.3468e-03
13.750	19.750	1.6181e-03
13.750	20.000	1.8858e-03
13.750	20.250	2.1423e-03
13.750	20.500	2.3998e-03
13.750	20.750	2.6861e-03
13.750	21.000	3.0549e-03
13.750	21.250	3.5678e-03
13.750	21.500	4.3272e-03
13.750	21.750	5.5328e-03
13.750	22.000	7.7626e-03
13.750	22.250	1.2551e-02
13.750	22.500	2.3739e-02
13.750	22.750	4.9054e-02
13.750	23.000	9.8351e-02
13.750	23.250	8.0914e-01
13.750	23.500	9.5151e-01
13.750	23.750	9.6502e-01
13.750	24.000	9.7248e-01
14.000	17.000	4.1242e-01
14.000	17.250	2.3579e-01
14.000	17.500	2.6560e-02
14.000	17.750	2.5597e-04
14.000	18.000	2.6527e-04
14.000	18.250	3.0494e-04
14.000	18.500	3.6675e-04
14.000	18.750	4.5490e-04
14.000	19.000	5.7728e-04
14.000	19.250	7.4189e-04
14.000	19.500	9.5004e-04
14.000	19.750	1.1923e-03
14.000	20.000	1.4500e-03
14.000	20.250	1.7059e-03
14.000	20.500	1.9508e-03
14.000	20.750	2.1965e-03
14.000	21.000	2.4717e-03
14.000	21.250	2.8258e-03
14.000	21.500	3.3268e-03
14.000	21.750	4.0473e-03
14.000	22.000	5.2629e-03
14.000	22.250	7.7204e-03
14.000	22.500	1.3351e-02
14.000	22.750	2.6806e-02
14.000	23.000	5.5071e-02
14.000	23.250	1.0740e-01
14.000	23.500	8.4819e-01
14.000	23.750	9.4904e-01
14.000	24.000	9.5930e-01
