InwT 8329.68A  relative to Inci 1215.00A scaled to 1215A.
Hden   Phi(H)  Eq_Width (A)
 7.000	17.000	5.6447e-02
 7.000	17.250	6.5491e-02
 7.000	17.500	7.1933e-02
 7.000	17.750	7.7109e-02
 7.000	18.000	6.9672e-02
 7.000	18.250	6.4272e-02
 7.000	18.500	6.0658e-02
 7.000	18.750	5.8998e-02
 7.000	19.000	5.8370e-02
 7.000	19.250	5.8006e-02
 7.000	19.500	5.7860e-02
 7.000	19.750	5.7804e-02
 7.000	20.000	5.7780e-02
 7.000	20.250	5.7769e-02
 7.000	20.500	5.7764e-02
 7.000	20.750	5.7761e-02
 7.000	21.000	5.7759e-02
 7.000	21.250	5.7759e-02
 7.000	21.500	5.7758e-02
 7.000	21.750	5.7758e-02
 7.000	22.000	5.7758e-02
 7.000	22.250	5.7758e-02
 7.000	22.500	5.7758e-02
 7.000	22.750	5.7758e-02
 7.000	23.000	5.7759e-02
 7.000	23.250	5.7758e-02
 7.000	23.500	5.7758e-02
 7.000	23.750	5.7758e-02
 7.000	24.000	5.7759e-02
 7.250	17.000	4.9254e-02
 7.250	17.250	5.8138e-02
 7.250	17.500	6.7653e-02
 7.250	17.750	7.3184e-02
 7.250	18.000	7.7099e-02
 7.250	18.250	6.9679e-02
 7.250	18.500	6.4266e-02
 7.250	18.750	6.0658e-02
 7.250	19.000	5.8999e-02
 7.250	19.250	5.8370e-02
 7.250	19.500	5.8006e-02
 7.250	19.750	5.7860e-02
 7.250	20.000	5.7803e-02
 7.250	20.250	5.7780e-02
 7.250	20.500	5.7769e-02
 7.250	20.750	5.7764e-02
 7.250	21.000	5.7761e-02
 7.250	21.250	5.7759e-02
 7.250	21.500	5.7759e-02
 7.250	21.750	5.7758e-02
 7.250	22.000	5.7758e-02
 7.250	22.250	5.7758e-02
 7.250	22.500	5.7758e-02
 7.250	22.750	5.7758e-02
 7.250	23.000	5.7758e-02
 7.250	23.250	5.7758e-02
 7.250	23.500	5.7758e-02
 7.250	23.750	5.7758e-02
 7.250	24.000	5.7758e-02
 7.500	17.000	4.3897e-02
 7.500	17.250	5.0925e-02
 7.500	17.500	6.0470e-02
 7.500	17.750	7.0580e-02
 7.500	18.000	7.4525e-02
 7.500	18.250	7.7093e-02
 7.500	18.500	6.9688e-02
 7.500	18.750	6.4260e-02
 7.500	19.000	6.0658e-02
 7.500	19.250	5.8998e-02
 7.500	19.500	5.8370e-02
 7.500	19.750	5.8006e-02
 7.500	20.000	5.7860e-02
 7.500	20.250	5.7803e-02
 7.500	20.500	5.7780e-02
 7.500	20.750	5.7769e-02
 7.500	21.000	5.7764e-02
 7.500	21.250	5.7761e-02
 7.500	21.500	5.7759e-02
 7.500	21.750	5.7759e-02
 7.500	22.000	5.7758e-02
 7.500	22.250	5.7758e-02
 7.500	22.500	5.7758e-02
 7.500	22.750	5.7758e-02
 7.500	23.000	5.7758e-02
 7.500	23.250	5.7758e-02
 7.500	23.500	5.7758e-02
 7.500	23.750	5.7758e-02
 7.500	24.000	5.7758e-02
 7.750	17.000	4.0361e-02
 7.750	17.250	4.5485e-02
 7.750	17.500	5.3442e-02
 7.750	17.750	6.4149e-02
 7.750	18.000	7.4382e-02
 7.750	18.250	7.6127e-02
 7.750	18.500	7.7086e-02
 7.750	18.750	6.9699e-02
 7.750	19.000	6.4254e-02
 7.750	19.250	6.0658e-02
 7.750	19.500	5.8999e-02
 7.750	19.750	5.8370e-02
 7.750	20.000	5.8005e-02
 7.750	20.250	5.7861e-02
 7.750	20.500	5.7804e-02
 7.750	20.750	5.7780e-02
 7.750	21.000	5.7769e-02
 7.750	21.250	5.7764e-02
 7.750	21.500	5.7761e-02
 7.750	21.750	5.7761e-02
 7.750	22.000	5.7759e-02
 7.750	22.250	5.7758e-02
 7.750	22.500	5.7758e-02
 7.750	22.750	5.7758e-02
 7.750	23.000	5.7758e-02
 7.750	23.250	5.7758e-02
 7.750	23.500	5.7758e-02
 7.750	23.750	5.7758e-02
 7.750	24.000	5.7757e-02
 8.000	17.000	3.8140e-02
 8.000	17.250	4.1458e-02
 8.000	17.500	4.7576e-02
 8.000	17.750	5.7311e-02
 8.000	18.000	6.9762e-02
 8.000	18.250	7.9248e-02
 8.000	18.500	7.7963e-02
 8.000	18.750	7.7070e-02
 8.000	19.000	6.9695e-02
 8.000	19.250	6.4245e-02
 8.000	19.500	6.0654e-02
 8.000	19.750	5.8999e-02
 8.000	20.000	5.8370e-02
 8.000	20.250	5.8006e-02
 8.000	20.500	5.7861e-02
 8.000	20.750	5.7804e-02
 8.000	21.000	5.7780e-02
 8.000	21.250	5.7769e-02
 8.000	21.500	5.7764e-02
 8.000	21.750	5.7761e-02
 8.000	22.000	5.7760e-02
 8.000	22.250	5.7759e-02
 8.000	22.500	5.7758e-02
 8.000	22.750	5.7758e-02
 8.000	23.000	5.7758e-02
 8.000	23.250	5.7758e-02
 8.000	23.500	5.7758e-02
 8.000	23.750	5.7758e-02
 8.000	24.000	5.7758e-02
 8.250	17.000	3.7575e-02
 8.250	17.250	3.9480e-02
 8.250	17.500	4.3732e-02
 8.250	17.750	5.1826e-02
 8.250	18.000	6.4697e-02
 8.250	18.250	7.9466e-02
 8.250	18.500	8.4915e-02
 8.250	18.750	8.0809e-02
 8.250	19.000	7.7070e-02
 8.250	19.250	6.9711e-02
 8.250	19.500	6.4235e-02
 8.250	19.750	6.0653e-02
 8.250	20.000	5.8998e-02
 8.250	20.250	5.8370e-02
 8.250	20.500	5.8006e-02
 8.250	20.750	5.7860e-02
 8.250	21.000	5.7803e-02
 8.250	21.250	5.7780e-02
 8.250	21.500	5.7769e-02
 8.250	21.750	5.7763e-02
 8.250	22.000	5.7761e-02
 8.250	22.250	5.7759e-02
 8.250	22.500	5.7759e-02
 8.250	22.750	5.7758e-02
 8.250	23.000	5.7758e-02
 8.250	23.250	5.7758e-02
 8.250	23.500	5.7758e-02
 8.250	23.750	5.7758e-02
 8.250	24.000	5.7758e-02
 8.500	17.000	3.7942e-02
 8.500	17.250	3.8909e-02
 8.500	17.500	4.1669e-02
 8.500	17.750	4.7913e-02
 8.500	18.000	5.9868e-02
 8.500	18.250	7.7315e-02
 8.500	18.500	9.1968e-02
 8.500	18.750	9.1607e-02
 8.500	19.000	8.3155e-02
 8.500	19.250	7.7068e-02
 8.500	19.500	6.9732e-02
 8.500	19.750	6.4223e-02
 8.500	20.000	6.0650e-02
 8.500	20.250	5.8998e-02
 8.500	20.500	5.8370e-02
 8.500	20.750	5.8006e-02
 8.500	21.000	5.7860e-02
 8.500	21.250	5.7803e-02
 8.500	21.500	5.7780e-02
 8.500	21.750	5.7769e-02
 8.500	22.000	5.7763e-02
 8.500	22.250	5.7761e-02
 8.500	22.500	5.7759e-02
 8.500	22.750	5.7758e-02
 8.500	23.000	5.7758e-02
 8.500	23.250	5.7758e-02
 8.500	23.500	5.7758e-02
 8.500	23.750	5.7758e-02
 8.500	24.000	5.7758e-02
 8.750	17.000	3.8943e-02
 8.750	17.250	3.9326e-02
 8.750	17.500	4.1141e-02
 8.750	17.750	4.5767e-02
 8.750	18.000	5.6065e-02
 8.750	18.250	7.3956e-02
 8.750	18.500	9.3152e-02
 8.750	18.750	1.0427e-01
 8.750	19.000	9.5684e-02
 8.750	19.250	8.5841e-02
 8.750	19.500	7.7060e-02
 8.750	19.750	6.9757e-02
 8.750	20.000	6.4209e-02
 8.750	20.250	6.0648e-02
 8.750	20.500	5.8998e-02
 8.750	20.750	5.8370e-02
 8.750	21.000	5.8006e-02
 8.750	21.250	5.7860e-02
 8.750	21.500	5.7803e-02
 8.750	21.750	5.7780e-02
 8.750	22.000	5.7769e-02
 8.750	22.250	5.7764e-02
 8.750	22.500	5.7761e-02
 8.750	22.750	5.7760e-02
 8.750	23.000	5.7759e-02
 8.750	23.250	5.7758e-02
 8.750	23.500	5.7758e-02
 8.750	23.750	5.7758e-02
 8.750	24.000	5.7758e-02
 9.000	17.000	4.0475e-02
 9.000	17.250	4.0433e-02
 9.000	17.500	4.1731e-02
 9.000	17.750	4.5481e-02
 9.000	18.000	5.4229e-02
 9.000	18.250	7.0811e-02
 9.000	18.500	9.2231e-02
 9.000	18.750	1.1055e-01
 9.000	19.000	1.1495e-01
 9.000	19.250	1.0099e-01
 9.000	19.500	8.8263e-02
 9.000	19.750	7.7039e-02
 9.000	20.000	6.9786e-02
 9.000	20.250	6.4194e-02
 9.000	20.500	6.0644e-02
 9.000	20.750	5.8997e-02
 9.000	21.000	5.8370e-02
 9.000	21.250	5.8006e-02
 9.000	21.500	5.7861e-02
 9.000	21.750	5.7803e-02
 9.000	22.000	5.7780e-02
 9.000	22.250	5.7769e-02
 9.000	22.500	5.7764e-02
 9.000	22.750	5.7761e-02
 9.000	23.000	5.7759e-02
 9.000	23.250	5.7759e-02
 9.000	23.500	5.7758e-02
 9.000	23.750	5.7758e-02
 9.000	24.000	5.7758e-02
 9.250	17.000	4.2518e-02
 9.250	17.250	4.2124e-02
 9.250	17.500	4.3163e-02
 9.250	17.750	4.6614e-02
 9.250	18.000	5.4895e-02
 9.250	18.250	7.0221e-02
 9.250	18.500	9.0154e-02
 9.250	18.750	1.1164e-01
 9.250	19.000	1.2516e-01
 9.250	19.250	1.2565e-01
 9.250	19.500	1.0543e-01
 9.250	19.750	9.0854e-02
 9.250	20.000	7.7011e-02
 9.250	20.250	6.9820e-02
 9.250	20.500	6.4179e-02
 9.250	20.750	6.0643e-02
 9.250	21.000	5.8997e-02
 9.250	21.250	5.8370e-02
 9.250	21.500	5.8004e-02
 9.250	21.750	5.7842e-02
 9.250	22.000	5.7731e-02
 9.250	22.250	5.7760e-02
 9.250	22.500	5.7769e-02
 9.250	22.750	5.7763e-02
 9.250	23.000	5.7761e-02
 9.250	23.250	5.7759e-02
 9.250	23.500	5.7759e-02
 9.250	23.750	5.7758e-02
 9.250	24.000	5.7758e-02
 9.500	17.000	4.5218e-02
 9.500	17.250	4.4449e-02
 9.500	17.500	4.5338e-02
 9.500	17.750	4.8930e-02
 9.500	18.000	5.7643e-02
 9.500	18.250	7.2876e-02
 9.500	18.500	9.1516e-02
 9.500	18.750	1.1064e-01
 9.500	19.000	1.2862e-01
 9.500	19.250	1.3990e-01
 9.500	19.500	1.3165e-01
 9.500	19.750	1.0917e-01
 9.500	20.000	9.1568e-02
 9.500	20.250	7.6977e-02
 9.500	20.500	6.9862e-02
 9.500	20.750	6.4163e-02
 9.500	21.000	6.0635e-02
 9.500	21.250	5.8987e-02
 9.500	21.500	5.8322e-02
 9.500	21.750	5.7919e-02
 9.500	22.000	5.7761e-02
 9.500	22.250	5.7682e-02
 9.500	22.500	5.7639e-02
 9.500	22.750	5.7617e-02
 9.500	23.000	5.7606e-02
 9.500	23.250	5.7603e-02
 9.500	23.500	5.7672e-02
 9.500	23.750	5.7671e-02
 9.500	24.000	5.7670e-02
 9.750	17.000	4.8714e-02
 9.750	17.250	4.7499e-02
 9.750	17.500	4.8248e-02
 9.750	17.750	5.2285e-02
 9.750	18.000	6.2107e-02
 9.750	18.250	7.8229e-02
 9.750	18.500	9.6233e-02
 9.750	18.750	1.1286e-01
 9.750	19.000	1.2864e-01
 9.750	19.250	1.4387e-01
 9.750	19.500	1.5519e-01
 9.750	19.750	1.3664e-01
 9.750	20.000	1.1309e-01
 9.750	20.250	9.1411e-02
 9.750	20.500	7.6945e-02
 9.750	20.750	6.9922e-02
 9.750	21.000	6.4146e-02
 9.750	21.250	6.0632e-02
 9.750	21.500	5.8993e-02
 9.750	21.750	5.8354e-02
 9.750	22.000	5.7921e-02
 9.750	22.250	5.7769e-02
 9.750	22.500	5.7699e-02
 9.750	22.750	5.7660e-02
 9.750	23.000	5.7638e-02
 9.750	23.250	5.7625e-02
 9.750	23.500	5.7619e-02
 9.750	23.750	5.7616e-02
 9.750	24.000	5.7613e-02
10.000	17.000	5.3318e-02
10.000	17.250	5.1492e-02
10.000	17.500	5.2116e-02
10.000	17.750	5.6849e-02
10.000	18.000	6.8214e-02
10.000	18.250	8.5066e-02
10.000	18.500	1.0263e-01
10.000	18.750	1.1730e-01
10.000	19.000	1.3050e-01
10.000	19.250	1.4380e-01
10.000	19.500	1.5911e-01
10.000	19.750	1.6135e-01
10.000	20.000	1.4106e-01
10.000	20.250	1.1647e-01
10.000	20.500	9.1258e-02
10.000	20.750	7.6960e-02
10.000	21.000	7.0000e-02
10.000	21.250	6.4125e-02
10.000	21.500	6.0628e-02
10.000	21.750	5.8995e-02
10.000	22.000	5.8364e-02
10.000	22.250	5.7936e-02
10.000	22.500	5.7774e-02
10.000	22.750	5.7709e-02
10.000	23.000	5.7676e-02
10.000	23.250	5.7657e-02
10.000	23.500	5.7646e-02
10.000	23.750	5.7641e-02
10.000	24.000	5.7637e-02
10.250	17.000	5.9447e-02
10.250	17.250	5.6687e-02
10.250	17.500	5.7275e-02
10.250	17.750	6.2972e-02
10.250	18.000	7.5817e-02
10.250	18.250	9.3466e-02
10.250	18.500	1.1035e-01
10.250	18.750	1.2292e-01
10.250	19.000	1.3357e-01
10.250	19.250	1.4490e-01
10.250	19.500	1.5822e-01
10.250	19.750	1.7274e-01
10.250	20.000	1.6667e-01
10.250	20.250	1.4615e-01
10.250	20.500	1.1763e-01
10.250	20.750	9.1140e-02
10.250	21.000	7.7030e-02
10.250	21.250	7.0099e-02
10.250	21.500	6.4106e-02
10.250	21.750	6.0622e-02
10.250	22.000	5.8994e-02
10.250	22.250	5.8367e-02
10.250	22.500	5.7977e-02
10.250	22.750	5.7776e-02
10.250	23.000	5.7715e-02
10.250	23.250	5.7686e-02
10.250	23.500	5.7670e-02
10.250	23.750	5.7660e-02
10.250	24.000	5.7657e-02
10.500	17.000	6.7818e-02
10.500	17.250	6.3815e-02
10.500	17.500	6.4255e-02
10.500	17.750	7.1119e-02
10.500	18.000	8.5146e-02
10.500	18.250	1.0278e-01
10.500	18.500	1.1829e-01
10.500	18.750	1.2893e-01
10.500	19.000	1.3800e-01
10.500	19.250	1.4678e-01
10.500	19.500	1.5692e-01
10.500	19.750	1.7012e-01
10.500	20.000	1.8192e-01
10.500	20.250	1.7365e-01
10.500	20.500	1.5234e-01
10.500	20.750	1.1780e-01
10.500	21.000	9.1053e-02
10.500	21.250	7.7244e-02
10.500	21.500	7.0203e-02
10.500	21.750	6.4075e-02
10.500	22.000	6.0614e-02
10.500	22.250	5.8992e-02
10.500	22.500	5.8367e-02
10.500	22.750	5.7996e-02
10.500	23.000	5.7789e-02
10.500	23.250	5.7718e-02
10.500	23.500	5.7691e-02
10.500	23.750	5.7678e-02
10.500	24.000	5.7669e-02
10.750	17.000	7.9062e-02
10.750	17.250	7.3304e-02
10.750	17.500	7.3602e-02
10.750	17.750	8.1376e-02
10.750	18.000	9.6034e-02
10.750	18.250	1.1346e-01
10.750	18.500	1.2699e-01
10.750	18.750	1.3638e-01
10.750	19.000	1.4358e-01
10.750	19.250	1.5112e-01
10.750	19.500	1.5855e-01
10.750	19.750	1.6813e-01
10.750	20.000	1.8087e-01
10.750	20.250	1.9149e-01
10.750	20.500	1.8186e-01
10.750	20.750	1.5808e-01
10.750	21.000	1.1735e-01
10.750	21.250	9.0995e-02
10.750	21.500	7.7790e-02
10.750	21.750	7.0218e-02
10.750	22.000	6.4032e-02
10.750	22.250	6.0604e-02
10.750	22.500	5.8989e-02
10.750	22.750	5.8366e-02
10.750	23.000	5.8001e-02
10.750	23.250	5.7830e-02
10.750	23.500	5.7723e-02
10.750	23.750	5.7694e-02
10.750	24.000	5.7682e-02
11.000	17.000	9.3488e-02
11.000	17.250	8.5736e-02
11.000	17.500	8.5499e-02
11.000	17.750	9.3630e-02
11.000	18.000	1.0825e-01
11.000	18.250	1.2463e-01
11.000	18.500	1.3588e-01
11.000	18.750	1.4411e-01
11.000	19.000	1.5032e-01
11.000	19.250	1.5615e-01
11.000	19.500	1.6185e-01
11.000	19.750	1.6866e-01
11.000	20.000	1.7812e-01
11.000	20.250	1.9125e-01
11.000	20.500	2.0181e-01
11.000	20.750	1.9086e-01
11.000	21.000	1.6249e-01
11.000	21.250	1.1693e-01
11.000	21.500	9.1333e-02
11.000	21.750	7.8707e-02
11.000	22.000	7.0104e-02
11.000	22.250	6.3971e-02
11.000	22.500	6.0589e-02
11.000	22.750	5.8984e-02
11.000	23.000	5.8363e-02
11.000	23.250	5.8003e-02
11.000	23.500	5.7850e-02
11.000	23.750	5.7751e-02
11.000	24.000	5.7701e-02
11.250	17.000	1.1230e-01
11.250	17.250	1.0124e-01
11.250	17.500	9.9986e-02
11.250	17.750	1.0784e-01
11.250	18.000	1.2200e-01
11.250	18.250	1.3690e-01
11.250	18.500	1.4615e-01
11.250	18.750	1.5334e-01
11.250	19.000	1.5842e-01
11.250	19.250	1.6243e-01
11.250	19.500	1.6637e-01
11.250	19.750	1.7116e-01
11.250	20.000	1.7794e-01
11.250	20.250	1.8787e-01
11.250	20.500	2.0186e-01
11.250	20.750	2.1295e-01
11.250	21.000	1.9976e-01
11.250	21.250	1.6257e-01
11.250	21.500	1.1698e-01
11.250	21.750	9.1945e-02
11.250	22.000	7.9671e-02
11.250	22.250	6.9873e-02
11.250	22.500	6.3886e-02
11.250	22.750	6.0565e-02
11.250	23.000	5.8975e-02
11.250	23.250	5.8358e-02
11.250	23.500	5.8002e-02
11.250	23.750	5.7856e-02
11.250	24.000	5.7786e-02
11.500	17.000	1.3752e-01
11.500	17.250	1.2138e-01
11.500	17.500	1.1727e-01
11.500	17.750	1.2403e-01
11.500	18.000	1.3739e-01
11.500	18.250	1.5051e-01
11.500	18.500	1.5788e-01
11.500	18.750	1.6308e-01
11.500	19.000	1.6667e-01
11.500	19.250	1.6933e-01
11.500	19.500	1.7202e-01
11.500	19.750	1.7522e-01
11.500	20.000	1.7974e-01
11.500	20.250	1.8689e-01
11.500	20.500	1.9783e-01
11.500	20.750	2.1276e-01
11.500	21.000	2.2430e-01
11.500	21.250	2.0762e-01
11.500	21.500	1.6195e-01
11.500	21.750	1.1693e-01
11.500	22.000	9.2847e-02
11.500	22.250	8.0192e-02
11.500	22.500	6.9575e-02
11.500	22.750	6.3764e-02
11.500	23.000	6.0533e-02
11.500	23.250	5.8961e-02
11.500	23.500	5.8350e-02
11.500	23.750	5.8000e-02
11.500	24.000	5.7857e-02
11.750	17.000	1.7068e-01
11.750	17.250	1.4828e-01
11.750	17.500	1.3904e-01
11.750	17.750	1.4275e-01
11.750	18.000	1.5442e-01
11.750	18.250	1.6534e-01
11.750	18.500	1.7096e-01
11.750	18.750	1.7492e-01
11.750	19.000	1.7722e-01
11.750	19.250	1.7841e-01
11.750	19.500	1.7912e-01
11.750	19.750	1.8077e-01
11.750	20.000	1.8354e-01
11.750	20.250	1.8809e-01
11.750	20.500	1.9580e-01
11.750	20.750	2.0814e-01
11.750	21.000	2.2324e-01
11.750	21.250	2.3459e-01
11.750	21.500	2.1155e-01
11.750	21.750	1.6007e-01
11.750	22.000	1.1682e-01
11.750	22.250	9.3768e-02
11.750	22.500	7.9764e-02
11.750	22.750	6.9163e-02
11.750	23.000	6.3586e-02
11.750	23.250	6.0483e-02
11.750	23.500	5.8939e-02
11.750	23.750	5.8338e-02
11.750	24.000	5.7997e-02
12.000	17.000	1.8127e-01
12.000	17.250	1.8391e-01
12.000	17.500	1.6753e-01
12.000	17.750	1.6543e-01
12.000	18.000	1.7317e-01
12.000	18.250	1.8154e-01
12.000	18.500	1.8642e-01
12.000	18.750	1.8880e-01
12.000	19.000	1.8966e-01
12.000	19.250	1.8924e-01
12.000	19.500	1.8816e-01
12.000	19.750	1.8800e-01
12.000	20.000	1.8889e-01
12.000	20.250	1.9134e-01
12.000	20.500	1.9620e-01
12.000	20.750	2.0530e-01
12.000	21.000	2.1844e-01
12.000	21.250	2.3317e-01
12.000	21.500	2.3828e-01
12.000	21.750	2.1328e-01
12.000	22.000	1.5735e-01
12.000	22.250	1.1662e-01
12.000	22.500	9.4203e-02
12.000	22.750	7.8846e-02
12.000	23.000	6.8626e-02
12.000	23.250	6.3319e-02
12.000	23.500	6.0409e-02
12.000	23.750	5.8906e-02
12.000	24.000	5.8320e-02
12.250	17.000	1.5628e-01
12.250	17.250	2.0411e-01
12.250	17.500	2.0539e-01
12.250	17.750	1.9464e-01
12.250	18.000	1.9554e-01
12.250	18.250	2.0140e-01
12.250	18.500	2.0404e-01
12.250	18.750	2.0463e-01
12.250	19.000	2.0399e-01
12.250	19.250	2.0194e-01
12.250	19.500	1.9929e-01
12.250	19.750	1.9707e-01
12.250	20.000	1.9572e-01
12.250	20.250	1.9607e-01
12.250	20.500	1.9876e-01
12.250	20.750	2.0492e-01
12.250	21.000	2.1545e-01
12.250	21.250	2.2921e-01
12.250	21.500	2.3707e-01
12.250	21.750	2.4279e-01
12.250	22.000	2.1061e-01
12.250	22.250	1.5391e-01
12.250	22.500	1.1679e-01
12.250	22.750	9.3746e-02
12.250	23.000	7.7503e-02
12.250	23.250	6.7883e-02
12.250	23.500	6.2918e-02
12.250	23.750	6.0293e-02
12.250	24.000	5.8856e-02
12.500	17.000	1.3847e-01
12.500	17.250	1.7479e-01
12.500	17.500	2.2684e-01
12.500	17.750	2.3186e-01
12.500	18.000	2.2489e-01
12.500	18.250	2.2387e-01
12.500	18.500	2.2417e-01
12.500	18.750	2.2400e-01
12.500	19.000	2.2150e-01
12.500	19.250	2.1685e-01
12.500	19.500	2.1207e-01
12.500	19.750	2.0769e-01
12.500	20.000	2.0426e-01
12.500	20.250	2.0233e-01
12.500	20.500	2.0283e-01
12.500	20.750	2.0670e-01
12.500	21.000	2.1463e-01
12.500	21.250	2.2669e-01
12.500	21.500	2.3463e-01
12.500	21.750	2.4354e-01
12.500	22.000	2.4210e-01
12.500	22.250	2.0201e-01
12.500	22.500	1.5149e-01
12.500	22.750	1.1523e-01
12.500	23.000	9.1553e-02
12.500	23.250	7.5698e-02
12.500	23.500	6.6848e-02
12.500	23.750	6.2322e-02
12.500	24.000	6.0109e-02
12.750	17.000	1.2418e-01
12.750	17.250	1.5068e-01
12.750	17.500	1.8952e-01
12.750	17.750	2.4247e-01
12.750	18.000	2.5578e-01
12.750	18.250	2.4954e-01
12.750	18.500	2.4757e-01
12.750	18.750	2.4448e-01
12.750	19.000	2.4013e-01
12.750	19.250	2.3392e-01
12.750	19.500	2.2700e-01
12.750	19.750	2.2007e-01
12.750	20.000	2.1438e-01
12.750	20.250	2.1055e-01
12.750	20.500	2.0876e-01
12.750	20.750	2.1014e-01
12.750	21.000	2.1628e-01
12.750	21.250	2.2628e-01
12.750	21.500	2.3410e-01
12.750	21.750	2.4405e-01
12.750	22.000	2.4607e-01
12.750	22.250	2.3470e-01
12.750	22.500	1.9112e-01
12.750	22.750	1.4455e-01
12.750	23.000	1.1055e-01
12.750	23.250	8.7754e-02
12.750	23.500	7.3304e-02
12.750	23.750	6.5385e-02
12.750	24.000	6.1424e-02
13.000	17.000	6.9708e-02
13.000	17.250	8.9822e-02
13.000	17.500	1.3047e-01
13.000	17.750	1.8526e-01
13.000	18.000	2.3404e-01
13.000	18.250	2.5315e-01
13.000	18.500	2.6340e-01
13.000	18.750	2.6655e-01
13.000	19.000	2.5986e-01
13.000	19.250	2.5285e-01
13.000	19.500	2.4388e-01
13.000	19.750	2.3474e-01
13.000	20.000	2.2643e-01
13.000	20.250	2.2039e-01
13.000	20.500	2.1684e-01
13.000	20.750	2.1613e-01
13.000	21.000	2.1951e-01
13.000	21.250	2.2777e-01
13.000	21.500	2.3550e-01
13.000	21.750	2.4613e-01
13.000	22.000	2.4958e-01
13.000	22.250	2.4021e-01
13.000	22.500	2.1773e-01
13.000	22.750	1.7409e-01
13.000	23.000	1.3227e-01
13.000	23.250	1.0245e-01
13.000	23.500	8.2686e-02
13.000	23.750	7.0096e-02
13.000	24.000	6.3316e-02
13.250	17.000	7.0014e-02
13.250	17.250	8.0138e-02
13.250	17.500	1.0276e-01
13.250	17.750	1.3968e-01
13.250	18.000	1.9485e-01
13.250	18.250	2.4842e-01
13.250	18.500	2.7430e-01
13.250	18.750	2.7935e-01
13.250	19.000	2.8273e-01
13.250	19.250	2.7054e-01
13.250	19.500	2.6211e-01
13.250	19.750	2.5105e-01
13.250	20.000	2.4029e-01
13.250	20.250	2.3201e-01
13.250	20.500	2.2603e-01
13.250	20.750	2.2351e-01
13.250	21.000	2.2464e-01
13.250	21.250	2.3080e-01
13.250	21.500	2.3610e-01
13.250	21.750	2.4717e-01
13.250	22.000	2.5189e-01
13.250	22.250	2.4228e-01
13.250	22.500	2.1949e-01
13.250	22.750	1.9166e-01
13.250	23.000	1.5010e-01
13.250	23.250	1.1569e-01
13.250	23.500	9.1980e-02
13.250	23.750	7.6223e-02
13.250	24.000	6.5883e-02
13.500	17.000	7.0623e-02
13.500	17.250	8.1560e-02
13.500	17.500	1.0033e-01
13.500	17.750	1.2628e-01
13.500	18.000	1.7216e-01
13.500	18.250	2.2313e-01
13.500	18.500	2.7135e-01
13.500	18.750	2.9637e-01
13.500	19.000	2.9972e-01
13.500	19.250	2.9478e-01
13.500	19.500	2.8209e-01
13.500	19.750	2.6875e-01
13.500	20.000	2.5612e-01
13.500	20.250	2.4612e-01
13.500	20.500	2.3740e-01
13.500	20.750	2.3206e-01
13.500	21.000	2.2977e-01
13.500	21.250	2.3407e-01
13.500	21.500	2.3689e-01
13.500	21.750	2.4629e-01
13.500	22.000	2.5135e-01
13.500	22.250	2.4009e-01
13.500	22.500	2.1737e-01
13.500	22.750	1.8736e-01
13.500	23.000	1.5644e-01
13.500	23.250	1.2427e-01
13.500	23.500	9.8196e-02
13.500	23.750	8.0642e-02
13.500	24.000	6.8434e-02
13.750	17.000	7.0929e-02
13.750	17.250	8.1454e-02
13.750	17.500	9.9489e-02
13.750	17.750	1.2083e-01
13.750	18.000	1.5872e-01
13.750	18.250	2.0473e-01
13.750	18.500	2.4777e-01
13.750	18.750	2.8787e-01
13.750	19.000	3.1933e-01
13.750	19.250	3.1781e-01
13.750	19.500	3.0063e-01
13.750	19.750	2.8932e-01
13.750	20.000	2.7509e-01
13.750	20.250	2.6235e-01
13.750	20.500	2.5175e-01
13.750	20.750	2.4379e-01
13.750	21.000	2.3930e-01
13.750	21.250	2.3889e-01
13.750	21.500	2.3998e-01
13.750	21.750	2.4747e-01
13.750	22.000	2.4991e-01
13.750	22.250	2.3834e-01
13.750	22.500	2.1349e-01
13.750	22.750	1.8230e-01
13.750	23.000	1.5180e-01
13.750	23.250	1.2425e-01
13.750	23.500	9.9510e-02
13.750	23.750	8.1067e-02
13.750	24.000	6.8189e-02
14.000	17.000	7.1700e-02
14.000	17.250	8.1819e-02
14.000	17.500	1.0081e-01
14.000	17.750	1.2101e-01
14.000	18.000	1.4948e-01
14.000	18.250	1.9106e-01
14.000	18.500	2.3196e-01
14.000	18.750	2.6900e-01
14.000	19.000	3.0487e-01
14.000	19.250	3.3625e-01
14.000	19.500	3.2872e-01
14.000	19.750	3.1346e-01
14.000	20.000	2.9722e-01
14.000	20.250	2.8186e-01
14.000	20.500	2.6903e-01
14.000	20.750	2.5883e-01
14.000	21.000	2.5195e-01
14.000	21.250	2.4919e-01
14.000	21.500	2.4721e-01
14.000	21.750	2.5258e-01
14.000	22.000	2.5282e-01
14.000	22.250	2.3898e-01
14.000	22.500	2.1132e-01
14.000	22.750	1.7905e-01
14.000	23.000	1.4863e-01
14.000	23.250	1.1971e-01
14.000	23.500	9.4395e-02
14.000	23.750	7.5667e-02
14.000	24.000	6.2501e-02
