InwT 9000.00A  relative to Inci 1215.00A scaled to 1215A.
Hden   Phi(H)  Eq_Width (A)
 7.000	17.000	5.3309e-02
 7.000	17.250	6.0744e-02
 7.000	17.500	6.5435e-02
 7.000	17.750	6.8870e-02
 7.000	18.000	6.1134e-02
 7.000	18.250	5.5749e-02
 7.000	18.500	5.2290e-02
 7.000	18.750	5.0723e-02
 7.000	19.000	5.0131e-02
 7.000	19.250	4.9787e-02
 7.000	19.500	4.9650e-02
 7.000	19.750	4.9597e-02
 7.000	20.000	4.9575e-02
 7.000	20.250	4.9564e-02
 7.000	20.500	4.9560e-02
 7.000	20.750	4.9557e-02
 7.000	21.000	4.9556e-02
 7.000	21.250	4.9555e-02
 7.000	21.500	4.9554e-02
 7.000	21.750	4.9554e-02
 7.000	22.000	4.9554e-02
 7.000	22.250	4.9554e-02
 7.000	22.500	4.9554e-02
 7.000	22.750	4.9555e-02
 7.000	23.000	4.9555e-02
 7.000	23.250	4.9555e-02
 7.000	23.500	4.9555e-02
 7.000	23.750	4.9555e-02
 7.000	24.000	4.9555e-02
 7.250	17.000	4.7293e-02
 7.250	17.250	5.4944e-02
 7.250	17.500	6.2793e-02
 7.250	17.750	6.6588e-02
 7.250	18.000	6.8848e-02
 7.250	18.250	6.1137e-02
 7.250	18.500	5.5744e-02
 7.250	18.750	5.2289e-02
 7.250	19.000	5.0724e-02
 7.250	19.250	5.0131e-02
 7.250	19.500	4.9787e-02
 7.250	19.750	4.9650e-02
 7.250	20.000	4.9597e-02
 7.250	20.250	4.9575e-02
 7.250	20.500	4.9565e-02
 7.250	20.750	4.9559e-02
 7.250	21.000	4.9557e-02
 7.250	21.250	4.9556e-02
 7.250	21.500	4.9555e-02
 7.250	21.750	4.9555e-02
 7.250	22.000	4.9554e-02
 7.250	22.250	4.9554e-02
 7.250	22.500	4.9554e-02
 7.250	22.750	4.9554e-02
 7.250	23.000	4.9554e-02
 7.250	23.250	4.9554e-02
 7.250	23.500	4.9554e-02
 7.250	23.750	4.9554e-02
 7.250	24.000	4.9554e-02
 7.500	17.000	4.2707e-02
 7.500	17.250	4.8930e-02
 7.500	17.500	5.7207e-02
 7.500	17.750	6.5581e-02
 7.500	18.000	6.7829e-02
 7.500	18.250	6.8832e-02
 7.500	18.500	6.1140e-02
 7.500	18.750	5.5738e-02
 7.500	19.000	5.2289e-02
 7.500	19.250	5.0723e-02
 7.500	19.500	5.0131e-02
 7.500	19.750	4.9787e-02
 7.500	20.000	4.9650e-02
 7.500	20.250	4.9597e-02
 7.500	20.500	4.9575e-02
 7.500	20.750	4.9565e-02
 7.500	21.000	4.9560e-02
 7.500	21.250	4.9557e-02
 7.500	21.500	4.9556e-02
 7.500	21.750	4.9555e-02
 7.500	22.000	4.9554e-02
 7.500	22.250	4.9554e-02
 7.500	22.500	4.9554e-02
 7.500	22.750	4.9554e-02
 7.500	23.000	4.9554e-02
 7.500	23.250	4.9554e-02
 7.500	23.500	4.9554e-02
 7.500	23.750	4.9554e-02
 7.500	24.000	4.9554e-02
 7.750	17.000	3.9658e-02
 7.750	17.250	4.4277e-02
 7.750	17.500	5.1405e-02
 7.750	17.750	6.0788e-02
 7.750	18.000	6.9218e-02
 7.750	18.250	6.9320e-02
 7.750	18.500	6.8816e-02
 7.750	18.750	6.1146e-02
 7.750	19.000	5.5732e-02
 7.750	19.250	5.2289e-02
 7.750	19.500	5.0724e-02
 7.750	19.750	5.0131e-02
 7.750	20.000	4.9787e-02
 7.750	20.250	4.9651e-02
 7.750	20.500	4.9597e-02
 7.750	20.750	4.9574e-02
 7.750	21.000	4.9564e-02
 7.750	21.250	4.9560e-02
 7.750	21.500	4.9557e-02
 7.750	21.750	4.9557e-02
 7.750	22.000	4.9555e-02
 7.750	22.250	4.9554e-02
 7.750	22.500	4.9554e-02
 7.750	22.750	4.9554e-02
 7.750	23.000	4.9554e-02
 7.750	23.250	4.9554e-02
 7.750	23.500	4.9554e-02
 7.750	23.750	4.9554e-02
 7.750	24.000	4.9554e-02
 8.000	17.000	3.7754e-02
 8.000	17.250	4.0751e-02
 8.000	17.500	4.6358e-02
 8.000	17.750	5.5232e-02
 8.000	18.000	6.6278e-02
 8.000	18.250	7.3896e-02
 8.000	18.500	7.1038e-02
 8.000	18.750	6.8792e-02
 8.000	19.000	6.1139e-02
 8.000	19.250	5.5723e-02
 8.000	19.500	5.2286e-02
 8.000	19.750	5.0724e-02
 8.000	20.000	5.0131e-02
 8.000	20.250	4.9787e-02
 8.000	20.500	4.9650e-02
 8.000	20.750	4.9597e-02
 8.000	21.000	4.9574e-02
 8.000	21.250	4.9564e-02
 8.000	21.500	4.9560e-02
 8.000	21.750	4.9557e-02
 8.000	22.000	4.9556e-02
 8.000	22.250	4.9555e-02
 8.000	22.500	4.9554e-02
 8.000	22.750	4.9554e-02
 8.000	23.000	4.9554e-02
 8.000	23.250	4.9554e-02
 8.000	23.500	4.9554e-02
 8.000	23.750	4.9554e-02
 8.000	24.000	4.9554e-02
 8.250	17.000	3.7395e-02
 8.250	17.250	3.9092e-02
 8.250	17.500	4.3027e-02
 8.250	17.750	5.0602e-02
 8.250	18.000	6.2561e-02
 8.250	18.250	7.5787e-02
 8.250	18.500	7.9349e-02
 8.250	18.750	7.3696e-02
 8.250	19.000	6.8782e-02
 8.250	19.250	6.1150e-02
 8.250	19.500	5.5713e-02
 8.250	19.750	5.2284e-02
 8.250	20.000	5.0724e-02
 8.250	20.250	5.0131e-02
 8.250	20.500	4.9787e-02
 8.250	20.750	4.9650e-02
 8.250	21.000	4.9597e-02
 8.250	21.250	4.9575e-02
 8.250	21.500	4.9564e-02
 8.250	21.750	4.9559e-02
 8.250	22.000	4.9557e-02
 8.250	22.250	4.9555e-02
 8.250	22.500	4.9555e-02
 8.250	22.750	4.9554e-02
 8.250	23.000	4.9554e-02
 8.250	23.250	4.9554e-02
 8.250	23.500	4.9554e-02
 8.250	23.750	4.9554e-02
 8.250	24.000	4.9554e-02
 8.500	17.000	3.7886e-02
 8.500	17.250	3.8730e-02
 8.500	17.500	4.1296e-02
 8.500	17.750	4.7238e-02
 8.500	18.000	5.8684e-02
 8.500	18.250	7.5146e-02
 8.500	18.500	8.8080e-02
 8.500	18.750	8.5787e-02
 8.500	19.000	7.5875e-02
 8.500	19.250	6.8771e-02
 8.500	19.500	6.1164e-02
 8.500	19.750	5.5701e-02
 8.500	20.000	5.2282e-02
 8.500	20.250	5.0723e-02
 8.500	20.500	5.0131e-02
 8.500	20.750	4.9787e-02
 8.500	21.000	4.9650e-02
 8.500	21.250	4.9597e-02
 8.500	21.500	4.9575e-02
 8.500	21.750	4.9565e-02
 8.500	22.000	4.9559e-02
 8.500	22.250	4.9557e-02
 8.500	22.500	4.9555e-02
 8.500	22.750	4.9555e-02
 8.500	23.000	4.9554e-02
 8.500	23.250	4.9554e-02
 8.500	23.500	4.9554e-02
 8.500	23.750	4.9554e-02
 8.500	24.000	4.9554e-02
 8.750	17.000	3.8931e-02
 8.750	17.250	3.9269e-02
 8.750	17.500	4.0986e-02
 8.750	17.750	4.5451e-02
 8.750	18.000	5.5511e-02
 8.750	18.250	7.2949e-02
 8.750	18.500	9.1042e-02
 8.750	18.750	1.0023e-01
 8.750	19.000	8.9701e-02
 8.750	19.250	7.8350e-02
 8.750	19.500	6.8753e-02
 8.750	19.750	6.1181e-02
 8.750	20.000	5.5687e-02
 8.750	20.250	5.2279e-02
 8.750	20.500	5.0723e-02
 8.750	20.750	5.0131e-02
 8.750	21.000	4.9787e-02
 8.750	21.250	4.9650e-02
 8.750	21.500	4.9597e-02
 8.750	21.750	4.9574e-02
 8.750	22.000	4.9565e-02
 8.750	22.250	4.9560e-02
 8.750	22.500	4.9557e-02
 8.750	22.750	4.9556e-02
 8.750	23.000	4.9555e-02
 8.750	23.250	4.9554e-02
 8.750	23.500	4.9554e-02
 8.750	23.750	4.9554e-02
 8.750	24.000	4.9554e-02
 9.000	17.000	4.0431e-02
 9.000	17.250	4.0413e-02
 9.000	17.500	4.1700e-02
 9.000	17.750	4.5405e-02
 9.000	18.000	5.4105e-02
 9.000	18.250	7.0611e-02
 9.000	18.500	9.1576e-02
 9.000	18.750	1.0857e-01
 9.000	19.000	1.1079e-01
 9.000	19.250	9.4769e-02
 9.000	19.500	8.0540e-02
 9.000	19.750	6.8723e-02
 9.000	20.000	6.1203e-02
 9.000	20.250	5.5672e-02
 9.000	20.500	5.2276e-02
 9.000	20.750	5.0722e-02
 9.000	21.000	5.0131e-02
 9.000	21.250	4.9787e-02
 9.000	21.500	4.9650e-02
 9.000	21.750	4.9597e-02
 9.000	22.000	4.9574e-02
 9.000	22.250	4.9564e-02
 9.000	22.500	4.9559e-02
 9.000	22.750	4.9557e-02
 9.000	23.000	4.9556e-02
 9.000	23.250	4.9555e-02
 9.000	23.500	4.9555e-02
 9.000	23.750	4.9554e-02
 9.000	24.000	4.9554e-02
 9.250	17.000	4.2366e-02
 9.250	17.250	4.2059e-02
 9.250	17.500	4.3166e-02
 9.250	17.750	4.6685e-02
 9.250	18.000	5.5092e-02
 9.250	18.250	7.0617e-02
 9.250	18.500	9.0552e-02
 9.250	18.750	1.1143e-01
 9.250	19.000	1.2337e-01
 9.250	19.250	1.2136e-01
 9.250	19.500	9.8958e-02
 9.250	19.750	8.2844e-02
 9.250	20.000	6.8679e-02
 9.250	20.250	6.1228e-02
 9.250	20.500	5.5657e-02
 9.250	20.750	5.2274e-02
 9.250	21.000	5.0723e-02
 9.250	21.250	5.0130e-02
 9.250	21.500	4.9785e-02
 9.250	21.750	4.9634e-02
 9.250	22.000	4.9535e-02
 9.250	22.250	4.9558e-02
 9.250	22.500	4.9564e-02
 9.250	22.750	4.9559e-02
 9.250	23.000	4.9557e-02
 9.250	23.250	4.9555e-02
 9.250	23.500	4.9555e-02
 9.250	23.750	4.9554e-02
 9.250	24.000	4.9554e-02
 9.500	17.000	4.4891e-02
 9.500	17.250	4.4264e-02
 9.500	17.500	4.5292e-02
 9.500	17.750	4.9058e-02
 9.500	18.000	5.8075e-02
 9.500	18.250	7.3758e-02
 9.500	18.500	9.2740e-02
 9.500	18.750	1.1178e-01
 9.500	19.000	1.2896e-01
 9.500	19.250	1.3843e-01
 9.500	19.500	1.2735e-01
 9.500	19.750	1.0246e-01
 9.500	20.000	8.3406e-02
 9.500	20.250	6.8625e-02
 9.500	20.500	6.1259e-02
 9.500	20.750	5.5641e-02
 9.500	21.000	5.2267e-02
 9.500	21.250	5.0714e-02
 9.500	21.500	5.0089e-02
 9.500	21.750	4.9712e-02
 9.500	22.000	4.9565e-02
 9.500	22.250	4.9493e-02
 9.500	22.500	4.9454e-02
 9.500	22.750	4.9434e-02
 9.500	23.000	4.9424e-02
 9.500	23.250	4.9422e-02
 9.500	23.500	4.9481e-02
 9.500	23.750	4.9479e-02
 9.500	24.000	4.9479e-02
 9.750	17.000	4.8134e-02
 9.750	17.250	4.7116e-02
 9.750	17.500	4.8070e-02
 9.750	17.750	5.2384e-02
 9.750	18.000	6.2692e-02
 9.750	18.250	7.9507e-02
 9.750	18.500	9.8160e-02
 9.750	18.750	1.1509e-01
 9.750	19.000	1.3068e-01
 9.750	19.250	1.4507e-01
 9.750	19.500	1.5438e-01
 9.750	19.750	1.3242e-01
 9.750	20.000	1.0604e-01
 9.750	20.250	8.3192e-02
 9.750	20.500	6.8561e-02
 9.750	20.750	6.1305e-02
 9.750	21.000	5.5623e-02
 9.750	21.250	5.2264e-02
 9.750	21.500	5.0719e-02
 9.750	21.750	5.0117e-02
 9.750	22.000	4.9714e-02
 9.750	22.250	4.9572e-02
 9.750	22.500	4.9507e-02
 9.750	22.750	4.9472e-02
 9.750	23.000	4.9452e-02
 9.750	23.250	4.9441e-02
 9.750	23.500	4.9436e-02
 9.750	23.750	4.9432e-02
 9.750	24.000	4.9430e-02
10.000	17.000	5.2399e-02
10.000	17.250	5.0831e-02
10.000	17.500	5.1727e-02
10.000	17.750	5.6842e-02
10.000	18.000	6.8860e-02
10.000	18.250	8.6620e-02
10.000	18.500	1.0510e-01
10.000	18.750	1.2042e-01
10.000	19.000	1.3393e-01
10.000	19.250	1.4724e-01
10.000	19.500	1.6243e-01
10.000	19.750	1.6273e-01
10.000	20.000	1.3758e-01
10.000	20.250	1.0886e-01
10.000	20.500	8.2975e-02
10.000	20.750	6.8533e-02
10.000	21.000	6.1364e-02
10.000	21.250	5.5603e-02
10.000	21.500	5.2260e-02
10.000	21.750	5.0720e-02
10.000	22.000	5.0126e-02
10.000	22.250	4.9727e-02
10.000	22.500	4.9576e-02
10.000	22.750	4.9516e-02
10.000	23.000	4.9485e-02
10.000	23.250	4.9469e-02
10.000	23.500	4.9458e-02
10.000	23.750	4.9454e-02
10.000	24.000	4.9450e-02
10.250	17.000	5.8095e-02
10.250	17.250	5.5660e-02
10.250	17.500	5.6602e-02
10.250	17.750	6.2791e-02
10.250	18.000	7.6431e-02
10.250	18.250	9.5167e-02
10.250	18.500	1.1321e-01
10.250	18.750	1.2674e-01
10.250	19.000	1.3810e-01
10.250	19.250	1.4999e-01
10.250	19.500	1.6363e-01
10.250	19.750	1.7777e-01
10.250	20.000	1.6811e-01
10.250	20.250	1.4226e-01
10.250	20.500	1.0963e-01
10.250	20.750	8.2802e-02
10.250	21.000	6.8550e-02
10.250	21.250	6.1436e-02
10.250	21.500	5.5582e-02
10.250	21.750	5.2254e-02
10.250	22.000	5.0719e-02
10.250	22.250	5.0128e-02
10.250	22.500	4.9762e-02
10.250	22.750	4.9578e-02
10.250	23.000	4.9521e-02
10.250	23.250	4.9494e-02
10.250	23.500	4.9480e-02
10.250	23.750	4.9471e-02
10.250	24.000	4.9467e-02
10.500	17.000	6.5940e-02
10.500	17.250	6.2328e-02
10.500	17.500	6.3221e-02
10.500	17.750	7.0705e-02
10.500	18.000	8.5637e-02
10.500	18.250	1.0448e-01
10.500	18.500	1.2131e-01
10.500	18.750	1.3314e-01
10.500	19.000	1.4319e-01
10.500	19.250	1.5265e-01
10.500	19.500	1.6320e-01
10.500	19.750	1.7647e-01
10.500	20.000	1.8735e-01
10.500	20.250	1.7489e-01
10.500	20.500	1.4789e-01
10.500	20.750	1.0966e-01
10.500	21.000	8.2632e-02
10.500	21.250	6.8693e-02
10.500	21.500	6.1513e-02
10.500	21.750	5.5551e-02
10.500	22.000	5.2246e-02
10.500	22.250	5.0718e-02
10.500	22.500	5.0128e-02
10.500	22.750	4.9778e-02
10.500	23.000	4.9589e-02
10.500	23.250	4.9523e-02
10.500	23.500	4.9499e-02
10.500	23.750	4.9486e-02
10.500	24.000	4.9479e-02
10.750	17.000	7.6540e-02
10.750	17.250	7.1250e-02
10.750	17.500	7.2132e-02
10.750	17.750	8.0655e-02
10.750	18.000	9.6303e-02
10.750	18.250	1.1500e-01
10.750	18.500	1.2997e-01
10.750	18.750	1.4076e-01
10.750	19.000	1.4912e-01
10.750	19.250	1.5757e-01
10.750	19.500	1.6549e-01
10.750	19.750	1.7526e-01
10.750	20.000	1.8791e-01
10.750	20.250	1.9721e-01
10.750	20.500	1.8294e-01
10.750	20.750	1.5309e-01
10.750	21.000	1.0900e-01
10.750	21.250	8.2452e-02
10.750	21.500	6.9148e-02
10.750	21.750	6.1495e-02
10.750	22.000	5.5507e-02
10.750	22.250	5.2236e-02
10.750	22.500	5.0714e-02
10.750	22.750	5.0126e-02
10.750	23.000	4.9783e-02
10.750	23.250	4.9624e-02
10.750	23.500	4.9527e-02
10.750	23.750	4.9501e-02
10.750	24.000	4.9490e-02
11.000	17.000	9.0233e-02
11.000	17.250	8.2980e-02
11.000	17.500	8.3469e-02
11.000	17.750	9.2500e-02
11.000	18.000	1.0817e-01
11.000	18.250	1.2586e-01
11.000	18.500	1.3866e-01
11.000	18.750	1.4845e-01
11.000	19.000	1.5602e-01
11.000	19.250	1.6290e-01
11.000	19.500	1.6926e-01
11.000	19.750	1.7645e-01
11.000	20.000	1.8605e-01
11.000	20.250	1.9894e-01
11.000	20.500	2.0778e-01
11.000	20.750	1.9175e-01
11.000	21.000	1.5671e-01
11.000	21.250	1.0840e-01
11.000	21.500	8.2675e-02
11.000	21.750	6.9936e-02
11.000	22.000	6.1350e-02
11.000	22.250	5.5444e-02
11.000	22.500	5.2221e-02
11.000	22.750	5.0709e-02
11.000	23.000	5.0123e-02
11.000	23.250	4.9784e-02
11.000	23.500	4.9641e-02
11.000	23.750	4.9552e-02
11.000	24.000	4.9507e-02
11.250	17.000	1.0826e-01
11.250	17.250	9.7654e-02
11.250	17.500	9.7222e-02
11.250	17.750	1.0611e-01
11.250	18.000	1.2140e-01
11.250	18.250	1.3767e-01
11.250	18.500	1.4858e-01
11.250	18.750	1.5747e-01
11.250	19.000	1.6408e-01
11.250	19.250	1.6927e-01
11.250	19.500	1.7407e-01
11.250	19.750	1.7943e-01
11.250	20.000	1.8654e-01
11.250	20.250	1.9652e-01
11.250	20.500	2.1002e-01
11.250	20.750	2.1891e-01
11.250	21.000	2.0015e-01
11.250	21.250	1.5646e-01
11.250	21.500	1.0833e-01
11.250	21.750	8.3118e-02
11.250	22.000	7.0750e-02
11.250	22.250	6.1106e-02
11.250	22.500	5.5358e-02
11.250	22.750	5.2197e-02
11.250	23.000	5.0700e-02
11.250	23.250	5.0118e-02
11.250	23.500	4.9783e-02
11.250	23.750	4.9646e-02
11.250	24.000	4.9582e-02
11.500	17.000	1.3276e-01
11.500	17.250	1.1687e-01
11.500	17.500	1.1358e-01
11.500	17.750	1.2147e-01
11.500	18.000	1.3606e-01
11.500	18.250	1.5067e-01
11.500	18.500	1.5982e-01
11.500	18.750	1.6683e-01
11.500	19.000	1.7201e-01
11.500	19.250	1.7603e-01
11.500	19.500	1.7978e-01
11.500	19.750	1.8375e-01
11.500	20.000	1.8878e-01
11.500	20.250	1.9616e-01
11.500	20.500	2.0696e-01
11.500	20.750	2.2095e-01
11.500	21.000	2.2958e-01
11.500	21.250	2.0682e-01
11.500	21.500	1.5550e-01
11.500	21.750	1.0808e-01
11.500	22.000	8.3811e-02
11.500	22.250	7.1146e-02
11.500	22.500	6.0800e-02
11.500	22.750	5.5235e-02
11.500	23.000	5.2164e-02
11.500	23.250	5.0686e-02
11.500	23.500	5.0111e-02
11.500	23.750	4.9781e-02
11.500	24.000	4.9647e-02
11.750	17.000	1.6559e-01
11.750	17.250	1.4284e-01
11.750	17.500	1.3426e-01
11.750	17.750	1.3913e-01
11.750	18.000	1.5214e-01
11.750	18.250	1.6473e-01
11.750	18.500	1.7226e-01
11.750	18.750	1.7810e-01
11.750	19.000	1.8204e-01
11.750	19.250	1.8471e-01
11.750	19.500	1.8669e-01
11.750	19.750	1.8930e-01
11.750	20.000	1.9275e-01
11.750	20.250	1.9768e-01
11.750	20.500	2.0543e-01
11.750	20.750	2.1727e-01
11.750	21.000	2.3066e-01
11.750	21.250	2.3815e-01
11.750	21.500	2.0976e-01
11.750	21.750	1.5285e-01
11.750	22.000	1.0763e-01
11.750	22.250	8.4498e-02
11.750	22.500	7.0639e-02
11.750	22.750	6.0379e-02
11.750	23.000	5.5056e-02
11.750	23.250	5.2114e-02
11.750	23.500	5.0664e-02
11.750	23.750	5.0099e-02
11.750	24.000	4.9778e-02
12.000	17.000	1.7678e-01
12.000	17.250	1.7791e-01
12.000	17.500	1.6164e-01
12.000	17.750	1.6061e-01
12.000	18.000	1.6983e-01
12.000	18.250	1.8004e-01
12.000	18.500	1.8695e-01
12.000	18.750	1.9124e-01
12.000	19.000	1.9375e-01
12.000	19.250	1.9492e-01
12.000	19.500	1.9522e-01
12.000	19.750	1.9620e-01
12.000	20.000	1.9794e-01
12.000	20.250	2.0093e-01
12.000	20.500	2.0599e-01
12.000	20.750	2.1481e-01
12.000	21.000	2.2681e-01
12.000	21.250	2.3877e-01
12.000	21.500	2.4019e-01
12.000	21.750	2.0908e-01
12.000	22.000	1.4912e-01
12.000	22.250	1.0704e-01
12.000	22.500	8.4690e-02
12.000	22.750	6.9662e-02
12.000	23.000	5.9837e-02
12.000	23.250	5.4788e-02
12.000	23.500	5.2040e-02
12.000	23.750	5.0630e-02
12.000	24.000	5.0080e-02
12.250	17.000	1.5267e-01
12.250	17.250	1.9891e-01
12.250	17.500	1.9893e-01
12.250	17.750	1.8882e-01
12.250	18.000	1.9125e-01
12.250	18.250	1.9902e-01
12.250	18.500	2.0368e-01
12.250	18.750	2.0612e-01
12.250	19.000	2.0714e-01
12.250	19.250	2.0671e-01
12.250	19.500	2.0555e-01
12.250	19.750	2.0459e-01
12.250	20.000	2.0423e-01
12.250	20.250	2.0529e-01
12.250	20.500	2.0834e-01
12.250	20.750	2.1440e-01
12.250	21.000	2.2414e-01
12.250	21.250	2.3580e-01
12.250	21.500	2.4085e-01
12.250	21.750	2.4115e-01
12.250	22.000	2.0346e-01
12.250	22.250	1.4447e-01
12.250	22.500	1.0670e-01
12.250	22.750	8.4000e-02
12.250	23.000	6.8279e-02
12.250	23.250	5.9092e-02
12.250	23.500	5.4389e-02
12.250	23.750	5.1924e-02
12.250	24.000	5.0581e-02
12.500	17.000	1.3554e-01
12.500	17.250	1.7107e-01
12.500	17.500	2.2185e-01
12.500	17.750	2.2636e-01
12.500	18.000	2.2036e-01
12.500	18.250	2.2086e-01
12.500	18.500	2.2269e-01
12.500	18.750	2.2411e-01
12.500	19.000	2.2339e-01
12.500	19.250	2.2043e-01
12.500	19.500	2.1717e-01
12.500	19.750	2.1415e-01
12.500	20.000	2.1186e-01
12.500	20.250	2.1079e-01
12.500	20.500	2.1181e-01
12.500	20.750	2.1579e-01
12.500	21.000	2.2317e-01
12.500	21.250	2.3362e-01
12.500	21.500	2.3940e-01
12.500	21.750	2.4355e-01
12.500	22.000	2.3601e-01
12.500	22.250	1.9196e-01
12.500	22.500	1.4062e-01
12.500	22.750	1.0462e-01
12.500	23.000	8.1654e-02
12.500	23.250	6.6453e-02
12.500	23.500	5.8060e-02
12.500	23.750	5.3797e-02
12.500	24.000	5.1741e-02
12.750	17.000	1.2244e-01
12.750	17.250	1.4861e-01
12.750	17.500	1.8693e-01
12.750	17.750	2.3947e-01
12.750	18.000	2.5228e-01
12.750	18.250	2.4650e-01
12.750	18.500	2.4498e-01
12.750	18.750	2.4313e-01
12.750	19.000	2.4043e-01
12.750	19.250	2.3597e-01
12.750	19.500	2.3064e-01
12.750	19.750	2.2516e-01
12.750	20.000	2.2070e-01
12.750	20.250	2.1788e-01
12.750	20.500	2.1678e-01
12.750	20.750	2.1845e-01
12.750	21.000	2.2430e-01
12.750	21.250	2.3306e-01
12.750	21.500	2.3923e-01
12.750	21.750	2.4501e-01
12.750	22.000	2.4108e-01
12.750	22.250	2.2377e-01
12.750	22.500	1.7840e-01
12.750	22.750	1.3244e-01
12.750	23.000	9.9532e-02
12.750	23.250	7.7751e-02
12.750	23.500	6.4059e-02
12.750	23.750	5.6611e-02
12.750	24.000	5.2911e-02
13.000	17.000	6.8619e-02
13.000	17.250	8.8743e-02
13.000	17.500	1.2941e-01
13.000	17.750	1.8384e-01
13.000	18.000	2.3201e-01
13.000	18.250	2.5060e-01
13.000	18.500	2.6059e-01
13.000	18.750	2.6402e-01
13.000	19.000	2.5858e-01
13.000	19.250	2.5312e-01
13.000	19.500	2.4578e-01
13.000	19.750	2.3813e-01
13.000	20.000	2.3115e-01
13.000	20.250	2.2624e-01
13.000	20.500	2.2355e-01
13.000	20.750	2.2332e-01
13.000	21.000	2.2665e-01
13.000	21.250	2.3399e-01
13.000	21.500	2.4051e-01
13.000	21.750	2.4749e-01
13.000	22.000	2.4523e-01
13.000	22.250	2.2945e-01
13.000	22.500	2.0255e-01
13.000	22.750	1.5937e-01
13.000	23.000	1.1944e-01
13.000	23.250	9.1236e-02
13.000	23.500	7.2660e-02
13.000	23.750	6.0885e-02
13.000	24.000	5.4576e-02
13.250	17.000	6.8776e-02
13.250	17.250	7.8907e-02
13.250	17.500	1.0151e-01
13.250	17.750	1.3819e-01
13.250	18.000	1.9306e-01
13.250	18.250	2.4619e-01
13.250	18.500	2.7174e-01
13.250	18.750	2.7652e-01
13.250	19.000	2.8007e-01
13.250	19.250	2.6915e-01
13.250	19.500	2.6204e-01
13.250	19.750	2.5253e-01
13.250	20.000	2.4316e-01
13.250	20.250	2.3610e-01
13.250	20.500	2.3110e-01
13.250	20.750	2.2923e-01
13.250	21.000	2.3053e-01
13.250	21.250	2.3608e-01
13.250	21.500	2.4059e-01
13.250	21.750	2.4852e-01
13.250	22.000	2.4787e-01
13.250	22.250	2.3185e-01
13.250	22.500	2.0351e-01
13.250	22.750	1.7322e-01
13.250	23.000	1.3467e-01
13.250	23.250	1.0279e-01
13.250	23.500	8.0849e-02
13.250	23.750	6.6288e-02
13.250	24.000	5.6767e-02
13.500	17.000	6.9190e-02
13.500	17.250	8.0110e-02
13.500	17.500	9.8796e-02
13.500	17.750	1.2450e-01
13.500	18.000	1.7009e-01
13.500	18.250	2.2086e-01
13.500	18.500	2.6901e-01
13.500	18.750	2.9383e-01
13.500	19.000	2.9676e-01
13.500	19.250	2.9185e-01
13.500	19.500	2.8015e-01
13.500	19.750	2.6820e-01
13.500	20.000	2.5700e-01
13.500	20.250	2.4826e-01
13.500	20.500	2.4060e-01
13.500	20.750	2.3603e-01
13.500	21.000	2.3410e-01
13.500	21.250	2.3808e-01
13.500	21.500	2.4052e-01
13.500	21.750	2.4730e-01
13.500	22.000	2.4742e-01
13.500	22.250	2.3007e-01
13.500	22.500	2.0088e-01
13.500	22.750	1.6843e-01
13.500	23.000	1.3715e-01
13.500	23.250	1.0931e-01
13.500	23.500	8.5775e-02
13.500	23.750	6.9817e-02
13.500	24.000	5.8761e-02
13.750	17.000	6.9257e-02
13.750	17.250	7.9741e-02
13.750	17.500	9.7624e-02
13.750	17.750	1.1865e-01
13.750	18.000	1.5620e-01
13.750	18.250	2.0208e-01
13.750	18.500	2.4516e-01
13.750	18.750	2.8545e-01
13.750	19.000	3.1683e-01
13.750	19.250	3.1460e-01
13.750	19.500	2.9740e-01
13.750	19.750	2.8685e-01
13.750	20.000	2.7390e-01
13.750	20.250	2.6245e-01
13.750	20.500	2.5296e-01
13.750	20.750	2.4584e-01
13.750	21.000	2.4182e-01
13.750	21.250	2.4132e-01
13.750	21.500	2.4236e-01
13.750	21.750	2.4770e-01
13.750	22.000	2.4578e-01
13.750	22.250	2.2849e-01
13.750	22.500	1.9756e-01
13.750	22.750	1.6404e-01
13.750	23.000	1.3304e-01
13.750	23.250	1.0600e-01
13.750	23.500	8.4600e-02
13.750	23.750	6.9465e-02
13.750	24.000	5.8044e-02
14.000	17.000	6.9741e-02
14.000	17.250	7.9811e-02
14.000	17.500	9.8584e-02
14.000	17.750	1.1839e-01
14.000	18.000	1.4646e-01
14.000	18.250	1.8784e-01
14.000	18.500	2.2884e-01
14.000	18.750	2.6620e-01
14.000	19.000	3.0236e-01
14.000	19.250	3.3362e-01
14.000	19.500	3.2520e-01
14.000	19.750	3.0954e-01
14.000	20.000	2.9405e-01
14.000	20.250	2.7986e-01
14.000	20.500	2.6816e-01
14.000	20.750	2.5886e-01
14.000	21.000	2.5252e-01
14.000	21.250	2.4978e-01
14.000	21.500	2.4800e-01
14.000	21.750	2.5158e-01
14.000	22.000	2.4797e-01
14.000	22.250	2.2889e-01
14.000	22.500	1.9570e-01
14.000	22.750	1.6168e-01
14.000	23.000	1.3119e-01
14.000	23.250	1.0254e-01
14.000	23.500	7.9771e-02
14.000	23.750	6.3287e-02
14.000	24.000	5.1833e-02
